Data from Uncirc_2005_H10_HRD10591_00062.txt Node
Date: Wed Jan 03 10:28:37 EST 2024
User: Yrep
Spectrometer: HR+D1059
Trigger mode: 1
Integration Time (sec): 1.000000E-1
Scans to average: 1
Electric dark correction enabled: true
Nonlinearity correction enabled: false
Boxcar width: 0
XAxis mode: Wavelengths
Number of Pixels in Spectrum: 2048
>>>>>Begin Spectral Data<<<<<
223.165	-25.81
223.4	-25.81
223.635	-25.81
223.869	-8.81
224.104	-15.81
224.338	-21.81
224.573	-7.81
224.808	-5.81
225.042	-7.81
225.277	-13.81
225.511	-10.81
225.746	6.19
225.98	5.19
226.215	9.19
226.449	18.19
226.683	21.19
226.918	38.19
227.152	20.19
227.387	26.19
227.621	34.19
227.856	26.19
228.09	39.19
228.324	46.19
228.559	40.19
228.793	72.19
229.027	69.19
229.262	62.19
229.496	75.19
229.73	64.19
229.964	70.19
230.199	56.19
230.433	64.19
230.667	64.19
230.901	74.19
231.136	70.19
231.37	60.19
231.604	79.19
231.838	84.19
232.072	81.19
232.306	68.19
232.541	73.19
232.775	63.19
233.009	75.19
233.243	67.19
233.477	74.19
233.711	66.19
233.945	60.19
234.179	57.19
234.413	77.19
234.647	75.19
234.881	73.19
235.115	74.19
235.349	84.19
235.583	69.19
235.817	73.19
236.051	76.19
236.285	77.19
236.519	87.19
236.753	67.19
236.987	75.19
237.221	74.19
237.455	86.19
237.689	61.19
237.922	59.19
238.156	68.19
238.39	78.19
238.624	74.19
238.858	60.19
239.091	71.19
239.325	80.19
239.559	80.19
239.793	74.19
240.027	72.19
240.26	84.19
240.494	66.19
240.728	73.19
240.961	68.19
241.195	64.19
241.429	80.19
241.662	66.19
241.896	74.19
242.13	61.19
242.363	75.19
242.597	76.19
242.83	71.19
243.064	86.19
243.298	67.19
243.531	81.19
243.765	71.19
243.998	70.19
244.232	47.19
244.465	78.19
244.699	86.19
244.932	78.19
245.166	69.19
245.399	77.19
245.633	79.19
245.866	89.19
246.099	79.19
246.333	68.19
246.566	66.19
246.8	70.19
247.033	74.19
247.266	77.19
247.5	82.19
247.733	67.19
247.966	64.19
248.2	58.19
248.433	87.19
248.666	74.19
248.899	80.19
249.133	81.19
249.366	99.19
249.599	85.19
249.832	87.19
250.066	77.19
250.299	72.19
250.532	76.19
250.765	73.19
250.998	86.19
251.231	74.19
251.465	76.19
251.698	72.19
251.931	69.19
252.164	75.19
252.397	52.19
252.63	70.19
252.863	94.19
253.096	76.19
253.329	74.19
253.562	93.19
253.795	74.19
254.028	58.19
254.261	56.19
254.494	74.19
254.727	86.19
254.96	78.19
255.193	72.19
255.426	88.19
255.659	81.19
255.892	67.19
256.124	65.19
256.357	75.19
256.59	74.19
256.823	78.19
257.056	92.19
257.289	70.19
257.521	79.19
257.754	74.19
257.987	81.19
258.22	79.19
258.452	80.19
258.685	74.19
258.918	74.19
259.151	81.19
259.383	69.19
259.616	74.19
259.849	76.19
260.081	83.19
260.314	74.19
260.547	73.19
260.779	78.19
261.012	79.19
261.244	75.19
261.477	80.19
261.71	90.19
261.942	108.19
262.175	100.19
262.407	77.19
262.64	79.19
262.872	74.19
263.105	86.19
263.337	62.19
263.57	83.19
263.802	78.19
264.035	84.19
264.267	73.19
264.499	81.19
264.732	84.19
264.964	72.19
265.197	69.19
265.429	78.19
265.661	63.19
265.894	70.19
266.126	73.19
266.358	79.19
266.591	78.19
266.823	73.19
267.055	82.19
267.287	86.19
267.52	73.19
267.752	78.19
267.984	78.19
268.216	94.19
268.448	72.19
268.681	94.19
268.913	87.19
269.145	90.19
269.377	81.19
269.609	72.19
269.841	73.19
270.073	84.19
270.306	81.19
270.538	81.19
270.77	76.19
271.002	71.19
271.234	64.19
271.466	78.19
271.698	73.19
271.93	66.19
272.162	72.19
272.394	82.19
272.626	78.19
272.858	84.19
273.09	76.19
273.322	89.19
273.553	79.19
273.785	73.19
274.017	71.19
274.249	76.19
274.481	80.19
274.713	72.19
274.945	77.19
275.176	87.19
275.408	76.19
275.64	74.19
275.872	65.19
276.104	90.19
276.335	86.19
276.567	88.19
276.799	99.19
277.031	87.19
277.262	85.19
277.494	75.19
277.726	84.19
277.957	93.19
278.189	78.19
278.421	74.19
278.652	79.19
278.884	76.19
279.115	77.19
279.347	90.19
279.579	81.19
279.81	81.19
280.042	82.19
280.273	92.19
280.505	84.19
280.736	72.19
280.968	88.19
281.199	74.19
281.431	73.19
281.662	73.19
281.894	90.19
282.125	92.19
282.356	113.19
282.588	111.19
282.819	110.19
283.051	80.19
283.282	94.19
283.513	82.19
283.745	89.19
283.976	73.19
284.207	79.19
284.439	71.19
284.67	83.19
284.901	78.19
285.132	68.19
285.364	88.19
285.595	76.19
285.826	82.19
286.057	103.19
286.288	88.19
286.52	77.19
286.751	85.19
286.982	88.19
287.213	74.19
287.444	74.19
287.675	98.19
287.906	98.19
288.138	79.19
288.369	87.19
288.6	80.19
288.831	91.19
289.062	89.19
289.293	93.19
289.524	93.19
289.755	76.19
289.986	96.19
290.217	89.19
290.448	94.19
290.679	84.19
290.91	83.19
291.141	72.19
291.371	75.19
291.602	75.19
291.833	75.19
292.064	88.19
292.295	88.19
292.526	60.19
292.757	114.19
292.987	97.19
293.218	91.19
293.449	76.19
293.68	79.19
293.91	79.19
294.141	103.19
294.372	83.19
294.603	89.19
294.833	94.19
295.064	78.19
295.295	78.19
295.525	93.19
295.756	92.19
295.987	86.19
296.217	117.19
296.448	97.19
296.679	84.19
296.909	81.19
297.14	82.19
297.37	82.19
297.601	79.19
297.831	83.19
298.062	78.19
298.292	68.19
298.523	81.19
298.753	98.19
298.984	78.19
299.214	84.19
299.445	92.19
299.675	81.19
299.905	94.19
300.136	75.19
300.366	83.19
300.597	82.19
300.827	85.19
301.057	83.19
301.288	111.19
301.518	79.19
301.748	91.19
301.979	92.19
302.209	77.19
302.439	68.19
302.669	79.19
302.9	88.19
303.13	81.19
303.36	74.19
303.59	99.19
303.82	90.19
304.051	83.19
304.281	86.19
304.511	83.19
304.741	78.19
304.971	95.19
305.201	76.19
305.431	89.19
305.661	93.19
305.891	87.19
306.121	76.19
306.352	94.19
306.582	87.19
306.812	72.19
307.042	83.19
307.272	77.19
307.502	84.19
307.731	86.19
307.961	89.19
308.191	79.19
308.421	80.19
308.651	80.19
308.881	90.19
309.111	99.19
309.341	81.19
309.571	92.19
309.8	91.19
310.03	83.19
310.26	90.19
310.49	83.19
310.72	92.19
310.949	103.19
311.179	91.19
311.409	78.19
311.639	84.19
311.868	74.19
312.098	79.19
312.328	67.19
312.557	104.19
312.787	91.19
313.017	93.19
313.246	105.19
313.476	82.19
313.706	88.19
313.935	85.19
314.165	95.19
314.394	92.19
314.624	74.19
314.853	79.19
315.083	91.19
315.312	93.19
315.542	89.19
315.771	94.19
316.001	78.19
316.23	84.19
316.46	94.19
316.689	74.19
316.919	80.19
317.148	78.19
317.377	84.19
317.607	93.19
317.836	85.19
318.065	88.19
318.295	83.19
318.524	78.19
318.753	91.19
318.983	96.19
319.212	87.19
319.441	104.19
319.67	92.19
319.9	91.19
320.129	99.19
320.358	100.19
320.587	93.19
320.816	90.19
321.046	97.19
321.275	93.19
321.504	89.19
321.733	97.19
321.962	100.19
322.191	78.19
322.42	108.19
322.649	118.19
322.878	103.19
323.108	103.19
323.337	111.19
323.566	106.19
323.795	153.19
324.024	194.19
324.253	401.19
324.482	850.19
324.71	1767.19
324.939	2336.19
325.168	852.19
325.397	248.19
325.626	150.19
325.855	124.19
326.084	120.19
326.313	112.19
326.542	158.19
326.77	226.19
326.999	484.19
327.228	975.19
327.457	1822.19
327.686	1403.19
327.914	382.19
328.143	179.19
328.372	136.19
328.6	113.19
328.829	107.19
329.058	112.19
329.287	130.19
329.515	106.19
329.744	92.19
329.972	99.19
330.201	87.19
330.43	102.19
330.658	100.19
330.887	142.19
331.115	103.19
331.344	96.19
331.572	91.19
331.801	101.19
332.03	84.19
332.258	75.19
332.486	90.19
332.715	87.19
332.943	81.19
333.172	94.19
333.4	80.19
333.629	105.19
333.857	100.19
334.085	106.19
334.314	94.19
334.542	101.19
334.771	100.19
334.999	88.19
335.227	97.19
335.455	98.19
335.684	78.19
335.912	98.19
336.14	91.19
336.369	94.19
336.597	88.19
336.825	88.19
337.053	97.19
337.281	78.19
337.51	86.19
337.738	80.19
337.966	90.19
338.194	103.19
338.422	81.19
338.65	97.19
338.878	84.19
339.106	86.19
339.334	82.19
339.562	90.19
339.79	88.19
340.018	80.19
340.246	90.19
340.474	87.19
340.702	94.19
340.93	80.19
341.158	94.19
341.386	83.19
341.614	83.19
341.842	82.19
342.07	82.19
342.298	94.19
342.526	80.19
342.754	93.19
342.981	92.19
343.209	90.19
343.437	91.19
343.665	85.19
343.893	92.19
344.12	98.19
344.348	96.19
344.576	86.19
344.804	89.19
345.031	91.19
345.259	92.19
345.487	82.19
345.714	93.19
345.942	97.19
346.17	91.19
346.397	80.19
346.625	80.19
346.853	91.19
347.08	90.19
347.308	88.19
347.535	93.19
347.763	93.19
347.99	80.19
348.218	86.19
348.445	104.19
348.673	91.19
348.9	90.19
349.128	93.19
349.355	89.19
349.583	93.19
349.81	81.19
350.037	96.19
350.265	83.19
350.492	84.19
350.72	110.19
350.947	98.19
351.174	99.19
351.402	96.19
351.629	92.19
351.856	86.19
352.083	92.19
352.311	101.19
352.538	105.19
352.765	122.19
352.992	103.19
353.22	99.19
353.447	90.19
353.674	101.19
353.901	90.19
354.128	89.19
354.355	92.19
354.583	78.19
354.81	99.19
355.037	92.19
355.264	89.19
355.491	95.19
355.718	91.19
355.945	90.19
356.172	97.19
356.399	91.19
356.626	94.19
356.853	102.19
357.08	79.19
357.307	98.19
357.534	87.19
357.761	88.19
357.988	84.19
358.215	73.19
358.441	86.19
358.668	81.19
358.895	97.19
359.122	95.19
359.349	80.19
359.576	88.19
359.802	83.19
360.029	92.19
360.256	96.19
360.483	97.19
360.709	74.19
360.936	100.19
361.163	82.19
361.39	89.19
361.616	83.19
361.843	90.19
362.07	89.19
362.296	88.19
362.523	83.19
362.749	91.19
362.976	85.19
363.203	92.19
363.429	84.19
363.656	95.19
363.882	67.19
364.109	76.19
364.335	87.19
364.562	85.19
364.788	68.19
365.015	103.19
365.241	90.19
365.468	100.19
365.694	102.19
365.92	94.19
366.147	81.19
366.373	93.19
366.599	77.19
366.826	68.19
367.052	91.19
367.278	84.19
367.505	79.19
367.731	106.19
367.957	100.19
368.184	82.19
368.41	104.19
368.636	103.19
368.862	115.19
369.089	102.19
369.315	95.19
369.541	89.19
369.767	91.19
369.993	84.19
370.219	100.19
370.445	86.19
370.672	83.19
370.898	86.19
371.124	93.19
371.35	86.19
371.576	92.19
371.802	89.19
372.028	87.19
372.254	78.19
372.48	89.19
372.706	83.19
372.932	83.19
373.158	75.19
373.384	80.19
373.61	92.19
373.835	84.19
374.061	74.19
374.287	98.19
374.513	91.19
374.739	84.19
374.965	79.19
375.191	95.19
375.416	83.19
375.642	83.19
375.868	90.19
376.094	89.19
376.319	87.19
376.545	73.19
376.771	88.19
376.997	92.19
377.222	86.19
377.448	99.19
377.674	86.19
377.899	92.19
378.125	84.19
378.35	96.19
378.576	84.19
378.802	85.19
379.027	90.19
379.253	73.19
379.478	98.19
379.704	76.19
379.929	73.19
380.155	95.19
380.38	88.19
380.606	88.19
380.831	95.19
381.057	86.19
381.282	95.19
381.507	103.19
381.733	97.19
381.958	93.19
382.184	95.19
382.409	99.19
382.634	105.19
382.86	87.19
383.085	97.19
383.31	91.19
383.535	78.19
383.761	87.19
383.986	88.19
384.211	95.19
384.436	103.19
384.662	115.19
384.887	105.19
385.112	101.19
385.337	99.19
385.562	106.19
385.787	107.19
386.013	96.19
386.238	93.19
386.463	98.19
386.688	117.19
386.913	86.19
387.138	106.19
387.363	102.19
387.588	95.19
387.813	88.19
388.038	104.19
388.263	112.19
388.488	91.19
388.713	96.19
388.938	83.19
389.163	94.19
389.387	104.19
389.612	85.19
389.837	85.19
390.062	90.19
390.287	90.19
390.512	81.19
390.736	104.19
390.961	88.19
391.186	96.19
391.411	85.19
391.636	87.19
391.86	76.19
392.085	75.19
392.31	88.19
392.534	86.19
392.759	95.19
392.984	71.19
393.208	86.19
393.433	87.19
393.658	93.19
393.882	86.19
394.107	91.19
394.331	82.19
394.556	80.19
394.78	83.19
395.005	94.19
395.229	90.19
395.454	93.19
395.678	79.19
395.903	89.19
396.127	94.19
396.352	76.19
396.576	84.19
396.801	88.19
397.025	82.19
397.249	86.19
397.474	82.19
397.698	75.19
397.922	85.19
398.147	99.19
398.371	92.19
398.595	81.19
398.82	93.19
399.044	73.19
399.268	80.19
399.492	95.19
399.717	86.19
399.941	80.19
400.165	101.19
400.389	92.19
400.613	64.19
400.837	95.19
401.062	91.19
401.286	84.19
401.51	97.19
401.734	106.19
401.958	92.19
402.182	127.19
402.406	139.19
402.63	113.19
402.854	92.19
403.078	94.19
403.302	89.19
403.526	91.19
403.75	87.19
403.974	89.19
404.198	96.19
404.422	74.19
404.645	82.19
404.869	95.19
405.093	100.19
405.317	81.19
405.541	82.19
405.765	76.19
405.988	96.19
406.212	166.19
406.436	187.19
406.66	130.19
406.883	98.19
407.107	94.19
407.331	92.19
407.555	103.19
407.778	104.19
408.002	96.19
408.226	83.19
408.449	81.19
408.673	83.19
408.896	84.19
409.12	98.19
409.344	80.19
409.567	97.19
409.791	79.19
410.014	89.19
410.238	88.19
410.461	88.19
410.685	88.19
410.908	84.19
411.132	102.19
411.355	81.19
411.578	82.19
411.802	87.19
412.025	88.19
412.249	78.19
412.472	79.19
412.695	94.19
412.919	80.19
413.142	89.19
413.365	68.19
413.589	92.19
413.812	80.19
414.035	84.19
414.258	83.19
414.482	86.19
414.705	95.19
414.928	83.19
415.151	93.19
415.374	102.19
415.597	104.19
415.821	95.19
416.044	77.19
416.267	95.19
416.49	94.19
416.713	89.19
416.936	82.19
417.159	78.19
417.382	78.19
417.605	97.19
417.828	90.19
418.051	97.19
418.274	81.19
418.497	79.19
418.72	72.19
418.943	87.19
419.166	78.19
419.389	79.19
419.611	94.19
419.834	86.19
420.057	80.19
420.28	92.19
420.503	87.19
420.726	76.19
420.948	82.19
421.171	83.19
421.394	84.19
421.617	85.19
421.839	68.19
422.062	97.19
422.285	80.19
422.507	105.19
422.73	96.19
422.953	88.19
423.175	80.19
423.398	98.19
423.621	93.19
423.843	84.19
424.066	72.19
424.288	92.19
424.511	84.19
424.733	96.19
424.956	99.19
425.178	100.19
425.401	102.19
425.623	104.19
425.846	88.19
426.068	84.19
426.291	95.19
426.513	74.19
426.735	80.19
426.958	96.19
427.18	111.19
427.402	138.19
427.625	173.19
427.847	122.19
428.069	107.19
428.292	92.19
428.514	94.19
428.736	88.19
428.958	97.19
429.181	68.19
429.403	89.19
429.625	96.19
429.847	91.19
430.069	97.19
430.292	86.19
430.514	71.19
430.736	80.19
430.958	87.19
431.18	80.19
431.402	74.19
431.624	82.19
431.846	85.19
432.068	65.19
432.29	81.19
432.512	79.19
432.734	76.19
432.956	92.19
433.178	86.19
433.4	101.19
433.622	93.19
433.844	86.19
434.066	87.19
434.287	79.19
434.509	84.19
434.731	92.19
434.953	81.19
435.175	79.19
435.397	88.19
435.618	92.19
435.84	98.19
436.062	116.19
436.284	115.19
436.505	101.19
436.727	97.19
436.949	89.19
437.17	85.19
437.392	89.19
437.614	102.19
437.835	100.19
438.057	110.19
438.278	103.19
438.5	99.19
438.721	130.19
438.943	101.19
439.165	89.19
439.386	72.19
439.608	82.19
439.829	91.19
440.05	115.19
440.272	146.19
440.493	96.19
440.715	74.19
440.936	95.19
441.158	83.19
441.379	88.19
441.6	76.19
441.822	84.19
442.043	91.19
442.264	101.19
442.486	90.19
442.707	94.19
442.928	90.19
443.149	125.19
443.371	130.19
443.592	108.19
443.813	111.19
444.034	97.19
444.255	75.19
444.476	88.19
444.698	94.19
444.919	76.19
445.14	115.19
445.361	121.19
445.582	97.19
445.803	118.19
446.024	126.19
446.245	124.19
446.466	104.19
446.687	81.19
446.908	72.19
447.129	69.19
447.35	89.19
447.571	89.19
447.792	97.19
448.013	88.19
448.234	100.19
448.455	92.19
448.675	108.19
448.896	97.19
449.117	90.19
449.338	103.19
449.559	124.19
449.779	137.19
450	107.19
450.221	81.19
450.442	83.19
450.662	84.19
450.883	92.19
451.104	103.19
451.324	99.19
451.545	84.19
451.766	79.19
451.986	68.19
452.207	75.19
452.428	79.19
452.648	94.19
452.869	96.19
453.089	98.19
453.31	109.19
453.53	94.19
453.751	87.19
453.971	106.19
454.192	110.19
454.412	88.19
454.633	79.19
454.853	75.19
455.073	78.19
455.294	101.19
455.514	89.19
455.734	87.19
455.955	84.19
456.175	92.19
456.395	84.19
456.616	80.19
456.836	79.19
457.056	80.19
457.276	75.19
457.497	80.19
457.717	94.19
457.937	81.19
458.157	89.19
458.377	83.19
458.598	103.19
458.818	133.19
459.038	139.19
459.258	116.19
459.478	84.19
459.698	85.19
459.918	87.19
460.138	81.19
460.358	79.19
460.578	84.19
460.798	75.19
461.018	91.19
461.238	77.19
461.458	78.19
461.678	91.19
461.898	88.19
462.118	76.19
462.338	89.19
462.558	79.19
462.777	75.19
462.997	91.19
463.217	91.19
463.437	79.19
463.657	75.19
463.876	94.19
464.096	74.19
464.316	102.19
464.536	81.19
464.755	92.19
464.975	108.19
465.195	159.19
465.414	143.19
465.634	93.19
465.854	79.19
466.073	80.19
466.293	82.19
466.512	89.19
466.732	84.19
466.951	73.19
467.171	93.19
467.391	86.19
467.61	98.19
467.829	91.19
468.049	92.19
468.268	79.19
468.488	86.19
468.707	77.19
468.927	70.19
469.146	68.19
469.365	69.19
469.585	82.19
469.804	97.19
470.023	78.19
470.243	88.19
470.462	85.19
470.681	96.19
470.901	97.19
471.12	66.19
471.339	81.19
471.558	84.19
471.777	74.19
471.997	75.19
472.216	71.19
472.435	96.19
472.654	81.19
472.873	90.19
473.092	93.19
473.311	73.19
473.53	78.19
473.749	79.19
473.968	86.19
474.187	98.19
474.406	91.19
474.625	90.19
474.844	84.19
475.063	97.19
475.282	75.19
475.501	74.19
475.72	102.19
475.939	87.19
476.158	92.19
476.377	87.19
476.596	83.19
476.814	82.19
477.033	95.19
477.252	62.19
477.471	92.19
477.69	83.19
477.908	90.19
478.127	75.19
478.346	82.19
478.564	81.19
478.783	72.19
479.002	75.19
479.22	83.19
479.439	102.19
479.658	91.19
479.876	81.19
480.095	88.19
480.313	97.19
480.532	80.19
480.751	69.19
480.969	89.19
481.188	93.19
481.406	89.19
481.624	74.19
481.843	81.19
482.061	82.19
482.28	93.19
482.498	81.19
482.717	76.19
482.935	94.19
483.153	81.19
483.372	88.19
483.59	82.19
483.808	80.19
484.027	89.19
484.245	90.19
484.463	91.19
484.681	106.19
484.9	91.19
485.118	87.19
485.336	86.19
485.554	90.19
485.772	89.19
485.99	89.19
486.209	104.19
486.427	98.19
486.645	97.19
486.863	111.19
487.081	104.19
487.299	108.19
487.517	83.19
487.735	91.19
487.953	85.19
488.171	93.19
488.389	94.19
488.607	90.19
488.825	98.19
489.043	70.19
489.261	86.19
489.479	95.19
489.696	87.19
489.914	83.19
490.132	83.19
490.35	82.19
490.568	87.19
490.786	86.19
491.003	93.19
491.221	95.19
491.439	83.19
491.657	91.19
491.874	85.19
492.092	89.19
492.31	90.19
492.527	87.19
492.745	82.19
492.963	91.19
493.18	83.19
493.398	91.19
493.615	91.19
493.833	103.19
494.05	83.19
494.268	80.19
494.485	74.19
494.703	93.19
494.92	67.19
495.138	82.19
495.355	92.19
495.573	94.19
495.79	99.19
496.008	90.19
496.225	86.19
496.442	93.19
496.66	85.19
496.877	81.19
497.094	85.19
497.312	85.19
497.529	81.19
497.746	87.19
497.963	83.19
498.181	97.19
498.398	96.19
498.615	98.19
498.832	89.19
499.049	98.19
499.267	83.19
499.484	87.19
499.701	89.19
499.918	89.19
500.135	79.19
500.352	90.19
500.569	80.19
500.786	83.19
501.003	78.19
501.22	80.19
501.437	107.19
501.654	85.19
501.871	102.19
502.088	88.19
502.305	88.19
502.522	89.19
502.739	89.19
502.956	87.19
503.172	90.19
503.389	81.19
503.606	119.19
503.823	76.19
504.04	82.19
504.256	95.19
504.473	87.19
504.69	88.19
504.907	91.19
505.123	79.19
505.34	86.19
505.557	78.19
505.773	82.19
505.99	79.19
506.207	83.19
506.423	79.19
506.64	83.19
506.856	91.19
507.073	87.19
507.289	78.19
507.506	95.19
507.722	101.19
507.939	103.19
508.155	78.19
508.372	85.19
508.588	102.19
508.805	103.19
509.021	98.19
509.238	87.19
509.454	93.19
509.67	82.19
509.887	98.19
510.103	110.19
510.319	201.19
510.536	704.19
510.752	2149.19
510.968	584.19
511.184	141.19
511.401	98.19
511.617	88.19
511.833	101.19
512.049	101.19
512.265	99.19
512.481	89.19
512.698	95.19
512.914	84.19
513.13	76.19
513.346	89.19
513.562	90.19
513.778	93.19
513.994	91.19
514.21	103.19
514.426	104.19
514.642	127.19
514.858	112.19
515.074	143.19
515.29	412.19
515.506	1333.19
515.721	485.19
515.937	147.19
516.153	107.19
516.369	89.19
516.585	100.19
516.801	92.19
517.016	74.19
517.232	96.19
517.448	85.19
