Data from Uncirc_2005_H10_HRD10591_00007.txt Node
Date: Wed Jan 03 10:28:26 EST 2024
User: Yrep
Spectrometer: HR+D1059
Trigger mode: 1
Integration Time (sec): 1.000000E-1
Scans to average: 1
Electric dark correction enabled: true
Nonlinearity correction enabled: false
Boxcar width: 0
XAxis mode: Wavelengths
Number of Pixels in Spectrum: 2048
>>>>>Begin Spectral Data<<<<<
223.165	-4.56
223.4	-4.56
223.635	-4.56
223.869	-20.56
224.104	-32.56
224.338	-11.56
224.573	-6.56
224.808	-18.56
225.042	-14.56
225.277	4.44
225.511	-0.56
225.746	-16.56
225.98	6.44
226.215	17.44
226.449	20.44
226.683	20.44
226.918	19.44
227.152	37.44
227.387	40.44
227.621	50.44
227.856	53.44
228.09	66.44
228.324	41.44
228.559	50.44
228.793	47.44
229.027	61.44
229.262	64.44
229.496	70.44
229.73	88.44
229.964	86.44
230.199	100.44
230.433	58.44
230.667	67.44
230.901	75.44
231.136	85.44
231.37	69.44
231.604	88.44
231.838	79.44
232.072	77.44
232.306	93.44
232.541	73.44
232.775	70.44
233.009	83.44
233.243	96.44
233.477	69.44
233.711	75.44
233.945	92.44
234.179	81.44
234.413	86.44
234.647	79.44
234.881	70.44
235.115	78.44
235.349	84.44
235.583	104.44
235.817	79.44
236.051	81.44
236.285	72.44
236.519	76.44
236.753	65.44
236.987	84.44
237.221	91.44
237.455	90.44
237.689	87.44
237.922	70.44
238.156	86.44
238.39	77.44
238.624	85.44
238.858	67.44
239.091	63.44
239.325	82.44
239.559	67.44
239.793	70.44
240.027	76.44
240.26	82.44
240.494	69.44
240.728	76.44
240.961	66.44
241.195	78.44
241.429	71.44
241.662	73.44
241.896	79.44
242.13	80.44
242.363	84.44
242.597	72.44
242.83	80.44
243.064	71.44
243.298	66.44
243.531	66.44
243.765	83.44
243.998	73.44
244.232	79.44
244.465	86.44
244.699	83.44
244.932	84.44
245.166	72.44
245.399	82.44
245.633	81.44
245.866	80.44
246.099	79.44
246.333	69.44
246.566	81.44
246.8	85.44
247.033	87.44
247.266	82.44
247.5	73.44
247.733	81.44
247.966	89.44
248.2	76.44
248.433	78.44
248.666	72.44
248.899	83.44
249.133	86.44
249.366	93.44
249.599	83.44
249.832	77.44
250.066	79.44
250.299	81.44
250.532	74.44
250.765	79.44
250.998	82.44
251.231	77.44
251.465	70.44
251.698	78.44
251.931	82.44
252.164	97.44
252.397	83.44
252.63	82.44
252.863	74.44
253.096	59.44
253.329	70.44
253.562	91.44
253.795	80.44
254.028	74.44
254.261	76.44
254.494	72.44
254.727	86.44
254.96	92.44
255.193	73.44
255.426	81.44
255.659	73.44
255.892	94.44
256.124	93.44
256.357	92.44
256.59	81.44
256.823	80.44
257.056	83.44
257.289	75.44
257.521	83.44
257.754	76.44
257.987	83.44
258.22	92.44
258.452	83.44
258.685	80.44
258.918	79.44
259.151	81.44
259.383	89.44
259.616	67.44
259.849	71.44
260.081	72.44
260.314	80.44
260.547	85.44
260.779	85.44
261.012	62.44
261.244	66.44
261.477	90.44
261.71	92.44
261.942	107.44
262.175	116.44
262.407	84.44
262.64	88.44
262.872	80.44
263.105	85.44
263.337	93.44
263.57	81.44
263.802	65.44
264.035	70.44
264.267	94.44
264.499	92.44
264.732	89.44
264.964	79.44
265.197	84.44
265.429	99.44
265.661	91.44
265.894	71.44
266.126	87.44
266.358	94.44
266.591	96.44
266.823	87.44
267.055	80.44
267.287	62.44
267.52	74.44
267.752	77.44
267.984	82.44
268.216	87.44
268.448	76.44
268.681	88.44
268.913	79.44
269.145	84.44
269.377	96.44
269.609	90.44
269.841	75.44
270.073	92.44
270.306	81.44
270.538	73.44
270.77	98.44
271.002	89.44
271.234	83.44
271.466	86.44
271.698	81.44
271.93	86.44
272.162	77.44
272.394	87.44
272.626	87.44
272.858	91.44
273.09	88.44
273.322	80.44
273.553	83.44
273.785	97.44
274.017	81.44
274.249	85.44
274.481	86.44
274.713	97.44
274.945	83.44
275.176	82.44
275.408	87.44
275.64	90.44
275.872	81.44
276.104	91.44
276.335	104.44
276.567	101.44
276.799	98.44
277.031	87.44
277.262	87.44
277.494	76.44
277.726	89.44
277.957	83.44
278.189	78.44
278.421	98.44
278.652	97.44
278.884	82.44
279.115	78.44
279.347	85.44
279.579	88.44
279.81	87.44
280.042	83.44
280.273	79.44
280.505	93.44
280.736	94.44
280.968	81.44
281.199	81.44
281.431	87.44
281.662	80.44
281.894	90.44
282.125	98.44
282.356	100.44
282.588	131.44
282.819	110.44
283.051	81.44
283.282	91.44
283.513	88.44
283.745	79.44
283.976	82.44
284.207	88.44
284.439	86.44
284.67	92.44
284.901	83.44
285.132	100.44
285.364	65.44
285.595	93.44
285.826	67.44
286.057	82.44
286.288	94.44
286.52	69.44
286.751	80.44
286.982	81.44
287.213	81.44
287.444	82.44
287.675	87.44
287.906	90.44
288.138	93.44
288.369	68.44
288.6	93.44
288.831	75.44
289.062	71.44
289.293	92.44
289.524	82.44
289.755	78.44
289.986	84.44
290.217	77.44
290.448	77.44
290.679	84.44
290.91	101.44
291.141	76.44
291.371	89.44
291.602	82.44
291.833	83.44
292.064	77.44
292.295	88.44
292.526	90.44
292.757	93.44
292.987	83.44
293.218	80.44
293.449	81.44
293.68	89.44
293.91	76.44
294.141	86.44
294.372	77.44
294.603	83.44
294.833	84.44
295.064	99.44
295.295	92.44
295.525	88.44
295.756	93.44
295.987	116.44
296.217	115.44
296.448	105.44
296.679	92.44
296.909	81.44
297.14	82.44
297.37	90.44
297.601	96.44
297.831	91.44
298.062	89.44
298.292	98.44
298.523	76.44
298.753	70.44
298.984	75.44
299.214	94.44
299.445	76.44
299.675	98.44
299.905	89.44
300.136	93.44
300.366	80.44
300.597	92.44
300.827	98.44
301.057	87.44
301.288	97.44
301.518	88.44
301.748	99.44
301.979	78.44
302.209	90.44
302.439	97.44
302.669	95.44
302.9	99.44
303.13	86.44
303.36	90.44
303.59	97.44
303.82	93.44
304.051	90.44
304.281	90.44
304.511	86.44
304.741	84.44
304.971	94.44
305.201	62.44
305.431	87.44
305.661	89.44
305.891	94.44
306.121	98.44
306.352	93.44
306.582	97.44
306.812	103.44
307.042	93.44
307.272	87.44
307.502	93.44
307.731	95.44
307.961	79.44
308.191	77.44
308.421	95.44
308.651	87.44
308.881	89.44
309.111	101.44
309.341	99.44
309.571	96.44
309.8	98.44
310.03	84.44
310.26	91.44
310.49	84.44
310.72	85.44
310.949	107.44
311.179	88.44
311.409	104.44
311.639	99.44
311.868	79.44
312.098	92.44
312.328	94.44
312.557	98.44
312.787	115.44
313.017	103.44
313.246	91.44
313.476	93.44
313.706	86.44
313.935	88.44
314.165	105.44
314.394	91.44
314.624	93.44
314.853	91.44
315.083	103.44
315.312	96.44
315.542	86.44
315.771	94.44
316.001	79.44
316.23	104.44
316.46	87.44
316.689	88.44
316.919	71.44
317.148	91.44
317.377	89.44
317.607	95.44
317.836	93.44
318.065	91.44
318.295	97.44
318.524	93.44
318.753	103.44
318.983	103.44
319.212	87.44
319.441	108.44
319.67	105.44
319.9	97.44
320.129	95.44
320.358	83.44
320.587	88.44
320.816	87.44
321.046	101.44
321.275	97.44
321.504	90.44
321.733	85.44
321.962	90.44
322.191	92.44
322.42	110.44
322.649	97.44
322.878	107.44
323.108	131.44
323.337	137.44
323.566	133.44
323.795	155.44
324.024	225.44
324.253	427.44
324.482	932.44
324.71	1933.44
324.939	2583.44
325.168	917.44
325.397	251.44
325.626	149.44
325.855	137.44
326.084	126.44
326.313	143.44
326.542	164.44
326.77	249.44
326.999	498.44
327.228	1078.44
327.457	2013.44
327.686	1619.44
327.914	419.44
328.143	210.44
328.372	163.44
328.6	122.44
328.829	122.44
329.058	114.44
329.287	121.44
329.515	121.44
329.744	97.44
329.972	109.44
330.201	94.44
330.43	109.44
330.658	121.44
330.887	146.44
331.115	133.44
331.344	97.44
331.572	105.44
331.801	101.44
332.03	98.44
332.258	99.44
332.486	92.44
332.715	86.44
332.943	98.44
333.172	104.44
333.4	98.44
333.629	115.44
333.857	102.44
334.085	103.44
334.314	107.44
334.542	101.44
334.771	108.44
334.999	91.44
335.227	85.44
335.455	91.44
335.684	93.44
335.912	101.44
336.14	95.44
336.369	91.44
336.597	103.44
336.825	103.44
337.053	97.44
337.281	100.44
337.51	86.44
337.738	95.44
337.966	95.44
338.194	95.44
338.422	102.44
338.65	79.44
338.878	75.44
339.106	85.44
339.334	100.44
339.562	86.44
339.79	78.44
340.018	88.44
340.246	85.44
340.474	114.44
340.702	92.44
340.93	102.44
341.158	92.44
341.386	105.44
341.614	92.44
341.842	91.44
342.07	94.44
342.298	100.44
342.526	79.44
342.754	90.44
342.981	99.44
343.209	85.44
343.437	101.44
343.665	91.44
343.893	74.44
344.12	105.44
344.348	91.44
344.576	104.44
344.804	92.44
345.031	95.44
345.259	108.44
345.487	103.44
345.714	95.44
345.942	81.44
346.17	93.44
346.397	98.44
346.625	82.44
346.853	84.44
347.08	91.44
347.308	99.44
347.535	92.44
347.763	94.44
347.99	98.44
348.218	102.44
348.445	114.44
348.673	100.44
348.9	86.44
349.128	98.44
349.355	90.44
349.583	104.44
349.81	100.44
350.037	90.44
350.265	102.44
350.492	91.44
350.72	87.44
350.947	103.44
351.174	111.44
351.402	111.44
351.629	105.44
351.856	112.44
352.083	102.44
352.311	115.44
352.538	108.44
352.765	103.44
352.992	110.44
353.22	108.44
353.447	88.44
353.674	110.44
353.901	86.44
354.128	95.44
354.355	95.44
354.583	101.44
354.81	101.44
355.037	95.44
355.264	97.44
355.491	93.44
355.718	104.44
355.945	94.44
356.172	90.44
356.399	83.44
356.626	95.44
356.853	88.44
357.08	87.44
357.307	91.44
357.534	80.44
357.761	79.44
357.988	95.44
358.215	102.44
358.441	96.44
358.668	97.44
358.895	102.44
359.122	103.44
359.349	74.44
359.576	94.44
359.802	107.44
360.029	110.44
360.256	105.44
360.483	87.44
360.709	86.44
360.936	83.44
361.163	94.44
361.39	98.44
361.616	102.44
361.843	84.44
362.07	93.44
362.296	89.44
362.523	71.44
362.749	96.44
362.976	98.44
363.203	89.44
363.429	103.44
363.656	95.44
363.882	91.44
364.109	83.44
364.335	84.44
364.562	89.44
364.788	87.44
365.015	92.44
365.241	97.44
365.468	104.44
365.694	111.44
365.92	97.44
366.147	77.44
366.373	85.44
366.599	81.44
366.826	89.44
367.052	81.44
367.278	94.44
367.505	94.44
367.731	96.44
367.957	80.44
368.184	100.44
368.41	96.44
368.636	106.44
368.862	108.44
369.089	93.44
369.315	100.44
369.541	87.44
369.767	96.44
369.993	91.44
370.219	77.44
370.445	90.44
370.672	87.44
370.898	100.44
371.124	87.44
371.35	99.44
371.576	76.44
371.802	81.44
372.028	75.44
372.254	63.44
372.48	91.44
372.706	94.44
372.932	89.44
373.158	78.44
373.384	88.44
373.61	89.44
373.835	101.44
374.061	97.44
374.287	94.44
374.513	83.44
374.739	83.44
374.965	92.44
375.191	94.44
375.416	88.44
375.642	91.44
375.868	87.44
376.094	95.44
376.319	101.44
376.545	75.44
376.771	76.44
376.997	82.44
377.222	75.44
377.448	104.44
377.674	95.44
377.899	94.44
378.125	86.44
378.35	96.44
378.576	85.44
378.802	110.44
379.027	90.44
379.253	83.44
379.478	98.44
379.704	104.44
379.929	105.44
380.155	105.44
380.38	83.44
380.606	100.44
380.831	108.44
381.057	106.44
381.282	101.44
381.507	105.44
381.733	101.44
381.958	100.44
382.184	104.44
382.409	105.44
382.634	106.44
382.86	108.44
383.085	117.44
383.31	111.44
383.535	119.44
383.761	99.44
383.986	116.44
384.211	92.44
384.436	110.44
384.662	117.44
384.887	123.44
385.112	117.44
385.337	106.44
385.562	102.44
385.787	115.44
386.013	116.44
386.238	126.44
386.463	117.44
386.688	117.44
386.913	110.44
387.138	126.44
387.363	117.44
387.588	111.44
387.813	117.44
388.038	120.44
388.263	119.44
388.488	145.44
388.713	107.44
388.938	89.44
389.163	107.44
389.387	81.44
389.612	94.44
389.837	107.44
390.062	101.44
390.287	95.44
390.512	94.44
390.736	94.44
390.961	96.44
391.186	93.44
391.411	79.44
391.636	89.44
391.86	85.44
392.085	83.44
392.31	84.44
392.534	91.44
392.759	80.44
392.984	73.44
393.208	94.44
393.433	100.44
393.658	99.44
393.882	91.44
394.107	81.44
394.331	86.44
394.556	86.44
394.78	87.44
395.005	85.44
395.229	86.44
395.454	98.44
395.678	79.44
395.903	77.44
396.127	90.44
396.352	91.44
396.576	92.44
396.801	104.44
397.025	74.44
397.249	80.44
397.474	87.44
397.698	93.44
397.922	93.44
398.147	74.44
398.371	95.44
398.595	99.44
398.82	91.44
399.044	71.44
399.268	76.44
399.492	88.44
399.717	87.44
399.941	89.44
400.165	96.44
400.389	89.44
400.613	97.44
400.837	82.44
401.062	89.44
401.286	90.44
401.51	93.44
401.734	94.44
401.958	98.44
402.182	120.44
402.406	139.44
402.63	118.44
402.854	98.44
403.078	75.44
403.302	61.44
403.526	90.44
403.75	84.44
403.974	97.44
404.198	100.44
404.422	86.44
404.645	85.44
404.869	91.44
405.093	83.44
405.317	100.44
405.541	110.44
405.765	91.44
405.988	123.44
406.212	151.44
406.436	208.44
406.66	139.44
406.883	96.44
407.107	96.44
407.331	95.44
407.555	99.44
407.778	97.44
408.002	110.44
408.226	99.44
408.449	90.44
408.673	81.44
408.896	100.44
409.12	100.44
409.344	76.44
409.567	88.44
409.791	99.44
410.014	99.44
410.238	91.44
410.461	91.44
410.685	87.44
410.908	93.44
411.132	120.44
411.355	104.44
411.578	94.44
411.802	93.44
412.025	98.44
412.249	97.44
412.472	91.44
412.695	98.44
412.919	83.44
413.142	90.44
413.365	77.44
413.589	97.44
413.812	97.44
414.035	103.44
414.258	85.44
414.482	87.44
414.705	102.44
414.928	95.44
415.151	98.44
415.374	96.44
415.597	91.44
415.821	96.44
416.044	91.44
416.267	73.44
416.49	85.44
416.713	97.44
416.936	93.44
417.159	84.44
417.382	90.44
417.605	86.44
417.828	108.44
418.051	106.44
418.274	80.44
418.497	100.44
418.72	75.44
418.943	95.44
419.166	89.44
419.389	79.44
419.611	86.44
419.834	93.44
420.057	81.44
420.28	92.44
420.503	96.44
420.726	88.44
420.948	86.44
421.171	85.44
421.394	95.44
421.617	96.44
421.839	94.44
422.062	104.44
422.285	100.44
422.507	88.44
422.73	115.44
422.953	98.44
423.175	85.44
423.398	96.44
423.621	96.44
423.843	88.44
424.066	90.44
424.288	83.44
424.511	88.44
424.733	101.44
424.956	122.44
425.178	107.44
425.401	92.44
425.623	107.44
425.846	87.44
426.068	108.44
426.291	87.44
426.513	91.44
426.735	96.44
426.958	84.44
427.18	114.44
427.402	157.44
427.625	181.44
427.847	124.44
428.069	95.44
428.292	91.44
428.514	96.44
428.736	84.44
428.958	90.44
429.181	79.44
429.403	83.44
429.625	87.44
429.847	110.44
430.069	105.44
430.292	115.44
430.514	88.44
430.736	79.44
430.958	91.44
431.18	79.44
431.402	84.44
431.624	86.44
431.846	82.44
432.068	79.44
432.29	78.44
432.512	84.44
432.734	105.44
432.956	106.44
433.178	105.44
433.4	109.44
433.622	91.44
433.844	91.44
434.066	87.44
434.287	98.44
434.509	91.44
434.731	87.44
434.953	89.44
435.175	93.44
435.397	82.44
435.618	105.44
435.84	98.44
436.062	133.44
436.284	122.44
436.505	114.44
436.727	99.44
436.949	110.44
437.17	84.44
437.392	84.44
437.614	85.44
437.835	107.44
438.057	119.44
438.278	116.44
438.5	121.44
438.721	160.44
438.943	117.44
439.165	79.44
439.386	93.44
439.608	109.44
439.829	116.44
440.05	122.44
440.272	157.44
440.493	106.44
440.715	93.44
440.936	100.44
441.158	94.44
441.379	84.44
441.6	100.44
441.822	102.44
442.043	86.44
442.264	112.44
442.486	102.44
442.707	94.44
442.928	121.44
443.149	134.44
443.371	133.44
443.592	129.44
443.813	143.44
444.034	128.44
444.255	103.44
444.476	91.44
444.698	105.44
444.919	91.44
445.14	145.44
445.361	143.44
445.582	123.44
445.803	161.44
446.024	161.44
446.245	150.44
446.466	137.44
446.687	100.44
446.908	91.44
447.129	89.44
447.35	91.44
447.571	93.44
447.792	79.44
448.013	99.44
448.234	123.44
448.455	99.44
448.675	124.44
448.896	132.44
449.117	109.44
449.338	115.44
449.559	144.44
449.779	173.44
450	96.44
450.221	96.44
450.442	99.44
450.662	82.44
450.883	96.44
451.104	108.44
451.324	101.44
451.545	99.44
451.766	94.44
451.986	91.44
452.207	94.44
452.428	89.44
452.648	92.44
452.869	114.44
453.089	123.44
453.31	111.44
453.53	92.44
453.751	92.44
453.971	95.44
454.192	105.44
454.412	84.44
454.633	101.44
454.853	81.44
455.073	81.44
455.294	97.44
455.514	110.44
455.734	107.44
455.955	76.44
456.175	91.44
456.395	86.44
456.616	88.44
456.836	80.44
457.056	77.44
457.276	81.44
457.497	83.44
457.717	93.44
457.937	88.44
458.157	89.44
458.377	86.44
458.598	101.44
458.818	154.44
459.038	159.44
459.258	114.44
459.478	94.44
459.698	78.44
459.918	93.44
460.138	86.44
460.358	91.44
460.578	86.44
460.798	86.44
461.018	85.44
461.238	85.44
461.458	77.44
461.678	85.44
461.898	82.44
462.118	88.44
462.338	82.44
462.558	100.44
462.777	86.44
462.997	90.44
463.217	94.44
463.437	82.44
463.657	91.44
463.876	80.44
464.096	84.44
464.316	82.44
464.536	106.44
464.755	87.44
464.975	95.44
465.195	160.44
465.414	157.44
465.634	100.44
465.854	96.44
466.073	84.44
466.293	75.44
466.512	73.44
466.732	98.44
466.951	85.44
467.171	85.44
467.391	93.44
467.61	95.44
467.829	95.44
468.049	94.44
468.268	97.44
468.488	81.44
468.707	67.44
468.927	82.44
469.146	79.44
469.365	85.44
469.585	92.44
469.804	106.44
470.023	99.44
470.243	93.44
470.462	82.44
470.681	110.44
470.901	90.44
471.12	85.44
471.339	86.44
471.558	99.44
471.777	67.44
471.997	93.44
472.216	92.44
472.435	89.44
472.654	105.44
472.873	87.44
473.092	92.44
473.311	75.44
473.53	96.44
473.749	85.44
473.968	94.44
474.187	116.44
474.406	75.44
474.625	74.44
474.844	107.44
475.063	90.44
475.282	87.44
475.501	105.44
475.72	96.44
475.939	93.44
476.158	80.44
476.377	95.44
476.596	101.44
476.814	85.44
477.033	85.44
477.252	89.44
477.471	91.44
477.69	86.44
477.908	92.44
478.127	99.44
478.346	77.44
478.564	79.44
478.783	92.44
479.002	86.44
479.22	95.44
479.439	104.44
479.658	112.44
479.876	105.44
480.095	89.44
480.313	99.44
480.532	100.44
480.751	88.44
480.969	73.44
481.188	101.44
481.406	119.44
481.624	102.44
481.843	93.44
482.061	80.44
482.28	89.44
482.498	87.44
482.717	97.44
482.935	84.44
483.153	93.44
483.372	93.44
483.59	92.44
483.808	86.44
484.027	95.44
484.245	95.44
484.463	100.44
484.681	96.44
484.9	92.44
485.118	92.44
485.336	103.44
485.554	103.44
485.772	105.44
485.99	117.44
486.209	96.44
486.427	96.44
486.645	107.44
486.863	123.44
487.081	99.44
487.299	98.44
487.517	92.44
487.735	110.44
487.953	91.44
488.171	93.44
488.389	96.44
488.607	93.44
488.825	101.44
489.043	98.44
489.261	79.44
489.479	71.44
489.696	96.44
489.914	86.44
490.132	87.44
490.35	96.44
490.568	100.44
490.786	92.44
491.003	86.44
491.221	91.44
491.439	107.44
491.657	97.44
491.874	92.44
492.092	87.44
492.31	93.44
492.527	87.44
492.745	77.44
492.963	105.44
493.18	103.44
493.398	90.44
493.615	94.44
493.833	94.44
494.05	101.44
494.268	86.44
494.485	98.44
494.703	90.44
494.92	93.44
495.138	99.44
495.355	88.44
495.573	90.44
495.79	85.44
496.008	102.44
496.225	92.44
496.442	117.44
496.66	90.44
496.877	97.44
497.094	88.44
497.312	94.44
497.529	91.44
497.746	105.44
497.963	90.44
498.181	97.44
498.398	101.44
498.615	114.44
498.832	90.44
499.049	93.44
499.267	94.44
499.484	80.44
499.701	83.44
499.918	93.44
500.135	97.44
500.352	100.44
500.569	98.44
500.786	107.44
501.003	88.44
501.22	97.44
501.437	92.44
501.654	103.44
501.871	113.44
502.088	92.44
502.305	91.44
502.522	87.44
502.739	81.44
502.956	91.44
503.172	94.44
503.389	98.44
503.606	109.44
503.823	103.44
504.04	95.44
504.256	78.44
504.473	73.44
504.69	77.44
504.907	82.44
505.123	78.44
505.34	81.44
505.557	97.44
505.773	90.44
505.99	84.44
506.207	91.44
506.423	81.44
506.64	92.44
506.856	84.44
507.073	97.44
507.289	83.44
507.506	101.44
507.722	116.44
507.939	103.44
508.155	88.44
508.372	96.44
508.588	90.44
508.805	90.44
509.021	90.44
509.238	90.44
509.454	99.44
509.67	106.44
509.887	110.44
510.103	141.44
510.319	204.44
510.536	699.44
510.752	2146.44
510.968	601.44
511.184	159.44
511.401	116.44
511.617	106.44
511.833	100.44
512.049	84.44
512.265	89.44
512.481	95.44
512.698	102.44
512.914	85.44
513.13	106.44
513.346	88.44
513.562	104.44
513.778	95.44
513.994	105.44
514.21	106.44
514.426	101.44
514.642	130.44
514.858	114.44
515.074	178.44
515.29	449.44
