Data from Uncirc_2005_H10_HRD10591_00089.txt Node
Date: Wed Jan 03 10:28:42 EST 2024
User: Yrep
Spectrometer: HR+D1059
Trigger mode: 1
Integration Time (sec): 1.000000E-1
Scans to average: 1
Electric dark correction enabled: true
Nonlinearity correction enabled: false
Boxcar width: 0
XAxis mode: Wavelengths
Number of Pixels in Spectrum: 2048
>>>>>Begin Spectral Data<<<<<
223.165	-3.75
223.4	-3.75
223.635	-3.75
223.869	-17.75
224.104	-14.75
224.338	-10.75
224.573	-18.75
224.808	-12.75
225.042	1.25
225.277	-10.75
225.511	2.25
225.746	7.25
225.98	-2.75
226.215	2.25
226.449	10.25
226.683	3.25
226.918	26.25
227.152	39.25
227.387	26.25
227.621	28.25
227.856	45.25
228.09	50.25
228.324	48.25
228.559	51.25
228.793	58.25
229.027	60.25
229.262	57.25
229.496	68.25
229.73	76.25
229.964	73.25
230.199	68.25
230.433	59.25
230.667	84.25
230.901	80.25
231.136	72.25
231.37	78.25
231.604	77.25
231.838	77.25
232.072	81.25
232.306	76.25
232.541	82.25
232.775	85.25
233.009	84.25
233.243	78.25
233.477	79.25
233.711	61.25
233.945	98.25
234.179	83.25
234.413	93.25
234.647	70.25
234.881	79.25
235.115	72.25
235.349	72.25
235.583	80.25
235.817	85.25
236.051	68.25
236.285	61.25
236.519	73.25
236.753	66.25
236.987	72.25
237.221	90.25
237.455	83.25
237.689	78.25
237.922	81.25
238.156	80.25
238.39	66.25
238.624	72.25
238.858	80.25
239.091	67.25
239.325	64.25
239.559	74.25
239.793	69.25
240.027	80.25
240.26	80.25
240.494	69.25
240.728	81.25
240.961	61.25
241.195	59.25
241.429	69.25
241.662	74.25
241.896	72.25
242.13	80.25
242.363	75.25
242.597	81.25
242.83	75.25
243.064	79.25
243.298	77.25
243.531	89.25
243.765	67.25
243.998	85.25
244.232	69.25
244.465	73.25
244.699	90.25
244.932	75.25
245.166	75.25
245.399	72.25
245.633	81.25
245.866	86.25
246.099	90.25
246.333	84.25
246.566	74.25
246.8	82.25
247.033	75.25
247.266	64.25
247.5	64.25
247.733	73.25
247.966	82.25
248.2	90.25
248.433	82.25
248.666	76.25
248.899	76.25
249.133	84.25
249.366	85.25
249.599	86.25
249.832	81.25
250.066	94.25
250.299	79.25
250.532	78.25
250.765	75.25
250.998	83.25
251.231	72.25
251.465	71.25
251.698	68.25
251.931	65.25
252.164	73.25
252.397	91.25
252.63	73.25
252.863	69.25
253.096	61.25
253.329	71.25
253.562	74.25
253.795	80.25
254.028	82.25
254.261	78.25
254.494	77.25
254.727	68.25
254.96	89.25
255.193	81.25
255.426	68.25
255.659	75.25
255.892	86.25
256.124	69.25
256.357	61.25
256.59	78.25
256.823	80.25
257.056	89.25
257.289	76.25
257.521	76.25
257.754	88.25
257.987	74.25
258.22	80.25
258.452	85.25
258.685	83.25
258.918	76.25
259.151	68.25
259.383	80.25
259.616	86.25
259.849	83.25
260.081	82.25
260.314	85.25
260.547	76.25
260.779	77.25
261.012	74.25
261.244	81.25
261.477	81.25
261.71	81.25
261.942	105.25
262.175	112.25
262.407	86.25
262.64	85.25
262.872	92.25
263.105	85.25
263.337	85.25
263.57	80.25
263.802	83.25
264.035	77.25
264.267	70.25
264.499	78.25
264.732	89.25
264.964	85.25
265.197	61.25
265.429	68.25
265.661	76.25
265.894	92.25
266.126	81.25
266.358	100.25
266.591	77.25
266.823	75.25
267.055	81.25
267.287	91.25
267.52	68.25
267.752	85.25
267.984	87.25
268.216	87.25
268.448	84.25
268.681	82.25
268.913	62.25
269.145	74.25
269.377	79.25
269.609	81.25
269.841	81.25
270.073	79.25
270.306	78.25
270.538	94.25
270.77	74.25
271.002	78.25
271.234	70.25
271.466	81.25
271.698	78.25
271.93	78.25
272.162	97.25
272.394	96.25
272.626	92.25
272.858	82.25
273.09	73.25
273.322	83.25
273.553	79.25
273.785	92.25
274.017	85.25
274.249	85.25
274.481	80.25
274.713	86.25
274.945	79.25
275.176	78.25
275.408	79.25
275.64	84.25
275.872	90.25
276.104	95.25
276.335	88.25
276.567	87.25
276.799	100.25
277.031	91.25
277.262	77.25
277.494	95.25
277.726	90.25
277.957	82.25
278.189	90.25
278.421	77.25
278.652	87.25
278.884	74.25
279.115	90.25
279.347	77.25
279.579	68.25
279.81	84.25
280.042	69.25
280.273	84.25
280.505	69.25
280.736	76.25
280.968	95.25
281.199	89.25
281.431	82.25
281.662	79.25
281.894	79.25
282.125	98.25
282.356	108.25
282.588	127.25
282.819	109.25
283.051	86.25
283.282	82.25
283.513	89.25
283.745	82.25
283.976	90.25
284.207	90.25
284.439	93.25
284.67	95.25
284.901	88.25
285.132	83.25
285.364	84.25
285.595	74.25
285.826	99.25
286.057	77.25
286.288	86.25
286.52	92.25
286.751	84.25
286.982	100.25
287.213	92.25
287.444	78.25
287.675	79.25
287.906	95.25
288.138	96.25
288.369	97.25
288.6	77.25
288.831	73.25
289.062	81.25
289.293	74.25
289.524	83.25
289.755	99.25
289.986	99.25
290.217	98.25
290.448	80.25
290.679	77.25
290.91	86.25
291.141	93.25
291.371	88.25
291.602	90.25
291.833	97.25
292.064	79.25
292.295	96.25
292.526	81.25
292.757	84.25
292.987	82.25
293.218	91.25
293.449	91.25
293.68	92.25
293.91	70.25
294.141	96.25
294.372	85.25
294.603	88.25
294.833	76.25
295.064	88.25
295.295	88.25
295.525	92.25
295.756	93.25
295.987	105.25
296.217	118.25
296.448	109.25
296.679	91.25
296.909	85.25
297.14	93.25
297.37	85.25
297.601	77.25
297.831	94.25
298.062	94.25
298.292	81.25
298.523	92.25
298.753	95.25
298.984	96.25
299.214	86.25
299.445	92.25
299.675	94.25
299.905	90.25
300.136	82.25
300.366	87.25
300.597	81.25
300.827	78.25
301.057	94.25
301.288	96.25
301.518	91.25
301.748	83.25
301.979	94.25
302.209	80.25
302.439	91.25
302.669	96.25
302.9	80.25
303.13	93.25
303.36	93.25
303.59	109.25
303.82	98.25
304.051	88.25
304.281	84.25
304.511	92.25
304.741	78.25
304.971	83.25
305.201	84.25
305.431	98.25
305.661	95.25
305.891	80.25
306.121	85.25
306.352	95.25
306.582	103.25
306.812	91.25
307.042	85.25
307.272	92.25
307.502	93.25
307.731	85.25
307.961	91.25
308.191	115.25
308.421	77.25
308.651	74.25
308.881	81.25
309.111	97.25
309.341	96.25
309.571	95.25
309.8	92.25
310.03	100.25
310.26	85.25
310.49	97.25
310.72	94.25
310.949	85.25
311.179	78.25
311.409	81.25
311.639	96.25
311.868	82.25
312.098	92.25
312.328	101.25
312.557	85.25
312.787	77.25
313.017	104.25
313.246	82.25
313.476	79.25
313.706	83.25
313.935	83.25
314.165	88.25
314.394	96.25
314.624	98.25
314.853	94.25
315.083	80.25
315.312	113.25
315.542	92.25
315.771	79.25
316.001	85.25
316.23	107.25
316.46	97.25
316.689	83.25
316.919	90.25
317.148	95.25
317.377	92.25
317.607	94.25
317.836	83.25
318.065	95.25
318.295	102.25
318.524	82.25
318.753	85.25
318.983	94.25
319.212	93.25
319.441	99.25
319.67	105.25
319.9	94.25
320.129	92.25
320.358	107.25
320.587	82.25
320.816	104.25
321.046	100.25
321.275	90.25
321.504	93.25
321.733	92.25
321.962	85.25
322.191	86.25
322.42	89.25
322.649	104.25
322.878	94.25
323.108	107.25
323.337	110.25
323.566	114.25
323.795	134.25
324.024	194.25
324.253	398.25
324.482	837.25
324.71	1679.25
324.939	2157.25
325.168	822.25
325.397	252.25
325.626	138.25
325.855	121.25
326.084	132.25
326.313	146.25
326.542	148.25
326.77	212.25
326.999	477.25
327.228	924.25
327.457	1679.25
327.686	1357.25
327.914	355.25
328.143	176.25
328.372	138.25
328.6	112.25
328.829	109.25
329.058	115.25
329.287	128.25
329.515	116.25
329.744	108.25
329.972	105.25
330.201	108.25
330.43	108.25
330.658	93.25
330.887	117.25
331.115	106.25
331.344	117.25
331.572	112.25
331.801	102.25
332.03	95.25
332.258	86.25
332.486	94.25
332.715	82.25
332.943	97.25
333.172	96.25
333.4	92.25
333.629	98.25
333.857	93.25
334.085	103.25
334.314	83.25
334.542	84.25
334.771	102.25
334.999	84.25
335.227	93.25
335.455	95.25
335.684	88.25
335.912	81.25
336.14	95.25
336.369	98.25
336.597	88.25
336.825	103.25
337.053	85.25
337.281	99.25
337.51	104.25
337.738	99.25
337.966	98.25
338.194	87.25
338.422	113.25
338.65	80.25
338.878	82.25
339.106	82.25
339.334	96.25
339.562	73.25
339.79	96.25
340.018	89.25
340.246	85.25
340.474	93.25
340.702	93.25
340.93	103.25
341.158	87.25
341.386	93.25
341.614	88.25
341.842	87.25
342.07	96.25
342.298	101.25
342.526	91.25
342.754	84.25
342.981	86.25
343.209	76.25
343.437	97.25
343.665	75.25
343.893	94.25
344.12	101.25
344.348	77.25
344.576	93.25
344.804	85.25
345.031	95.25
345.259	120.25
345.487	92.25
345.714	92.25
345.942	83.25
346.17	96.25
346.397	71.25
346.625	86.25
346.853	83.25
347.08	83.25
347.308	95.25
347.535	88.25
347.763	94.25
347.99	79.25
348.218	82.25
348.445	114.25
348.673	107.25
348.9	82.25
349.128	102.25
349.355	89.25
349.583	88.25
349.81	106.25
350.037	88.25
350.265	82.25
350.492	88.25
350.72	99.25
350.947	106.25
351.174	105.25
351.402	108.25
351.629	101.25
351.856	99.25
352.083	90.25
352.311	105.25
352.538	81.25
352.765	104.25
352.992	113.25
353.22	114.25
353.447	103.25
353.674	97.25
353.901	98.25
354.128	93.25
354.355	93.25
354.583	100.25
354.81	97.25
355.037	102.25
355.264	83.25
355.491	79.25
355.718	93.25
355.945	112.25
356.172	96.25
356.399	100.25
356.626	89.25
356.853	97.25
357.08	88.25
357.307	92.25
357.534	78.25
357.761	101.25
357.988	100.25
358.215	77.25
358.441	94.25
358.668	84.25
358.895	86.25
359.122	91.25
359.349	83.25
359.576	94.25
359.802	89.25
360.029	108.25
360.256	94.25
360.483	109.25
360.709	82.25
360.936	89.25
361.163	90.25
361.39	90.25
361.616	101.25
361.843	88.25
362.07	77.25
362.296	91.25
362.523	90.25
362.749	103.25
362.976	80.25
363.203	68.25
363.429	77.25
363.656	78.25
363.882	91.25
364.109	76.25
364.335	80.25
364.562	84.25
364.788	78.25
365.015	80.25
365.241	98.25
365.468	105.25
365.694	97.25
365.92	85.25
366.147	90.25
366.373	84.25
366.599	83.25
366.826	89.25
367.052	86.25
367.278	98.25
367.505	92.25
367.731	90.25
367.957	84.25
368.184	96.25
368.41	101.25
368.636	94.25
368.862	110.25
369.089	105.25
369.315	85.25
369.541	89.25
369.767	90.25
369.993	72.25
370.219	93.25
370.445	88.25
370.672	72.25
370.898	97.25
371.124	108.25
371.35	95.25
371.576	83.25
371.802	83.25
372.028	85.25
372.254	83.25
372.48	81.25
372.706	90.25
372.932	88.25
373.158	91.25
373.384	86.25
373.61	84.25
373.835	73.25
374.061	66.25
374.287	91.25
374.513	93.25
374.739	82.25
374.965	88.25
375.191	87.25
375.416	79.25
375.642	80.25
375.868	85.25
376.094	81.25
376.319	105.25
376.545	89.25
376.771	77.25
376.997	84.25
377.222	93.25
377.448	91.25
377.674	89.25
377.899	100.25
378.125	90.25
378.35	109.25
378.576	90.25
378.802	96.25
379.027	89.25
379.253	86.25
379.478	103.25
379.704	95.25
379.929	91.25
380.155	92.25
380.38	100.25
380.606	84.25
380.831	83.25
381.057	94.25
381.282	82.25
381.507	92.25
381.733	89.25
381.958	108.25
382.184	93.25
382.409	83.25
382.634	100.25
382.86	98.25
383.085	101.25
383.31	86.25
383.535	100.25
383.761	82.25
383.986	88.25
384.211	97.25
384.436	94.25
384.662	108.25
384.887	83.25
385.112	97.25
385.337	95.25
385.562	97.25
385.787	97.25
386.013	110.25
386.238	100.25
386.463	103.25
386.688	117.25
386.913	108.25
387.138	109.25
387.363	114.25
387.588	101.25
387.813	93.25
388.038	98.25
388.263	112.25
388.488	102.25
388.713	92.25
388.938	86.25
389.163	88.25
389.387	86.25
389.612	91.25
389.837	92.25
390.062	92.25
390.287	101.25
390.512	90.25
390.736	89.25
390.961	88.25
391.186	88.25
391.411	71.25
391.636	88.25
391.86	82.25
392.085	90.25
392.31	96.25
392.534	79.25
392.759	85.25
392.984	89.25
393.208	102.25
393.433	84.25
393.658	90.25
393.882	94.25
394.107	93.25
394.331	85.25
394.556	103.25
394.78	72.25
395.005	98.25
395.229	77.25
395.454	94.25
395.678	77.25
395.903	77.25
396.127	85.25
396.352	86.25
396.576	78.25
396.801	83.25
397.025	79.25
397.249	80.25
397.474	78.25
397.698	78.25
397.922	74.25
398.147	85.25
398.371	83.25
398.595	88.25
398.82	87.25
399.044	80.25
399.268	82.25
399.492	75.25
399.717	102.25
399.941	83.25
400.165	96.25
400.389	88.25
400.613	80.25
400.837	86.25
401.062	87.25
401.286	94.25
401.51	94.25
401.734	86.25
401.958	107.25
402.182	115.25
402.406	141.25
402.63	113.25
402.854	89.25
403.078	67.25
403.302	85.25
403.526	87.25
403.75	90.25
403.974	84.25
404.198	80.25
404.422	87.25
404.645	84.25
404.869	89.25
405.093	92.25
405.317	86.25
405.541	85.25
405.765	104.25
405.988	100.25
406.212	160.25
406.436	205.25
406.66	130.25
406.883	90.25
407.107	83.25
407.331	106.25
407.555	105.25
407.778	112.25
408.002	105.25
408.226	86.25
408.449	87.25
408.673	86.25
408.896	91.25
409.12	102.25
409.344	84.25
409.567	89.25
409.791	89.25
410.014	89.25
410.238	103.25
410.461	101.25
410.685	92.25
410.908	111.25
411.132	84.25
411.355	96.25
411.578	92.25
411.802	100.25
412.025	85.25
412.249	91.25
412.472	86.25
412.695	88.25
412.919	82.25
413.142	79.25
413.365	91.25
413.589	89.25
413.812	92.25
414.035	94.25
414.258	82.25
414.482	91.25
414.705	81.25
414.928	86.25
415.151	76.25
415.374	82.25
415.597	80.25
415.821	89.25
416.044	89.25
416.267	81.25
416.49	84.25
416.713	73.25
416.936	75.25
417.159	84.25
417.382	92.25
417.605	100.25
417.828	85.25
418.051	86.25
418.274	72.25
418.497	84.25
418.72	83.25
418.943	73.25
419.166	88.25
419.389	83.25
419.611	75.25
419.834	84.25
420.057	82.25
420.28	82.25
420.503	97.25
420.726	88.25
420.948	88.25
421.171	89.25
421.394	96.25
421.617	92.25
421.839	103.25
422.062	109.25
422.285	101.25
422.507	99.25
422.73	107.25
422.953	87.25
423.175	85.25
423.398	77.25
423.621	90.25
423.843	98.25
424.066	91.25
424.288	101.25
424.511	95.25
424.733	91.25
424.956	84.25
425.178	115.25
425.401	100.25
425.623	93.25
425.846	81.25
426.068	85.25
426.291	82.25
426.513	103.25
426.735	88.25
426.958	104.25
427.18	106.25
427.402	128.25
427.625	150.25
427.847	127.25
428.069	89.25
428.292	78.25
428.514	84.25
428.736	73.25
428.958	77.25
429.181	90.25
429.403	86.25
429.625	80.25
429.847	110.25
430.069	112.25
430.292	90.25
430.514	86.25
430.736	78.25
430.958	89.25
431.18	84.25
431.402	96.25
431.624	83.25
431.846	84.25
432.068	80.25
432.29	96.25
432.512	89.25
432.734	89.25
432.956	86.25
433.178	97.25
433.4	81.25
433.622	89.25
433.844	95.25
434.066	82.25
434.287	88.25
434.509	82.25
434.731	93.25
434.953	86.25
435.175	81.25
435.397	87.25
435.618	87.25
435.84	98.25
436.062	122.25
436.284	110.25
436.505	98.25
436.727	79.25
436.949	94.25
437.17	105.25
437.392	87.25
437.614	82.25
437.835	94.25
438.057	115.25
438.278	106.25
438.5	102.25
438.721	115.25
438.943	98.25
439.165	84.25
439.386	89.25
439.608	85.25
439.829	89.25
440.05	108.25
440.272	114.25
440.493	94.25
440.715	94.25
440.936	96.25
441.158	72.25
441.379	89.25
441.6	97.25
441.822	83.25
442.043	81.25
442.264	105.25
442.486	97.25
442.707	94.25
442.928	97.25
443.149	124.25
443.371	129.25
443.592	97.25
443.813	114.25
444.034	103.25
444.255	98.25
444.476	100.25
444.698	81.25
444.919	94.25
445.14	122.25
445.361	130.25
445.582	111.25
445.803	134.25
446.024	129.25
446.245	117.25
446.466	101.25
446.687	83.25
446.908	74.25
447.129	81.25
447.35	81.25
447.571	83.25
447.792	95.25
448.013	97.25
448.234	107.25
448.455	81.25
448.675	107.25
448.896	114.25
449.117	94.25
449.338	98.25
449.559	121.25
449.779	122.25
450	91.25
450.221	89.25
450.442	87.25
450.662	91.25
450.883	118.25
451.104	120.25
451.324	74.25
451.545	88.25
451.766	89.25
451.986	100.25
452.207	86.25
452.428	95.25
452.648	90.25
452.869	108.25
453.089	109.25
453.31	107.25
453.53	85.25
453.751	88.25
453.971	103.25
454.192	106.25
454.412	97.25
454.633	87.25
454.853	84.25
455.073	85.25
455.294	85.25
455.514	98.25
455.734	85.25
455.955	92.25
456.175	85.25
456.395	90.25
456.616	97.25
456.836	88.25
457.056	87.25
457.276	87.25
457.497	84.25
457.717	106.25
457.937	87.25
458.157	78.25
458.377	88.25
458.598	108.25
458.818	127.25
459.038	142.25
459.258	100.25
459.478	90.25
459.698	76.25
459.918	82.25
460.138	72.25
460.358	82.25
460.578	86.25
460.798	74.25
461.018	62.25
461.238	78.25
461.458	84.25
461.678	96.25
461.898	83.25
462.118	94.25
462.338	78.25
462.558	90.25
462.777	92.25
462.997	88.25
463.217	90.25
463.437	85.25
463.657	74.25
463.876	94.25
464.096	91.25
464.316	88.25
464.536	89.25
464.755	99.25
464.975	106.25
465.195	147.25
465.414	149.25
465.634	88.25
465.854	76.25
466.073	85.25
466.293	83.25
466.512	83.25
466.732	93.25
466.951	83.25
467.171	78.25
467.391	101.25
467.61	101.25
467.829	86.25
468.049	73.25
468.268	84.25
468.488	86.25
468.707	89.25
468.927	74.25
469.146	99.25
469.365	86.25
469.585	84.25
469.804	80.25
470.023	89.25
470.243	84.25
470.462	89.25
470.681	103.25
470.901	80.25
471.12	84.25
471.339	96.25
471.558	86.25
471.777	80.25
471.997	77.25
472.216	80.25
472.435	90.25
472.654	88.25
472.873	92.25
473.092	92.25
473.311	93.25
473.53	86.25
473.749	92.25
473.968	83.25
474.187	91.25
474.406	97.25
474.625	88.25
474.844	82.25
475.063	67.25
475.282	101.25
475.501	77.25
475.72	89.25
475.939	78.25
476.158	94.25
476.377	80.25
476.596	77.25
476.814	85.25
477.033	80.25
477.252	94.25
477.471	85.25
477.69	77.25
477.908	92.25
478.127	66.25
478.346	80.25
478.564	85.25
478.783	102.25
479.002	86.25
479.22	95.25
479.439	92.25
479.658	116.25
479.876	102.25
480.095	85.25
480.313	92.25
480.532	81.25
480.751	86.25
480.969	94.25
481.188	101.25
481.406	94.25
481.624	84.25
481.843	91.25
482.061	70.25
482.28	95.25
482.498	84.25
482.717	90.25
482.935	86.25
483.153	93.25
483.372	82.25
483.59	90.25
483.808	91.25
484.027	104.25
484.245	81.25
484.463	92.25
484.681	97.25
484.9	84.25
485.118	85.25
485.336	88.25
485.554	92.25
485.772	82.25
485.99	86.25
486.209	96.25
486.427	111.25
486.645	105.25
486.863	109.25
487.081	99.25
487.299	97.25
487.517	88.25
487.735	99.25
487.953	114.25
488.171	101.25
488.389	93.25
488.607	108.25
488.825	97.25
489.043	90.25
489.261	82.25
489.479	91.25
489.696	98.25
489.914	95.25
490.132	86.25
490.35	84.25
490.568	87.25
490.786	92.25
491.003	80.25
491.221	92.25
491.439	99.25
491.657	98.25
491.874	89.25
492.092	102.25
492.31	102.25
492.527	78.25
492.745	91.25
492.963	88.25
493.18	91.25
493.398	95.25
493.615	97.25
493.833	106.25
494.05	82.25
494.268	90.25
494.485	89.25
494.703	84.25
494.92	83.25
495.138	92.25
495.355	93.25
495.573	84.25
495.79	106.25
496.008	88.25
496.225	97.25
496.442	83.25
496.66	99.25
496.877	85.25
497.094	81.25
497.312	89.25
497.529	83.25
497.746	85.25
497.963	91.25
498.181	85.25
498.398	107.25
498.615	112.25
498.832	102.25
499.049	93.25
499.267	81.25
499.484	81.25
499.701	95.25
499.918	83.25
500.135	98.25
500.352	96.25
500.569	89.25
500.786	95.25
501.003	89.25
501.22	83.25
501.437	99.25
501.654	92.25
501.871	99.25
502.088	88.25
502.305	85.25
502.522	91.25
502.739	90.25
502.956	88.25
503.172	84.25
503.389	96.25
503.606	97.25
503.823	102.25
504.04	80.25
504.256	84.25
504.473	89.25
504.69	84.25
504.907	80.25
505.123	86.25
505.34	85.25
505.557	95.25
505.773	82.25
505.99	91.25
506.207	72.25
506.423	87.25
506.64	94.25
506.856	82.25
507.073	89.25
507.289	101.25
507.506	89.25
507.722	97.25
507.939	100.25
508.155	98.25
508.372	89.25
508.588	95.25
508.805	91.25
509.021	108.25
509.238	103.25
509.454	84.25
509.67	100.25
509.887	113.25
510.103	123.25
510.319	195.25
510.536	699.25
510.752	2217.25
510.968	632.25
511.184	151.25
511.401	113.25
511.617	98.25
511.833	77.25
512.049	87.25
512.265	92.25
512.481	95.25
512.698	92.25
512.914	93.25
513.13	99.25
513.346	87.25
513.562	89.25
513.778	87.25
513.994	107.25
514.21	99.25
514.426	112.25
514.642	126.25
514.858	136.25
515.074	148.25
515.29	417.25
515.506	1359.25
515.721	488.25
515.937	153.25
516.153	110.25
516.369	105.25
516.585	98.25
