Data from Uncirc_2005_H10_HRD10591_00067.txt Node
Date: Wed Jan 03 10:28:38 EST 2024
User: Yrep
Spectrometer: HR+D1059
Trigger mode: 1
Integration Time (sec): 1.000000E-1
Scans to average: 1
Electric dark correction enabled: true
Nonlinearity correction enabled: false
Boxcar width: 0
XAxis mode: Wavelengths
Number of Pixels in Spectrum: 2048
>>>>>Begin Spectral Data<<<<<
223.165	-20.75
223.4	-20.75
223.635	-20.75
223.869	-10.75
224.104	-23.75
224.338	-16.75
224.573	-8.75
224.808	-18.75
225.042	-3.75
225.277	-18.75
225.511	5.25
225.746	0.25
225.98	8.25
226.215	14.25
226.449	21.25
226.683	18.25
226.918	19.25
227.152	35.25
227.387	59.25
227.621	37.25
227.856	29.25
228.09	36.25
228.324	62.25
228.559	60.25
228.793	58.25
229.027	71.25
229.262	70.25
229.496	69.25
229.73	77.25
229.964	94.25
230.199	65.25
230.433	86.25
230.667	82.25
230.901	70.25
231.136	68.25
231.37	70.25
231.604	81.25
231.838	88.25
232.072	91.25
232.306	73.25
232.541	65.25
232.775	74.25
233.009	85.25
233.243	86.25
233.477	74.25
233.711	86.25
233.945	77.25
234.179	77.25
234.413	78.25
234.647	81.25
234.881	69.25
235.115	78.25
235.349	77.25
235.583	76.25
235.817	79.25
236.051	77.25
236.285	66.25
236.519	88.25
236.753	65.25
236.987	64.25
237.221	89.25
237.455	74.25
237.689	77.25
237.922	69.25
238.156	65.25
238.39	72.25
238.624	73.25
238.858	79.25
239.091	88.25
239.325	87.25
239.559	78.25
239.793	82.25
240.027	74.25
240.26	85.25
240.494	54.25
240.728	71.25
240.961	63.25
241.195	89.25
241.429	70.25
241.662	58.25
241.896	72.25
242.13	75.25
242.363	62.25
242.597	69.25
242.83	61.25
243.064	80.25
243.298	83.25
243.531	79.25
243.765	72.25
243.998	73.25
244.232	72.25
244.465	77.25
244.699	76.25
244.932	84.25
245.166	73.25
245.399	69.25
245.633	79.25
245.866	76.25
246.099	61.25
246.333	72.25
246.566	70.25
246.8	76.25
247.033	60.25
247.266	92.25
247.5	92.25
247.733	75.25
247.966	76.25
248.2	89.25
248.433	66.25
248.666	87.25
248.899	78.25
249.133	78.25
249.366	115.25
249.599	103.25
249.832	72.25
250.066	67.25
250.299	77.25
250.532	81.25
250.765	81.25
250.998	71.25
251.231	70.25
251.465	80.25
251.698	75.25
251.931	76.25
252.164	73.25
252.397	83.25
252.63	83.25
252.863	79.25
253.096	76.25
253.329	92.25
253.562	86.25
253.795	92.25
254.028	80.25
254.261	78.25
254.494	72.25
254.727	71.25
254.96	85.25
255.193	86.25
255.426	74.25
255.659	65.25
255.892	72.25
256.124	78.25
256.357	75.25
256.59	72.25
256.823	79.25
257.056	78.25
257.289	84.25
257.521	80.25
257.754	66.25
257.987	76.25
258.22	84.25
258.452	78.25
258.685	82.25
258.918	86.25
259.151	68.25
259.383	86.25
259.616	84.25
259.849	72.25
260.081	65.25
260.314	76.25
260.547	86.25
260.779	72.25
261.012	77.25
261.244	71.25
261.477	83.25
261.71	88.25
261.942	105.25
262.175	109.25
262.407	83.25
262.64	74.25
262.872	78.25
263.105	95.25
263.337	74.25
263.57	90.25
263.802	88.25
264.035	84.25
264.267	68.25
264.499	78.25
264.732	91.25
264.964	83.25
265.197	82.25
265.429	87.25
265.661	77.25
265.894	86.25
266.126	93.25
266.358	91.25
266.591	63.25
266.823	82.25
267.055	60.25
267.287	85.25
267.52	81.25
267.752	74.25
267.984	79.25
268.216	90.25
268.448	69.25
268.681	89.25
268.913	88.25
269.145	99.25
269.377	76.25
269.609	79.25
269.841	80.25
270.073	77.25
270.306	74.25
270.538	89.25
270.77	76.25
271.002	64.25
271.234	72.25
271.466	85.25
271.698	86.25
271.93	81.25
272.162	87.25
272.394	88.25
272.626	84.25
272.858	65.25
273.09	80.25
273.322	81.25
273.553	82.25
273.785	87.25
274.017	65.25
274.249	81.25
274.481	79.25
274.713	83.25
274.945	76.25
275.176	88.25
275.408	77.25
275.64	77.25
275.872	91.25
276.104	77.25
276.335	81.25
276.567	105.25
276.799	96.25
277.031	101.25
277.262	79.25
277.494	80.25
277.726	78.25
277.957	85.25
278.189	75.25
278.421	81.25
278.652	90.25
278.884	81.25
279.115	94.25
279.347	83.25
279.579	79.25
279.81	82.25
280.042	73.25
280.273	71.25
280.505	94.25
280.736	76.25
280.968	84.25
281.199	72.25
281.431	90.25
281.662	95.25
281.894	83.25
282.125	89.25
282.356	124.25
282.588	134.25
282.819	117.25
283.051	96.25
283.282	95.25
283.513	89.25
283.745	94.25
283.976	79.25
284.207	76.25
284.439	91.25
284.67	71.25
284.901	83.25
285.132	91.25
285.364	81.25
285.595	91.25
285.826	82.25
286.057	94.25
286.288	60.25
286.52	90.25
286.751	94.25
286.982	82.25
287.213	87.25
287.444	95.25
287.675	79.25
287.906	74.25
288.138	82.25
288.369	76.25
288.6	86.25
288.831	95.25
289.062	99.25
289.293	84.25
289.524	79.25
289.755	83.25
289.986	88.25
290.217	86.25
290.448	78.25
290.679	85.25
290.91	97.25
291.141	93.25
291.371	89.25
291.602	89.25
291.833	81.25
292.064	76.25
292.295	67.25
292.526	78.25
292.757	86.25
292.987	77.25
293.218	74.25
293.449	68.25
293.68	76.25
293.91	75.25
294.141	83.25
294.372	90.25
294.603	84.25
294.833	81.25
295.064	80.25
295.295	91.25
295.525	80.25
295.756	82.25
295.987	115.25
296.217	126.25
296.448	118.25
296.679	80.25
296.909	85.25
297.14	98.25
297.37	113.25
297.601	82.25
297.831	76.25
298.062	91.25
298.292	88.25
298.523	76.25
298.753	78.25
298.984	77.25
299.214	80.25
299.445	97.25
299.675	89.25
299.905	96.25
300.136	81.25
300.366	83.25
300.597	84.25
300.827	80.25
301.057	88.25
301.288	94.25
301.518	100.25
301.748	84.25
301.979	97.25
302.209	81.25
302.439	77.25
302.669	97.25
302.9	88.25
303.13	101.25
303.36	101.25
303.59	101.25
303.82	79.25
304.051	88.25
304.281	68.25
304.511	104.25
304.741	100.25
304.971	106.25
305.201	64.25
305.431	91.25
305.661	93.25
305.891	77.25
306.121	101.25
306.352	90.25
306.582	104.25
306.812	96.25
307.042	86.25
307.272	93.25
307.502	77.25
307.731	89.25
307.961	96.25
308.191	90.25
308.421	93.25
308.651	90.25
308.881	99.25
309.111	90.25
309.341	81.25
309.571	99.25
309.8	94.25
310.03	86.25
310.26	88.25
310.49	93.25
310.72	105.25
310.949	93.25
311.179	100.25
311.409	90.25
311.639	91.25
311.868	92.25
312.098	92.25
312.328	100.25
312.557	93.25
312.787	113.25
313.017	105.25
313.246	85.25
313.476	76.25
313.706	80.25
313.935	99.25
314.165	92.25
314.394	93.25
314.624	91.25
314.853	102.25
315.083	97.25
315.312	95.25
315.542	85.25
315.771	96.25
316.001	81.25
316.23	94.25
316.46	88.25
316.689	93.25
316.919	93.25
317.148	94.25
317.377	100.25
317.607	92.25
317.836	73.25
318.065	88.25
318.295	79.25
318.524	109.25
318.753	98.25
318.983	96.25
319.212	107.25
319.441	103.25
319.67	100.25
319.9	84.25
320.129	93.25
320.358	85.25
320.587	82.25
320.816	95.25
321.046	109.25
321.275	99.25
321.504	96.25
321.733	101.25
321.962	109.25
322.191	118.25
322.42	100.25
322.649	103.25
322.878	114.25
323.108	125.25
323.337	128.25
323.566	143.25
323.795	150.25
324.024	218.25
324.253	436.25
324.482	954.25
324.71	1977.25
324.939	2640.25
325.168	955.25
325.397	283.25
325.626	149.25
325.855	129.25
326.084	136.25
326.313	136.25
326.542	162.25
326.77	257.25
326.999	533.25
327.228	1099.25
327.457	2053.25
327.686	1610.25
327.914	430.25
328.143	182.25
328.372	149.25
328.6	114.25
328.829	114.25
329.058	130.25
329.287	142.25
329.515	108.25
329.744	92.25
329.972	87.25
330.201	95.25
330.43	102.25
330.658	125.25
330.887	136.25
331.115	130.25
331.344	106.25
331.572	95.25
331.801	98.25
332.03	105.25
332.258	98.25
332.486	98.25
332.715	86.25
332.943	97.25
333.172	90.25
333.4	98.25
333.629	102.25
333.857	98.25
334.085	111.25
334.314	92.25
334.542	97.25
334.771	113.25
334.999	101.25
335.227	105.25
335.455	92.25
335.684	93.25
335.912	96.25
336.14	96.25
336.369	116.25
336.597	105.25
336.825	90.25
337.053	99.25
337.281	112.25
337.51	78.25
337.738	86.25
337.966	99.25
338.194	99.25
338.422	84.25
338.65	94.25
338.878	76.25
339.106	85.25
339.334	96.25
339.562	93.25
339.79	89.25
340.018	78.25
340.246	85.25
340.474	90.25
340.702	95.25
340.93	99.25
341.158	100.25
341.386	83.25
341.614	92.25
341.842	91.25
342.07	92.25
342.298	91.25
342.526	83.25
342.754	77.25
342.981	93.25
343.209	91.25
343.437	92.25
343.665	92.25
343.893	106.25
344.12	77.25
344.348	73.25
344.576	102.25
344.804	102.25
345.031	101.25
345.259	107.25
345.487	87.25
345.714	109.25
345.942	76.25
346.17	105.25
346.397	99.25
346.625	89.25
346.853	80.25
347.08	87.25
347.308	87.25
347.535	99.25
347.763	94.25
347.99	110.25
348.218	99.25
348.445	105.25
348.673	103.25
348.9	101.25
349.128	101.25
349.355	98.25
349.583	86.25
349.81	96.25
350.037	93.25
350.265	85.25
350.492	86.25
350.72	99.25
350.947	105.25
351.174	104.25
351.402	107.25
351.629	105.25
351.856	95.25
352.083	100.25
352.311	106.25
352.538	106.25
352.765	93.25
352.992	110.25
353.22	109.25
353.447	101.25
353.674	100.25
353.901	96.25
354.128	83.25
354.355	84.25
354.583	101.25
354.81	87.25
355.037	85.25
355.264	89.25
355.491	76.25
355.718	85.25
355.945	93.25
356.172	85.25
356.399	88.25
356.626	90.25
356.853	92.25
357.08	102.25
357.307	81.25
357.534	90.25
357.761	95.25
357.988	88.25
358.215	98.25
358.441	81.25
358.668	82.25
358.895	97.25
359.122	109.25
359.349	91.25
359.576	97.25
359.802	100.25
360.029	110.25
360.256	120.25
360.483	102.25
360.709	104.25
360.936	79.25
361.163	74.25
361.39	81.25
361.616	91.25
361.843	93.25
362.07	89.25
362.296	103.25
362.523	89.25
362.749	93.25
362.976	92.25
363.203	93.25
363.429	82.25
363.656	93.25
363.882	92.25
364.109	91.25
364.335	98.25
364.562	98.25
364.788	94.25
365.015	89.25
365.241	97.25
365.468	101.25
365.694	99.25
365.92	85.25
366.147	92.25
366.373	81.25
366.599	97.25
366.826	74.25
367.052	84.25
367.278	94.25
367.505	86.25
367.731	107.25
367.957	99.25
368.184	100.25
368.41	96.25
368.636	119.25
368.862	114.25
369.089	104.25
369.315	94.25
369.541	89.25
369.767	101.25
369.993	79.25
370.219	89.25
370.445	97.25
370.672	94.25
370.898	74.25
371.124	82.25
371.35	82.25
371.576	91.25
371.802	78.25
372.028	88.25
372.254	74.25
372.48	87.25
372.706	85.25
372.932	84.25
373.158	99.25
373.384	93.25
373.61	89.25
373.835	92.25
374.061	90.25
374.287	100.25
374.513	91.25
374.739	80.25
374.965	88.25
375.191	81.25
375.416	82.25
375.642	76.25
375.868	86.25
376.094	75.25
376.319	90.25
376.545	82.25
376.771	81.25
376.997	90.25
377.222	94.25
377.448	97.25
377.674	93.25
377.899	90.25
378.125	74.25
378.35	84.25
378.576	82.25
378.802	98.25
379.027	77.25
379.253	79.25
379.478	87.25
379.704	86.25
379.929	95.25
380.155	90.25
380.38	93.25
380.606	94.25
380.831	88.25
381.057	92.25
381.282	92.25
381.507	100.25
381.733	99.25
381.958	96.25
382.184	89.25
382.409	98.25
382.634	96.25
382.86	90.25
383.085	106.25
383.31	95.25
383.535	98.25
383.761	101.25
383.986	94.25
384.211	86.25
384.436	96.25
384.662	94.25
384.887	92.25
385.112	95.25
385.337	113.25
385.562	107.25
385.787	92.25
386.013	110.25
386.238	114.25
386.463	107.25
386.688	116.25
386.913	89.25
387.138	83.25
387.363	99.25
387.588	117.25
387.813	113.25
388.038	105.25
388.263	105.25
388.488	102.25
388.713	96.25
388.938	83.25
389.163	93.25
389.387	97.25
389.612	97.25
389.837	93.25
390.062	92.25
390.287	80.25
390.512	85.25
390.736	85.25
390.961	85.25
391.186	84.25
391.411	100.25
391.636	84.25
391.86	82.25
392.085	74.25
392.31	85.25
392.534	89.25
392.759	91.25
392.984	75.25
393.208	82.25
393.433	77.25
393.658	94.25
393.882	78.25
394.107	85.25
394.331	77.25
394.556	94.25
394.78	90.25
395.005	81.25
395.229	90.25
395.454	77.25
395.678	85.25
395.903	72.25
396.127	82.25
396.352	79.25
396.576	81.25
396.801	79.25
397.025	90.25
397.249	88.25
397.474	82.25
397.698	83.25
397.922	84.25
398.147	91.25
398.371	90.25
398.595	100.25
398.82	82.25
399.044	82.25
399.268	92.25
399.492	75.25
399.717	85.25
399.941	84.25
400.165	98.25
400.389	103.25
400.613	72.25
400.837	92.25
401.062	89.25
401.286	81.25
401.51	96.25
401.734	85.25
401.958	92.25
402.182	125.25
402.406	152.25
402.63	115.25
402.854	102.25
403.078	93.25
403.302	74.25
403.526	98.25
403.75	88.25
403.974	93.25
404.198	85.25
404.422	88.25
404.645	86.25
404.869	84.25
405.093	108.25
405.317	97.25
405.541	92.25
405.765	85.25
405.988	121.25
406.212	192.25
406.436	211.25
406.66	147.25
406.883	100.25
407.107	103.25
407.331	93.25
407.555	104.25
407.778	83.25
408.002	86.25
408.226	72.25
408.449	84.25
408.673	101.25
408.896	99.25
409.12	92.25
409.344	82.25
409.567	98.25
409.791	89.25
410.014	90.25
410.238	89.25
410.461	86.25
410.685	100.25
410.908	96.25
411.132	101.25
411.355	99.25
411.578	96.25
411.802	83.25
412.025	99.25
412.249	76.25
412.472	81.25
412.695	90.25
412.919	81.25
413.142	84.25
413.365	88.25
413.589	78.25
413.812	79.25
414.035	111.25
414.258	95.25
414.482	77.25
414.705	90.25
414.928	85.25
415.151	98.25
415.374	102.25
415.597	79.25
415.821	89.25
416.044	100.25
416.267	89.25
416.49	88.25
416.713	83.25
416.936	88.25
417.159	67.25
417.382	85.25
417.605	72.25
417.828	85.25
418.051	82.25
418.274	73.25
418.497	83.25
418.72	86.25
418.943	92.25
419.166	90.25
419.389	77.25
419.611	78.25
419.834	84.25
420.057	85.25
420.28	83.25
420.503	81.25
420.726	96.25
420.948	93.25
421.171	103.25
421.394	98.25
421.617	95.25
421.839	101.25
422.062	93.25
422.285	90.25
422.507	105.25
422.73	100.25
422.953	93.25
423.175	74.25
423.398	100.25
423.621	85.25
423.843	102.25
424.066	91.25
424.288	87.25
424.511	85.25
424.733	98.25
424.956	103.25
425.178	104.25
425.401	88.25
425.623	89.25
425.846	96.25
426.068	104.25
426.291	86.25
426.513	80.25
426.735	96.25
426.958	105.25
427.18	102.25
427.402	158.25
427.625	172.25
427.847	138.25
428.069	109.25
428.292	84.25
428.514	93.25
428.736	84.25
428.958	80.25
429.181	75.25
429.403	74.25
429.625	84.25
429.847	88.25
430.069	105.25
430.292	93.25
430.514	80.25
430.736	76.25
430.958	85.25
431.18	90.25
431.402	85.25
431.624	69.25
431.846	78.25
432.068	80.25
432.29	80.25
432.512	95.25
432.734	81.25
432.956	94.25
433.178	88.25
433.4	103.25
433.622	97.25
433.844	86.25
434.066	89.25
434.287	93.25
434.509	77.25
434.731	98.25
434.953	96.25
435.175	85.25
435.397	98.25
435.618	95.25
435.84	104.25
436.062	123.25
436.284	132.25
436.505	113.25
436.727	113.25
436.949	96.25
437.17	80.25
437.392	97.25
437.614	104.25
437.835	114.25
438.057	111.25
438.278	130.25
438.5	104.25
438.721	130.25
438.943	112.25
439.165	102.25
439.386	79.25
439.608	92.25
439.829	78.25
440.05	141.25
440.272	155.25
440.493	111.25
440.715	79.25
440.936	82.25
441.158	86.25
441.379	83.25
441.6	84.25
441.822	91.25
442.043	103.25
442.264	118.25
442.486	119.25
442.707	88.25
442.928	85.25
443.149	129.25
443.371	154.25
443.592	125.25
443.813	118.25
444.034	129.25
444.255	102.25
444.476	86.25
444.698	95.25
444.919	86.25
445.14	120.25
445.361	125.25
445.582	121.25
445.803	144.25
446.024	126.25
446.245	147.25
446.466	111.25
446.687	104.25
446.908	85.25
447.129	107.25
447.35	105.25
447.571	69.25
447.792	99.25
448.013	105.25
448.234	110.25
448.455	107.25
448.675	125.25
448.896	130.25
449.117	105.25
449.338	107.25
449.559	134.25
449.779	163.25
450	102.25
450.221	73.25
450.442	76.25
450.662	96.25
450.883	97.25
451.104	127.25
451.324	93.25
451.545	82.25
451.766	84.25
451.986	93.25
452.207	95.25
452.428	91.25
452.648	99.25
452.869	105.25
453.089	103.25
453.31	127.25
453.53	119.25
453.751	101.25
453.971	99.25
454.192	108.25
454.412	95.25
454.633	86.25
454.853	81.25
455.073	79.25
455.294	91.25
455.514	98.25
455.734	79.25
455.955	95.25
456.175	82.25
456.395	76.25
456.616	81.25
456.836	75.25
457.056	91.25
457.276	79.25
457.497	78.25
457.717	66.25
457.937	71.25
458.157	66.25
458.377	93.25
458.598	115.25
458.818	154.25
459.038	171.25
459.258	111.25
459.478	93.25
459.698	83.25
459.918	76.25
460.138	91.25
460.358	91.25
460.578	102.25
460.798	84.25
461.018	79.25
461.238	70.25
461.458	88.25
461.678	93.25
461.898	82.25
462.118	90.25
462.338	81.25
462.558	90.25
462.777	81.25
462.997	98.25
463.217	88.25
463.437	85.25
463.657	80.25
463.876	94.25
464.096	106.25
464.316	88.25
464.536	79.25
464.755	84.25
464.975	104.25
465.195	162.25
465.414	156.25
465.634	97.25
465.854	79.25
466.073	84.25
466.293	91.25
466.512	85.25
466.732	80.25
466.951	86.25
467.171	90.25
467.391	92.25
467.61	107.25
467.829	99.25
468.049	87.25
468.268	88.25
468.488	81.25
468.707	80.25
468.927	89.25
469.146	79.25
469.365	84.25
469.585	89.25
469.804	96.25
470.023	98.25
470.243	97.25
470.462	92.25
470.681	104.25
470.901	83.25
471.12	78.25
471.339	85.25
471.558	79.25
471.777	79.25
471.997	80.25
472.216	84.25
472.435	90.25
472.654	80.25
472.873	78.25
473.092	82.25
473.311	80.25
473.53	85.25
473.749	89.25
473.968	89.25
474.187	122.25
474.406	94.25
474.625	71.25
474.844	88.25
475.063	83.25
475.282	83.25
475.501	79.25
475.72	91.25
475.939	80.25
476.158	90.25
476.377	93.25
476.596	84.25
476.814	82.25
477.033	98.25
477.252	89.25
477.471	94.25
477.69	92.25
477.908	85.25
478.127	98.25
478.346	78.25
478.564	104.25
478.783	92.25
479.002	93.25
479.22	86.25
479.439	112.25
479.658	106.25
479.876	95.25
480.095	90.25
480.313	97.25
480.532	84.25
480.751	91.25
480.969	84.25
481.188	94.25
481.406	95.25
481.624	100.25
481.843	83.25
482.061	89.25
482.28	85.25
482.498	78.25
482.717	75.25
482.935	102.25
483.153	98.25
483.372	100.25
483.59	90.25
483.808	74.25
484.027	94.25
484.245	80.25
484.463	86.25
484.681	94.25
484.9	91.25
485.118	91.25
485.336	109.25
485.554	86.25
485.772	87.25
485.99	97.25
486.209	113.25
486.427	100.25
486.645	99.25
486.863	107.25
487.081	97.25
487.299	99.25
487.517	105.25
487.735	88.25
487.953	92.25
488.171	89.25
488.389	97.25
488.607	92.25
488.825	84.25
489.043	89.25
489.261	87.25
489.479	104.25
489.696	74.25
489.914	81.25
490.132	77.25
490.35	86.25
490.568	85.25
490.786	105.25
491.003	77.25
491.221	74.25
491.439	82.25
491.657	80.25
491.874	88.25
492.092	96.25
492.31	90.25
492.527	87.25
492.745	90.25
492.963	73.25
493.18	87.25
493.398	95.25
493.615	100.25
493.833	92.25
494.05	98.25
494.268	85.25
494.485	86.25
494.703	100.25
494.92	75.25
495.138	89.25
495.355	94.25
495.573	83.25
495.79	96.25
496.008	98.25
496.225	92.25
496.442	96.25
496.66	99.25
496.877	81.25
497.094	77.25
497.312	86.25
497.529	92.25
497.746	100.25
497.963	94.25
498.181	94.25
498.398	84.25
498.615	100.25
498.832	106.25
499.049	97.25
499.267	97.25
499.484	93.25
499.701	96.25
499.918	103.25
500.135	86.25
500.352	94.25
500.569	96.25
500.786	78.25
501.003	82.25
501.22	75.25
501.437	86.25
501.654	97.25
501.871	94.25
502.088	98.25
502.305	86.25
502.522	84.25
502.739	95.25
502.956	97.25
503.172	98.25
503.389	95.25
503.606	99.25
503.823	84.25
504.04	85.25
504.256	76.25
504.473	87.25
504.69	78.25
504.907	78.25
505.123	85.25
505.34	76.25
505.557	91.25
505.773	91.25
505.99	93.25
506.207	93.25
506.423	90.25
506.64	97.25
506.856	95.25
507.073	89.25
507.289	94.25
507.506	98.25
507.722	107.25
507.939	110.25
508.155	86.25
508.372	92.25
508.588	96.25
508.805	92.25
509.021	110.25
509.238	95.25
509.454	94.25
509.67	96.25
509.887	106.25
510.103	126.25
510.319	204.25
510.536	813.25
510.752	2515.25
510.968	703.25
511.184	162.25
511.401	114.25
511.617	99.25
511.833	93.25
512.049	89.25
512.265	96.25
512.481	105.25
512.698	101.25
512.914	89.25
513.13	78.25
513.346	101.25
513.562	98.25
513.778	89.25
513.994	101.25
514.21	107.25
514.426	106.25
514.642	118.25
514.858	128.25
515.074	192.25
515.29	498.25
515.506	1659.25
515.721	601.25
515.937	163.25
