Data from Uncirc_2005_H10_HRD10591_00013.txt Node
Date: Wed Jan 03 10:28:27 EST 2024
User: Yrep
Spectrometer: HR+D1059
Trigger mode: 1
Integration Time (sec): 1.000000E-1
Scans to average: 1
Electric dark correction enabled: true
Nonlinearity correction enabled: false
Boxcar width: 0
XAxis mode: Wavelengths
Number of Pixels in Spectrum: 2048
>>>>>Begin Spectral Data<<<<<
223.165	-18.88
223.4	-18.88
223.635	-18.88
223.869	-34.88
224.104	-21.88
224.338	-18.88
224.573	-11.88
224.808	-4.88
225.042	-16.88
225.277	-8.88
225.511	-3.88
225.746	3.12
225.98	28.12
226.215	27.12
226.449	25.12
226.683	25.12
226.918	20.12
227.152	12.12
227.387	30.12
227.621	47.12
227.856	38.12
228.09	39.12
228.324	61.12
228.559	74.12
228.793	81.12
229.027	72.12
229.262	65.12
229.496	75.12
229.73	83.12
229.964	88.12
230.199	83.12
230.433	79.12
230.667	79.12
230.901	75.12
231.136	90.12
231.37	84.12
231.604	92.12
231.838	87.12
232.072	89.12
232.306	92.12
232.541	82.12
232.775	82.12
233.009	84.12
233.243	98.12
233.477	82.12
233.711	83.12
233.945	91.12
234.179	83.12
234.413	91.12
234.647	87.12
234.881	96.12
235.115	75.12
235.349	77.12
235.583	91.12
235.817	84.12
236.051	90.12
236.285	88.12
236.519	87.12
236.753	88.12
236.987	81.12
237.221	85.12
237.455	97.12
237.689	87.12
237.922	80.12
238.156	88.12
238.39	88.12
238.624	77.12
238.858	67.12
239.091	82.12
239.325	79.12
239.559	90.12
239.793	85.12
240.027	88.12
240.26	88.12
240.494	81.12
240.728	74.12
240.961	90.12
241.195	67.12
241.429	75.12
241.662	79.12
241.896	93.12
242.13	86.12
242.363	84.12
242.597	84.12
242.83	90.12
243.064	97.12
243.298	80.12
243.531	79.12
243.765	93.12
243.998	94.12
244.232	93.12
244.465	88.12
244.699	84.12
244.932	82.12
245.166	85.12
245.399	74.12
245.633	93.12
245.866	75.12
246.099	77.12
246.333	95.12
246.566	95.12
246.8	81.12
247.033	85.12
247.266	91.12
247.5	73.12
247.733	74.12
247.966	78.12
248.2	86.12
248.433	84.12
248.666	83.12
248.899	97.12
249.133	96.12
249.366	102.12
249.599	102.12
249.832	80.12
250.066	99.12
250.299	80.12
250.532	89.12
250.765	88.12
250.998	83.12
251.231	82.12
251.465	92.12
251.698	94.12
251.931	85.12
252.164	80.12
252.397	72.12
252.63	101.12
252.863	92.12
253.096	92.12
253.329	88.12
253.562	75.12
253.795	86.12
254.028	81.12
254.261	91.12
254.494	87.12
254.727	87.12
254.96	93.12
255.193	86.12
255.426	81.12
255.659	100.12
255.892	90.12
256.124	97.12
256.357	88.12
256.59	87.12
256.823	83.12
257.056	85.12
257.289	76.12
257.521	85.12
257.754	79.12
257.987	84.12
258.22	84.12
258.452	91.12
258.685	94.12
258.918	93.12
259.151	85.12
259.383	81.12
259.616	81.12
259.849	84.12
260.081	99.12
260.314	87.12
260.547	83.12
260.779	73.12
261.012	83.12
261.244	88.12
261.477	91.12
261.71	96.12
261.942	117.12
262.175	119.12
262.407	93.12
262.64	74.12
262.872	89.12
263.105	96.12
263.337	100.12
263.57	99.12
263.802	87.12
264.035	91.12
264.267	84.12
264.499	93.12
264.732	71.12
264.964	81.12
265.197	77.12
265.429	95.12
265.661	90.12
265.894	83.12
266.126	81.12
266.358	95.12
266.591	92.12
266.823	86.12
267.055	91.12
267.287	89.12
267.52	87.12
267.752	84.12
267.984	81.12
268.216	79.12
268.448	93.12
268.681	99.12
268.913	79.12
269.145	88.12
269.377	87.12
269.609	76.12
269.841	85.12
270.073	100.12
270.306	86.12
270.538	85.12
270.77	89.12
271.002	81.12
271.234	102.12
271.466	110.12
271.698	92.12
271.93	89.12
272.162	86.12
272.394	87.12
272.626	106.12
272.858	102.12
273.09	97.12
273.322	90.12
273.553	81.12
273.785	88.12
274.017	98.12
274.249	92.12
274.481	92.12
274.713	90.12
274.945	96.12
275.176	96.12
275.408	89.12
275.64	82.12
275.872	83.12
276.104	91.12
276.335	93.12
276.567	104.12
276.799	121.12
277.031	106.12
277.262	88.12
277.494	101.12
277.726	97.12
277.957	89.12
278.189	92.12
278.421	107.12
278.652	82.12
278.884	98.12
279.115	83.12
279.347	85.12
279.579	81.12
279.81	84.12
280.042	89.12
280.273	108.12
280.505	105.12
280.736	90.12
280.968	99.12
281.199	82.12
281.431	98.12
281.662	98.12
281.894	76.12
282.125	104.12
282.356	114.12
282.588	148.12
282.819	139.12
283.051	84.12
283.282	95.12
283.513	91.12
283.745	93.12
283.976	86.12
284.207	102.12
284.439	105.12
284.67	93.12
284.901	66.12
285.132	92.12
285.364	84.12
285.595	94.12
285.826	97.12
286.057	92.12
286.288	92.12
286.52	96.12
286.751	96.12
286.982	81.12
287.213	98.12
287.444	82.12
287.675	96.12
287.906	98.12
288.138	84.12
288.369	106.12
288.6	100.12
288.831	95.12
289.062	99.12
289.293	93.12
289.524	91.12
289.755	89.12
289.986	92.12
290.217	85.12
290.448	106.12
290.679	97.12
290.91	103.12
291.141	92.12
291.371	74.12
291.602	87.12
291.833	98.12
292.064	81.12
292.295	100.12
292.526	82.12
292.757	93.12
292.987	102.12
293.218	97.12
293.449	84.12
293.68	101.12
293.91	78.12
294.141	96.12
294.372	96.12
294.603	105.12
294.833	99.12
295.064	81.12
295.295	93.12
295.525	102.12
295.756	105.12
295.987	121.12
296.217	148.12
296.448	136.12
296.679	104.12
296.909	98.12
297.14	87.12
297.37	95.12
297.601	87.12
297.831	80.12
298.062	107.12
298.292	76.12
298.523	84.12
298.753	83.12
298.984	103.12
299.214	108.12
299.445	90.12
299.675	102.12
299.905	91.12
300.136	95.12
300.366	91.12
300.597	83.12
300.827	98.12
301.057	112.12
301.288	95.12
301.518	97.12
301.748	91.12
301.979	106.12
302.209	86.12
302.439	98.12
302.669	90.12
302.9	100.12
303.13	83.12
303.36	92.12
303.59	96.12
303.82	103.12
304.051	105.12
304.281	112.12
304.511	94.12
304.741	100.12
304.971	85.12
305.201	97.12
305.431	96.12
305.661	85.12
305.891	107.12
306.121	103.12
306.352	110.12
306.582	119.12
306.812	103.12
307.042	96.12
307.272	89.12
307.502	107.12
307.731	88.12
307.961	92.12
308.191	95.12
308.421	97.12
308.651	99.12
308.881	84.12
309.111	100.12
309.341	88.12
309.571	110.12
309.8	110.12
310.03	100.12
310.26	99.12
310.49	101.12
310.72	116.12
310.949	114.12
311.179	101.12
311.409	80.12
311.639	98.12
311.868	97.12
312.098	103.12
312.328	111.12
312.557	99.12
312.787	111.12
313.017	111.12
313.246	107.12
313.476	101.12
313.706	92.12
313.935	100.12
314.165	106.12
314.394	108.12
314.624	96.12
314.853	106.12
315.083	93.12
315.312	112.12
315.542	93.12
315.771	110.12
316.001	92.12
316.23	99.12
316.46	88.12
316.689	100.12
316.919	99.12
317.148	110.12
317.377	105.12
317.607	109.12
317.836	95.12
318.065	106.12
318.295	103.12
318.524	82.12
318.753	108.12
318.983	97.12
319.212	88.12
319.441	112.12
319.67	111.12
319.9	106.12
320.129	107.12
320.358	97.12
320.587	107.12
320.816	102.12
321.046	91.12
321.275	93.12
321.504	115.12
321.733	101.12
321.962	124.12
322.191	113.12
322.42	104.12
322.649	108.12
322.878	111.12
323.108	118.12
323.337	117.12
323.566	124.12
323.795	161.12
324.024	242.12
324.253	413.12
324.482	919.12
324.71	1892.12
324.939	2592.12
325.168	924.12
325.397	266.12
325.626	173.12
325.855	148.12
326.084	136.12
326.313	148.12
326.542	160.12
326.77	272.12
326.999	491.12
327.228	1059.12
327.457	1957.12
327.686	1579.12
327.914	411.12
328.143	209.12
328.372	144.12
328.6	138.12
328.829	133.12
329.058	150.12
329.287	133.12
329.515	104.12
329.744	111.12
329.972	105.12
330.201	106.12
330.43	112.12
330.658	123.12
330.887	157.12
331.115	142.12
331.344	105.12
331.572	112.12
331.801	112.12
332.03	122.12
332.258	110.12
332.486	108.12
332.715	104.12
332.943	91.12
333.172	100.12
333.4	108.12
333.629	106.12
333.857	119.12
334.085	114.12
334.314	100.12
334.542	111.12
334.771	104.12
334.999	96.12
335.227	107.12
335.455	99.12
335.684	97.12
335.912	105.12
336.14	110.12
336.369	108.12
336.597	111.12
336.825	103.12
337.053	97.12
337.281	92.12
337.51	107.12
337.738	111.12
337.966	90.12
338.194	96.12
338.422	95.12
338.65	86.12
338.878	101.12
339.106	110.12
339.334	95.12
339.562	103.12
339.79	99.12
340.018	100.12
340.246	103.12
340.474	109.12
340.702	93.12
340.93	87.12
341.158	96.12
341.386	108.12
341.614	109.12
341.842	98.12
342.07	97.12
342.298	97.12
342.526	108.12
342.754	95.12
342.981	97.12
343.209	90.12
343.437	112.12
343.665	104.12
343.893	98.12
344.12	107.12
344.348	93.12
344.576	87.12
344.804	92.12
345.031	111.12
345.259	100.12
345.487	86.12
345.714	98.12
345.942	100.12
346.17	103.12
346.397	110.12
346.625	103.12
346.853	104.12
347.08	90.12
347.308	99.12
347.535	109.12
347.763	111.12
347.99	103.12
348.218	107.12
348.445	117.12
348.673	109.12
348.9	108.12
349.128	106.12
349.355	96.12
349.583	103.12
349.81	87.12
350.037	107.12
350.265	107.12
350.492	108.12
350.72	116.12
350.947	109.12
351.174	113.12
351.402	120.12
351.629	128.12
351.856	116.12
352.083	106.12
352.311	113.12
352.538	104.12
352.765	113.12
352.992	109.12
353.22	114.12
353.447	114.12
353.674	117.12
353.901	124.12
354.128	104.12
354.355	109.12
354.583	106.12
354.81	100.12
355.037	96.12
355.264	88.12
355.491	111.12
355.718	98.12
355.945	117.12
356.172	108.12
356.399	97.12
356.626	96.12
356.853	110.12
357.08	99.12
357.307	93.12
357.534	98.12
357.761	104.12
357.988	109.12
358.215	107.12
358.441	121.12
358.668	112.12
358.895	100.12
359.122	96.12
359.349	92.12
359.576	92.12
359.802	92.12
360.029	132.12
360.256	118.12
360.483	116.12
360.709	99.12
360.936	101.12
361.163	98.12
361.39	104.12
361.616	93.12
361.843	104.12
362.07	91.12
362.296	90.12
362.523	90.12
362.749	98.12
362.976	107.12
363.203	98.12
363.429	88.12
363.656	73.12
363.882	88.12
364.109	96.12
364.335	100.12
364.562	93.12
364.788	95.12
365.015	87.12
365.241	113.12
365.468	111.12
365.694	111.12
365.92	117.12
366.147	98.12
366.373	94.12
366.599	94.12
366.826	91.12
367.052	98.12
367.278	93.12
367.505	109.12
367.731	96.12
367.957	91.12
368.184	91.12
368.41	100.12
368.636	115.12
368.862	149.12
369.089	124.12
369.315	104.12
369.541	92.12
369.767	101.12
369.993	100.12
370.219	109.12
370.445	103.12
370.672	83.12
370.898	96.12
371.124	96.12
371.35	85.12
371.576	90.12
371.802	92.12
372.028	88.12
372.254	98.12
372.48	98.12
372.706	91.12
372.932	97.12
373.158	85.12
373.384	87.12
373.61	112.12
373.835	99.12
374.061	92.12
374.287	99.12
374.513	108.12
374.739	97.12
374.965	105.12
375.191	91.12
375.416	98.12
375.642	99.12
375.868	97.12
376.094	95.12
376.319	97.12
376.545	103.12
376.771	102.12
376.997	103.12
377.222	105.12
377.448	95.12
377.674	100.12
377.899	105.12
378.125	100.12
378.35	99.12
378.576	101.12
378.802	97.12
379.027	88.12
379.253	88.12
379.478	112.12
379.704	97.12
379.929	108.12
380.155	92.12
380.38	106.12
380.606	101.12
380.831	107.12
381.057	113.12
381.282	109.12
381.507	107.12
381.733	88.12
381.958	109.12
382.184	88.12
382.409	105.12
382.634	117.12
382.86	105.12
383.085	112.12
383.31	128.12
383.535	102.12
383.761	108.12
383.986	108.12
384.211	102.12
384.436	94.12
384.662	112.12
384.887	103.12
385.112	118.12
385.337	115.12
385.562	116.12
385.787	117.12
386.013	145.12
386.238	119.12
386.463	129.12
386.688	129.12
386.913	129.12
387.138	109.12
387.363	117.12
387.588	112.12
387.813	109.12
388.038	131.12
388.263	131.12
388.488	133.12
388.713	101.12
388.938	90.12
389.163	113.12
389.387	104.12
389.612	99.12
389.837	93.12
390.062	97.12
390.287	97.12
390.512	98.12
390.736	106.12
390.961	99.12
391.186	81.12
391.411	99.12
391.636	86.12
391.86	89.12
392.085	87.12
392.31	91.12
392.534	90.12
392.759	104.12
392.984	107.12
393.208	102.12
393.433	92.12
393.658	101.12
393.882	90.12
394.107	99.12
394.331	72.12
394.556	108.12
394.78	108.12
395.005	99.12
395.229	87.12
395.454	90.12
395.678	97.12
395.903	90.12
396.127	103.12
396.352	103.12
396.576	88.12
396.801	103.12
397.025	100.12
397.249	89.12
397.474	87.12
397.698	94.12
397.922	109.12
398.147	104.12
398.371	99.12
398.595	93.12
398.82	97.12
399.044	98.12
399.268	101.12
399.492	92.12
399.717	107.12
399.941	94.12
400.165	89.12
400.389	100.12
400.613	96.12
400.837	90.12
401.062	101.12
401.286	84.12
401.51	93.12
401.734	90.12
401.958	100.12
402.182	124.12
402.406	156.12
402.63	127.12
402.854	109.12
403.078	103.12
403.302	100.12
403.526	96.12
403.75	102.12
403.974	96.12
404.198	85.12
404.422	94.12
404.645	103.12
404.869	81.12
405.093	92.12
405.317	106.12
405.541	101.12
405.765	93.12
405.988	128.12
406.212	183.12
406.436	237.12
406.66	164.12
406.883	117.12
407.107	91.12
407.331	117.12
407.555	111.12
407.778	98.12
408.002	101.12
408.226	104.12
408.449	98.12
408.673	86.12
408.896	109.12
409.12	116.12
409.344	95.12
409.567	98.12
409.791	106.12
410.014	97.12
410.238	93.12
410.461	117.12
410.685	100.12
410.908	98.12
411.132	108.12
411.355	128.12
411.578	79.12
411.802	98.12
412.025	105.12
412.249	81.12
412.472	99.12
412.695	98.12
412.919	91.12
413.142	89.12
413.365	95.12
413.589	97.12
413.812	101.12
414.035	85.12
414.258	102.12
414.482	101.12
414.705	93.12
414.928	82.12
415.151	88.12
415.374	108.12
415.597	97.12
415.821	103.12
416.044	92.12
416.267	105.12
416.49	99.12
416.713	95.12
416.936	102.12
417.159	99.12
417.382	103.12
417.605	97.12
417.828	96.12
418.051	101.12
418.274	108.12
418.497	89.12
418.72	93.12
418.943	92.12
419.166	97.12
419.389	104.12
419.611	90.12
419.834	103.12
420.057	91.12
420.28	98.12
420.503	90.12
420.726	84.12
420.948	107.12
421.171	100.12
421.394	115.12
421.617	101.12
421.839	102.12
422.062	99.12
422.285	101.12
422.507	104.12
422.73	108.12
422.953	100.12
423.175	111.12
423.398	115.12
423.621	98.12
423.843	89.12
424.066	93.12
424.288	96.12
424.511	105.12
424.733	105.12
424.956	120.12
425.178	104.12
425.401	112.12
425.623	101.12
425.846	88.12
426.068	101.12
426.291	88.12
426.513	95.12
426.735	91.12
426.958	111.12
427.18	122.12
427.402	149.12
427.625	208.12
427.847	140.12
428.069	100.12
428.292	98.12
428.514	90.12
428.736	93.12
428.958	104.12
429.181	99.12
429.403	95.12
429.625	79.12
429.847	91.12
430.069	106.12
430.292	113.12
430.514	92.12
430.736	96.12
430.958	103.12
431.18	87.12
431.402	95.12
431.624	93.12
431.846	87.12
432.068	105.12
432.29	101.12
432.512	102.12
432.734	92.12
432.956	94.12
433.178	111.12
433.4	102.12
433.622	92.12
433.844	101.12
434.066	100.12
434.287	97.12
434.509	98.12
434.731	88.12
434.953	76.12
435.175	97.12
435.397	95.12
435.618	105.12
435.84	113.12
436.062	153.12
436.284	122.12
436.505	116.12
436.727	108.12
436.949	104.12
437.17	88.12
437.392	95.12
437.614	91.12
437.835	107.12
438.057	120.12
438.278	111.12
438.5	106.12
438.721	140.12
438.943	104.12
439.165	94.12
439.386	100.12
439.608	118.12
439.829	112.12
440.05	131.12
440.272	161.12
440.493	103.12
440.715	98.12
440.936	85.12
441.158	100.12
441.379	86.12
441.6	100.12
441.822	112.12
442.043	104.12
442.264	105.12
442.486	119.12
442.707	99.12
442.928	125.12
443.149	156.12
443.371	132.12
443.592	122.12
443.813	125.12
444.034	108.12
444.255	92.12
444.476	97.12
444.698	101.12
444.919	88.12
445.14	115.12
445.361	122.12
445.582	143.12
445.803	171.12
446.024	152.12
446.245	134.12
446.466	128.12
446.687	97.12
446.908	100.12
447.129	81.12
447.35	97.12
447.571	100.12
447.792	81.12
448.013	105.12
448.234	126.12
448.455	112.12
448.675	117.12
448.896	136.12
449.117	113.12
449.338	120.12
449.559	135.12
449.779	146.12
450	118.12
450.221	98.12
450.442	95.12
450.662	91.12
450.883	117.12
451.104	107.12
451.324	95.12
451.545	119.12
451.766	91.12
451.986	87.12
452.207	86.12
452.428	109.12
452.648	95.12
452.869	108.12
453.089	113.12
453.31	123.12
453.53	111.12
453.751	89.12
453.971	111.12
454.192	114.12
454.412	96.12
454.633	103.12
454.853	99.12
455.073	82.12
455.294	95.12
455.514	111.12
455.734	92.12
455.955	97.12
456.175	99.12
456.395	86.12
456.616	94.12
456.836	85.12
457.056	99.12
457.276	90.12
457.497	88.12
457.717	97.12
457.937	98.12
458.157	75.12
458.377	100.12
458.598	111.12
458.818	155.12
459.038	165.12
459.258	124.12
459.478	103.12
459.698	103.12
459.918	93.12
460.138	98.12
460.358	98.12
460.578	81.12
460.798	106.12
461.018	87.12
461.238	99.12
461.458	100.12
461.678	89.12
461.898	96.12
462.118	90.12
462.338	93.12
462.558	93.12
462.777	91.12
462.997	92.12
463.217	79.12
463.437	103.12
463.657	83.12
463.876	99.12
464.096	79.12
464.316	107.12
464.536	85.12
464.755	96.12
464.975	113.12
465.195	173.12
465.414	171.12
465.634	106.12
465.854	92.12
466.073	94.12
466.293	82.12
466.512	93.12
466.732	88.12
466.951	96.12
467.171	95.12
467.391	94.12
467.61	103.12
467.829	101.12
468.049	106.12
468.268	101.12
468.488	97.12
468.707	93.12
468.927	87.12
469.146	91.12
469.365	90.12
469.585	102.12
469.804	104.12
470.023	110.12
470.243	103.12
470.462	105.12
470.681	117.12
470.901	89.12
471.12	90.12
471.339	90.12
471.558	70.12
471.777	86.12
471.997	99.12
472.216	96.12
472.435	101.12
472.654	88.12
472.873	94.12
473.092	94.12
473.311	92.12
473.53	89.12
473.749	96.12
473.968	115.12
474.187	116.12
474.406	97.12
474.625	96.12
474.844	84.12
475.063	81.12
475.282	90.12
475.501	99.12
475.72	102.12
475.939	91.12
476.158	90.12
476.377	90.12
476.596	95.12
476.814	101.12
477.033	100.12
477.252	96.12
477.471	89.12
477.69	99.12
477.908	99.12
478.127	93.12
478.346	83.12
478.564	99.12
478.783	101.12
479.002	100.12
479.22	104.12
479.439	109.12
479.658	114.12
479.876	109.12
480.095	93.12
480.313	100.12
480.532	91.12
480.751	93.12
480.969	100.12
481.188	113.12
481.406	100.12
481.624	94.12
481.843	77.12
482.061	90.12
482.28	92.12
482.498	96.12
482.717	90.12
482.935	99.12
483.153	94.12
483.372	76.12
483.59	87.12
483.808	108.12
484.027	107.12
484.245	102.12
484.463	97.12
484.681	116.12
484.9	91.12
485.118	88.12
485.336	104.12
485.554	111.12
485.772	92.12
485.99	94.12
486.209	85.12
486.427	109.12
486.645	115.12
486.863	130.12
487.081	100.12
487.299	102.12
487.517	97.12
487.735	98.12
487.953	114.12
488.171	93.12
488.389	103.12
488.607	99.12
488.825	107.12
489.043	103.12
489.261	104.12
489.479	96.12
489.696	84.12
489.914	93.12
490.132	95.12
490.35	98.12
490.568	95.12
490.786	97.12
491.003	79.12
491.221	93.12
491.439	107.12
491.657	106.12
491.874	109.12
492.092	84.12
492.31	103.12
492.527	87.12
492.745	91.12
492.963	88.12
493.18	87.12
493.398	90.12
493.615	92.12
493.833	96.12
494.05	84.12
494.268	105.12
494.485	105.12
494.703	102.12
494.92	82.12
495.138	96.12
495.355	106.12
495.573	97.12
495.79	101.12
496.008	104.12
496.225	106.12
496.442	87.12
496.66	104.12
496.877	99.12
497.094	100.12
497.312	100.12
497.529	98.12
497.746	97.12
497.963	100.12
498.181	91.12
498.398	109.12
498.615	108.12
498.832	108.12
499.049	104.12
499.267	90.12
499.484	88.12
499.701	91.12
499.918	90.12
500.135	91.12
500.352	95.12
500.569	93.12
500.786	92.12
501.003	97.12
501.22	100.12
501.437	95.12
501.654	98.12
501.871	112.12
502.088	84.12
502.305	91.12
502.522	102.12
502.739	83.12
502.956	84.12
503.172	90.12
503.389	88.12
503.606	104.12
503.823	103.12
504.04	91.12
504.256	89.12
504.473	98.12
504.69	105.12
504.907	101.12
505.123	97.12
505.34	107.12
505.557	104.12
505.773	81.12
505.99	105.12
506.207	101.12
506.423	94.12
506.64	92.12
506.856	102.12
507.073	106.12
507.289	106.12
507.506	115.12
507.722	115.12
507.939	113.12
508.155	98.12
508.372	106.12
508.588	84.12
508.805	111.12
509.021	105.12
509.238	104.12
509.454	106.12
509.67	108.12
509.887	119.12
510.103	120.12
510.319	213.12
510.536	757.12
510.752	2359.12
510.968	689.12
511.184	173.12
511.401	120.12
511.617	120.12
511.833	98.12
512.049	106.12
