Data from Uncirc_2005_H10_HRD10591_00049.txt Node
Date: Wed Jan 03 10:28:34 EST 2024
User: Yrep
Spectrometer: HR+D1059
Trigger mode: 1
Integration Time (sec): 1.000000E-1
Scans to average: 1
Electric dark correction enabled: true
Nonlinearity correction enabled: false
Boxcar width: 0
XAxis mode: Wavelengths
Number of Pixels in Spectrum: 2048
>>>>>Begin Spectral Data<<<<<
223.165	-17.12
223.4	-17.12
223.635	-17.12
223.869	-22.12
224.104	-7.12
224.338	-19.12
224.573	-25.12
224.808	-19.12
225.042	-17.12
225.277	-9.12
225.511	-6.12
225.746	-2.12
225.98	2.88
226.215	25.88
226.449	25.88
226.683	23.88
226.918	34.88
227.152	30.88
227.387	16.88
227.621	36.88
227.856	38.88
228.09	52.88
228.324	61.88
228.559	65.88
228.793	52.88
229.027	68.88
229.262	64.88
229.496	82.88
229.73	82.88
229.964	82.88
230.199	70.88
230.433	82.88
230.667	76.88
230.901	85.88
231.136	77.88
231.37	81.88
231.604	89.88
231.838	71.88
232.072	66.88
232.306	98.88
232.541	91.88
232.775	85.88
233.009	81.88
233.243	95.88
233.477	80.88
233.711	82.88
233.945	97.88
234.179	85.88
234.413	72.88
234.647	72.88
234.881	80.88
235.115	84.88
235.349	81.88
235.583	87.88
235.817	64.88
236.051	83.88
236.285	93.88
236.519	78.88
236.753	81.88
236.987	86.88
237.221	80.88
237.455	92.88
237.689	96.88
237.922	75.88
238.156	81.88
238.39	76.88
238.624	82.88
238.858	88.88
239.091	77.88
239.325	74.88
239.559	81.88
239.793	75.88
240.027	82.88
240.26	89.88
240.494	76.88
240.728	67.88
240.961	76.88
241.195	85.88
241.429	67.88
241.662	66.88
241.896	80.88
242.13	82.88
242.363	81.88
242.597	90.88
242.83	75.88
243.064	69.88
243.298	85.88
243.531	82.88
243.765	78.88
243.998	73.88
244.232	75.88
244.465	95.88
244.699	88.88
244.932	79.88
245.166	84.88
245.399	72.88
245.633	85.88
245.866	72.88
246.099	83.88
246.333	68.88
246.566	71.88
246.8	71.88
247.033	74.88
247.266	83.88
247.5	70.88
247.733	80.88
247.966	78.88
248.2	78.88
248.433	107.88
248.666	77.88
248.899	86.88
249.133	89.88
249.366	94.88
249.599	101.88
249.832	96.88
250.066	93.88
250.299	75.88
250.532	86.88
250.765	79.88
250.998	84.88
251.231	73.88
251.465	87.88
251.698	83.88
251.931	86.88
252.164	73.88
252.397	91.88
252.63	80.88
252.863	79.88
253.096	85.88
253.329	80.88
253.562	77.88
253.795	80.88
254.028	79.88
254.261	90.88
254.494	97.88
254.727	77.88
254.96	83.88
255.193	81.88
255.426	79.88
255.659	68.88
255.892	79.88
256.124	90.88
256.357	84.88
256.59	86.88
256.823	89.88
257.056	83.88
257.289	88.88
257.521	100.88
257.754	81.88
257.987	90.88
258.22	86.88
258.452	90.88
258.685	84.88
258.918	92.88
259.151	82.88
259.383	76.88
259.616	94.88
259.849	88.88
260.081	80.88
260.314	88.88
260.547	87.88
260.779	81.88
261.012	82.88
261.244	93.88
261.477	80.88
261.71	95.88
261.942	113.88
262.175	122.88
262.407	108.88
262.64	92.88
262.872	90.88
263.105	97.88
263.337	86.88
263.57	63.88
263.802	85.88
264.035	81.88
264.267	89.88
264.499	76.88
264.732	90.88
264.964	65.88
265.197	74.88
265.429	85.88
265.661	96.88
265.894	83.88
266.126	88.88
266.358	83.88
266.591	89.88
266.823	81.88
267.055	89.88
267.287	90.88
267.52	72.88
267.752	88.88
267.984	87.88
268.216	94.88
268.448	86.88
268.681	92.88
268.913	89.88
269.145	88.88
269.377	75.88
269.609	80.88
269.841	90.88
270.073	76.88
270.306	89.88
270.538	91.88
270.77	82.88
271.002	87.88
271.234	90.88
271.466	95.88
271.698	78.88
271.93	84.88
272.162	93.88
272.394	89.88
272.626	92.88
272.858	88.88
273.09	91.88
273.322	91.88
273.553	101.88
273.785	97.88
274.017	83.88
274.249	87.88
274.481	90.88
274.713	95.88
274.945	79.88
275.176	79.88
275.408	94.88
275.64	85.88
275.872	93.88
276.104	101.88
276.335	80.88
276.567	101.88
276.799	100.88
277.031	97.88
277.262	84.88
277.494	85.88
277.726	76.88
277.957	88.88
278.189	102.88
278.421	102.88
278.652	97.88
278.884	113.88
279.115	74.88
279.347	84.88
279.579	83.88
279.81	88.88
280.042	84.88
280.273	96.88
280.505	90.88
280.736	96.88
280.968	87.88
281.199	79.88
281.431	85.88
281.662	86.88
281.894	77.88
282.125	86.88
282.356	119.88
282.588	124.88
282.819	105.88
283.051	90.88
283.282	80.88
283.513	83.88
283.745	87.88
283.976	95.88
284.207	89.88
284.439	96.88
284.67	99.88
284.901	90.88
285.132	95.88
285.364	92.88
285.595	85.88
285.826	89.88
286.057	84.88
286.288	78.88
286.52	94.88
286.751	93.88
286.982	91.88
287.213	78.88
287.444	73.88
287.675	92.88
287.906	87.88
288.138	98.88
288.369	85.88
288.6	82.88
288.831	96.88
289.062	94.88
289.293	96.88
289.524	91.88
289.755	98.88
289.986	85.88
290.217	79.88
290.448	97.88
290.679	94.88
290.91	87.88
291.141	90.88
291.371	93.88
291.602	104.88
291.833	87.88
292.064	87.88
292.295	96.88
292.526	81.88
292.757	95.88
292.987	93.88
293.218	94.88
293.449	94.88
293.68	102.88
293.91	76.88
294.141	96.88
294.372	91.88
294.603	84.88
294.833	86.88
295.064	86.88
295.295	85.88
295.525	95.88
295.756	90.88
295.987	94.88
296.217	126.88
296.448	127.88
296.679	101.88
296.909	84.88
297.14	88.88
297.37	86.88
297.601	100.88
297.831	87.88
298.062	88.88
298.292	102.88
298.523	73.88
298.753	75.88
298.984	85.88
299.214	87.88
299.445	87.88
299.675	80.88
299.905	95.88
300.136	108.88
300.366	100.88
300.597	99.88
300.827	104.88
301.057	102.88
301.288	97.88
301.518	89.88
301.748	89.88
301.979	104.88
302.209	88.88
302.439	91.88
302.669	86.88
302.9	105.88
303.13	86.88
303.36	90.88
303.59	103.88
303.82	104.88
304.051	102.88
304.281	88.88
304.511	89.88
304.741	81.88
304.971	89.88
305.201	103.88
305.431	85.88
305.661	96.88
305.891	105.88
306.121	94.88
306.352	104.88
306.582	96.88
306.812	88.88
307.042	94.88
307.272	87.88
307.502	90.88
307.731	96.88
307.961	98.88
308.191	97.88
308.421	85.88
308.651	96.88
308.881	98.88
309.111	94.88
309.341	79.88
309.571	94.88
309.8	95.88
310.03	97.88
310.26	94.88
310.49	100.88
310.72	105.88
310.949	95.88
311.179	103.88
311.409	99.88
311.639	100.88
311.868	88.88
312.098	100.88
312.328	106.88
312.557	109.88
312.787	105.88
313.017	95.88
313.246	102.88
313.476	99.88
313.706	79.88
313.935	91.88
314.165	95.88
314.394	105.88
314.624	100.88
314.853	101.88
315.083	103.88
315.312	98.88
315.542	101.88
315.771	100.88
316.001	97.88
316.23	86.88
316.46	106.88
316.689	89.88
316.919	95.88
317.148	100.88
317.377	114.88
317.607	99.88
317.836	99.88
318.065	103.88
318.295	101.88
318.524	79.88
318.753	96.88
318.983	90.88
319.212	78.88
319.441	104.88
319.67	106.88
319.9	91.88
320.129	90.88
320.358	85.88
320.587	100.88
320.816	100.88
321.046	100.88
321.275	95.88
321.504	106.88
321.733	100.88
321.962	91.88
322.191	111.88
322.42	101.88
322.649	112.88
322.878	92.88
323.108	108.88
323.337	129.88
323.566	138.88
323.795	146.88
324.024	209.88
324.253	403.88
324.482	848.88
324.71	1732.88
324.939	2291.88
325.168	849.88
325.397	236.88
325.626	144.88
325.855	142.88
326.084	126.88
326.313	143.88
326.542	164.88
326.77	241.88
326.999	469.88
327.228	956.88
327.457	1824.88
327.686	1421.88
327.914	366.88
328.143	188.88
328.372	141.88
328.6	109.88
328.829	115.88
329.058	140.88
329.287	132.88
329.515	91.88
329.744	118.88
329.972	104.88
330.201	104.88
330.43	105.88
330.658	114.88
330.887	144.88
331.115	111.88
331.344	88.88
331.572	92.88
331.801	95.88
332.03	107.88
332.258	108.88
332.486	102.88
332.715	90.88
332.943	88.88
333.172	107.88
333.4	100.88
333.629	116.88
333.857	108.88
334.085	103.88
334.314	105.88
334.542	105.88
334.771	95.88
334.999	101.88
335.227	114.88
335.455	98.88
335.684	93.88
335.912	106.88
336.14	91.88
336.369	106.88
336.597	111.88
336.825	81.88
337.053	101.88
337.281	88.88
337.51	94.88
337.738	101.88
337.966	93.88
338.194	90.88
338.422	108.88
338.65	103.88
338.878	91.88
339.106	89.88
339.334	113.88
339.562	87.88
339.79	84.88
340.018	92.88
340.246	87.88
340.474	86.88
340.702	101.88
340.93	84.88
341.158	100.88
341.386	100.88
341.614	97.88
341.842	91.88
342.07	100.88
342.298	89.88
342.526	92.88
342.754	92.88
342.981	89.88
343.209	98.88
343.437	94.88
343.665	116.88
343.893	80.88
344.12	85.88
344.348	85.88
344.576	108.88
344.804	86.88
345.031	97.88
345.259	92.88
345.487	102.88
345.714	102.88
345.942	104.88
346.17	84.88
346.397	92.88
346.625	74.88
346.853	86.88
347.08	89.88
347.308	110.88
347.535	96.88
347.763	102.88
347.99	87.88
348.218	111.88
348.445	81.88
348.673	99.88
348.9	104.88
349.128	95.88
349.355	85.88
349.583	82.88
349.81	88.88
350.037	97.88
350.265	95.88
350.492	104.88
350.72	107.88
350.947	106.88
351.174	114.88
351.402	121.88
351.629	109.88
351.856	118.88
352.083	98.88
352.311	102.88
352.538	111.88
352.765	101.88
352.992	115.88
353.22	116.88
353.447	103.88
353.674	106.88
353.901	95.88
354.128	91.88
354.355	102.88
354.583	117.88
354.81	103.88
355.037	104.88
355.264	104.88
355.491	94.88
355.718	89.88
355.945	95.88
356.172	97.88
356.399	83.88
356.626	78.88
356.853	100.88
357.08	89.88
357.307	92.88
357.534	100.88
357.761	84.88
357.988	93.88
358.215	89.88
358.441	109.88
358.668	86.88
358.895	96.88
359.122	94.88
359.349	102.88
359.576	104.88
359.802	92.88
360.029	124.88
360.256	111.88
360.483	89.88
360.709	103.88
360.936	95.88
361.163	100.88
361.39	82.88
361.616	96.88
361.843	106.88
362.07	105.88
362.296	102.88
362.523	98.88
362.749	98.88
362.976	96.88
363.203	98.88
363.429	83.88
363.656	92.88
363.882	98.88
364.109	102.88
364.335	97.88
364.562	82.88
364.788	93.88
365.015	87.88
365.241	96.88
365.468	101.88
365.694	114.88
365.92	91.88
366.147	90.88
366.373	89.88
366.599	99.88
366.826	89.88
367.052	89.88
367.278	81.88
367.505	85.88
367.731	103.88
367.957	92.88
368.184	88.88
368.41	90.88
368.636	112.88
368.862	113.88
369.089	115.88
369.315	97.88
369.541	91.88
369.767	77.88
369.993	91.88
370.219	94.88
370.445	88.88
370.672	95.88
370.898	88.88
371.124	96.88
371.35	92.88
371.576	93.88
371.802	87.88
372.028	76.88
372.254	88.88
372.48	83.88
372.706	81.88
372.932	91.88
373.158	97.88
373.384	84.88
373.61	89.88
373.835	87.88
374.061	93.88
374.287	86.88
374.513	106.88
374.739	97.88
374.965	82.88
375.191	80.88
375.416	101.88
375.642	87.88
375.868	97.88
376.094	98.88
376.319	88.88
376.545	87.88
376.771	100.88
376.997	87.88
377.222	92.88
377.448	98.88
377.674	91.88
377.899	89.88
378.125	88.88
378.35	94.88
378.576	81.88
378.802	86.88
379.027	98.88
379.253	104.88
379.478	83.88
379.704	96.88
379.929	85.88
380.155	100.88
380.38	91.88
380.606	103.88
380.831	100.88
381.057	93.88
381.282	102.88
381.507	109.88
381.733	104.88
381.958	98.88
382.184	107.88
382.409	106.88
382.634	118.88
382.86	96.88
383.085	105.88
383.31	105.88
383.535	106.88
383.761	107.88
383.986	108.88
384.211	94.88
384.436	118.88
384.662	108.88
384.887	106.88
385.112	111.88
385.337	116.88
385.562	105.88
385.787	105.88
386.013	97.88
386.238	101.88
386.463	117.88
386.688	133.88
386.913	112.88
387.138	127.88
387.363	113.88
387.588	88.88
387.813	112.88
388.038	112.88
388.263	114.88
388.488	108.88
388.713	98.88
388.938	104.88
389.163	93.88
389.387	99.88
389.612	81.88
389.837	99.88
390.062	107.88
390.287	101.88
390.512	94.88
390.736	104.88
390.961	96.88
391.186	97.88
391.411	97.88
391.636	90.88
391.86	84.88
392.085	86.88
392.31	74.88
392.534	100.88
392.759	99.88
392.984	98.88
393.208	80.88
393.433	98.88
393.658	86.88
393.882	95.88
394.107	87.88
394.331	88.88
394.556	92.88
394.78	78.88
395.005	81.88
395.229	85.88
395.454	88.88
395.678	89.88
395.903	89.88
396.127	89.88
396.352	96.88
396.576	93.88
396.801	87.88
397.025	89.88
397.249	91.88
397.474	102.88
397.698	96.88
397.922	89.88
398.147	94.88
398.371	100.88
398.595	102.88
398.82	79.88
399.044	98.88
399.268	69.88
399.492	93.88
399.717	90.88
399.941	100.88
400.165	107.88
400.389	79.88
400.613	87.88
400.837	101.88
401.062	107.88
401.286	86.88
401.51	94.88
401.734	104.88
401.958	95.88
402.182	130.88
402.406	149.88
402.63	115.88
402.854	101.88
403.078	101.88
403.302	72.88
403.526	95.88
403.75	90.88
403.974	98.88
404.198	92.88
404.422	89.88
404.645	71.88
404.869	96.88
405.093	107.88
405.317	89.88
405.541	89.88
405.765	101.88
405.988	121.88
406.212	159.88
406.436	212.88
406.66	138.88
406.883	99.88
407.107	106.88
407.331	83.88
407.555	90.88
407.778	102.88
408.002	82.88
408.226	99.88
408.449	103.88
408.673	82.88
408.896	92.88
409.12	108.88
409.344	99.88
409.567	84.88
409.791	100.88
410.014	96.88
410.238	92.88
410.461	90.88
410.685	94.88
410.908	99.88
411.132	97.88
411.355	109.88
411.578	78.88
411.802	101.88
412.025	89.88
412.249	81.88
412.472	83.88
412.695	92.88
412.919	85.88
413.142	92.88
413.365	92.88
413.589	104.88
413.812	95.88
414.035	94.88
414.258	91.88
414.482	98.88
414.705	102.88
414.928	101.88
415.151	82.88
415.374	94.88
415.597	91.88
415.821	92.88
416.044	97.88
416.267	96.88
416.49	97.88
416.713	89.88
416.936	92.88
417.159	98.88
417.382	88.88
417.605	98.88
417.828	96.88
418.051	96.88
418.274	102.88
418.497	88.88
418.72	88.88
418.943	74.88
419.166	89.88
419.389	104.88
419.611	92.88
419.834	88.88
420.057	90.88
420.28	90.88
420.503	104.88
420.726	94.88
420.948	96.88
421.171	88.88
421.394	105.88
421.617	90.88
421.839	106.88
422.062	71.88
422.285	98.88
422.507	90.88
422.73	104.88
422.953	84.88
423.175	95.88
423.398	90.88
423.621	85.88
423.843	98.88
424.066	95.88
424.288	95.88
424.511	77.88
424.733	106.88
424.956	110.88
425.178	85.88
425.401	99.88
425.623	93.88
425.846	81.88
426.068	96.88
426.291	101.88
426.513	80.88
426.735	94.88
426.958	97.88
427.18	90.88
427.402	145.88
427.625	162.88
427.847	121.88
428.069	108.88
428.292	90.88
428.514	83.88
428.736	86.88
428.958	86.88
429.181	92.88
429.403	90.88
429.625	95.88
429.847	92.88
430.069	95.88
430.292	89.88
430.514	85.88
430.736	90.88
430.958	93.88
431.18	84.88
431.402	74.88
431.624	99.88
431.846	97.88
432.068	82.88
432.29	92.88
432.512	85.88
432.734	87.88
432.956	92.88
433.178	84.88
433.4	92.88
433.622	96.88
433.844	90.88
434.066	111.88
434.287	90.88
434.509	94.88
434.731	84.88
434.953	87.88
435.175	83.88
435.397	80.88
435.618	97.88
435.84	117.88
436.062	115.88
436.284	125.88
436.505	107.88
436.727	98.88
436.949	90.88
437.17	97.88
437.392	89.88
437.614	98.88
437.835	100.88
438.057	121.88
438.278	120.88
438.5	109.88
438.721	129.88
438.943	116.88
439.165	98.88
439.386	83.88
439.608	90.88
439.829	122.88
440.05	125.88
440.272	138.88
440.493	100.88
440.715	96.88
440.936	95.88
441.158	95.88
441.379	70.88
441.6	93.88
441.822	100.88
442.043	100.88
442.264	106.88
442.486	100.88
442.707	84.88
442.928	113.88
443.149	132.88
443.371	128.88
443.592	113.88
443.813	107.88
444.034	108.88
444.255	99.88
444.476	106.88
444.698	88.88
444.919	76.88
445.14	121.88
445.361	134.88
445.582	110.88
445.803	134.88
446.024	137.88
446.245	133.88
446.466	117.88
446.687	100.88
446.908	97.88
447.129	99.88
447.35	78.88
447.571	91.88
447.792	100.88
448.013	93.88
448.234	101.88
448.455	97.88
448.675	106.88
448.896	120.88
449.117	98.88
449.338	100.88
449.559	147.88
449.779	128.88
450	93.88
450.221	84.88
450.442	95.88
450.662	96.88
450.883	95.88
451.104	99.88
451.324	108.88
451.545	87.88
451.766	89.88
451.986	89.88
452.207	92.88
452.428	86.88
452.648	104.88
452.869	111.88
453.089	108.88
453.31	119.88
453.53	98.88
453.751	79.88
453.971	111.88
454.192	108.88
454.412	97.88
454.633	86.88
454.853	97.88
455.073	76.88
455.294	87.88
455.514	96.88
455.734	90.88
455.955	90.88
456.175	96.88
456.395	99.88
456.616	105.88
456.836	86.88
457.056	84.88
457.276	89.88
457.497	94.88
457.717	90.88
457.937	80.88
458.157	99.88
458.377	103.88
458.598	100.88
458.818	144.88
459.038	148.88
459.258	107.88
459.478	78.88
459.698	92.88
459.918	92.88
460.138	82.88
460.358	86.88
460.578	84.88
460.798	99.88
461.018	88.88
461.238	104.88
461.458	87.88
461.678	87.88
461.898	96.88
462.118	92.88
462.338	94.88
462.558	89.88
462.777	92.88
462.997	97.88
463.217	84.88
463.437	96.88
463.657	88.88
463.876	89.88
464.096	96.88
464.316	81.88
464.536	94.88
464.755	91.88
464.975	94.88
465.195	166.88
465.414	156.88
465.634	96.88
465.854	82.88
466.073	87.88
466.293	99.88
466.512	82.88
466.732	87.88
466.951	85.88
467.171	96.88
467.391	91.88
467.61	111.88
467.829	85.88
468.049	90.88
468.268	96.88
468.488	77.88
468.707	96.88
468.927	88.88
469.146	96.88
469.365	85.88
469.585	87.88
469.804	80.88
470.023	89.88
470.243	100.88
470.462	113.88
470.681	108.88
470.901	88.88
471.12	93.88
471.339	96.88
471.558	102.88
471.777	91.88
471.997	89.88
472.216	106.88
472.435	105.88
472.654	76.88
472.873	95.88
473.092	92.88
473.311	93.88
473.53	97.88
473.749	84.88
473.968	91.88
474.187	105.88
474.406	88.88
474.625	88.88
474.844	94.88
475.063	99.88
475.282	76.88
475.501	84.88
475.72	88.88
475.939	101.88
476.158	86.88
476.377	83.88
476.596	91.88
476.814	85.88
477.033	99.88
477.252	90.88
477.471	92.88
477.69	84.88
477.908	80.88
478.127	82.88
478.346	90.88
478.564	96.88
478.783	97.88
479.002	93.88
479.22	98.88
479.439	82.88
479.658	98.88
479.876	95.88
480.095	88.88
480.313	105.88
480.532	88.88
480.751	86.88
480.969	90.88
481.188	116.88
481.406	108.88
481.624	98.88
481.843	86.88
482.061	92.88
482.28	91.88
482.498	97.88
482.717	90.88
482.935	86.88
483.153	90.88
483.372	90.88
483.59	85.88
483.808	89.88
484.027	89.88
484.245	104.88
484.463	102.88
484.681	80.88
484.9	99.88
485.118	108.88
485.336	89.88
485.554	94.88
485.772	107.88
485.99	100.88
486.209	107.88
486.427	113.88
486.645	109.88
486.863	109.88
487.081	92.88
487.299	94.88
487.517	102.88
487.735	90.88
487.953	90.88
488.171	96.88
488.389	102.88
488.607	109.88
488.825	92.88
489.043	101.88
489.261	95.88
489.479	86.88
489.696	89.88
489.914	98.88
490.132	94.88
490.35	92.88
490.568	102.88
490.786	94.88
491.003	87.88
491.221	93.88
491.439	97.88
491.657	89.88
491.874	103.88
492.092	97.88
492.31	100.88
492.527	104.88
492.745	96.88
492.963	87.88
493.18	89.88
493.398	89.88
493.615	99.88
493.833	94.88
494.05	84.88
494.268	91.88
494.485	84.88
494.703	82.88
494.92	98.88
495.138	92.88
495.355	91.88
495.573	103.88
495.79	95.88
496.008	101.88
496.225	105.88
496.442	97.88
496.66	93.88
496.877	91.88
497.094	107.88
497.312	97.88
497.529	86.88
497.746	100.88
497.963	92.88
498.181	97.88
498.398	103.88
498.615	112.88
498.832	104.88
499.049	88.88
499.267	81.88
499.484	85.88
499.701	93.88
499.918	100.88
500.135	86.88
500.352	97.88
500.569	91.88
500.786	92.88
501.003	96.88
501.22	98.88
501.437	102.88
501.654	90.88
501.871	109.88
502.088	97.88
502.305	89.88
502.522	104.88
502.739	93.88
502.956	81.88
503.172	81.88
503.389	100.88
503.606	118.88
503.823	94.88
504.04	99.88
504.256	92.88
504.473	96.88
504.69	94.88
504.907	100.88
505.123	78.88
505.34	96.88
505.557	94.88
505.773	92.88
505.99	88.88
506.207	99.88
506.423	88.88
506.64	98.88
506.856	99.88
507.073	98.88
507.289	90.88
507.506	96.88
507.722	105.88
507.939	113.88
508.155	111.88
508.372	95.88
508.588	95.88
508.805	99.88
509.021	96.88
509.238	106.88
509.454	111.88
509.67	113.88
509.887	109.88
510.103	130.88
510.319	212.88
510.536	736.88
510.752	2214.88
510.968	628.88
511.184	154.88
511.401	107.88
511.617	106.88
511.833	106.88
512.049	96.88
512.265	103.88
512.481	101.88
512.698	106.88
512.914	97.88
513.13	96.88
513.346	102.88
513.562	99.88
513.778	118.88
513.994	96.88
514.21	113.88
514.426	130.88
514.642	147.88
