Data from Uncirc_2005_H10_HRD10591_00082.txt Node
Date: Wed Jan 03 10:28:41 EST 2024
User: Yrep
Spectrometer: HR+D1059
Trigger mode: 1
Integration Time (sec): 1.000000E-1
Scans to average: 1
Electric dark correction enabled: true
Nonlinearity correction enabled: false
Boxcar width: 0
XAxis mode: Wavelengths
Number of Pixels in Spectrum: 2048
>>>>>Begin Spectral Data<<<<<
223.165	-5.5
223.4	-5.5
223.635	-5.5
223.869	-11.5
224.104	-12.5
224.338	-7.5
224.573	-23.5
224.808	-22.5
225.042	-8.5
225.277	-5.5
225.511	-3.5
225.746	-2.5
225.98	-4.5
226.215	9.5
226.449	16.5
226.683	20.5
226.918	30.5
227.152	30.5
227.387	35.5
227.621	53.5
227.856	34.5
228.09	46.5
228.324	47.5
228.559	54.5
228.793	44.5
229.027	60.5
229.262	61.5
229.496	66.5
229.73	66.5
229.964	86.5
230.199	85.5
230.433	75.5
230.667	72.5
230.901	71.5
231.136	80.5
231.37	88.5
231.604	82.5
231.838	83.5
232.072	71.5
232.306	80.5
232.541	91.5
232.775	71.5
233.009	91.5
233.243	84.5
233.477	93.5
233.711	82.5
233.945	84.5
234.179	72.5
234.413	82.5
234.647	70.5
234.881	79.5
235.115	81.5
235.349	78.5
235.583	66.5
235.817	79.5
236.051	78.5
236.285	79.5
236.519	76.5
236.753	65.5
236.987	80.5
237.221	71.5
237.455	89.5
237.689	76.5
237.922	69.5
238.156	74.5
238.39	73.5
238.624	86.5
238.858	74.5
239.091	81.5
239.325	70.5
239.559	73.5
239.793	70.5
240.027	69.5
240.26	78.5
240.494	80.5
240.728	69.5
240.961	74.5
241.195	66.5
241.429	81.5
241.662	78.5
241.896	63.5
242.13	58.5
242.363	85.5
242.597	83.5
242.83	74.5
243.064	76.5
243.298	80.5
243.531	95.5
243.765	75.5
243.998	86.5
244.232	77.5
244.465	81.5
244.699	83.5
244.932	72.5
245.166	88.5
245.399	91.5
245.633	93.5
245.866	64.5
246.099	90.5
246.333	90.5
246.566	83.5
246.8	98.5
247.033	78.5
247.266	76.5
247.5	78.5
247.733	81.5
247.966	72.5
248.2	83.5
248.433	87.5
248.666	84.5
248.899	70.5
249.133	72.5
249.366	90.5
249.599	88.5
249.832	75.5
250.066	91.5
250.299	79.5
250.532	79.5
250.765	70.5
250.998	72.5
251.231	69.5
251.465	76.5
251.698	83.5
251.931	75.5
252.164	89.5
252.397	78.5
252.63	69.5
252.863	86.5
253.096	78.5
253.329	75.5
253.562	75.5
253.795	82.5
254.028	81.5
254.261	92.5
254.494	82.5
254.727	82.5
254.96	80.5
255.193	87.5
255.426	78.5
255.659	75.5
255.892	93.5
256.124	88.5
256.357	80.5
256.59	95.5
256.823	87.5
257.056	72.5
257.289	75.5
257.521	91.5
257.754	87.5
257.987	92.5
258.22	85.5
258.452	78.5
258.685	69.5
258.918	76.5
259.151	78.5
259.383	79.5
259.616	92.5
259.849	83.5
260.081	76.5
260.314	95.5
260.547	81.5
260.779	84.5
261.012	75.5
261.244	75.5
261.477	77.5
261.71	76.5
261.942	93.5
262.175	116.5
262.407	87.5
262.64	84.5
262.872	78.5
263.105	88.5
263.337	85.5
263.57	75.5
263.802	88.5
264.035	96.5
264.267	87.5
264.499	81.5
264.732	90.5
264.964	73.5
265.197	91.5
265.429	88.5
265.661	89.5
265.894	76.5
266.126	96.5
266.358	84.5
266.591	88.5
266.823	70.5
267.055	84.5
267.287	76.5
267.52	101.5
267.752	91.5
267.984	81.5
268.216	87.5
268.448	89.5
268.681	98.5
268.913	78.5
269.145	74.5
269.377	71.5
269.609	84.5
269.841	86.5
270.073	84.5
270.306	77.5
270.538	93.5
270.77	91.5
271.002	89.5
271.234	85.5
271.466	77.5
271.698	79.5
271.93	90.5
272.162	69.5
272.394	98.5
272.626	73.5
272.858	71.5
273.09	91.5
273.322	95.5
273.553	80.5
273.785	92.5
274.017	88.5
274.249	82.5
274.481	82.5
274.713	87.5
274.945	80.5
275.176	89.5
275.408	72.5
275.64	88.5
275.872	79.5
276.104	86.5
276.335	91.5
276.567	98.5
276.799	97.5
277.031	106.5
277.262	91.5
277.494	81.5
277.726	95.5
277.957	90.5
278.189	84.5
278.421	87.5
278.652	92.5
278.884	84.5
279.115	78.5
279.347	97.5
279.579	86.5
279.81	70.5
280.042	89.5
280.273	71.5
280.505	76.5
280.736	90.5
280.968	95.5
281.199	72.5
281.431	85.5
281.662	90.5
281.894	83.5
282.125	102.5
282.356	109.5
282.588	130.5
282.819	106.5
283.051	82.5
283.282	91.5
283.513	96.5
283.745	83.5
283.976	95.5
284.207	91.5
284.439	74.5
284.67	88.5
284.901	73.5
285.132	78.5
285.364	78.5
285.595	81.5
285.826	91.5
286.057	89.5
286.288	84.5
286.52	75.5
286.751	78.5
286.982	91.5
287.213	92.5
287.444	82.5
287.675	87.5
287.906	87.5
288.138	98.5
288.369	81.5
288.6	98.5
288.831	85.5
289.062	82.5
289.293	87.5
289.524	71.5
289.755	83.5
289.986	86.5
290.217	76.5
290.448	88.5
290.679	91.5
290.91	103.5
291.141	85.5
291.371	85.5
291.602	100.5
291.833	83.5
292.064	93.5
292.295	97.5
292.526	96.5
292.757	96.5
292.987	110.5
293.218	94.5
293.449	92.5
293.68	82.5
293.91	77.5
294.141	97.5
294.372	91.5
294.603	92.5
294.833	103.5
295.064	99.5
295.295	92.5
295.525	94.5
295.756	102.5
295.987	116.5
296.217	115.5
296.448	119.5
296.679	93.5
296.909	96.5
297.14	88.5
297.37	96.5
297.601	70.5
297.831	89.5
298.062	97.5
298.292	68.5
298.523	88.5
298.753	87.5
298.984	78.5
299.214	77.5
299.445	93.5
299.675	92.5
299.905	82.5
300.136	84.5
300.366	97.5
300.597	88.5
300.827	94.5
301.057	90.5
301.288	86.5
301.518	100.5
301.748	93.5
301.979	93.5
302.209	106.5
302.439	83.5
302.669	99.5
302.9	93.5
303.13	104.5
303.36	83.5
303.59	106.5
303.82	96.5
304.051	88.5
304.281	93.5
304.511	87.5
304.741	85.5
304.971	87.5
305.201	74.5
305.431	100.5
305.661	87.5
305.891	107.5
306.121	101.5
306.352	98.5
306.582	96.5
306.812	88.5
307.042	85.5
307.272	89.5
307.502	87.5
307.731	94.5
307.961	77.5
308.191	95.5
308.421	95.5
308.651	86.5
308.881	85.5
309.111	95.5
309.341	91.5
309.571	92.5
309.8	88.5
310.03	88.5
310.26	101.5
310.49	101.5
310.72	91.5
310.949	100.5
311.179	97.5
311.409	90.5
311.639	87.5
311.868	93.5
312.098	92.5
312.328	80.5
312.557	106.5
312.787	93.5
313.017	98.5
313.246	79.5
313.476	84.5
313.706	90.5
313.935	103.5
314.165	100.5
314.394	110.5
314.624	107.5
314.853	108.5
315.083	90.5
315.312	83.5
315.542	78.5
315.771	83.5
316.001	94.5
316.23	82.5
316.46	88.5
316.689	83.5
316.919	91.5
317.148	76.5
317.377	91.5
317.607	97.5
317.836	84.5
318.065	91.5
318.295	80.5
318.524	102.5
318.753	82.5
318.983	83.5
319.212	90.5
319.441	112.5
319.67	94.5
319.9	98.5
320.129	90.5
320.358	90.5
320.587	94.5
320.816	101.5
321.046	91.5
321.275	95.5
321.504	93.5
321.733	102.5
321.962	105.5
322.191	96.5
322.42	114.5
322.649	112.5
322.878	115.5
323.108	108.5
323.337	113.5
323.566	127.5
323.795	142.5
324.024	206.5
324.253	382.5
324.482	754.5
324.71	1493.5
324.939	1999.5
325.168	712.5
325.397	209.5
325.626	128.5
325.855	130.5
326.084	130.5
326.313	106.5
326.542	137.5
326.77	231.5
326.999	444.5
327.228	858.5
327.457	1539.5
327.686	1239.5
327.914	334.5
328.143	177.5
328.372	122.5
328.6	131.5
328.829	123.5
329.058	104.5
329.287	110.5
329.515	114.5
329.744	97.5
329.972	101.5
330.201	99.5
330.43	114.5
330.658	109.5
330.887	128.5
331.115	107.5
331.344	119.5
331.572	106.5
331.801	99.5
332.03	104.5
332.258	88.5
332.486	95.5
332.715	98.5
332.943	107.5
333.172	94.5
333.4	105.5
333.629	96.5
333.857	98.5
334.085	111.5
334.314	82.5
334.542	99.5
334.771	90.5
334.999	99.5
335.227	102.5
335.455	91.5
335.684	104.5
335.912	104.5
336.14	86.5
336.369	108.5
336.597	86.5
336.825	92.5
337.053	75.5
337.281	84.5
337.51	94.5
337.738	107.5
337.966	84.5
338.194	97.5
338.422	97.5
338.65	86.5
338.878	77.5
339.106	90.5
339.334	81.5
339.562	86.5
339.79	87.5
340.018	100.5
340.246	88.5
340.474	86.5
340.702	94.5
340.93	91.5
341.158	85.5
341.386	96.5
341.614	87.5
341.842	87.5
342.07	85.5
342.298	97.5
342.526	100.5
342.754	95.5
342.981	92.5
343.209	78.5
343.437	93.5
343.665	91.5
343.893	86.5
344.12	102.5
344.348	91.5
344.576	75.5
344.804	92.5
345.031	90.5
345.259	90.5
345.487	96.5
345.714	93.5
345.942	91.5
346.17	78.5
346.397	96.5
346.625	92.5
346.853	80.5
347.08	76.5
347.308	83.5
347.535	90.5
347.763	102.5
347.99	87.5
348.218	106.5
348.445	92.5
348.673	97.5
348.9	94.5
349.128	96.5
349.355	92.5
349.583	105.5
349.81	100.5
350.037	96.5
350.265	106.5
350.492	99.5
350.72	97.5
350.947	98.5
351.174	103.5
351.402	109.5
351.629	87.5
351.856	97.5
352.083	102.5
352.311	103.5
352.538	104.5
352.765	101.5
352.992	118.5
353.22	104.5
353.447	103.5
353.674	100.5
353.901	92.5
354.128	101.5
354.355	95.5
354.583	96.5
354.81	92.5
355.037	84.5
355.264	100.5
355.491	95.5
355.718	91.5
355.945	99.5
356.172	100.5
356.399	86.5
356.626	89.5
356.853	107.5
357.08	88.5
357.307	87.5
357.534	95.5
357.761	100.5
357.988	92.5
358.215	96.5
358.441	97.5
358.668	91.5
358.895	96.5
359.122	96.5
359.349	88.5
359.576	84.5
359.802	94.5
360.029	103.5
360.256	109.5
360.483	98.5
360.709	85.5
360.936	95.5
361.163	85.5
361.39	102.5
361.616	101.5
361.843	74.5
362.07	87.5
362.296	97.5
362.523	90.5
362.749	106.5
362.976	89.5
363.203	94.5
363.429	102.5
363.656	87.5
363.882	84.5
364.109	87.5
364.335	69.5
364.562	93.5
364.788	85.5
365.015	108.5
365.241	87.5
365.468	94.5
365.694	115.5
365.92	94.5
366.147	86.5
366.373	95.5
366.599	94.5
366.826	104.5
367.052	97.5
367.278	93.5
367.505	91.5
367.731	91.5
367.957	100.5
368.184	89.5
368.41	88.5
368.636	103.5
368.862	99.5
369.089	105.5
369.315	87.5
369.541	88.5
369.767	103.5
369.993	88.5
370.219	106.5
370.445	100.5
370.672	75.5
370.898	84.5
371.124	95.5
371.35	95.5
371.576	102.5
371.802	82.5
372.028	92.5
372.254	82.5
372.48	81.5
372.706	83.5
372.932	99.5
373.158	83.5
373.384	97.5
373.61	77.5
373.835	91.5
374.061	92.5
374.287	98.5
374.513	87.5
374.739	100.5
374.965	96.5
375.191	102.5
375.416	101.5
375.642	90.5
375.868	82.5
376.094	83.5
376.319	84.5
376.545	80.5
376.771	96.5
376.997	98.5
377.222	84.5
377.448	89.5
377.674	92.5
377.899	90.5
378.125	83.5
378.35	81.5
378.576	98.5
378.802	107.5
379.027	85.5
379.253	82.5
379.478	91.5
379.704	79.5
379.929	87.5
380.155	93.5
380.38	89.5
380.606	76.5
380.831	104.5
381.057	96.5
381.282	94.5
381.507	89.5
381.733	89.5
381.958	100.5
382.184	105.5
382.409	96.5
382.634	102.5
382.86	99.5
383.085	100.5
383.31	95.5
383.535	107.5
383.761	114.5
383.986	107.5
384.211	100.5
384.436	103.5
384.662	108.5
384.887	103.5
385.112	101.5
385.337	91.5
385.562	98.5
385.787	107.5
386.013	102.5
386.238	106.5
386.463	88.5
386.688	104.5
386.913	109.5
387.138	114.5
387.363	109.5
387.588	88.5
387.813	91.5
388.038	108.5
388.263	98.5
388.488	103.5
388.713	108.5
388.938	108.5
389.163	97.5
389.387	110.5
389.612	91.5
389.837	98.5
390.062	91.5
390.287	93.5
390.512	87.5
390.736	95.5
390.961	102.5
391.186	104.5
391.411	107.5
391.636	98.5
391.86	92.5
392.085	92.5
392.31	93.5
392.534	98.5
392.759	93.5
392.984	82.5
393.208	88.5
393.433	106.5
393.658	86.5
393.882	92.5
394.107	96.5
394.331	85.5
394.556	78.5
394.78	85.5
395.005	91.5
395.229	89.5
395.454	69.5
395.678	82.5
395.903	82.5
396.127	84.5
396.352	80.5
396.576	84.5
396.801	85.5
397.025	88.5
397.249	88.5
397.474	94.5
397.698	74.5
397.922	97.5
398.147	86.5
398.371	104.5
398.595	79.5
398.82	89.5
399.044	95.5
399.268	89.5
399.492	94.5
399.717	79.5
399.941	91.5
400.165	91.5
400.389	93.5
400.613	102.5
400.837	96.5
401.062	86.5
401.286	80.5
401.51	88.5
401.734	95.5
401.958	103.5
402.182	122.5
402.406	148.5
402.63	116.5
402.854	95.5
403.078	94.5
403.302	92.5
403.526	78.5
403.75	91.5
403.974	74.5
404.198	86.5
404.422	97.5
404.645	84.5
404.869	96.5
405.093	89.5
405.317	71.5
405.541	83.5
405.765	99.5
405.988	115.5
406.212	146.5
406.436	203.5
406.66	131.5
406.883	92.5
407.107	92.5
407.331	91.5
407.555	101.5
407.778	80.5
408.002	93.5
408.226	90.5
408.449	84.5
408.673	90.5
408.896	94.5
409.12	85.5
409.344	75.5
409.567	80.5
409.791	92.5
410.014	85.5
410.238	100.5
410.461	105.5
410.685	92.5
410.908	95.5
411.132	101.5
411.355	93.5
411.578	96.5
411.802	85.5
412.025	79.5
412.249	80.5
412.472	83.5
412.695	79.5
412.919	85.5
413.142	84.5
413.365	76.5
413.589	88.5
413.812	93.5
414.035	88.5
414.258	86.5
414.482	80.5
414.705	104.5
414.928	92.5
415.151	93.5
415.374	93.5
415.597	87.5
415.821	81.5
416.044	93.5
416.267	94.5
416.49	81.5
416.713	93.5
416.936	85.5
417.159	88.5
417.382	91.5
417.605	91.5
417.828	88.5
418.051	87.5
418.274	83.5
418.497	86.5
418.72	70.5
418.943	85.5
419.166	104.5
419.389	80.5
419.611	80.5
419.834	89.5
420.057	99.5
420.28	81.5
420.503	96.5
420.726	93.5
420.948	90.5
421.171	83.5
421.394	85.5
421.617	91.5
421.839	95.5
422.062	87.5
422.285	86.5
422.507	104.5
422.73	92.5
422.953	89.5
423.175	87.5
423.398	89.5
423.621	93.5
423.843	88.5
424.066	96.5
424.288	78.5
424.511	94.5
424.733	88.5
424.956	100.5
425.178	99.5
425.401	96.5
425.623	103.5
425.846	88.5
426.068	100.5
426.291	92.5
426.513	89.5
426.735	91.5
426.958	91.5
427.18	88.5
427.402	115.5
427.625	138.5
427.847	116.5
428.069	98.5
428.292	87.5
428.514	84.5
428.736	93.5
428.958	95.5
429.181	97.5
429.403	83.5
429.625	94.5
429.847	93.5
430.069	94.5
430.292	94.5
430.514	85.5
430.736	83.5
430.958	88.5
431.18	90.5
431.402	93.5
431.624	84.5
431.846	87.5
432.068	88.5
432.29	108.5
432.512	83.5
432.734	79.5
432.956	87.5
433.178	94.5
433.4	98.5
433.622	93.5
433.844	93.5
434.066	101.5
434.287	83.5
434.509	98.5
434.731	82.5
434.953	85.5
435.175	72.5
435.397	100.5
435.618	97.5
435.84	107.5
436.062	108.5
436.284	101.5
436.505	102.5
436.727	84.5
436.949	100.5
437.17	83.5
437.392	92.5
437.614	87.5
437.835	92.5
438.057	107.5
438.278	117.5
438.5	100.5
438.721	119.5
438.943	109.5
439.165	92.5
439.386	86.5
439.608	102.5
439.829	93.5
440.05	108.5
440.272	123.5
440.493	102.5
440.715	99.5
440.936	97.5
441.158	80.5
441.379	74.5
441.6	90.5
441.822	99.5
442.043	88.5
442.264	97.5
442.486	99.5
442.707	92.5
442.928	93.5
443.149	112.5
443.371	110.5
443.592	103.5
443.813	99.5
444.034	94.5
444.255	84.5
444.476	79.5
444.698	93.5
444.919	90.5
445.14	144.5
445.361	111.5
445.582	98.5
445.803	118.5
446.024	115.5
446.245	131.5
446.466	107.5
446.687	102.5
446.908	110.5
447.129	101.5
447.35	93.5
447.571	92.5
447.792	94.5
448.013	107.5
448.234	101.5
448.455	113.5
448.675	96.5
448.896	102.5
449.117	94.5
449.338	102.5
449.559	130.5
449.779	145.5
450	89.5
450.221	86.5
450.442	100.5
450.662	96.5
450.883	105.5
451.104	108.5
451.324	97.5
451.545	76.5
451.766	94.5
451.986	91.5
452.207	94.5
452.428	103.5
452.648	100.5
452.869	102.5
453.089	103.5
453.31	101.5
453.53	86.5
453.751	99.5
453.971	119.5
454.192	107.5
454.412	103.5
454.633	91.5
454.853	103.5
455.073	102.5
455.294	100.5
455.514	88.5
455.734	88.5
455.955	95.5
456.175	93.5
456.395	86.5
456.616	88.5
456.836	83.5
457.056	88.5
457.276	91.5
457.497	92.5
457.717	85.5
457.937	76.5
458.157	106.5
458.377	84.5
458.598	115.5
458.818	143.5
459.038	122.5
459.258	99.5
459.478	82.5
459.698	86.5
459.918	98.5
460.138	86.5
460.358	91.5
460.578	89.5
460.798	79.5
461.018	71.5
461.238	84.5
461.458	93.5
461.678	90.5
461.898	77.5
462.118	91.5
462.338	102.5
462.558	81.5
462.777	87.5
462.997	80.5
463.217	92.5
463.437	93.5
463.657	92.5
463.876	81.5
464.096	96.5
464.316	83.5
464.536	84.5
464.755	79.5
464.975	99.5
465.195	133.5
465.414	143.5
465.634	83.5
465.854	94.5
466.073	88.5
466.293	84.5
466.512	100.5
466.732	78.5
466.951	87.5
467.171	93.5
467.391	86.5
467.61	112.5
467.829	98.5
468.049	89.5
468.268	80.5
468.488	93.5
468.707	90.5
468.927	79.5
469.146	80.5
469.365	90.5
469.585	87.5
469.804	93.5
470.023	102.5
470.243	88.5
470.462	103.5
470.681	101.5
470.901	87.5
471.12	88.5
471.339	94.5
471.558	86.5
471.777	84.5
471.997	79.5
472.216	96.5
472.435	82.5
472.654	93.5
472.873	87.5
473.092	88.5
473.311	89.5
473.53	91.5
473.749	95.5
473.968	93.5
474.187	84.5
474.406	83.5
474.625	87.5
474.844	98.5
475.063	81.5
475.282	101.5
475.501	94.5
475.72	69.5
475.939	83.5
476.158	83.5
476.377	85.5
476.596	93.5
476.814	88.5
477.033	86.5
477.252	91.5
477.471	97.5
477.69	70.5
477.908	85.5
478.127	92.5
478.346	86.5
478.564	101.5
478.783	104.5
479.002	96.5
479.22	92.5
479.439	94.5
479.658	94.5
479.876	95.5
480.095	92.5
480.313	96.5
480.532	101.5
480.751	80.5
480.969	86.5
481.188	112.5
481.406	91.5
481.624	95.5
481.843	88.5
482.061	83.5
482.28	85.5
482.498	96.5
482.717	95.5
482.935	81.5
483.153	91.5
483.372	83.5
483.59	95.5
483.808	87.5
484.027	82.5
484.245	92.5
484.463	94.5
484.681	85.5
484.9	100.5
485.118	93.5
485.336	87.5
485.554	92.5
485.772	103.5
485.99	100.5
486.209	108.5
486.427	96.5
486.645	107.5
486.863	102.5
487.081	105.5
487.299	92.5
487.517	103.5
487.735	90.5
487.953	84.5
488.171	96.5
488.389	95.5
488.607	104.5
488.825	93.5
489.043	109.5
489.261	90.5
489.479	87.5
489.696	92.5
489.914	71.5
490.132	89.5
490.35	89.5
490.568	92.5
490.786	95.5
491.003	105.5
491.221	90.5
491.439	97.5
491.657	87.5
491.874	109.5
492.092	97.5
492.31	93.5
492.527	89.5
492.745	90.5
492.963	94.5
493.18	87.5
493.398	88.5
493.615	86.5
493.833	103.5
494.05	98.5
494.268	88.5
494.485	86.5
494.703	104.5
494.92	96.5
495.138	103.5
495.355	86.5
495.573	92.5
495.79	82.5
496.008	76.5
496.225	95.5
496.442	88.5
496.66	94.5
496.877	84.5
497.094	89.5
497.312	90.5
497.529	91.5
497.746	87.5
497.963	86.5
498.181	93.5
498.398	94.5
498.615	96.5
498.832	106.5
499.049	82.5
499.267	87.5
499.484	111.5
499.701	104.5
499.918	97.5
500.135	87.5
500.352	90.5
500.569	81.5
500.786	99.5
501.003	96.5
501.22	93.5
501.437	94.5
501.654	94.5
501.871	100.5
502.088	96.5
502.305	81.5
502.522	79.5
502.739	92.5
502.956	87.5
503.172	94.5
503.389	93.5
503.606	112.5
503.823	94.5
504.04	91.5
504.256	94.5
504.473	95.5
504.69	90.5
504.907	87.5
505.123	72.5
505.34	89.5
505.557	87.5
505.773	98.5
505.99	83.5
506.207	101.5
506.423	82.5
506.64	91.5
506.856	88.5
507.073	91.5
507.289	89.5
507.506	110.5
507.722	104.5
507.939	101.5
508.155	90.5
508.372	92.5
508.588	72.5
508.805	93.5
509.021	92.5
509.238	96.5
509.454	92.5
509.67	90.5
509.887	119.5
510.103	112.5
510.319	194.5
510.536	666.5
510.752	1977.5
510.968	565.5
511.184	142.5
511.401	110.5
511.617	81.5
511.833	85.5
512.049	80.5
512.265	92.5
512.481	106.5
512.698	86.5
512.914	76.5
513.13	82.5
513.346	94.5
513.562	95.5
513.778	97.5
513.994	98.5
514.21	107.5
514.426	110.5
514.642	117.5
514.858	115.5
515.074	173.5
515.29	397.5
515.506	1227.5
515.721	449.5
515.937	143.5
516.153	108.5
516.369	103.5
516.585	106.5
516.801	94.5
517.016	94.5
517.232	98.5
517.448	98.5
517.664	85.5
517.879	86.5
518.095	96.5
518.311	84.5
518.527	86.5
518.742	102.5
518.958	103.5
519.173	100.5
519.389	98.5
519.605	87.5
519.82	82.5
520.036	102.5
520.251	113.5
520.467	96.5
520.682	112.5
520.898	99.5
521.113	111.5
521.329	142.5
521.544	180.5
521.76	475.5
521.975	1920.5
522.19	1216.5
522.406	274.5
522.621	125.5
522.836	90.5
523.052	92.5
523.267	99.5
523.482	103.5
523.698	96.5
523.913	139.5
524.128	112.5
524.343	92.5
524.559	99.5
524.774	93.5
524.989	102.5
525.204	104.5
525.419	109.5
525.634	102.5
525.849	93.5
526.064	92.5
526.28	100.5
526.495	96.5
526.71	113.5
526.925	90.5
527.14	82.5
527.355	89.5
527.57	75.5
527.785	98.5
527.999	98.5
528.214	100.5
528.429	105.5
528.644	82.5
528.859	85.5
529.074	84.5
529.289	113.5
529.503	173.5
529.718	104.5
529.933	102.5
530.148	91.5
530.363	86.5
530.577	83.5
530.792	94.5
531.007	90.5
531.221	86.5
531.436	86.5
531.651	92.5
531.865	85.5
532.08	103.5
532.295	100.5
532.509	83.5
532.724	93.5
532.938	91.5
533.153	105.5
533.367	103.5
533.582	104.5
533.796	83.5
534.011	79.5
534.225	95.5
534.44	90.5
534.654	99.5
534.868	94.5
535.083	90.5
535.297	98.5
535.511	102.5
