Data from Uncirc_2005_H10_HRD10591_00087.txt Node
Date: Wed Jan 03 10:28:42 EST 2024
User: Yrep
Spectrometer: HR+D1059
Trigger mode: 1
Integration Time (sec): 1.000000E-1
Scans to average: 1
Electric dark correction enabled: true
Nonlinearity correction enabled: false
Boxcar width: 0
XAxis mode: Wavelengths
Number of Pixels in Spectrum: 2048
>>>>>Begin Spectral Data<<<<<
223.165	-30.06
223.4	-30.06
223.635	-30.06
223.869	-23.06
224.104	-12.06
224.338	-27.06
224.573	-14.06
224.808	-14.06
225.042	-11.06
225.277	-17.06
225.511	-11.06
225.746	9.94
225.98	14.94
226.215	20.94
226.449	24.94
226.683	24.94
226.918	25.94
227.152	37.94
227.387	29.94
227.621	41.94
227.856	53.94
228.09	49.94
228.324	37.94
228.559	55.94
228.793	57.94
229.027	77.94
229.262	70.94
229.496	72.94
229.73	92.94
229.964	76.94
230.199	79.94
230.433	86.94
230.667	63.94
230.901	72.94
231.136	63.94
231.37	71.94
231.604	76.94
231.838	75.94
232.072	83.94
232.306	77.94
232.541	83.94
232.775	90.94
233.009	82.94
233.243	80.94
233.477	82.94
233.711	89.94
233.945	83.94
234.179	81.94
234.413	85.94
234.647	81.94
234.881	73.94
235.115	87.94
235.349	75.94
235.583	91.94
235.817	74.94
236.051	93.94
236.285	85.94
236.519	83.94
236.753	88.94
236.987	82.94
237.221	103.94
237.455	87.94
237.689	78.94
237.922	84.94
238.156	75.94
238.39	78.94
238.624	76.94
238.858	70.94
239.091	86.94
239.325	76.94
239.559	88.94
239.793	88.94
240.027	83.94
240.26	77.94
240.494	77.94
240.728	79.94
240.961	73.94
241.195	85.94
241.429	84.94
241.662	79.94
241.896	83.94
242.13	91.94
242.363	73.94
242.597	80.94
242.83	77.94
243.064	73.94
243.298	72.94
243.531	80.94
243.765	82.94
243.998	72.94
244.232	89.94
244.465	81.94
244.699	56.94
244.932	66.94
245.166	93.94
245.399	73.94
245.633	81.94
245.866	84.94
246.099	74.94
246.333	88.94
246.566	86.94
246.8	74.94
247.033	78.94
247.266	88.94
247.5	74.94
247.733	85.94
247.966	89.94
248.2	63.94
248.433	73.94
248.666	91.94
248.899	84.94
249.133	82.94
249.366	94.94
249.599	94.94
249.832	85.94
250.066	72.94
250.299	86.94
250.532	90.94
250.765	75.94
250.998	72.94
251.231	74.94
251.465	89.94
251.698	79.94
251.931	78.94
252.164	81.94
252.397	95.94
252.63	85.94
252.863	83.94
253.096	85.94
253.329	83.94
253.562	78.94
253.795	93.94
254.028	82.94
254.261	93.94
254.494	90.94
254.727	79.94
254.96	77.94
255.193	94.94
255.426	83.94
255.659	90.94
255.892	73.94
256.124	71.94
256.357	89.94
256.59	78.94
256.823	74.94
257.056	95.94
257.289	80.94
257.521	85.94
257.754	80.94
257.987	78.94
258.22	79.94
258.452	89.94
258.685	83.94
258.918	82.94
259.151	86.94
259.383	88.94
259.616	87.94
259.849	85.94
260.081	64.94
260.314	78.94
260.547	78.94
260.779	96.94
261.012	82.94
261.244	74.94
261.477	96.94
261.71	89.94
261.942	121.94
262.175	110.94
262.407	83.94
262.64	94.94
262.872	87.94
263.105	79.94
263.337	93.94
263.57	86.94
263.802	88.94
264.035	87.94
264.267	86.94
264.499	80.94
264.732	79.94
264.964	88.94
265.197	85.94
265.429	97.94
265.661	89.94
265.894	86.94
266.126	107.94
266.358	81.94
266.591	88.94
266.823	85.94
267.055	78.94
267.287	89.94
267.52	77.94
267.752	86.94
267.984	91.94
268.216	86.94
268.448	77.94
268.681	78.94
268.913	79.94
269.145	98.94
269.377	83.94
269.609	84.94
269.841	77.94
270.073	80.94
270.306	88.94
270.538	90.94
270.77	84.94
271.002	67.94
271.234	105.94
271.466	85.94
271.698	102.94
271.93	79.94
272.162	86.94
272.394	81.94
272.626	103.94
272.858	104.94
273.09	84.94
273.322	91.94
273.553	85.94
273.785	84.94
274.017	86.94
274.249	84.94
274.481	85.94
274.713	95.94
274.945	91.94
275.176	96.94
275.408	75.94
275.64	77.94
275.872	83.94
276.104	85.94
276.335	89.94
276.567	93.94
276.799	101.94
277.031	105.94
277.262	84.94
277.494	70.94
277.726	87.94
277.957	95.94
278.189	90.94
278.421	66.94
278.652	82.94
278.884	90.94
279.115	101.94
279.347	102.94
279.579	91.94
279.81	84.94
280.042	96.94
280.273	93.94
280.505	95.94
280.736	94.94
280.968	80.94
281.199	82.94
281.431	87.94
281.662	95.94
281.894	99.94
282.125	100.94
282.356	105.94
282.588	129.94
282.819	114.94
283.051	90.94
283.282	83.94
283.513	112.94
283.745	80.94
283.976	89.94
284.207	102.94
284.439	83.94
284.67	89.94
284.901	93.94
285.132	80.94
285.364	97.94
285.595	97.94
285.826	83.94
286.057	81.94
286.288	94.94
286.52	93.94
286.751	100.94
286.982	92.94
287.213	82.94
287.444	89.94
287.675	87.94
287.906	101.94
288.138	93.94
288.369	96.94
288.6	94.94
288.831	88.94
289.062	100.94
289.293	83.94
289.524	86.94
289.755	88.94
289.986	85.94
290.217	90.94
290.448	88.94
290.679	87.94
290.91	83.94
291.141	83.94
291.371	84.94
291.602	77.94
291.833	93.94
292.064	85.94
292.295	79.94
292.526	96.94
292.757	83.94
292.987	93.94
293.218	95.94
293.449	90.94
293.68	88.94
293.91	87.94
294.141	99.94
294.372	108.94
294.603	93.94
294.833	99.94
295.064	91.94
295.295	81.94
295.525	83.94
295.756	103.94
295.987	117.94
296.217	137.94
296.448	122.94
296.679	88.94
296.909	93.94
297.14	87.94
297.37	85.94
297.601	89.94
297.831	95.94
298.062	99.94
298.292	93.94
298.523	93.94
298.753	103.94
298.984	82.94
299.214	89.94
299.445	88.94
299.675	97.94
299.905	99.94
300.136	85.94
300.366	93.94
300.597	83.94
300.827	98.94
301.057	97.94
301.288	104.94
301.518	105.94
301.748	101.94
301.979	107.94
302.209	86.94
302.439	101.94
302.669	92.94
302.9	97.94
303.13	93.94
303.36	91.94
303.59	89.94
303.82	101.94
304.051	95.94
304.281	84.94
304.511	106.94
304.741	83.94
304.971	82.94
305.201	84.94
305.431	94.94
305.661	86.94
305.891	85.94
306.121	100.94
306.352	89.94
306.582	103.94
306.812	80.94
307.042	97.94
307.272	95.94
307.502	100.94
307.731	90.94
307.961	92.94
308.191	86.94
308.421	91.94
308.651	89.94
308.881	97.94
309.111	93.94
309.341	100.94
309.571	89.94
309.8	98.94
310.03	95.94
310.26	99.94
310.49	79.94
310.72	97.94
310.949	100.94
311.179	97.94
311.409	99.94
311.639	99.94
311.868	101.94
312.098	88.94
312.328	98.94
312.557	99.94
312.787	95.94
313.017	94.94
313.246	94.94
313.476	90.94
313.706	90.94
313.935	84.94
314.165	94.94
314.394	114.94
314.624	101.94
314.853	88.94
315.083	91.94
315.312	101.94
315.542	90.94
315.771	79.94
316.001	86.94
316.23	104.94
316.46	94.94
316.689	97.94
316.919	94.94
317.148	98.94
317.377	98.94
317.607	103.94
317.836	99.94
318.065	96.94
318.295	96.94
318.524	101.94
318.753	97.94
318.983	98.94
319.212	87.94
319.441	95.94
319.67	113.94
319.9	90.94
320.129	86.94
320.358	101.94
320.587	95.94
320.816	104.94
321.046	95.94
321.275	97.94
321.504	98.94
321.733	92.94
321.962	99.94
322.191	108.94
322.42	107.94
322.649	121.94
322.878	112.94
323.108	111.94
323.337	128.94
323.566	133.94
323.795	154.94
324.024	218.94
324.253	401.94
324.482	835.94
324.71	1763.94
324.939	2310.94
325.168	830.94
325.397	242.94
325.626	149.94
325.855	133.94
326.084	127.94
326.313	141.94
326.542	161.94
326.77	242.94
326.999	473.94
327.228	989.94
327.457	1785.94
327.686	1400.94
327.914	377.94
328.143	185.94
328.372	152.94
328.6	118.94
328.829	101.94
329.058	108.94
329.287	124.94
329.515	113.94
329.744	112.94
329.972	110.94
330.201	114.94
330.43	114.94
330.658	102.94
330.887	117.94
331.115	122.94
331.344	99.94
331.572	97.94
331.801	116.94
332.03	101.94
332.258	102.94
332.486	100.94
332.715	89.94
332.943	79.94
333.172	97.94
333.4	101.94
333.629	100.94
333.857	133.94
334.085	103.94
334.314	97.94
334.542	101.94
334.771	102.94
334.999	93.94
335.227	101.94
335.455	91.94
335.684	104.94
335.912	108.94
336.14	111.94
336.369	101.94
336.597	102.94
336.825	83.94
337.053	84.94
337.281	97.94
337.51	81.94
337.738	79.94
337.966	89.94
338.194	97.94
338.422	109.94
338.65	90.94
338.878	82.94
339.106	81.94
339.334	96.94
339.562	97.94
339.79	100.94
340.018	91.94
340.246	108.94
340.474	93.94
340.702	78.94
340.93	89.94
341.158	88.94
341.386	105.94
341.614	100.94
341.842	84.94
342.07	100.94
342.298	101.94
342.526	98.94
342.754	99.94
342.981	110.94
343.209	102.94
343.437	108.94
343.665	90.94
343.893	98.94
344.12	80.94
344.348	79.94
344.576	79.94
344.804	86.94
345.031	83.94
345.259	100.94
345.487	105.94
345.714	102.94
345.942	94.94
346.17	90.94
346.397	97.94
346.625	95.94
346.853	81.94
347.08	88.94
347.308	95.94
347.535	101.94
347.763	99.94
347.99	102.94
348.218	106.94
348.445	109.94
348.673	96.94
348.9	98.94
349.128	98.94
349.355	97.94
349.583	99.94
349.81	88.94
350.037	99.94
350.265	97.94
350.492	95.94
350.72	95.94
350.947	102.94
351.174	95.94
351.402	111.94
351.629	101.94
351.856	101.94
352.083	101.94
352.311	107.94
352.538	94.94
352.765	112.94
352.992	124.94
353.22	112.94
353.447	97.94
353.674	108.94
353.901	108.94
354.128	89.94
354.355	108.94
354.583	94.94
354.81	100.94
355.037	102.94
355.264	90.94
355.491	90.94
355.718	101.94
355.945	109.94
356.172	89.94
356.399	93.94
356.626	103.94
356.853	91.94
357.08	91.94
357.307	88.94
357.534	82.94
357.761	88.94
357.988	97.94
358.215	81.94
358.441	95.94
358.668	90.94
358.895	83.94
359.122	92.94
359.349	102.94
359.576	103.94
359.802	111.94
360.029	118.94
360.256	110.94
360.483	105.94
360.709	97.94
360.936	90.94
361.163	111.94
361.39	98.94
361.616	85.94
361.843	86.94
362.07	94.94
362.296	91.94
362.523	101.94
362.749	89.94
362.976	90.94
363.203	111.94
363.429	107.94
363.656	107.94
363.882	81.94
364.109	78.94
364.335	90.94
364.562	94.94
364.788	101.94
365.015	105.94
365.241	93.94
365.468	101.94
365.694	97.94
365.92	101.94
366.147	95.94
366.373	78.94
366.599	87.94
366.826	76.94
367.052	89.94
367.278	96.94
367.505	106.94
367.731	106.94
367.957	79.94
368.184	92.94
368.41	96.94
368.636	113.94
368.862	114.94
369.089	106.94
369.315	94.94
369.541	98.94
369.767	88.94
369.993	93.94
370.219	102.94
370.445	95.94
370.672	97.94
370.898	97.94
371.124	95.94
371.35	88.94
371.576	100.94
371.802	93.94
372.028	90.94
372.254	90.94
372.48	98.94
372.706	85.94
372.932	91.94
373.158	94.94
373.384	96.94
373.61	88.94
373.835	89.94
374.061	88.94
374.287	90.94
374.513	95.94
374.739	96.94
374.965	88.94
375.191	101.94
375.416	96.94
375.642	95.94
375.868	85.94
376.094	105.94
376.319	93.94
376.545	95.94
376.771	93.94
376.997	80.94
377.222	96.94
377.448	81.94
377.674	92.94
377.899	87.94
378.125	94.94
378.35	101.94
378.576	85.94
378.802	98.94
379.027	94.94
379.253	107.94
379.478	89.94
379.704	102.94
379.929	100.94
380.155	105.94
380.38	96.94
380.606	95.94
380.831	78.94
381.057	90.94
381.282	97.94
381.507	101.94
381.733	85.94
381.958	109.94
382.184	94.94
382.409	100.94
382.634	102.94
382.86	95.94
383.085	103.94
383.31	107.94
383.535	98.94
383.761	96.94
383.986	99.94
384.211	85.94
384.436	109.94
384.662	106.94
384.887	114.94
385.112	109.94
385.337	95.94
385.562	96.94
385.787	112.94
386.013	115.94
386.238	109.94
386.463	125.94
386.688	102.94
386.913	94.94
387.138	112.94
387.363	109.94
387.588	105.94
387.813	119.94
388.038	109.94
388.263	108.94
388.488	106.94
388.713	101.94
388.938	95.94
389.163	88.94
389.387	88.94
389.612	98.94
389.837	94.94
390.062	95.94
390.287	102.94
390.512	103.94
390.736	106.94
390.961	93.94
391.186	102.94
391.411	90.94
391.636	98.94
391.86	89.94
392.085	88.94
392.31	94.94
392.534	89.94
392.759	87.94
392.984	88.94
393.208	104.94
393.433	93.94
393.658	95.94
393.882	90.94
394.107	86.94
394.331	92.94
394.556	113.94
394.78	90.94
395.005	89.94
395.229	98.94
395.454	95.94
395.678	86.94
395.903	92.94
396.127	100.94
396.352	90.94
396.576	85.94
396.801	86.94
397.025	96.94
397.249	80.94
397.474	85.94
397.698	81.94
397.922	85.94
398.147	93.94
398.371	83.94
398.595	87.94
398.82	80.94
399.044	92.94
399.268	80.94
399.492	95.94
399.717	88.94
399.941	93.94
400.165	90.94
400.389	97.94
400.613	82.94
400.837	96.94
401.062	87.94
401.286	93.94
401.51	101.94
401.734	102.94
401.958	95.94
402.182	132.94
402.406	164.94
402.63	116.94
402.854	94.94
403.078	87.94
403.302	104.94
403.526	90.94
403.75	89.94
403.974	94.94
404.198	89.94
404.422	95.94
404.645	89.94
404.869	85.94
405.093	87.94
405.317	91.94
405.541	100.94
405.765	108.94
405.988	111.94
406.212	173.94
406.436	225.94
406.66	126.94
406.883	119.94
407.107	105.94
407.331	99.94
407.555	102.94
407.778	90.94
408.002	91.94
408.226	102.94
408.449	90.94
408.673	95.94
408.896	90.94
409.12	101.94
409.344	85.94
409.567	108.94
409.791	89.94
410.014	99.94
410.238	91.94
410.461	88.94
410.685	87.94
410.908	124.94
411.132	89.94
411.355	100.94
411.578	96.94
411.802	89.94
412.025	90.94
412.249	110.94
412.472	102.94
412.695	90.94
412.919	82.94
413.142	89.94
413.365	95.94
413.589	96.94
413.812	103.94
414.035	100.94
414.258	90.94
414.482	80.94
414.705	92.94
414.928	83.94
415.151	87.94
415.374	101.94
415.597	98.94
415.821	88.94
416.044	96.94
416.267	101.94
416.49	84.94
416.713	86.94
416.936	82.94
417.159	96.94
417.382	104.94
417.605	97.94
417.828	101.94
418.051	90.94
418.274	87.94
418.497	88.94
418.72	96.94
418.943	91.94
419.166	100.94
419.389	83.94
419.611	97.94
419.834	105.94
420.057	94.94
420.28	81.94
420.503	81.94
420.726	82.94
420.948	80.94
421.171	83.94
421.394	98.94
421.617	94.94
421.839	92.94
422.062	101.94
422.285	86.94
422.507	110.94
422.73	105.94
422.953	101.94
423.175	98.94
423.398	94.94
423.621	92.94
423.843	103.94
424.066	105.94
424.288	93.94
424.511	92.94
424.733	91.94
424.956	103.94
425.178	88.94
425.401	115.94
425.623	114.94
425.846	106.94
426.068	100.94
426.291	109.94
426.513	88.94
426.735	111.94
426.958	90.94
427.18	108.94
427.402	141.94
427.625	164.94
427.847	135.94
428.069	99.94
428.292	79.94
428.514	113.94
428.736	81.94
428.958	94.94
429.181	85.94
429.403	89.94
429.625	98.94
429.847	95.94
430.069	106.94
430.292	101.94
430.514	72.94
430.736	84.94
430.958	87.94
431.18	93.94
431.402	77.94
431.624	96.94
431.846	98.94
432.068	91.94
432.29	92.94
432.512	98.94
432.734	100.94
432.956	101.94
433.178	105.94
433.4	86.94
433.622	80.94
433.844	85.94
434.066	100.94
434.287	90.94
434.509	90.94
434.731	93.94
434.953	83.94
435.175	81.94
435.397	86.94
435.618	85.94
435.84	97.94
436.062	125.94
436.284	121.94
436.505	97.94
436.727	102.94
436.949	92.94
437.17	76.94
437.392	92.94
437.614	103.94
437.835	83.94
438.057	112.94
438.278	104.94
438.5	121.94
438.721	117.94
438.943	97.94
439.165	107.94
439.386	90.94
439.608	91.94
439.829	107.94
440.05	116.94
440.272	152.94
440.493	112.94
440.715	80.94
440.936	86.94
441.158	94.94
441.379	93.94
441.6	93.94
441.822	84.94
442.043	95.94
442.264	107.94
442.486	89.94
442.707	92.94
442.928	101.94
443.149	130.94
443.371	121.94
443.592	116.94
443.813	110.94
444.034	120.94
444.255	86.94
444.476	108.94
444.698	86.94
444.919	94.94
445.14	123.94
445.361	119.94
445.582	106.94
445.803	146.94
446.024	128.94
446.245	133.94
446.466	111.94
446.687	105.94
446.908	103.94
447.129	104.94
447.35	98.94
447.571	90.94
447.792	94.94
448.013	100.94
448.234	111.94
448.455	116.94
448.675	113.94
448.896	124.94
449.117	104.94
449.338	107.94
449.559	118.94
449.779	133.94
450	80.94
450.221	64.94
450.442	94.94
450.662	89.94
450.883	102.94
451.104	110.94
451.324	95.94
451.545	85.94
451.766	94.94
451.986	85.94
452.207	102.94
452.428	90.94
452.648	105.94
452.869	102.94
453.089	108.94
453.31	112.94
453.53	101.94
453.751	94.94
453.971	111.94
454.192	118.94
454.412	85.94
454.633	77.94
454.853	90.94
455.073	84.94
455.294	100.94
455.514	97.94
455.734	87.94
455.955	86.94
456.175	100.94
456.395	94.94
456.616	69.94
456.836	91.94
457.056	90.94
457.276	92.94
457.497	92.94
457.717	91.94
457.937	94.94
458.157	101.94
458.377	104.94
458.598	96.94
458.818	138.94
459.038	154.94
459.258	132.94
459.478	102.94
459.698	88.94
459.918	90.94
460.138	105.94
460.358	95.94
460.578	96.94
460.798	78.94
461.018	92.94
461.238	89.94
461.458	81.94
461.678	85.94
461.898	88.94
462.118	81.94
462.338	104.94
462.558	86.94
462.777	74.94
462.997	89.94
463.217	84.94
463.437	71.94
463.657	84.94
463.876	89.94
464.096	94.94
464.316	92.94
464.536	81.94
464.755	96.94
464.975	93.94
465.195	154.94
465.414	136.94
465.634	91.94
465.854	92.94
466.073	92.94
466.293	112.94
466.512	73.94
466.732	88.94
466.951	89.94
467.171	105.94
467.391	93.94
467.61	97.94
467.829	97.94
468.049	80.94
468.268	84.94
468.488	87.94
468.707	96.94
468.927	88.94
469.146	90.94
469.365	90.94
469.585	96.94
469.804	84.94
470.023	89.94
470.243	107.94
470.462	97.94
470.681	102.94
470.901	78.94
471.12	89.94
471.339	103.94
471.558	84.94
471.777	98.94
471.997	85.94
472.216	90.94
472.435	104.94
472.654	85.94
472.873	90.94
473.092	97.94
473.311	96.94
473.53	79.94
473.749	96.94
473.968	93.94
474.187	107.94
474.406	99.94
474.625	92.94
474.844	94.94
475.063	90.94
475.282	100.94
475.501	94.94
475.72	96.94
475.939	74.94
476.158	91.94
476.377	89.94
476.596	110.94
476.814	90.94
477.033	91.94
477.252	103.94
477.471	82.94
477.69	91.94
477.908	86.94
478.127	82.94
478.346	85.94
478.564	96.94
478.783	101.94
479.002	85.94
479.22	94.94
479.439	100.94
479.658	89.94
479.876	87.94
480.095	97.94
480.313	104.94
480.532	90.94
480.751	82.94
480.969	102.94
481.188	101.94
481.406	121.94
481.624	101.94
481.843	97.94
482.061	88.94
482.28	95.94
482.498	89.94
482.717	86.94
482.935	80.94
483.153	82.94
483.372	102.94
483.59	69.94
483.808	88.94
484.027	90.94
484.245	102.94
484.463	94.94
484.681	101.94
484.9	94.94
485.118	84.94
485.336	89.94
485.554	103.94
485.772	100.94
485.99	89.94
486.209	112.94
486.427	101.94
486.645	100.94
486.863	126.94
487.081	105.94
487.299	103.94
487.517	81.94
487.735	93.94
487.953	100.94
488.171	108.94
488.389	97.94
488.607	94.94
488.825	90.94
489.043	89.94
489.261	86.94
489.479	89.94
489.696	90.94
489.914	100.94
490.132	86.94
490.35	82.94
490.568	98.94
490.786	86.94
491.003	86.94
491.221	96.94
491.439	105.94
491.657	77.94
491.874	99.94
492.092	103.94
492.31	88.94
492.527	90.94
492.745	85.94
492.963	92.94
493.18	98.94
493.398	76.94
493.615	101.94
493.833	104.94
494.05	93.94
494.268	82.94
494.485	96.94
494.703	95.94
494.92	93.94
495.138	96.94
495.355	97.94
495.573	94.94
495.79	94.94
496.008	98.94
496.225	98.94
496.442	98.94
496.66	103.94
496.877	83.94
497.094	85.94
497.312	97.94
497.529	109.94
497.746	89.94
497.963	78.94
498.181	79.94
498.398	101.94
498.615	115.94
498.832	105.94
499.049	87.94
499.267	86.94
499.484	82.94
499.701	97.94
499.918	94.94
500.135	99.94
500.352	88.94
500.569	100.94
500.786	83.94
501.003	92.94
501.22	108.94
501.437	101.94
501.654	86.94
501.871	110.94
502.088	97.94
502.305	90.94
502.522	90.94
502.739	99.94
502.956	91.94
503.172	103.94
503.389	106.94
503.606	114.94
503.823	93.94
504.04	88.94
504.256	96.94
504.473	81.94
504.69	82.94
504.907	90.94
505.123	86.94
505.34	85.94
505.557	97.94
505.773	73.94
505.99	82.94
506.207	90.94
506.423	85.94
506.64	88.94
506.856	88.94
507.073	102.94
507.289	94.94
507.506	103.94
507.722	124.94
507.939	96.94
508.155	95.94
508.372	95.94
508.588	89.94
508.805	92.94
509.021	108.94
509.238	105.94
509.454	104.94
509.67	99.94
509.887	105.94
510.103	135.94
510.319	197.94
510.536	705.94
510.752	2251.94
510.968	624.94
511.184	164.94
511.401	119.94
511.617	90.94
511.833	86.94
512.049	94.94
512.265	85.94
512.481	91.94
512.698	87.94
512.914	102.94
513.13	83.94
513.346	101.94
513.562	83.94
513.778	89.94
513.994	87.94
514.21	100.94
514.426	126.94
514.642	142.94
