Data from Uncirc_2005_H10_HRD10591_00038.txt Node
Date: Wed Jan 03 10:28:32 EST 2024
User: Yrep
Spectrometer: HR+D1059
Trigger mode: 1
Integration Time (sec): 1.000000E-1
Scans to average: 1
Electric dark correction enabled: true
Nonlinearity correction enabled: false
Boxcar width: 0
XAxis mode: Wavelengths
Number of Pixels in Spectrum: 2048
>>>>>Begin Spectral Data<<<<<
223.165	-18.75
223.4	-18.75
223.635	-18.75
223.869	-29.75
224.104	-19.75
224.338	-13.75
224.573	-20.75
224.808	-17.75
225.042	-9.75
225.277	13.25
225.511	-5.75
225.746	6.25
225.98	18.25
226.215	12.25
226.449	11.25
226.683	11.25
226.918	32.25
227.152	31.25
227.387	23.25
227.621	37.25
227.856	41.25
228.09	40.25
228.324	65.25
228.559	54.25
228.793	49.25
229.027	62.25
229.262	73.25
229.496	66.25
229.73	68.25
229.964	81.25
230.199	73.25
230.433	62.25
230.667	77.25
230.901	74.25
231.136	73.25
231.37	86.25
231.604	87.25
231.838	91.25
232.072	80.25
232.306	79.25
232.541	81.25
232.775	83.25
233.009	75.25
233.243	87.25
233.477	84.25
233.711	82.25
233.945	86.25
234.179	87.25
234.413	91.25
234.647	86.25
234.881	69.25
235.115	67.25
235.349	83.25
235.583	76.25
235.817	78.25
236.051	68.25
236.285	61.25
236.519	85.25
236.753	82.25
236.987	73.25
237.221	80.25
237.455	90.25
237.689	72.25
237.922	72.25
238.156	67.25
238.39	58.25
238.624	90.25
238.858	80.25
239.091	78.25
239.325	73.25
239.559	86.25
239.793	75.25
240.027	77.25
240.26	81.25
240.494	72.25
240.728	63.25
240.961	78.25
241.195	73.25
241.429	70.25
241.662	74.25
241.896	74.25
242.13	53.25
242.363	65.25
242.597	67.25
242.83	80.25
243.064	69.25
243.298	66.25
243.531	69.25
243.765	71.25
243.998	81.25
244.232	70.25
244.465	95.25
244.699	87.25
244.932	67.25
245.166	70.25
245.399	84.25
245.633	71.25
245.866	90.25
246.099	69.25
246.333	75.25
246.566	77.25
246.8	59.25
247.033	84.25
247.266	76.25
247.5	66.25
247.733	70.25
247.966	79.25
248.2	74.25
248.433	84.25
248.666	75.25
248.899	83.25
249.133	84.25
249.366	91.25
249.599	96.25
249.832	73.25
250.066	66.25
250.299	78.25
250.532	83.25
250.765	83.25
250.998	78.25
251.231	75.25
251.465	73.25
251.698	95.25
251.931	79.25
252.164	96.25
252.397	91.25
252.63	73.25
252.863	82.25
253.096	81.25
253.329	63.25
253.562	71.25
253.795	78.25
254.028	83.25
254.261	73.25
254.494	78.25
254.727	79.25
254.96	71.25
255.193	66.25
255.426	79.25
255.659	81.25
255.892	67.25
256.124	79.25
256.357	91.25
256.59	78.25
256.823	82.25
257.056	81.25
257.289	76.25
257.521	71.25
257.754	86.25
257.987	67.25
258.22	86.25
258.452	79.25
258.685	74.25
258.918	86.25
259.151	79.25
259.383	82.25
259.616	81.25
259.849	78.25
260.081	79.25
260.314	81.25
260.547	79.25
260.779	74.25
261.012	75.25
261.244	79.25
261.477	86.25
261.71	87.25
261.942	111.25
262.175	98.25
262.407	85.25
262.64	75.25
262.872	82.25
263.105	77.25
263.337	89.25
263.57	77.25
263.802	98.25
264.035	83.25
264.267	76.25
264.499	77.25
264.732	86.25
264.964	72.25
265.197	78.25
265.429	95.25
265.661	86.25
265.894	84.25
266.126	90.25
266.358	77.25
266.591	82.25
266.823	69.25
267.055	83.25
267.287	86.25
267.52	89.25
267.752	87.25
267.984	84.25
268.216	73.25
268.448	94.25
268.681	73.25
268.913	69.25
269.145	83.25
269.377	90.25
269.609	89.25
269.841	100.25
270.073	82.25
270.306	60.25
270.538	73.25
270.77	75.25
271.002	83.25
271.234	90.25
271.466	90.25
271.698	80.25
271.93	71.25
272.162	79.25
272.394	77.25
272.626	92.25
272.858	83.25
273.09	92.25
273.322	86.25
273.553	92.25
273.785	81.25
274.017	90.25
274.249	81.25
274.481	83.25
274.713	85.25
274.945	85.25
275.176	91.25
275.408	92.25
275.64	83.25
275.872	84.25
276.104	85.25
276.335	81.25
276.567	94.25
276.799	100.25
277.031	93.25
277.262	79.25
277.494	90.25
277.726	75.25
277.957	76.25
278.189	91.25
278.421	65.25
278.652	84.25
278.884	86.25
279.115	77.25
279.347	90.25
279.579	87.25
279.81	79.25
280.042	98.25
280.273	88.25
280.505	76.25
280.736	85.25
280.968	78.25
281.199	85.25
281.431	70.25
281.662	79.25
281.894	75.25
282.125	105.25
282.356	109.25
282.588	104.25
282.819	98.25
283.051	79.25
283.282	85.25
283.513	82.25
283.745	94.25
283.976	91.25
284.207	71.25
284.439	87.25
284.67	83.25
284.901	73.25
285.132	73.25
285.364	82.25
285.595	86.25
285.826	100.25
286.057	84.25
286.288	86.25
286.52	80.25
286.751	69.25
286.982	83.25
287.213	97.25
287.444	75.25
287.675	81.25
287.906	73.25
288.138	95.25
288.369	88.25
288.6	93.25
288.831	86.25
289.062	86.25
289.293	91.25
289.524	95.25
289.755	84.25
289.986	85.25
290.217	84.25
290.448	80.25
290.679	93.25
290.91	84.25
291.141	86.25
291.371	89.25
291.602	97.25
291.833	79.25
292.064	71.25
292.295	84.25
292.526	80.25
292.757	82.25
292.987	86.25
293.218	85.25
293.449	95.25
293.68	80.25
293.91	91.25
294.141	93.25
294.372	72.25
294.603	65.25
294.833	95.25
295.064	92.25
295.295	87.25
295.525	98.25
295.756	96.25
295.987	99.25
296.217	119.25
296.448	108.25
296.679	87.25
296.909	86.25
297.14	94.25
297.37	90.25
297.601	83.25
297.831	82.25
298.062	93.25
298.292	78.25
298.523	97.25
298.753	82.25
298.984	94.25
299.214	87.25
299.445	93.25
299.675	86.25
299.905	99.25
300.136	94.25
300.366	73.25
300.597	89.25
300.827	101.25
301.057	117.25
301.288	102.25
301.518	96.25
301.748	91.25
301.979	115.25
302.209	85.25
302.439	90.25
302.669	83.25
302.9	89.25
303.13	86.25
303.36	96.25
303.59	98.25
303.82	98.25
304.051	89.25
304.281	99.25
304.511	86.25
304.741	95.25
304.971	78.25
305.201	73.25
305.431	85.25
305.661	87.25
305.891	86.25
306.121	92.25
306.352	105.25
306.582	85.25
306.812	85.25
307.042	100.25
307.272	87.25
307.502	94.25
307.731	95.25
307.961	78.25
308.191	87.25
308.421	86.25
308.651	91.25
308.881	93.25
309.111	105.25
309.341	98.25
309.571	105.25
309.8	94.25
310.03	87.25
310.26	89.25
310.49	91.25
310.72	96.25
310.949	95.25
311.179	91.25
311.409	95.25
311.639	95.25
311.868	97.25
312.098	86.25
312.328	95.25
312.557	101.25
312.787	115.25
313.017	84.25
313.246	102.25
313.476	87.25
313.706	100.25
313.935	90.25
314.165	89.25
314.394	104.25
314.624	100.25
314.853	94.25
315.083	95.25
315.312	78.25
315.542	93.25
315.771	92.25
316.001	93.25
316.23	90.25
316.46	88.25
316.689	93.25
316.919	97.25
317.148	107.25
317.377	92.25
317.607	87.25
317.836	98.25
318.065	87.25
318.295	87.25
318.524	88.25
318.753	99.25
318.983	86.25
319.212	85.25
319.441	105.25
319.67	91.25
319.9	94.25
320.129	85.25
320.358	97.25
320.587	92.25
320.816	102.25
321.046	102.25
321.275	92.25
321.504	86.25
321.733	82.25
321.962	102.25
322.191	90.25
322.42	96.25
322.649	100.25
322.878	108.25
323.108	117.25
323.337	123.25
323.566	115.25
323.795	150.25
324.024	183.25
324.253	379.25
324.482	850.25
324.71	1718.25
324.939	2228.25
325.168	808.25
325.397	228.25
325.626	135.25
325.855	139.25
326.084	121.25
326.313	115.25
326.542	155.25
326.77	223.25
326.999	475.25
327.228	949.25
327.457	1758.25
327.686	1372.25
327.914	350.25
328.143	174.25
328.372	112.25
328.6	117.25
328.829	106.25
329.058	123.25
329.287	127.25
329.515	110.25
329.744	94.25
329.972	104.25
330.201	101.25
330.43	99.25
330.658	114.25
330.887	105.25
331.115	106.25
331.344	100.25
331.572	118.25
331.801	109.25
332.03	96.25
332.258	101.25
332.486	86.25
332.715	102.25
332.943	95.25
333.172	93.25
333.4	102.25
333.629	110.25
333.857	115.25
334.085	96.25
334.314	109.25
334.542	98.25
334.771	98.25
334.999	92.25
335.227	107.25
335.455	98.25
335.684	98.25
335.912	95.25
336.14	97.25
336.369	87.25
336.597	102.25
336.825	102.25
337.053	85.25
337.281	71.25
337.51	76.25
337.738	91.25
337.966	82.25
338.194	85.25
338.422	86.25
338.65	91.25
338.878	92.25
339.106	83.25
339.334	81.25
339.562	87.25
339.79	92.25
340.018	102.25
340.246	86.25
340.474	98.25
340.702	81.25
340.93	81.25
341.158	90.25
341.386	85.25
341.614	81.25
341.842	80.25
342.07	94.25
342.298	89.25
342.526	99.25
342.754	102.25
342.981	86.25
343.209	87.25
343.437	108.25
343.665	86.25
343.893	97.25
344.12	104.25
344.348	93.25
344.576	86.25
344.804	77.25
345.031	86.25
345.259	101.25
345.487	83.25
345.714	89.25
345.942	80.25
346.17	82.25
346.397	85.25
346.625	82.25
346.853	97.25
347.08	91.25
347.308	109.25
347.535	95.25
347.763	93.25
347.99	92.25
348.218	95.25
348.445	95.25
348.673	94.25
348.9	73.25
349.128	74.25
349.355	82.25
349.583	98.25
349.81	87.25
350.037	100.25
350.265	78.25
350.492	95.25
350.72	92.25
350.947	82.25
351.174	107.25
351.402	94.25
351.629	94.25
351.856	99.25
352.083	93.25
352.311	83.25
352.538	105.25
352.765	107.25
352.992	100.25
353.22	103.25
353.447	98.25
353.674	91.25
353.901	87.25
354.128	97.25
354.355	97.25
354.583	102.25
354.81	97.25
355.037	100.25
355.264	87.25
355.491	95.25
355.718	82.25
355.945	87.25
356.172	93.25
356.399	104.25
356.626	96.25
356.853	81.25
357.08	98.25
357.307	108.25
357.534	100.25
357.761	80.25
357.988	84.25
358.215	97.25
358.441	86.25
358.668	88.25
358.895	108.25
359.122	100.25
359.349	92.25
359.576	95.25
359.802	98.25
360.029	108.25
360.256	110.25
360.483	95.25
360.709	98.25
360.936	104.25
361.163	91.25
361.39	71.25
361.616	89.25
361.843	81.25
362.07	102.25
362.296	99.25
362.523	86.25
362.749	92.25
362.976	91.25
363.203	98.25
363.429	92.25
363.656	83.25
363.882	81.25
364.109	83.25
364.335	101.25
364.562	78.25
364.788	87.25
365.015	94.25
365.241	99.25
365.468	91.25
365.694	105.25
365.92	89.25
366.147	85.25
366.373	85.25
366.599	85.25
366.826	83.25
367.052	90.25
367.278	90.25
367.505	77.25
367.731	87.25
367.957	80.25
368.184	93.25
368.41	92.25
368.636	100.25
368.862	115.25
369.089	94.25
369.315	93.25
369.541	96.25
369.767	90.25
369.993	121.25
370.219	86.25
370.445	80.25
370.672	84.25
370.898	98.25
371.124	92.25
371.35	91.25
371.576	76.25
371.802	94.25
372.028	89.25
372.254	79.25
372.48	90.25
372.706	93.25
372.932	90.25
373.158	85.25
373.384	93.25
373.61	90.25
373.835	77.25
374.061	102.25
374.287	87.25
374.513	79.25
374.739	101.25
374.965	95.25
375.191	89.25
375.416	93.25
375.642	86.25
375.868	77.25
376.094	85.25
376.319	88.25
376.545	81.25
376.771	83.25
376.997	81.25
377.222	92.25
377.448	87.25
377.674	84.25
377.899	87.25
378.125	90.25
378.35	97.25
378.576	102.25
378.802	69.25
379.027	78.25
379.253	99.25
379.478	100.25
379.704	97.25
379.929	92.25
380.155	89.25
380.38	96.25
380.606	102.25
380.831	95.25
381.057	99.25
381.282	91.25
381.507	106.25
381.733	95.25
381.958	104.25
382.184	102.25
382.409	101.25
382.634	98.25
382.86	87.25
383.085	93.25
383.31	102.25
383.535	109.25
383.761	84.25
383.986	88.25
384.211	91.25
384.436	105.25
384.662	101.25
384.887	105.25
385.112	97.25
385.337	102.25
385.562	87.25
385.787	96.25
386.013	106.25
386.238	122.25
386.463	115.25
386.688	101.25
386.913	102.25
387.138	85.25
387.363	111.25
387.588	107.25
387.813	112.25
388.038	113.25
388.263	114.25
388.488	116.25
388.713	99.25
388.938	106.25
389.163	99.25
389.387	109.25
389.612	98.25
389.837	101.25
390.062	96.25
390.287	98.25
390.512	102.25
390.736	86.25
390.961	95.25
391.186	90.25
391.411	103.25
391.636	91.25
391.86	85.25
392.085	87.25
392.31	78.25
392.534	82.25
392.759	83.25
392.984	80.25
393.208	90.25
393.433	83.25
393.658	79.25
393.882	80.25
394.107	89.25
394.331	86.25
394.556	86.25
394.78	93.25
395.005	79.25
395.229	81.25
395.454	83.25
395.678	82.25
395.903	86.25
396.127	86.25
396.352	86.25
396.576	78.25
396.801	90.25
397.025	84.25
397.249	91.25
397.474	87.25
397.698	88.25
397.922	99.25
398.147	100.25
398.371	86.25
398.595	87.25
398.82	75.25
399.044	78.25
399.268	78.25
399.492	87.25
399.717	82.25
399.941	100.25
400.165	91.25
400.389	89.25
400.613	97.25
400.837	73.25
401.062	100.25
401.286	76.25
401.51	99.25
401.734	81.25
401.958	98.25
402.182	112.25
402.406	144.25
402.63	112.25
402.854	94.25
403.078	80.25
403.302	93.25
403.526	96.25
403.75	81.25
403.974	84.25
404.198	82.25
404.422	96.25
404.645	98.25
404.869	85.25
405.093	89.25
405.317	105.25
405.541	103.25
405.765	104.25
405.988	125.25
406.212	153.25
406.436	201.25
406.66	129.25
406.883	102.25
407.107	94.25
407.331	98.25
407.555	69.25
407.778	81.25
408.002	85.25
408.226	83.25
408.449	86.25
408.673	85.25
408.896	86.25
409.12	92.25
409.344	102.25
409.567	97.25
409.791	101.25
410.014	92.25
410.238	91.25
410.461	90.25
410.685	82.25
410.908	101.25
411.132	90.25
411.355	92.25
411.578	85.25
411.802	85.25
412.025	84.25
412.249	95.25
412.472	92.25
412.695	89.25
412.919	88.25
413.142	101.25
413.365	82.25
413.589	97.25
413.812	83.25
414.035	97.25
414.258	83.25
414.482	79.25
414.705	87.25
414.928	94.25
415.151	82.25
415.374	93.25
415.597	91.25
415.821	92.25
416.044	87.25
416.267	99.25
416.49	81.25
416.713	82.25
416.936	84.25
417.159	76.25
417.382	87.25
417.605	95.25
417.828	68.25
418.051	93.25
418.274	97.25
418.497	85.25
418.72	79.25
418.943	90.25
419.166	86.25
419.389	90.25
419.611	99.25
419.834	91.25
420.057	81.25
420.28	88.25
420.503	81.25
420.726	77.25
420.948	79.25
421.171	89.25
421.394	89.25
421.617	94.25
421.839	85.25
422.062	78.25
422.285	99.25
422.507	96.25
422.73	81.25
422.953	89.25
423.175	89.25
423.398	79.25
423.621	83.25
423.843	72.25
424.066	91.25
424.288	89.25
424.511	79.25
424.733	87.25
424.956	97.25
425.178	104.25
425.401	103.25
425.623	103.25
425.846	90.25
426.068	83.25
426.291	70.25
426.513	91.25
426.735	87.25
426.958	86.25
427.18	111.25
427.402	124.25
427.625	141.25
427.847	124.25
428.069	113.25
428.292	92.25
428.514	90.25
428.736	73.25
428.958	99.25
429.181	80.25
429.403	83.25
429.625	100.25
429.847	99.25
430.069	87.25
430.292	88.25
430.514	73.25
430.736	89.25
430.958	79.25
431.18	95.25
431.402	87.25
431.624	88.25
431.846	106.25
432.068	89.25
432.29	78.25
432.512	78.25
432.734	82.25
432.956	94.25
433.178	99.25
433.4	71.25
433.622	89.25
433.844	93.25
434.066	100.25
434.287	82.25
434.509	82.25
434.731	85.25
434.953	88.25
435.175	91.25
435.397	87.25
435.618	99.25
435.84	107.25
436.062	107.25
436.284	138.25
436.505	99.25
436.727	95.25
436.949	91.25
437.17	84.25
437.392	80.25
437.614	82.25
437.835	106.25
438.057	114.25
438.278	107.25
438.5	94.25
438.721	116.25
438.943	89.25
439.165	78.25
439.386	87.25
439.608	87.25
439.829	99.25
440.05	108.25
440.272	133.25
440.493	95.25
440.715	95.25
440.936	87.25
441.158	78.25
441.379	81.25
441.6	85.25
441.822	83.25
442.043	87.25
442.264	85.25
442.486	118.25
442.707	93.25
442.928	99.25
443.149	131.25
443.371	111.25
443.592	102.25
443.813	105.25
444.034	97.25
444.255	90.25
444.476	98.25
444.698	104.25
444.919	95.25
445.14	137.25
445.361	122.25
445.582	112.25
445.803	123.25
446.024	123.25
446.245	129.25
446.466	121.25
446.687	90.25
446.908	93.25
447.129	83.25
447.35	93.25
447.571	93.25
447.792	77.25
448.013	105.25
448.234	105.25
448.455	95.25
448.675	108.25
448.896	109.25
449.117	98.25
449.338	112.25
449.559	117.25
449.779	126.25
450	96.25
450.221	75.25
450.442	81.25
450.662	85.25
450.883	87.25
451.104	104.25
451.324	73.25
451.545	83.25
451.766	86.25
451.986	83.25
452.207	95.25
452.428	93.25
452.648	102.25
452.869	102.25
453.089	96.25
453.31	118.25
453.53	97.25
453.751	81.25
453.971	79.25
454.192	88.25
454.412	98.25
454.633	89.25
454.853	85.25
455.073	89.25
455.294	79.25
455.514	93.25
455.734	87.25
455.955	86.25
456.175	81.25
456.395	86.25
456.616	91.25
456.836	94.25
457.056	95.25
457.276	99.25
457.497	95.25
457.717	84.25
457.937	81.25
458.157	87.25
458.377	84.25
458.598	94.25
458.818	132.25
459.038	125.25
459.258	98.25
459.478	110.25
459.698	86.25
459.918	95.25
460.138	87.25
460.358	79.25
460.578	90.25
460.798	102.25
461.018	90.25
461.238	78.25
461.458	86.25
461.678	86.25
461.898	89.25
462.118	85.25
462.338	86.25
462.558	80.25
462.777	82.25
462.997	96.25
463.217	91.25
463.437	97.25
463.657	105.25
463.876	85.25
464.096	86.25
464.316	91.25
464.536	92.25
464.755	88.25
464.975	95.25
465.195	127.25
465.414	143.25
465.634	87.25
465.854	83.25
466.073	87.25
466.293	74.25
466.512	65.25
466.732	79.25
466.951	101.25
467.171	89.25
467.391	83.25
467.61	99.25
467.829	94.25
468.049	84.25
468.268	84.25
468.488	76.25
468.707	69.25
468.927	74.25
469.146	85.25
469.365	99.25
469.585	93.25
469.804	108.25
470.023	93.25
470.243	103.25
470.462	82.25
470.681	96.25
470.901	94.25
471.12	89.25
471.339	84.25
471.558	89.25
471.777	90.25
471.997	101.25
472.216	84.25
472.435	81.25
472.654	86.25
472.873	91.25
473.092	87.25
473.311	89.25
473.53	79.25
473.749	95.25
473.968	90.25
474.187	87.25
474.406	92.25
474.625	93.25
474.844	93.25
475.063	68.25
475.282	82.25
475.501	77.25
475.72	81.25
475.939	87.25
476.158	77.25
476.377	85.25
476.596	81.25
476.814	98.25
477.033	94.25
477.252	102.25
477.471	85.25
477.69	90.25
477.908	92.25
478.127	84.25
478.346	92.25
478.564	92.25
478.783	97.25
479.002	97.25
479.22	96.25
479.439	97.25
479.658	81.25
479.876	93.25
480.095	86.25
480.313	82.25
480.532	81.25
480.751	94.25
480.969	104.25
481.188	107.25
481.406	95.25
481.624	75.25
481.843	85.25
482.061	75.25
482.28	93.25
482.498	91.25
482.717	72.25
482.935	86.25
483.153	73.25
483.372	83.25
483.59	93.25
483.808	86.25
484.027	72.25
484.245	95.25
484.463	84.25
484.681	110.25
484.9	90.25
485.118	93.25
485.336	84.25
485.554	85.25
485.772	94.25
485.99	99.25
486.209	94.25
486.427	93.25
486.645	106.25
486.863	111.25
487.081	91.25
487.299	95.25
487.517	82.25
487.735	82.25
487.953	93.25
488.171	92.25
488.389	100.25
488.607	111.25
488.825	94.25
489.043	103.25
489.261	77.25
489.479	97.25
489.696	97.25
489.914	95.25
490.132	85.25
490.35	84.25
490.568	79.25
490.786	97.25
491.003	86.25
491.221	76.25
491.439	97.25
491.657	86.25
491.874	91.25
492.092	92.25
492.31	89.25
492.527	73.25
492.745	92.25
492.963	91.25
493.18	76.25
493.398	83.25
493.615	85.25
493.833	103.25
494.05	100.25
494.268	105.25
494.485	89.25
494.703	93.25
494.92	91.25
495.138	89.25
495.355	103.25
495.573	99.25
495.79	89.25
496.008	79.25
496.225	100.25
496.442	81.25
496.66	84.25
496.877	77.25
497.094	93.25
497.312	91.25
497.529	86.25
497.746	86.25
497.963	77.25
498.181	89.25
498.398	85.25
498.615	101.25
498.832	102.25
499.049	76.25
499.267	78.25
499.484	92.25
499.701	80.25
499.918	84.25
500.135	97.25
500.352	84.25
500.569	81.25
500.786	92.25
501.003	78.25
501.22	82.25
501.437	98.25
501.654	85.25
501.871	107.25
502.088	77.25
502.305	79.25
502.522	86.25
502.739	87.25
502.956	90.25
503.172	89.25
503.389	80.25
503.606	96.25
503.823	89.25
504.04	84.25
504.256	93.25
504.473	80.25
504.69	90.25
504.907	98.25
505.123	92.25
505.34	92.25
505.557	70.25
505.773	74.25
505.99	90.25
506.207	97.25
506.423	83.25
506.64	97.25
506.856	76.25
507.073	84.25
507.289	87.25
507.506	80.25
507.722	100.25
507.939	99.25
508.155	103.25
508.372	85.25
508.588	99.25
508.805	106.25
509.021	91.25
509.238	85.25
509.454	89.25
509.67	118.25
509.887	108.25
510.103	108.25
510.319	205.25
510.536	716.25
510.752	2138.25
510.968	591.25
511.184	149.25
511.401	113.25
511.617	96.25
511.833	91.25
512.049	79.25
512.265	94.25
512.481	76.25
512.698	94.25
512.914	83.25
513.13	87.25
513.346	72.25
513.562	99.25
513.778	95.25
513.994	98.25
514.21	103.25
514.426	120.25
514.642	122.25
514.858	112.25
515.074	163.25
515.29	417.25
515.506	1277.25
515.721	473.25
515.937	126.25
516.153	98.25
516.369	107.25
516.585	92.25
