Data from Uncirc_2005_H10_HRD10591_00063.txt Node
Date: Wed Jan 03 10:28:37 EST 2024
User: Yrep
Spectrometer: HR+D1059
Trigger mode: 1
Integration Time (sec): 1.000000E-1
Scans to average: 1
Electric dark correction enabled: true
Nonlinearity correction enabled: false
Boxcar width: 0
XAxis mode: Wavelengths
Number of Pixels in Spectrum: 2048
>>>>>Begin Spectral Data<<<<<
223.165	-20.94
223.4	-20.94
223.635	-20.94
223.869	-20.94
224.104	-20.94
224.338	-5.94
224.573	-11.94
224.808	-29.94
225.042	3.06
225.277	-9.94
225.511	3.06
225.746	3.06
225.98	16.06
226.215	6.06
226.449	21.06
226.683	28.06
226.918	16.06
227.152	24.06
227.387	39.06
227.621	34.06
227.856	34.06
228.09	50.06
228.324	42.06
228.559	47.06
228.793	60.06
229.027	71.06
229.262	66.06
229.496	67.06
229.73	82.06
229.964	89.06
230.199	80.06
230.433	70.06
230.667	82.06
230.901	79.06
231.136	66.06
231.37	79.06
231.604	91.06
231.838	79.06
232.072	76.06
232.306	90.06
232.541	90.06
232.775	68.06
233.009	75.06
233.243	68.06
233.477	76.06
233.711	95.06
233.945	79.06
234.179	80.06
234.413	79.06
234.647	90.06
234.881	83.06
235.115	75.06
235.349	87.06
235.583	105.06
235.817	79.06
236.051	77.06
236.285	79.06
236.519	83.06
236.753	70.06
236.987	73.06
237.221	85.06
237.455	90.06
237.689	76.06
237.922	78.06
238.156	92.06
238.39	86.06
238.624	72.06
238.858	85.06
239.091	75.06
239.325	62.06
239.559	86.06
239.793	93.06
240.027	101.06
240.26	82.06
240.494	95.06
240.728	77.06
240.961	74.06
241.195	73.06
241.429	82.06
241.662	82.06
241.896	74.06
242.13	78.06
242.363	70.06
242.597	71.06
242.83	90.06
243.064	76.06
243.298	83.06
243.531	75.06
243.765	76.06
243.998	73.06
244.232	83.06
244.465	89.06
244.699	71.06
244.932	66.06
245.166	66.06
245.399	81.06
245.633	78.06
245.866	77.06
246.099	78.06
246.333	92.06
246.566	73.06
246.8	74.06
247.033	80.06
247.266	78.06
247.5	67.06
247.733	80.06
247.966	74.06
248.2	78.06
248.433	66.06
248.666	81.06
248.899	77.06
249.133	61.06
249.366	85.06
249.599	94.06
249.832	83.06
250.066	80.06
250.299	79.06
250.532	81.06
250.765	58.06
250.998	68.06
251.231	77.06
251.465	92.06
251.698	70.06
251.931	79.06
252.164	78.06
252.397	75.06
252.63	98.06
252.863	80.06
253.096	90.06
253.329	84.06
253.562	79.06
253.795	77.06
254.028	70.06
254.261	82.06
254.494	81.06
254.727	84.06
254.96	68.06
255.193	86.06
255.426	73.06
255.659	81.06
255.892	77.06
256.124	91.06
256.357	70.06
256.59	81.06
256.823	80.06
257.056	81.06
257.289	85.06
257.521	90.06
257.754	77.06
257.987	86.06
258.22	77.06
258.452	75.06
258.685	66.06
258.918	78.06
259.151	82.06
259.383	99.06
259.616	81.06
259.849	94.06
260.081	85.06
260.314	76.06
260.547	70.06
260.779	73.06
261.012	86.06
261.244	97.06
261.477	90.06
261.71	82.06
261.942	86.06
262.175	97.06
262.407	92.06
262.64	90.06
262.872	80.06
263.105	85.06
263.337	85.06
263.57	95.06
263.802	85.06
264.035	84.06
264.267	97.06
264.499	90.06
264.732	77.06
264.964	71.06
265.197	66.06
265.429	80.06
265.661	70.06
265.894	92.06
266.126	59.06
266.358	80.06
266.591	95.06
266.823	91.06
267.055	94.06
267.287	90.06
267.52	86.06
267.752	69.06
267.984	95.06
268.216	79.06
268.448	80.06
268.681	95.06
268.913	80.06
269.145	80.06
269.377	82.06
269.609	87.06
269.841	83.06
270.073	86.06
270.306	84.06
270.538	78.06
270.77	76.06
271.002	84.06
271.234	76.06
271.466	92.06
271.698	91.06
271.93	83.06
272.162	98.06
272.394	100.06
272.626	78.06
272.858	84.06
273.09	87.06
273.322	65.06
273.553	72.06
273.785	82.06
274.017	87.06
274.249	84.06
274.481	92.06
274.713	76.06
274.945	76.06
275.176	86.06
275.408	87.06
275.64	84.06
275.872	89.06
276.104	96.06
276.335	97.06
276.567	90.06
276.799	106.06
277.031	91.06
277.262	88.06
277.494	92.06
277.726	85.06
277.957	86.06
278.189	86.06
278.421	98.06
278.652	92.06
278.884	88.06
279.115	72.06
279.347	99.06
279.579	85.06
279.81	73.06
280.042	90.06
280.273	76.06
280.505	81.06
280.736	86.06
280.968	98.06
281.199	84.06
281.431	107.06
281.662	76.06
281.894	83.06
282.125	88.06
282.356	96.06
282.588	122.06
282.819	110.06
283.051	89.06
283.282	77.06
283.513	74.06
283.745	77.06
283.976	70.06
284.207	87.06
284.439	85.06
284.67	95.06
284.901	83.06
285.132	85.06
285.364	88.06
285.595	93.06
285.826	78.06
286.057	78.06
286.288	88.06
286.52	82.06
286.751	97.06
286.982	80.06
287.213	86.06
287.444	77.06
287.675	75.06
287.906	91.06
288.138	97.06
288.369	96.06
288.6	79.06
288.831	82.06
289.062	93.06
289.293	92.06
289.524	89.06
289.755	82.06
289.986	86.06
290.217	85.06
290.448	77.06
290.679	84.06
290.91	87.06
291.141	81.06
291.371	83.06
291.602	86.06
291.833	74.06
292.064	94.06
292.295	76.06
292.526	80.06
292.757	82.06
292.987	85.06
293.218	84.06
293.449	93.06
293.68	79.06
293.91	82.06
294.141	106.06
294.372	90.06
294.603	74.06
294.833	79.06
295.064	75.06
295.295	90.06
295.525	88.06
295.756	100.06
295.987	107.06
296.217	98.06
296.448	119.06
296.679	86.06
296.909	92.06
297.14	91.06
297.37	87.06
297.601	91.06
297.831	86.06
298.062	78.06
298.292	87.06
298.523	84.06
298.753	91.06
298.984	112.06
299.214	92.06
299.445	75.06
299.675	84.06
299.905	92.06
300.136	93.06
300.366	79.06
300.597	97.06
300.827	98.06
301.057	93.06
301.288	99.06
301.518	85.06
301.748	76.06
301.979	92.06
302.209	83.06
302.439	89.06
302.669	85.06
302.9	86.06
303.13	93.06
303.36	85.06
303.59	105.06
303.82	96.06
304.051	98.06
304.281	74.06
304.511	86.06
304.741	88.06
304.971	86.06
305.201	85.06
305.431	87.06
305.661	93.06
305.891	81.06
306.121	91.06
306.352	110.06
306.582	97.06
306.812	87.06
307.042	83.06
307.272	68.06
307.502	85.06
307.731	85.06
307.961	93.06
308.191	93.06
308.421	81.06
308.651	95.06
308.881	82.06
309.111	97.06
309.341	83.06
309.571	100.06
309.8	90.06
310.03	96.06
310.26	99.06
310.49	94.06
310.72	97.06
310.949	92.06
311.179	93.06
311.409	98.06
311.639	89.06
311.868	92.06
312.098	98.06
312.328	80.06
312.557	100.06
312.787	92.06
313.017	96.06
313.246	84.06
313.476	100.06
313.706	88.06
313.935	84.06
314.165	94.06
314.394	96.06
314.624	96.06
314.853	99.06
315.083	94.06
315.312	82.06
315.542	85.06
315.771	88.06
316.001	106.06
316.23	86.06
316.46	79.06
316.689	91.06
316.919	82.06
317.148	86.06
317.377	87.06
317.607	97.06
317.836	99.06
318.065	97.06
318.295	105.06
318.524	106.06
318.753	79.06
318.983	100.06
319.212	104.06
319.441	94.06
319.67	100.06
319.9	91.06
320.129	85.06
320.358	95.06
320.587	111.06
320.816	98.06
321.046	97.06
321.275	100.06
321.504	77.06
321.733	100.06
321.962	96.06
322.191	98.06
322.42	96.06
322.649	107.06
322.878	117.06
323.108	109.06
323.337	122.06
323.566	131.06
323.795	139.06
324.024	194.06
324.253	368.06
324.482	787.06
324.71	1614.06
324.939	2052.06
325.168	739.06
325.397	215.06
325.626	147.06
325.855	127.06
326.084	123.06
326.313	138.06
326.542	154.06
326.77	209.06
326.999	418.06
327.228	895.06
327.457	1618.06
327.686	1261.06
327.914	365.06
328.143	164.06
328.372	139.06
328.6	114.06
328.829	102.06
329.058	116.06
329.287	121.06
329.515	100.06
329.744	87.06
329.972	102.06
330.201	95.06
330.43	106.06
330.658	104.06
330.887	133.06
331.115	116.06
331.344	107.06
331.572	102.06
331.801	87.06
332.03	90.06
332.258	103.06
332.486	87.06
332.715	85.06
332.943	93.06
333.172	87.06
333.4	90.06
333.629	101.06
333.857	114.06
334.085	103.06
334.314	106.06
334.542	96.06
334.771	117.06
334.999	91.06
335.227	85.06
335.455	96.06
335.684	95.06
335.912	104.06
336.14	97.06
336.369	111.06
336.597	92.06
336.825	102.06
337.053	85.06
337.281	91.06
337.51	85.06
337.738	88.06
337.966	101.06
338.194	96.06
338.422	97.06
338.65	89.06
338.878	80.06
339.106	89.06
339.334	96.06
339.562	96.06
339.79	87.06
340.018	92.06
340.246	80.06
340.474	86.06
340.702	98.06
340.93	75.06
341.158	85.06
341.386	107.06
341.614	91.06
341.842	98.06
342.07	100.06
342.298	95.06
342.526	74.06
342.754	81.06
342.981	91.06
343.209	81.06
343.437	89.06
343.665	88.06
343.893	75.06
344.12	94.06
344.348	91.06
344.576	87.06
344.804	81.06
345.031	86.06
345.259	96.06
345.487	93.06
345.714	87.06
345.942	83.06
346.17	94.06
346.397	90.06
346.625	94.06
346.853	81.06
347.08	93.06
347.308	91.06
347.535	92.06
347.763	114.06
347.99	87.06
348.218	107.06
348.445	104.06
348.673	96.06
348.9	106.06
349.128	93.06
349.355	93.06
349.583	90.06
349.81	95.06
350.037	99.06
350.265	93.06
350.492	93.06
350.72	93.06
350.947	90.06
351.174	109.06
351.402	114.06
351.629	101.06
351.856	96.06
352.083	95.06
352.311	115.06
352.538	112.06
352.765	117.06
352.992	108.06
353.22	124.06
353.447	100.06
353.674	86.06
353.901	113.06
354.128	100.06
354.355	99.06
354.583	97.06
354.81	82.06
355.037	79.06
355.264	93.06
355.491	101.06
355.718	81.06
355.945	96.06
356.172	97.06
356.399	85.06
356.626	95.06
356.853	99.06
357.08	94.06
357.307	85.06
357.534	80.06
357.761	77.06
357.988	82.06
358.215	91.06
358.441	86.06
358.668	83.06
358.895	86.06
359.122	92.06
359.349	89.06
359.576	87.06
359.802	105.06
360.029	107.06
360.256	103.06
360.483	93.06
360.709	80.06
360.936	101.06
361.163	84.06
361.39	104.06
361.616	105.06
361.843	96.06
362.07	96.06
362.296	83.06
362.523	87.06
362.749	85.06
362.976	90.06
363.203	97.06
363.429	89.06
363.656	81.06
363.882	83.06
364.109	92.06
364.335	95.06
364.562	85.06
364.788	96.06
365.015	89.06
365.241	103.06
365.468	90.06
365.694	117.06
365.92	93.06
366.147	81.06
366.373	83.06
366.599	92.06
366.826	84.06
367.052	76.06
367.278	92.06
367.505	85.06
367.731	77.06
367.957	95.06
368.184	92.06
368.41	108.06
368.636	101.06
368.862	108.06
369.089	99.06
369.315	100.06
369.541	91.06
369.767	95.06
369.993	91.06
370.219	101.06
370.445	92.06
370.672	83.06
370.898	83.06
371.124	94.06
371.35	94.06
371.576	87.06
371.802	98.06
372.028	79.06
372.254	65.06
372.48	93.06
372.706	83.06
372.932	86.06
373.158	94.06
373.384	91.06
373.61	82.06
373.835	96.06
374.061	88.06
374.287	78.06
374.513	75.06
374.739	83.06
374.965	95.06
375.191	83.06
375.416	96.06
375.642	83.06
375.868	87.06
376.094	91.06
376.319	85.06
376.545	92.06
376.771	93.06
376.997	90.06
377.222	86.06
377.448	92.06
377.674	82.06
377.899	78.06
378.125	76.06
378.35	80.06
378.576	81.06
378.802	86.06
379.027	99.06
379.253	86.06
379.478	94.06
379.704	98.06
379.929	93.06
380.155	85.06
380.38	80.06
380.606	103.06
380.831	99.06
381.057	96.06
381.282	94.06
381.507	99.06
381.733	91.06
381.958	78.06
382.184	105.06
382.409	100.06
382.634	108.06
382.86	104.06
383.085	94.06
383.31	102.06
383.535	108.06
383.761	104.06
383.986	86.06
384.211	111.06
384.436	100.06
384.662	115.06
384.887	114.06
385.112	121.06
385.337	98.06
385.562	109.06
385.787	106.06
386.013	104.06
386.238	103.06
386.463	95.06
386.688	100.06
386.913	89.06
387.138	110.06
387.363	114.06
387.588	93.06
387.813	87.06
388.038	116.06
388.263	114.06
388.488	108.06
388.713	102.06
388.938	96.06
389.163	99.06
389.387	109.06
389.612	90.06
389.837	86.06
390.062	87.06
390.287	83.06
390.512	106.06
390.736	97.06
390.961	66.06
391.186	86.06
391.411	93.06
391.636	80.06
391.86	94.06
392.085	74.06
392.31	88.06
392.534	103.06
392.759	87.06
392.984	95.06
393.208	80.06
393.433	86.06
393.658	77.06
393.882	78.06
394.107	87.06
394.331	95.06
394.556	74.06
394.78	87.06
395.005	78.06
395.229	87.06
395.454	84.06
395.678	82.06
395.903	88.06
396.127	87.06
396.352	86.06
396.576	77.06
396.801	89.06
397.025	97.06
397.249	85.06
397.474	88.06
397.698	87.06
397.922	97.06
398.147	86.06
398.371	81.06
398.595	86.06
398.82	89.06
399.044	105.06
399.268	73.06
399.492	99.06
399.717	104.06
399.941	84.06
400.165	90.06
400.389	99.06
400.613	101.06
400.837	82.06
401.062	90.06
401.286	90.06
401.51	90.06
401.734	77.06
401.958	93.06
402.182	117.06
402.406	149.06
402.63	120.06
402.854	102.06
403.078	91.06
403.302	72.06
403.526	92.06
403.75	94.06
403.974	85.06
404.198	78.06
404.422	76.06
404.645	81.06
404.869	92.06
405.093	89.06
405.317	94.06
405.541	86.06
405.765	103.06
405.988	129.06
406.212	165.06
406.436	204.06
406.66	133.06
406.883	101.06
407.107	88.06
407.331	95.06
407.555	101.06
407.778	89.06
408.002	85.06
408.226	99.06
408.449	103.06
408.673	87.06
408.896	94.06
409.12	106.06
409.344	94.06
409.567	96.06
409.791	80.06
410.014	86.06
410.238	86.06
410.461	89.06
410.685	92.06
410.908	97.06
411.132	105.06
411.355	107.06
411.578	89.06
411.802	93.06
412.025	98.06
412.249	86.06
412.472	92.06
412.695	82.06
412.919	82.06
413.142	89.06
413.365	77.06
413.589	86.06
413.812	84.06
414.035	81.06
414.258	94.06
414.482	98.06
414.705	81.06
414.928	105.06
415.151	89.06
415.374	99.06
415.597	83.06
415.821	96.06
416.044	86.06
416.267	81.06
416.49	91.06
416.713	85.06
416.936	88.06
417.159	85.06
417.382	105.06
417.605	82.06
417.828	94.06
418.051	86.06
418.274	78.06
418.497	100.06
418.72	77.06
418.943	96.06
419.166	83.06
419.389	76.06
419.611	91.06
419.834	91.06
420.057	91.06
420.28	92.06
420.503	86.06
420.726	87.06
420.948	89.06
421.171	87.06
421.394	99.06
421.617	85.06
421.839	97.06
422.062	84.06
422.285	98.06
422.507	90.06
422.73	93.06
422.953	98.06
423.175	94.06
423.398	86.06
423.621	84.06
423.843	93.06
424.066	95.06
424.288	80.06
424.511	75.06
424.733	110.06
424.956	93.06
425.178	90.06
425.401	102.06
425.623	94.06
425.846	84.06
426.068	91.06
426.291	86.06
426.513	81.06
426.735	84.06
426.958	92.06
427.18	95.06
427.402	126.06
427.625	157.06
427.847	109.06
428.069	106.06
428.292	89.06
428.514	86.06
428.736	82.06
428.958	89.06
429.181	77.06
429.403	83.06
429.625	83.06
429.847	98.06
430.069	100.06
430.292	93.06
430.514	76.06
430.736	76.06
430.958	83.06
431.18	81.06
431.402	84.06
431.624	92.06
431.846	82.06
432.068	87.06
432.29	84.06
432.512	88.06
432.734	90.06
432.956	92.06
433.178	101.06
433.4	92.06
433.622	101.06
433.844	89.06
434.066	86.06
434.287	94.06
434.509	95.06
434.731	67.06
434.953	83.06
435.175	90.06
435.397	81.06
435.618	97.06
435.84	101.06
436.062	102.06
436.284	98.06
436.505	109.06
436.727	105.06
436.949	116.06
437.17	98.06
437.392	96.06
437.614	87.06
437.835	86.06
438.057	98.06
438.278	100.06
438.5	103.06
438.721	115.06
438.943	110.06
439.165	85.06
439.386	91.06
439.608	88.06
439.829	103.06
440.05	98.06
440.272	122.06
440.493	89.06
440.715	100.06
440.936	90.06
441.158	93.06
441.379	88.06
441.6	94.06
441.822	95.06
442.043	105.06
442.264	99.06
442.486	96.06
442.707	96.06
442.928	103.06
443.149	122.06
443.371	123.06
443.592	115.06
443.813	101.06
444.034	100.06
444.255	96.06
444.476	95.06
444.698	97.06
444.919	90.06
445.14	131.06
445.361	131.06
445.582	103.06
445.803	118.06
446.024	106.06
446.245	109.06
446.466	96.06
446.687	82.06
446.908	93.06
447.129	94.06
447.35	79.06
447.571	88.06
447.792	98.06
448.013	93.06
448.234	93.06
448.455	105.06
448.675	120.06
448.896	98.06
449.117	85.06
449.338	81.06
449.559	102.06
449.779	117.06
450	106.06
450.221	93.06
450.442	85.06
450.662	83.06
450.883	98.06
451.104	97.06
451.324	98.06
451.545	86.06
451.766	86.06
451.986	83.06
452.207	95.06
452.428	85.06
452.648	92.06
452.869	106.06
453.089	111.06
453.31	130.06
453.53	95.06
453.751	81.06
453.971	112.06
454.192	114.06
454.412	97.06
454.633	101.06
454.853	96.06
455.073	62.06
455.294	90.06
455.514	92.06
455.734	101.06
455.955	82.06
456.175	89.06
456.395	77.06
456.616	94.06
456.836	88.06
457.056	80.06
457.276	96.06
457.497	82.06
457.717	94.06
457.937	86.06
458.157	96.06
458.377	90.06
458.598	91.06
458.818	133.06
459.038	145.06
459.258	95.06
459.478	87.06
459.698	78.06
459.918	106.06
460.138	77.06
460.358	87.06
460.578	90.06
460.798	82.06
461.018	95.06
461.238	87.06
461.458	91.06
461.678	79.06
461.898	89.06
462.118	84.06
462.338	78.06
462.558	68.06
462.777	73.06
462.997	80.06
463.217	76.06
463.437	85.06
463.657	98.06
463.876	84.06
464.096	83.06
464.316	90.06
464.536	96.06
464.755	89.06
464.975	103.06
465.195	148.06
465.414	154.06
465.634	104.06
465.854	92.06
466.073	87.06
466.293	83.06
466.512	96.06
466.732	83.06
466.951	87.06
467.171	89.06
467.391	81.06
467.61	98.06
467.829	104.06
468.049	87.06
468.268	78.06
468.488	77.06
468.707	79.06
468.927	89.06
469.146	87.06
469.365	82.06
469.585	79.06
469.804	84.06
470.023	105.06
470.243	105.06
470.462	87.06
470.681	113.06
470.901	83.06
471.12	79.06
471.339	82.06
471.558	88.06
471.777	77.06
471.997	93.06
472.216	93.06
472.435	92.06
472.654	78.06
472.873	80.06
473.092	83.06
473.311	85.06
473.53	86.06
473.749	77.06
473.968	76.06
474.187	93.06
474.406	97.06
474.625	88.06
474.844	97.06
475.063	87.06
475.282	80.06
475.501	96.06
475.72	73.06
475.939	94.06
476.158	71.06
476.377	89.06
476.596	83.06
476.814	102.06
477.033	83.06
477.252	77.06
477.471	84.06
477.69	89.06
477.908	85.06
478.127	93.06
478.346	85.06
478.564	95.06
478.783	83.06
479.002	80.06
479.22	96.06
479.439	96.06
479.658	95.06
479.876	92.06
480.095	87.06
480.313	97.06
480.532	78.06
480.751	76.06
480.969	89.06
481.188	110.06
481.406	100.06
481.624	94.06
481.843	91.06
482.061	91.06
482.28	85.06
482.498	85.06
482.717	94.06
482.935	90.06
483.153	81.06
483.372	95.06
483.59	82.06
483.808	94.06
484.027	99.06
484.245	95.06
484.463	94.06
484.681	100.06
484.9	87.06
485.118	102.06
485.336	92.06
485.554	102.06
485.772	95.06
485.99	106.06
486.209	96.06
486.427	113.06
486.645	103.06
486.863	112.06
487.081	94.06
487.299	96.06
487.517	92.06
487.735	93.06
487.953	93.06
488.171	96.06
488.389	92.06
488.607	98.06
488.825	96.06
489.043	85.06
489.261	95.06
489.479	79.06
489.696	85.06
489.914	98.06
490.132	103.06
490.35	88.06
490.568	96.06
490.786	104.06
491.003	99.06
491.221	91.06
491.439	90.06
491.657	98.06
491.874	86.06
492.092	86.06
492.31	87.06
492.527	83.06
492.745	87.06
492.963	80.06
493.18	88.06
493.398	95.06
493.615	92.06
493.833	95.06
494.05	83.06
494.268	91.06
494.485	93.06
494.703	98.06
494.92	93.06
495.138	91.06
495.355	83.06
495.573	95.06
495.79	83.06
496.008	83.06
496.225	101.06
496.442	96.06
496.66	87.06
496.877	81.06
497.094	83.06
497.312	95.06
497.529	86.06
497.746	87.06
497.963	101.06
498.181	87.06
498.398	102.06
498.615	109.06
498.832	97.06
499.049	76.06
499.267	89.06
499.484	97.06
499.701	92.06
499.918	88.06
500.135	70.06
500.352	84.06
500.569	80.06
500.786	71.06
501.003	85.06
501.22	93.06
501.437	98.06
501.654	102.06
501.871	109.06
502.088	108.06
502.305	82.06
502.522	99.06
502.739	84.06
502.956	79.06
503.172	84.06
503.389	108.06
503.606	101.06
503.823	96.06
504.04	90.06
504.256	91.06
504.473	81.06
504.69	95.06
504.907	99.06
505.123	77.06
505.34	98.06
505.557	93.06
505.773	80.06
505.99	99.06
506.207	84.06
506.423	101.06
506.64	87.06
506.856	102.06
507.073	99.06
507.289	86.06
507.506	97.06
507.722	117.06
507.939	104.06
508.155	97.06
508.372	101.06
508.588	84.06
508.805	102.06
509.021	99.06
509.238	98.06
509.454	83.06
509.67	92.06
509.887	114.06
510.103	117.06
510.319	172.06
510.536	685.06
510.752	2183.06
510.968	605.06
511.184	151.06
511.401	115.06
511.617	108.06
511.833	103.06
512.049	88.06
512.265	95.06
512.481	96.06
512.698	97.06
512.914	98.06
513.13	97.06
513.346	75.06
513.562	82.06
513.778	83.06
513.994	96.06
514.21	87.06
514.426	124.06
514.642	140.06
514.858	119.06
515.074	154.06
515.29	414.06
515.506	1331.06
515.721	489.06
515.937	145.06
516.153	99.06
516.369	104.06
