Data from Uncirc_2005_H10_HRD10591_00068.txt Node
Date: Wed Jan 03 10:28:38 EST 2024
User: Yrep
Spectrometer: HR+D1059
Trigger mode: 1
Integration Time (sec): 1.000000E-1
Scans to average: 1
Electric dark correction enabled: true
Nonlinearity correction enabled: false
Boxcar width: 0
XAxis mode: Wavelengths
Number of Pixels in Spectrum: 2048
>>>>>Begin Spectral Data<<<<<
223.165	-20.56
223.4	-20.56
223.635	-20.56
223.869	-11.56
224.104	-22.56
224.338	-7.56
224.573	-12.56
224.808	-14.56
225.042	-3.56
225.277	-3.56
225.511	-11.56
225.746	6.44
225.98	4.44
226.215	9.44
226.449	2.44
226.683	42.44
226.918	12.44
227.152	30.44
227.387	37.44
227.621	38.44
227.856	48.44
228.09	45.44
228.324	47.44
228.559	62.44
228.793	64.44
229.027	52.44
229.262	69.44
229.496	56.44
229.73	93.44
229.964	92.44
230.199	69.44
230.433	75.44
230.667	73.44
230.901	75.44
231.136	87.44
231.37	71.44
231.604	86.44
231.838	88.44
232.072	68.44
232.306	95.44
232.541	81.44
232.775	87.44
233.009	88.44
233.243	89.44
233.477	77.44
233.711	82.44
233.945	77.44
234.179	85.44
234.413	79.44
234.647	80.44
234.881	63.44
235.115	80.44
235.349	82.44
235.583	76.44
235.817	87.44
236.051	75.44
236.285	73.44
236.519	73.44
236.753	76.44
236.987	81.44
237.221	85.44
237.455	96.44
237.689	67.44
237.922	78.44
238.156	72.44
238.39	66.44
238.624	69.44
238.858	66.44
239.091	70.44
239.325	71.44
239.559	83.44
239.793	67.44
240.027	94.44
240.26	80.44
240.494	79.44
240.728	80.44
240.961	76.44
241.195	75.44
241.429	93.44
241.662	73.44
241.896	80.44
242.13	74.44
242.363	77.44
242.597	74.44
242.83	76.44
243.064	69.44
243.298	86.44
243.531	71.44
243.765	72.44
243.998	66.44
244.232	81.44
244.465	87.44
244.699	79.44
244.932	82.44
245.166	78.44
245.399	83.44
245.633	88.44
245.866	81.44
246.099	94.44
246.333	88.44
246.566	83.44
246.8	83.44
247.033	75.44
247.266	80.44
247.5	87.44
247.733	80.44
247.966	81.44
248.2	94.44
248.433	78.44
248.666	66.44
248.899	84.44
249.133	97.44
249.366	82.44
249.599	87.44
249.832	72.44
250.066	97.44
250.299	90.44
250.532	78.44
250.765	73.44
250.998	73.44
251.231	77.44
251.465	76.44
251.698	74.44
251.931	83.44
252.164	66.44
252.397	82.44
252.63	89.44
252.863	81.44
253.096	80.44
253.329	81.44
253.562	76.44
253.795	68.44
254.028	67.44
254.261	78.44
254.494	91.44
254.727	80.44
254.96	81.44
255.193	82.44
255.426	95.44
255.659	88.44
255.892	87.44
256.124	93.44
256.357	85.44
256.59	85.44
256.823	83.44
257.056	76.44
257.289	85.44
257.521	94.44
257.754	89.44
257.987	78.44
258.22	92.44
258.452	79.44
258.685	80.44
258.918	88.44
259.151	104.44
259.383	82.44
259.616	70.44
259.849	89.44
260.081	85.44
260.314	81.44
260.547	80.44
260.779	80.44
261.012	95.44
261.244	79.44
261.477	73.44
261.71	99.44
261.942	104.44
262.175	110.44
262.407	72.44
262.64	81.44
262.872	74.44
263.105	76.44
263.337	96.44
263.57	80.44
263.802	84.44
264.035	81.44
264.267	83.44
264.499	88.44
264.732	82.44
264.964	85.44
265.197	82.44
265.429	89.44
265.661	89.44
265.894	74.44
266.126	88.44
266.358	85.44
266.591	82.44
266.823	89.44
267.055	65.44
267.287	79.44
267.52	75.44
267.752	88.44
267.984	95.44
268.216	87.44
268.448	85.44
268.681	90.44
268.913	107.44
269.145	88.44
269.377	94.44
269.609	100.44
269.841	94.44
270.073	86.44
270.306	100.44
270.538	87.44
270.77	80.44
271.002	87.44
271.234	76.44
271.466	89.44
271.698	106.44
271.93	79.44
272.162	82.44
272.394	79.44
272.626	83.44
272.858	101.44
273.09	83.44
273.322	101.44
273.553	80.44
273.785	82.44
274.017	77.44
274.249	90.44
274.481	89.44
274.713	73.44
274.945	101.44
275.176	76.44
275.408	98.44
275.64	81.44
275.872	81.44
276.104	98.44
276.335	90.44
276.567	85.44
276.799	97.44
277.031	95.44
277.262	78.44
277.494	77.44
277.726	94.44
277.957	77.44
278.189	99.44
278.421	83.44
278.652	94.44
278.884	75.44
279.115	72.44
279.347	80.44
279.579	87.44
279.81	86.44
280.042	78.44
280.273	82.44
280.505	89.44
280.736	77.44
280.968	92.44
281.199	92.44
281.431	84.44
281.662	79.44
281.894	81.44
282.125	106.44
282.356	110.44
282.588	129.44
282.819	101.44
283.051	86.44
283.282	87.44
283.513	102.44
283.745	97.44
283.976	98.44
284.207	80.44
284.439	81.44
284.67	98.44
284.901	84.44
285.132	80.44
285.364	76.44
285.595	85.44
285.826	97.44
286.057	100.44
286.288	76.44
286.52	97.44
286.751	97.44
286.982	95.44
287.213	81.44
287.444	92.44
287.675	80.44
287.906	96.44
288.138	95.44
288.369	94.44
288.6	84.44
288.831	95.44
289.062	93.44
289.293	86.44
289.524	81.44
289.755	90.44
289.986	81.44
290.217	85.44
290.448	85.44
290.679	85.44
290.91	95.44
291.141	103.44
291.371	95.44
291.602	81.44
291.833	93.44
292.064	82.44
292.295	89.44
292.526	94.44
292.757	92.44
292.987	88.44
293.218	82.44
293.449	93.44
293.68	88.44
293.91	93.44
294.141	88.44
294.372	88.44
294.603	83.44
294.833	97.44
295.064	94.44
295.295	86.44
295.525	90.44
295.756	108.44
295.987	115.44
296.217	138.44
296.448	104.44
296.679	108.44
296.909	94.44
297.14	108.44
297.37	95.44
297.601	81.44
297.831	80.44
298.062	93.44
298.292	78.44
298.523	96.44
298.753	76.44
298.984	82.44
299.214	96.44
299.445	97.44
299.675	97.44
299.905	93.44
300.136	92.44
300.366	77.44
300.597	98.44
300.827	86.44
301.057	89.44
301.288	99.44
301.518	86.44
301.748	70.44
301.979	97.44
302.209	101.44
302.439	89.44
302.669	88.44
302.9	89.44
303.13	84.44
303.36	89.44
303.59	109.44
303.82	96.44
304.051	98.44
304.281	91.44
304.511	84.44
304.741	93.44
304.971	94.44
305.201	98.44
305.431	92.44
305.661	95.44
305.891	101.44
306.121	103.44
306.352	100.44
306.582	106.44
306.812	97.44
307.042	89.44
307.272	95.44
307.502	90.44
307.731	83.44
307.961	96.44
308.191	80.44
308.421	85.44
308.651	91.44
308.881	87.44
309.111	105.44
309.341	90.44
309.571	99.44
309.8	108.44
310.03	101.44
310.26	80.44
310.49	83.44
310.72	97.44
310.949	85.44
311.179	98.44
311.409	85.44
311.639	105.44
311.868	87.44
312.098	79.44
312.328	84.44
312.557	100.44
312.787	98.44
313.017	86.44
313.246	103.44
313.476	79.44
313.706	108.44
313.935	112.44
314.165	94.44
314.394	104.44
314.624	83.44
314.853	92.44
315.083	94.44
315.312	87.44
315.542	92.44
315.771	111.44
316.001	97.44
316.23	101.44
316.46	84.44
316.689	93.44
316.919	93.44
317.148	93.44
317.377	93.44
317.607	104.44
317.836	92.44
318.065	90.44
318.295	93.44
318.524	97.44
318.753	94.44
318.983	98.44
319.212	95.44
319.441	102.44
319.67	106.44
319.9	107.44
320.129	102.44
320.358	101.44
320.587	90.44
320.816	100.44
321.046	96.44
321.275	104.44
321.504	89.44
321.733	97.44
321.962	92.44
322.191	94.44
322.42	93.44
322.649	110.44
322.878	105.44
323.108	117.44
323.337	118.44
323.566	124.44
323.795	149.44
324.024	207.44
324.253	363.44
324.482	806.44
324.71	1592.44
324.939	2103.44
325.168	785.44
325.397	261.44
325.626	148.44
325.855	117.44
326.084	128.44
326.313	121.44
326.542	142.44
326.77	232.44
326.999	459.44
327.228	923.44
327.457	1645.44
327.686	1289.44
327.914	348.44
328.143	195.44
328.372	140.44
328.6	108.44
328.829	115.44
329.058	116.44
329.287	118.44
329.515	110.44
329.744	105.44
329.972	98.44
330.201	86.44
330.43	109.44
330.658	98.44
330.887	122.44
331.115	115.44
331.344	105.44
331.572	82.44
331.801	108.44
332.03	98.44
332.258	105.44
332.486	105.44
332.715	85.44
332.943	101.44
333.172	97.44
333.4	101.44
333.629	109.44
333.857	105.44
334.085	108.44
334.314	104.44
334.542	101.44
334.771	94.44
334.999	100.44
335.227	99.44
335.455	95.44
335.684	83.44
335.912	99.44
336.14	105.44
336.369	100.44
336.597	96.44
336.825	84.44
337.053	93.44
337.281	109.44
337.51	100.44
337.738	99.44
337.966	101.44
338.194	96.44
338.422	87.44
338.65	100.44
338.878	87.44
339.106	105.44
339.334	101.44
339.562	93.44
339.79	101.44
340.018	90.44
340.246	89.44
340.474	90.44
340.702	100.44
340.93	84.44
341.158	92.44
341.386	90.44
341.614	95.44
341.842	95.44
342.07	101.44
342.298	98.44
342.526	88.44
342.754	85.44
342.981	88.44
343.209	89.44
343.437	78.44
343.665	94.44
343.893	93.44
344.12	99.44
344.348	101.44
344.576	98.44
344.804	85.44
345.031	94.44
345.259	86.44
345.487	74.44
345.714	90.44
345.942	85.44
346.17	96.44
346.397	98.44
346.625	111.44
346.853	97.44
347.08	106.44
347.308	106.44
347.535	93.44
347.763	91.44
347.99	96.44
348.218	102.44
348.445	107.44
348.673	97.44
348.9	101.44
349.128	102.44
349.355	84.44
349.583	81.44
349.81	94.44
350.037	90.44
350.265	105.44
350.492	108.44
350.72	96.44
350.947	106.44
351.174	116.44
351.402	105.44
351.629	93.44
351.856	95.44
352.083	106.44
352.311	106.44
352.538	111.44
352.765	121.44
352.992	109.44
353.22	140.44
353.447	110.44
353.674	111.44
353.901	96.44
354.128	93.44
354.355	90.44
354.583	106.44
354.81	101.44
355.037	106.44
355.264	95.44
355.491	92.44
355.718	101.44
355.945	84.44
356.172	101.44
356.399	88.44
356.626	93.44
356.853	83.44
357.08	84.44
357.307	92.44
357.534	87.44
357.761	91.44
357.988	94.44
358.215	98.44
358.441	83.44
358.668	91.44
358.895	91.44
359.122	85.44
359.349	83.44
359.576	99.44
359.802	113.44
360.029	112.44
360.256	103.44
360.483	91.44
360.709	93.44
360.936	112.44
361.163	108.44
361.39	100.44
361.616	93.44
361.843	96.44
362.07	92.44
362.296	93.44
362.523	94.44
362.749	87.44
362.976	108.44
363.203	101.44
363.429	101.44
363.656	86.44
363.882	85.44
364.109	94.44
364.335	85.44
364.562	86.44
364.788	96.44
365.015	91.44
365.241	98.44
365.468	97.44
365.694	108.44
365.92	96.44
366.147	79.44
366.373	94.44
366.599	76.44
366.826	89.44
367.052	89.44
367.278	91.44
367.505	82.44
367.731	90.44
367.957	89.44
368.184	86.44
368.41	97.44
368.636	112.44
368.862	121.44
369.089	104.44
369.315	102.44
369.541	98.44
369.767	86.44
369.993	100.44
370.219	113.44
370.445	88.44
370.672	91.44
370.898	94.44
371.124	91.44
371.35	92.44
371.576	95.44
371.802	76.44
372.028	97.44
372.254	93.44
372.48	103.44
372.706	91.44
372.932	89.44
373.158	100.44
373.384	85.44
373.61	96.44
373.835	89.44
374.061	89.44
374.287	84.44
374.513	96.44
374.739	82.44
374.965	75.44
375.191	96.44
375.416	98.44
375.642	95.44
375.868	92.44
376.094	72.44
376.319	92.44
376.545	100.44
376.771	90.44
376.997	93.44
377.222	88.44
377.448	90.44
377.674	90.44
377.899	79.44
378.125	78.44
378.35	76.44
378.576	99.44
378.802	97.44
379.027	91.44
379.253	82.44
379.478	100.44
379.704	89.44
379.929	92.44
380.155	95.44
380.38	97.44
380.606	96.44
380.831	96.44
381.057	95.44
381.282	94.44
381.507	97.44
381.733	99.44
381.958	99.44
382.184	104.44
382.409	103.44
382.634	94.44
382.86	100.44
383.085	107.44
383.31	105.44
383.535	100.44
383.761	102.44
383.986	90.44
384.211	87.44
384.436	109.44
384.662	106.44
384.887	109.44
385.112	109.44
385.337	111.44
385.562	95.44
385.787	97.44
386.013	104.44
386.238	110.44
386.463	108.44
386.688	110.44
386.913	113.44
387.138	111.44
387.363	99.44
387.588	96.44
387.813	98.44
388.038	119.44
388.263	103.44
388.488	93.44
388.713	94.44
388.938	99.44
389.163	102.44
389.387	90.44
389.612	92.44
389.837	93.44
390.062	93.44
390.287	90.44
390.512	83.44
390.736	83.44
390.961	86.44
391.186	99.44
391.411	96.44
391.636	82.44
391.86	81.44
392.085	90.44
392.31	92.44
392.534	82.44
392.759	89.44
392.984	82.44
393.208	87.44
393.433	89.44
393.658	90.44
393.882	89.44
394.107	88.44
394.331	98.44
394.556	94.44
394.78	96.44
395.005	94.44
395.229	83.44
395.454	92.44
395.678	96.44
395.903	82.44
396.127	94.44
396.352	98.44
396.576	75.44
396.801	87.44
397.025	88.44
397.249	72.44
397.474	90.44
397.698	90.44
397.922	94.44
398.147	98.44
398.371	88.44
398.595	93.44
398.82	87.44
399.044	81.44
399.268	70.44
399.492	85.44
399.717	88.44
399.941	84.44
400.165	89.44
400.389	95.44
400.613	80.44
400.837	74.44
401.062	89.44
401.286	86.44
401.51	82.44
401.734	99.44
401.958	101.44
402.182	109.44
402.406	144.44
402.63	127.44
402.854	82.44
403.078	77.44
403.302	86.44
403.526	87.44
403.75	88.44
403.974	95.44
404.198	104.44
404.422	105.44
404.645	81.44
404.869	94.44
405.093	91.44
405.317	90.44
405.541	82.44
405.765	100.44
405.988	124.44
406.212	163.44
406.436	199.44
406.66	135.44
406.883	100.44
407.107	90.44
407.331	93.44
407.555	98.44
407.778	95.44
408.002	88.44
408.226	105.44
408.449	94.44
408.673	84.44
408.896	90.44
409.12	92.44
409.344	90.44
409.567	100.44
409.791	97.44
410.014	97.44
410.238	96.44
410.461	99.44
410.685	89.44
410.908	96.44
411.132	92.44
411.355	92.44
411.578	88.44
411.802	83.44
412.025	98.44
412.249	88.44
412.472	83.44
412.695	95.44
412.919	84.44
413.142	101.44
413.365	85.44
413.589	93.44
413.812	85.44
414.035	94.44
414.258	99.44
414.482	90.44
414.705	92.44
414.928	90.44
415.151	82.44
415.374	86.44
415.597	101.44
415.821	93.44
416.044	84.44
416.267	96.44
416.49	82.44
416.713	96.44
416.936	86.44
417.159	80.44
417.382	105.44
417.605	91.44
417.828	96.44
418.051	94.44
418.274	87.44
418.497	65.44
418.72	83.44
418.943	83.44
419.166	85.44
419.389	90.44
419.611	92.44
419.834	89.44
420.057	83.44
420.28	102.44
420.503	87.44
420.726	92.44
420.948	97.44
421.171	99.44
421.394	93.44
421.617	90.44
421.839	88.44
422.062	97.44
422.285	81.44
422.507	97.44
422.73	100.44
422.953	83.44
423.175	93.44
423.398	98.44
423.621	88.44
423.843	94.44
424.066	77.44
424.288	81.44
424.511	96.44
424.733	96.44
424.956	85.44
425.178	89.44
425.401	81.44
425.623	95.44
425.846	105.44
426.068	83.44
426.291	99.44
426.513	83.44
426.735	100.44
426.958	99.44
427.18	93.44
427.402	142.44
427.625	150.44
427.847	119.44
428.069	100.44
428.292	98.44
428.514	85.44
428.736	99.44
428.958	82.44
429.181	95.44
429.403	89.44
429.625	86.44
429.847	89.44
430.069	92.44
430.292	92.44
430.514	87.44
430.736	96.44
430.958	84.44
431.18	86.44
431.402	90.44
431.624	75.44
431.846	95.44
432.068	84.44
432.29	71.44
432.512	97.44
432.734	97.44
432.956	88.44
433.178	82.44
433.4	92.44
433.622	84.44
433.844	88.44
434.066	93.44
434.287	83.44
434.509	80.44
434.731	96.44
434.953	90.44
435.175	99.44
435.397	98.44
435.618	92.44
435.84	79.44
436.062	108.44
436.284	109.44
436.505	101.44
436.727	96.44
436.949	93.44
437.17	97.44
437.392	81.44
437.614	96.44
437.835	99.44
438.057	112.44
438.278	111.44
438.5	100.44
438.721	102.44
438.943	105.44
439.165	96.44
439.386	101.44
439.608	88.44
439.829	94.44
440.05	111.44
440.272	127.44
440.493	103.44
440.715	90.44
440.936	104.44
441.158	91.44
441.379	91.44
441.6	83.44
441.822	98.44
442.043	75.44
442.264	84.44
442.486	106.44
442.707	96.44
442.928	103.44
443.149	122.44
443.371	116.44
443.592	109.44
443.813	116.44
444.034	95.44
444.255	102.44
444.476	84.44
444.698	87.44
444.919	90.44
445.14	121.44
445.361	115.44
445.582	109.44
445.803	109.44
446.024	119.44
446.245	130.44
446.466	113.44
446.687	88.44
446.908	90.44
447.129	86.44
447.35	90.44
447.571	88.44
447.792	100.44
448.013	97.44
448.234	100.44
448.455	99.44
448.675	121.44
448.896	111.44
449.117	106.44
449.338	105.44
449.559	108.44
449.779	111.44
450	95.44
450.221	111.44
450.442	90.44
450.662	95.44
450.883	98.44
451.104	99.44
451.324	99.44
451.545	102.44
451.766	96.44
451.986	79.44
452.207	80.44
452.428	95.44
452.648	93.44
452.869	116.44
453.089	112.44
453.31	115.44
453.53	85.44
453.751	76.44
453.971	109.44
454.192	111.44
454.412	92.44
454.633	82.44
454.853	87.44
455.073	80.44
455.294	79.44
455.514	110.44
455.734	105.44
455.955	82.44
456.175	92.44
456.395	102.44
456.616	82.44
456.836	97.44
457.056	84.44
457.276	84.44
457.497	73.44
457.717	81.44
457.937	88.44
458.157	84.44
458.377	90.44
458.598	96.44
458.818	128.44
459.038	158.44
459.258	108.44
459.478	82.44
459.698	90.44
459.918	90.44
460.138	89.44
460.358	96.44
460.578	82.44
460.798	101.44
461.018	76.44
461.238	89.44
461.458	102.44
461.678	96.44
461.898	84.44
462.118	88.44
462.338	94.44
462.558	81.44
462.777	84.44
462.997	92.44
463.217	83.44
463.437	85.44
463.657	92.44
463.876	73.44
464.096	73.44
464.316	89.44
464.536	77.44
464.755	101.44
464.975	101.44
465.195	147.44
465.414	158.44
465.634	100.44
465.854	96.44
466.073	88.44
466.293	84.44
466.512	68.44
466.732	86.44
466.951	81.44
467.171	105.44
467.391	85.44
467.61	101.44
467.829	88.44
468.049	81.44
468.268	86.44
468.488	88.44
468.707	81.44
468.927	101.44
469.146	83.44
469.365	91.44
469.585	99.44
469.804	94.44
470.023	93.44
470.243	101.44
470.462	77.44
470.681	104.44
470.901	84.44
471.12	84.44
471.339	92.44
471.558	96.44
471.777	88.44
471.997	88.44
472.216	104.44
472.435	87.44
472.654	86.44
472.873	88.44
473.092	88.44
473.311	103.44
473.53	94.44
473.749	102.44
473.968	96.44
474.187	100.44
474.406	89.44
474.625	87.44
474.844	96.44
475.063	98.44
475.282	84.44
475.501	89.44
475.72	72.44
475.939	85.44
476.158	82.44
476.377	88.44
476.596	93.44
476.814	90.44
477.033	97.44
477.252	84.44
477.471	87.44
477.69	96.44
477.908	92.44
478.127	81.44
478.346	89.44
478.564	100.44
478.783	78.44
479.002	99.44
479.22	83.44
479.439	93.44
479.658	81.44
479.876	94.44
480.095	80.44
480.313	101.44
480.532	97.44
480.751	87.44
480.969	92.44
481.188	108.44
481.406	99.44
481.624	103.44
481.843	81.44
482.061	94.44
482.28	95.44
482.498	92.44
482.717	108.44
482.935	88.44
483.153	93.44
483.372	82.44
483.59	91.44
483.808	82.44
484.027	87.44
484.245	101.44
484.463	101.44
484.681	103.44
484.9	93.44
485.118	87.44
485.336	93.44
485.554	95.44
485.772	90.44
485.99	104.44
486.209	106.44
486.427	107.44
486.645	107.44
486.863	106.44
487.081	101.44
487.299	88.44
487.517	107.44
487.735	86.44
487.953	104.44
488.171	98.44
488.389	91.44
488.607	97.44
488.825	82.44
489.043	96.44
489.261	82.44
489.479	97.44
489.696	106.44
489.914	113.44
490.132	92.44
490.35	97.44
490.568	102.44
490.786	90.44
491.003	92.44
491.221	90.44
491.439	87.44
491.657	93.44
491.874	90.44
492.092	96.44
492.31	96.44
492.527	88.44
492.745	98.44
492.963	103.44
493.18	91.44
493.398	79.44
493.615	103.44
493.833	108.44
494.05	97.44
494.268	83.44
494.485	84.44
494.703	96.44
494.92	92.44
495.138	90.44
495.355	85.44
495.573	91.44
495.79	105.44
496.008	91.44
496.225	101.44
496.442	77.44
496.66	84.44
496.877	89.44
497.094	92.44
497.312	97.44
497.529	95.44
497.746	92.44
497.963	86.44
498.181	95.44
498.398	101.44
498.615	117.44
498.832	107.44
499.049	86.44
499.267	86.44
499.484	83.44
499.701	97.44
499.918	103.44
500.135	101.44
500.352	92.44
500.569	92.44
500.786	92.44
501.003	94.44
501.22	85.44
501.437	88.44
501.654	112.44
501.871	94.44
502.088	92.44
502.305	91.44
502.522	84.44
502.739	88.44
502.956	97.44
503.172	104.44
503.389	95.44
503.606	118.44
503.823	88.44
504.04	87.44
504.256	106.44
504.473	98.44
504.69	90.44
504.907	109.44
505.123	96.44
505.34	96.44
505.557	100.44
505.773	98.44
505.99	80.44
506.207	82.44
506.423	81.44
506.64	93.44
506.856	101.44
507.073	92.44
507.289	101.44
507.506	85.44
507.722	101.44
507.939	111.44
508.155	88.44
508.372	82.44
508.588	96.44
508.805	105.44
509.021	91.44
509.238	95.44
509.454	89.44
509.67	101.44
509.887	106.44
510.103	129.44
510.319	200.44
510.536	695.44
510.752	2155.44
510.968	617.44
511.184	156.44
511.401	111.44
511.617	94.44
511.833	93.44
512.049	102.44
512.265	89.44
512.481	87.44
512.698	94.44
512.914	87.44
513.13	87.44
513.346	100.44
513.562	101.44
513.778	84.44
513.994	99.44
514.21	118.44
514.426	108.44
514.642	139.44
514.858	114.44
515.074	166.44
515.29	409.44
515.506	1298.44
