Data from Uncirc_2005_H10_HRD10591_00021.txt Node
Date: Wed Jan 03 10:28:29 EST 2024
User: Yrep
Spectrometer: HR+D1059
Trigger mode: 1
Integration Time (sec): 1.000000E-1
Scans to average: 1
Electric dark correction enabled: true
Nonlinearity correction enabled: false
Boxcar width: 0
XAxis mode: Wavelengths
Number of Pixels in Spectrum: 2048
>>>>>Begin Spectral Data<<<<<
223.165	-15.94
223.4	-15.94
223.635	-15.94
223.869	-24.94
224.104	-23.94
224.338	-16.94
224.573	13.06
224.808	-17.94
225.042	-3.94
225.277	-1.94
225.511	-0.94
225.746	-8.94
225.98	9.06
226.215	11.06
226.449	9.06
226.683	27.06
226.918	24.06
227.152	22.06
227.387	44.06
227.621	46.06
227.856	39.06
228.09	51.06
228.324	63.06
228.559	66.06
228.793	67.06
229.027	60.06
229.262	60.06
229.496	77.06
229.73	97.06
229.964	83.06
230.199	62.06
230.433	71.06
230.667	91.06
230.901	90.06
231.136	98.06
231.37	99.06
231.604	92.06
231.838	92.06
232.072	89.06
232.306	70.06
232.541	85.06
232.775	89.06
233.009	87.06
233.243	83.06
233.477	93.06
233.711	84.06
233.945	95.06
234.179	84.06
234.413	82.06
234.647	84.06
234.881	83.06
235.115	74.06
235.349	90.06
235.583	82.06
235.817	80.06
236.051	80.06
236.285	96.06
236.519	77.06
236.753	85.06
236.987	89.06
237.221	92.06
237.455	93.06
237.689	75.06
237.922	83.06
238.156	76.06
238.39	70.06
238.624	83.06
238.858	88.06
239.091	86.06
239.325	88.06
239.559	76.06
239.793	87.06
240.027	80.06
240.26	80.06
240.494	92.06
240.728	86.06
240.961	77.06
241.195	82.06
241.429	82.06
241.662	76.06
241.896	86.06
242.13	69.06
242.363	72.06
242.597	95.06
242.83	86.06
243.064	95.06
243.298	81.06
243.531	100.06
243.765	66.06
243.998	87.06
244.232	86.06
244.465	90.06
244.699	86.06
244.932	83.06
245.166	102.06
245.399	86.06
245.633	74.06
245.866	89.06
246.099	86.06
246.333	76.06
246.566	81.06
246.8	71.06
247.033	96.06
247.266	87.06
247.5	80.06
247.733	83.06
247.966	78.06
248.2	79.06
248.433	96.06
248.666	83.06
248.899	84.06
249.133	98.06
249.366	87.06
249.599	107.06
249.832	95.06
250.066	95.06
250.299	85.06
250.532	70.06
250.765	84.06
250.998	89.06
251.231	82.06
251.465	86.06
251.698	94.06
251.931	77.06
252.164	81.06
252.397	84.06
252.63	85.06
252.863	95.06
253.096	86.06
253.329	82.06
253.562	86.06
253.795	99.06
254.028	90.06
254.261	92.06
254.494	91.06
254.727	79.06
254.96	89.06
255.193	87.06
255.426	75.06
255.659	89.06
255.892	101.06
256.124	97.06
256.357	93.06
256.59	75.06
256.823	88.06
257.056	83.06
257.289	84.06
257.521	90.06
257.754	86.06
257.987	88.06
258.22	93.06
258.452	89.06
258.685	85.06
258.918	82.06
259.151	88.06
259.383	90.06
259.616	93.06
259.849	81.06
260.081	92.06
260.314	88.06
260.547	77.06
260.779	90.06
261.012	88.06
261.244	82.06
261.477	87.06
261.71	97.06
261.942	118.06
262.175	122.06
262.407	111.06
262.64	99.06
262.872	94.06
263.105	79.06
263.337	88.06
263.57	84.06
263.802	79.06
264.035	88.06
264.267	93.06
264.499	89.06
264.732	90.06
264.964	98.06
265.197	101.06
265.429	78.06
265.661	78.06
265.894	98.06
266.126	95.06
266.358	88.06
266.591	83.06
266.823	87.06
267.055	86.06
267.287	105.06
267.52	66.06
267.752	101.06
267.984	95.06
268.216	97.06
268.448	99.06
268.681	87.06
268.913	93.06
269.145	92.06
269.377	103.06
269.609	91.06
269.841	85.06
270.073	91.06
270.306	84.06
270.538	93.06
270.77	82.06
271.002	95.06
271.234	92.06
271.466	95.06
271.698	91.06
271.93	99.06
272.162	87.06
272.394	95.06
272.626	97.06
272.858	81.06
273.09	93.06
273.322	82.06
273.553	89.06
273.785	85.06
274.017	91.06
274.249	75.06
274.481	89.06
274.713	101.06
274.945	88.06
275.176	94.06
275.408	88.06
275.64	109.06
275.872	98.06
276.104	108.06
276.335	101.06
276.567	89.06
276.799	106.06
277.031	99.06
277.262	92.06
277.494	84.06
277.726	97.06
277.957	104.06
278.189	88.06
278.421	85.06
278.652	97.06
278.884	93.06
279.115	93.06
279.347	97.06
279.579	98.06
279.81	84.06
280.042	90.06
280.273	93.06
280.505	90.06
280.736	95.06
280.968	98.06
281.199	92.06
281.431	96.06
281.662	90.06
281.894	89.06
282.125	106.06
282.356	123.06
282.588	123.06
282.819	110.06
283.051	104.06
283.282	85.06
283.513	98.06
283.745	102.06
283.976	90.06
284.207	102.06
284.439	90.06
284.67	93.06
284.901	104.06
285.132	100.06
285.364	91.06
285.595	82.06
285.826	93.06
286.057	100.06
286.288	110.06
286.52	82.06
286.751	106.06
286.982	77.06
287.213	94.06
287.444	94.06
287.675	88.06
287.906	95.06
288.138	106.06
288.369	99.06
288.6	98.06
288.831	97.06
289.062	96.06
289.293	87.06
289.524	102.06
289.755	95.06
289.986	89.06
290.217	104.06
290.448	91.06
290.679	83.06
290.91	91.06
291.141	81.06
291.371	88.06
291.602	96.06
291.833	100.06
292.064	82.06
292.295	78.06
292.526	93.06
292.757	91.06
292.987	100.06
293.218	91.06
293.449	100.06
293.68	91.06
293.91	99.06
294.141	102.06
294.372	88.06
294.603	91.06
294.833	92.06
295.064	99.06
295.295	89.06
295.525	101.06
295.756	107.06
295.987	108.06
296.217	123.06
296.448	127.06
296.679	97.06
296.909	95.06
297.14	97.06
297.37	87.06
297.601	92.06
297.831	91.06
298.062	95.06
298.292	88.06
298.523	101.06
298.753	95.06
298.984	95.06
299.214	92.06
299.445	104.06
299.675	85.06
299.905	115.06
300.136	101.06
300.366	81.06
300.597	78.06
300.827	108.06
301.057	112.06
301.288	106.06
301.518	102.06
301.748	97.06
301.979	95.06
302.209	102.06
302.439	108.06
302.669	95.06
302.9	99.06
303.13	84.06
303.36	99.06
303.59	100.06
303.82	105.06
304.051	90.06
304.281	110.06
304.511	102.06
304.741	98.06
304.971	105.06
305.201	107.06
305.431	105.06
305.661	96.06
305.891	98.06
306.121	97.06
306.352	101.06
306.582	101.06
306.812	87.06
307.042	104.06
307.272	90.06
307.502	107.06
307.731	89.06
307.961	90.06
308.191	109.06
308.421	113.06
308.651	93.06
308.881	92.06
309.111	107.06
309.341	101.06
309.571	121.06
309.8	97.06
310.03	104.06
310.26	102.06
310.49	87.06
310.72	94.06
310.949	103.06
311.179	95.06
311.409	101.06
311.639	92.06
311.868	91.06
312.098	102.06
312.328	97.06
312.557	108.06
312.787	100.06
313.017	107.06
313.246	104.06
313.476	115.06
313.706	104.06
313.935	99.06
314.165	104.06
314.394	108.06
314.624	94.06
314.853	109.06
315.083	98.06
315.312	107.06
315.542	103.06
315.771	113.06
316.001	112.06
316.23	104.06
316.46	96.06
316.689	90.06
316.919	95.06
317.148	89.06
317.377	78.06
317.607	103.06
317.836	101.06
318.065	93.06
318.295	99.06
318.524	89.06
318.753	106.06
318.983	89.06
319.212	97.06
319.441	120.06
319.67	108.06
319.9	94.06
320.129	101.06
320.358	101.06
320.587	100.06
320.816	102.06
321.046	110.06
321.275	112.06
321.504	103.06
321.733	99.06
321.962	103.06
322.191	104.06
322.42	110.06
322.649	120.06
322.878	117.06
323.108	107.06
323.337	151.06
323.566	130.06
323.795	163.06
324.024	227.06
324.253	406.06
324.482	828.06
324.71	1734.06
324.939	2307.06
325.168	856.06
325.397	254.06
325.626	154.06
325.855	145.06
326.084	153.06
326.313	135.06
326.542	159.06
326.77	265.06
326.999	483.06
327.228	997.06
327.457	1772.06
327.686	1459.06
327.914	393.06
328.143	190.06
328.372	139.06
328.6	119.06
328.829	124.06
329.058	130.06
329.287	129.06
329.515	119.06
329.744	116.06
329.972	95.06
330.201	114.06
330.43	113.06
330.658	114.06
330.887	129.06
331.115	129.06
331.344	107.06
331.572	108.06
331.801	104.06
332.03	116.06
332.258	100.06
332.486	103.06
332.715	114.06
332.943	84.06
333.172	103.06
333.4	109.06
333.629	110.06
333.857	106.06
334.085	116.06
334.314	93.06
334.542	113.06
334.771	103.06
334.999	105.06
335.227	92.06
335.455	104.06
335.684	99.06
335.912	98.06
336.14	110.06
336.369	103.06
336.597	103.06
336.825	106.06
337.053	105.06
337.281	109.06
337.51	102.06
337.738	113.06
337.966	103.06
338.194	103.06
338.422	101.06
338.65	101.06
338.878	102.06
339.106	95.06
339.334	98.06
339.562	89.06
339.79	90.06
340.018	102.06
340.246	109.06
340.474	98.06
340.702	79.06
340.93	103.06
341.158	107.06
341.386	106.06
341.614	97.06
341.842	95.06
342.07	105.06
342.298	102.06
342.526	103.06
342.754	100.06
342.981	91.06
343.209	86.06
343.437	99.06
343.665	105.06
343.893	101.06
344.12	103.06
344.348	96.06
344.576	99.06
344.804	95.06
345.031	101.06
345.259	102.06
345.487	95.06
345.714	96.06
345.942	109.06
346.17	89.06
346.397	106.06
346.625	97.06
346.853	102.06
347.08	109.06
347.308	118.06
347.535	110.06
347.763	104.06
347.99	101.06
348.218	95.06
348.445	115.06
348.673	116.06
348.9	99.06
349.128	109.06
349.355	94.06
349.583	103.06
349.81	97.06
350.037	108.06
350.265	99.06
350.492	103.06
350.72	101.06
350.947	103.06
351.174	111.06
351.402	107.06
351.629	99.06
351.856	106.06
352.083	109.06
352.311	101.06
352.538	112.06
352.765	119.06
352.992	114.06
353.22	124.06
353.447	120.06
353.674	113.06
353.901	107.06
354.128	108.06
354.355	116.06
354.583	105.06
354.81	120.06
355.037	107.06
355.264	106.06
355.491	104.06
355.718	102.06
355.945	103.06
356.172	100.06
356.399	94.06
356.626	98.06
356.853	95.06
357.08	121.06
357.307	109.06
357.534	102.06
357.761	95.06
357.988	115.06
358.215	108.06
358.441	103.06
358.668	104.06
358.895	100.06
359.122	93.06
359.349	95.06
359.576	108.06
359.802	114.06
360.029	111.06
360.256	115.06
360.483	101.06
360.709	89.06
360.936	110.06
361.163	99.06
361.39	103.06
361.616	99.06
361.843	95.06
362.07	101.06
362.296	108.06
362.523	104.06
362.749	98.06
362.976	85.06
363.203	105.06
363.429	102.06
363.656	110.06
363.882	101.06
364.109	88.06
364.335	83.06
364.562	114.06
364.788	113.06
365.015	115.06
365.241	103.06
365.468	126.06
365.694	111.06
365.92	100.06
366.147	108.06
366.373	86.06
366.599	94.06
366.826	88.06
367.052	103.06
367.278	90.06
367.505	92.06
367.731	91.06
367.957	82.06
368.184	107.06
368.41	116.06
368.636	130.06
368.862	118.06
369.089	111.06
369.315	109.06
369.541	89.06
369.767	99.06
369.993	92.06
370.219	95.06
370.445	98.06
370.672	78.06
370.898	94.06
371.124	105.06
371.35	94.06
371.576	100.06
371.802	94.06
372.028	101.06
372.254	80.06
372.48	100.06
372.706	104.06
372.932	90.06
373.158	89.06
373.384	110.06
373.61	97.06
373.835	99.06
374.061	98.06
374.287	108.06
374.513	102.06
374.739	98.06
374.965	107.06
375.191	105.06
375.416	95.06
375.642	100.06
375.868	108.06
376.094	96.06
376.319	87.06
376.545	87.06
376.771	102.06
376.997	96.06
377.222	107.06
377.448	107.06
377.674	89.06
377.899	95.06
378.125	96.06
378.35	91.06
378.576	90.06
378.802	116.06
379.027	102.06
379.253	94.06
379.478	103.06
379.704	98.06
379.929	107.06
380.155	87.06
380.38	101.06
380.606	108.06
380.831	107.06
381.057	98.06
381.282	101.06
381.507	98.06
381.733	108.06
381.958	112.06
382.184	101.06
382.409	117.06
382.634	109.06
382.86	101.06
383.085	105.06
383.31	110.06
383.535	102.06
383.761	120.06
383.986	128.06
384.211	100.06
384.436	113.06
384.662	124.06
384.887	126.06
385.112	119.06
385.337	122.06
385.562	110.06
385.787	104.06
386.013	110.06
386.238	122.06
386.463	103.06
386.688	114.06
386.913	116.06
387.138	126.06
387.363	118.06
387.588	112.06
387.813	103.06
388.038	108.06
388.263	138.06
388.488	115.06
388.713	112.06
388.938	112.06
389.163	116.06
389.387	102.06
389.612	93.06
389.837	106.06
390.062	99.06
390.287	114.06
390.512	90.06
390.736	85.06
390.961	109.06
391.186	103.06
391.411	110.06
391.636	115.06
391.86	99.06
392.085	81.06
392.31	94.06
392.534	94.06
392.759	93.06
392.984	94.06
393.208	92.06
393.433	95.06
393.658	93.06
393.882	94.06
394.107	85.06
394.331	83.06
394.556	94.06
394.78	84.06
395.005	90.06
395.229	83.06
395.454	98.06
395.678	83.06
395.903	98.06
396.127	103.06
396.352	99.06
396.576	94.06
396.801	83.06
397.025	102.06
397.249	92.06
397.474	94.06
397.698	100.06
397.922	100.06
398.147	84.06
398.371	97.06
398.595	106.06
398.82	93.06
399.044	81.06
399.268	92.06
399.492	85.06
399.717	104.06
399.941	94.06
400.165	111.06
400.389	105.06
400.613	97.06
400.837	103.06
401.062	87.06
401.286	94.06
401.51	100.06
401.734	103.06
401.958	113.06
402.182	129.06
402.406	139.06
402.63	131.06
402.854	92.06
403.078	104.06
403.302	101.06
403.526	102.06
403.75	94.06
403.974	96.06
404.198	92.06
404.422	99.06
404.645	101.06
404.869	94.06
405.093	87.06
405.317	106.06
405.541	123.06
405.765	99.06
405.988	130.06
406.212	175.06
406.436	194.06
406.66	138.06
406.883	106.06
407.107	96.06
407.331	102.06
407.555	105.06
407.778	88.06
408.002	97.06
408.226	92.06
408.449	103.06
408.673	90.06
408.896	90.06
409.12	110.06
409.344	92.06
409.567	99.06
409.791	95.06
410.014	111.06
410.238	87.06
410.461	89.06
410.685	98.06
410.908	100.06
411.132	106.06
411.355	99.06
411.578	98.06
411.802	90.06
412.025	102.06
412.249	85.06
412.472	98.06
412.695	91.06
412.919	88.06
413.142	77.06
413.365	97.06
413.589	93.06
413.812	89.06
414.035	93.06
414.258	94.06
414.482	94.06
414.705	102.06
414.928	99.06
415.151	99.06
415.374	91.06
415.597	94.06
415.821	92.06
416.044	99.06
416.267	89.06
416.49	93.06
416.713	90.06
416.936	97.06
417.159	90.06
417.382	101.06
417.605	94.06
417.828	107.06
418.051	99.06
418.274	93.06
418.497	90.06
418.72	87.06
418.943	94.06
419.166	85.06
419.389	109.06
419.611	96.06
419.834	92.06
420.057	98.06
420.28	86.06
420.503	92.06
420.726	91.06
420.948	101.06
421.171	101.06
421.394	87.06
421.617	98.06
421.839	85.06
422.062	89.06
422.285	99.06
422.507	100.06
422.73	107.06
422.953	93.06
423.175	86.06
423.398	98.06
423.621	100.06
423.843	103.06
424.066	75.06
424.288	102.06
424.511	94.06
424.733	105.06
424.956	103.06
425.178	107.06
425.401	121.06
425.623	105.06
425.846	83.06
426.068	96.06
426.291	102.06
426.513	99.06
426.735	100.06
426.958	94.06
427.18	110.06
427.402	140.06
427.625	161.06
427.847	126.06
428.069	102.06
428.292	105.06
428.514	105.06
428.736	93.06
428.958	79.06
429.181	101.06
429.403	95.06
429.625	113.06
429.847	105.06
430.069	88.06
430.292	94.06
430.514	94.06
430.736	94.06
430.958	84.06
431.18	103.06
431.402	80.06
431.624	94.06
431.846	99.06
432.068	95.06
432.29	87.06
432.512	98.06
432.734	99.06
432.956	110.06
433.178	119.06
433.4	100.06
433.622	96.06
433.844	84.06
434.066	105.06
434.287	95.06
434.509	95.06
434.731	101.06
434.953	90.06
435.175	94.06
435.397	99.06
435.618	93.06
435.84	119.06
436.062	117.06
436.284	126.06
436.505	109.06
436.727	94.06
436.949	94.06
437.17	102.06
437.392	80.06
437.614	93.06
437.835	107.06
438.057	124.06
438.278	115.06
438.5	131.06
438.721	147.06
438.943	106.06
439.165	93.06
439.386	100.06
439.608	116.06
439.829	100.06
440.05	131.06
440.272	147.06
440.493	115.06
440.715	83.06
440.936	96.06
441.158	82.06
441.379	85.06
441.6	87.06
441.822	100.06
442.043	100.06
442.264	114.06
442.486	116.06
442.707	104.06
442.928	107.06
443.149	114.06
443.371	126.06
443.592	105.06
443.813	122.06
444.034	117.06
444.255	97.06
444.476	90.06
444.698	101.06
444.919	96.06
445.14	120.06
445.361	130.06
445.582	115.06
445.803	137.06
446.024	145.06
446.245	139.06
446.466	129.06
446.687	96.06
446.908	94.06
447.129	87.06
447.35	93.06
447.571	98.06
447.792	79.06
448.013	118.06
448.234	132.06
448.455	102.06
448.675	118.06
448.896	146.06
449.117	105.06
449.338	121.06
449.559	145.06
449.779	150.06
450	100.06
450.221	101.06
450.442	92.06
450.662	99.06
450.883	112.06
451.104	103.06
451.324	105.06
451.545	87.06
451.766	92.06
451.986	99.06
452.207	99.06
452.428	100.06
452.648	111.06
452.869	113.06
453.089	105.06
453.31	110.06
453.53	111.06
453.751	107.06
453.971	95.06
454.192	110.06
454.412	108.06
454.633	97.06
454.853	92.06
455.073	94.06
455.294	88.06
455.514	114.06
455.734	101.06
455.955	87.06
456.175	89.06
456.395	79.06
456.616	79.06
456.836	89.06
457.056	91.06
457.276	98.06
457.497	107.06
457.717	92.06
457.937	78.06
458.157	91.06
458.377	110.06
458.598	121.06
458.818	143.06
459.038	163.06
459.258	118.06
459.478	92.06
459.698	102.06
459.918	101.06
460.138	91.06
460.358	94.06
460.578	92.06
460.798	93.06
461.018	99.06
461.238	94.06
461.458	89.06
461.678	116.06
461.898	90.06
462.118	93.06
462.338	94.06
462.558	89.06
462.777	89.06
462.997	93.06
463.217	102.06
463.437	93.06
463.657	100.06
463.876	87.06
464.096	82.06
464.316	109.06
464.536	91.06
464.755	103.06
464.975	115.06
465.195	158.06
465.414	156.06
465.634	98.06
465.854	98.06
466.073	84.06
466.293	95.06
466.512	101.06
466.732	94.06
466.951	98.06
467.171	89.06
467.391	91.06
467.61	120.06
467.829	102.06
468.049	86.06
468.268	82.06
468.488	87.06
468.707	86.06
468.927	93.06
469.146	93.06
469.365	93.06
469.585	99.06
469.804	103.06
470.023	111.06
470.243	96.06
470.462	94.06
470.681	116.06
470.901	93.06
471.12	94.06
471.339	92.06
471.558	94.06
471.777	89.06
471.997	100.06
472.216	104.06
472.435	103.06
472.654	85.06
472.873	83.06
473.092	101.06
473.311	89.06
473.53	90.06
473.749	101.06
473.968	97.06
474.187	102.06
474.406	104.06
474.625	95.06
474.844	91.06
475.063	87.06
475.282	78.06
475.501	95.06
475.72	102.06
475.939	78.06
476.158	102.06
476.377	83.06
476.596	87.06
476.814	106.06
477.033	93.06
477.252	94.06
477.471	85.06
477.69	91.06
477.908	75.06
478.127	95.06
478.346	105.06
478.564	95.06
478.783	101.06
479.002	93.06
479.22	96.06
479.439	79.06
479.658	115.06
479.876	82.06
480.095	107.06
480.313	94.06
480.532	95.06
480.751	92.06
480.969	95.06
481.188	106.06
481.406	93.06
481.624	97.06
481.843	98.06
482.061	100.06
482.28	85.06
482.498	103.06
482.717	105.06
482.935	96.06
483.153	107.06
483.372	87.06
483.59	105.06
483.808	101.06
484.027	91.06
484.245	111.06
484.463	94.06
484.681	105.06
484.9	107.06
485.118	88.06
485.336	94.06
485.554	104.06
485.772	106.06
485.99	120.06
486.209	99.06
486.427	100.06
486.645	114.06
486.863	111.06
487.081	105.06
487.299	102.06
487.517	95.06
487.735	91.06
487.953	100.06
488.171	106.06
488.389	115.06
488.607	106.06
488.825	88.06
489.043	105.06
489.261	93.06
489.479	93.06
489.696	98.06
489.914	92.06
490.132	87.06
490.35	94.06
490.568	97.06
490.786	92.06
491.003	95.06
491.221	97.06
491.439	100.06
491.657	99.06
491.874	87.06
492.092	100.06
492.31	90.06
492.527	105.06
492.745	80.06
492.963	99.06
493.18	90.06
493.398	113.06
493.615	116.06
493.833	119.06
494.05	95.06
494.268	101.06
494.485	91.06
494.703	89.06
494.92	97.06
495.138	107.06
495.355	93.06
495.573	81.06
495.79	111.06
496.008	113.06
496.225	94.06
496.442	95.06
496.66	88.06
496.877	98.06
497.094	121.06
497.312	105.06
497.529	99.06
497.746	79.06
497.963	89.06
498.181	94.06
498.398	114.06
498.615	113.06
498.832	99.06
499.049	100.06
499.267	89.06
499.484	92.06
499.701	104.06
499.918	100.06
500.135	86.06
500.352	84.06
500.569	93.06
500.786	85.06
501.003	91.06
501.22	87.06
501.437	84.06
501.654	109.06
501.871	95.06
502.088	92.06
502.305	88.06
502.522	90.06
502.739	104.06
502.956	106.06
503.172	102.06
503.389	112.06
503.606	110.06
503.823	103.06
504.04	99.06
504.256	94.06
504.473	83.06
504.69	104.06
504.907	100.06
505.123	105.06
505.34	107.06
505.557	101.06
505.773	101.06
505.99	91.06
506.207	101.06
506.423	99.06
506.64	104.06
506.856	120.06
507.073	99.06
507.289	87.06
507.506	92.06
507.722	123.06
507.939	103.06
508.155	105.06
508.372	98.06
508.588	107.06
508.805	92.06
509.021	111.06
509.238	110.06
509.454	97.06
509.67	99.06
509.887	119.06
510.103	134.06
510.319	196.06
510.536	657.06
510.752	2040.06
510.968	595.06
511.184	155.06
511.401	112.06
511.617	101.06
511.833	98.06
512.049	102.06
