Data from Uncirc_2005_H10_HRD10591_00081.txt Node
Date: Wed Jan 03 10:28:41 EST 2024
User: Yrep
Spectrometer: HR+D1059
Trigger mode: 1
Integration Time (sec): 1.000000E-1
Scans to average: 1
Electric dark correction enabled: true
Nonlinearity correction enabled: false
Boxcar width: 0
XAxis mode: Wavelengths
Number of Pixels in Spectrum: 2048
>>>>>Begin Spectral Data<<<<<
223.165	-5.81
223.4	-5.81
223.635	-5.81
223.869	-5.81
224.104	-24.81
224.338	-26.81
224.573	-19.81
224.808	-24.81
225.042	-10.81
225.277	-24.81
225.511	5.19
225.746	19.19
225.98	9.19
226.215	15.19
226.449	26.19
226.683	18.19
226.918	23.19
227.152	27.19
227.387	30.19
227.621	48.19
227.856	53.19
228.09	37.19
228.324	48.19
228.559	61.19
228.793	55.19
229.027	61.19
229.262	64.19
229.496	84.19
229.73	84.19
229.964	94.19
230.199	84.19
230.433	88.19
230.667	73.19
230.901	75.19
231.136	81.19
231.37	65.19
231.604	80.19
231.838	91.19
232.072	89.19
232.306	87.19
232.541	88.19
232.775	69.19
233.009	80.19
233.243	73.19
233.477	80.19
233.711	85.19
233.945	89.19
234.179	90.19
234.413	82.19
234.647	82.19
234.881	71.19
235.115	86.19
235.349	87.19
235.583	81.19
235.817	76.19
236.051	85.19
236.285	77.19
236.519	79.19
236.753	74.19
236.987	74.19
237.221	90.19
237.455	89.19
237.689	82.19
237.922	72.19
238.156	79.19
238.39	63.19
238.624	82.19
238.858	72.19
239.091	87.19
239.325	63.19
239.559	75.19
239.793	77.19
240.027	61.19
240.26	91.19
240.494	74.19
240.728	83.19
240.961	83.19
241.195	68.19
241.429	89.19
241.662	68.19
241.896	77.19
242.13	81.19
242.363	78.19
242.597	79.19
242.83	83.19
243.064	90.19
243.298	69.19
243.531	79.19
243.765	77.19
243.998	87.19
244.232	85.19
244.465	74.19
244.699	83.19
244.932	87.19
245.166	76.19
245.399	73.19
245.633	79.19
245.866	85.19
246.099	85.19
246.333	80.19
246.566	82.19
246.8	82.19
247.033	83.19
247.266	64.19
247.5	69.19
247.733	81.19
247.966	78.19
248.2	69.19
248.433	78.19
248.666	66.19
248.899	79.19
249.133	79.19
249.366	96.19
249.599	106.19
249.832	88.19
250.066	83.19
250.299	91.19
250.532	73.19
250.765	79.19
250.998	67.19
251.231	72.19
251.465	87.19
251.698	72.19
251.931	76.19
252.164	85.19
252.397	85.19
252.63	82.19
252.863	87.19
253.096	74.19
253.329	80.19
253.562	85.19
253.795	78.19
254.028	77.19
254.261	85.19
254.494	80.19
254.727	91.19
254.96	55.19
255.193	91.19
255.426	84.19
255.659	83.19
255.892	82.19
256.124	77.19
256.357	93.19
256.59	88.19
256.823	87.19
257.056	89.19
257.289	74.19
257.521	69.19
257.754	83.19
257.987	95.19
258.22	81.19
258.452	86.19
258.685	78.19
258.918	85.19
259.151	79.19
259.383	69.19
259.616	78.19
259.849	93.19
260.081	84.19
260.314	82.19
260.547	91.19
260.779	88.19
261.012	86.19
261.244	72.19
261.477	86.19
261.71	104.19
261.942	118.19
262.175	120.19
262.407	95.19
262.64	81.19
262.872	88.19
263.105	88.19
263.337	90.19
263.57	79.19
263.802	85.19
264.035	89.19
264.267	83.19
264.499	83.19
264.732	77.19
264.964	88.19
265.197	80.19
265.429	87.19
265.661	81.19
265.894	82.19
266.126	99.19
266.358	94.19
266.591	79.19
266.823	84.19
267.055	88.19
267.287	90.19
267.52	80.19
267.752	89.19
267.984	83.19
268.216	80.19
268.448	87.19
268.681	79.19
268.913	97.19
269.145	97.19
269.377	101.19
269.609	85.19
269.841	83.19
270.073	86.19
270.306	88.19
270.538	99.19
270.77	83.19
271.002	83.19
271.234	87.19
271.466	102.19
271.698	74.19
271.93	79.19
272.162	82.19
272.394	90.19
272.626	86.19
272.858	84.19
273.09	88.19
273.322	97.19
273.553	91.19
273.785	89.19
274.017	89.19
274.249	89.19
274.481	85.19
274.713	102.19
274.945	93.19
275.176	97.19
275.408	82.19
275.64	73.19
275.872	78.19
276.104	99.19
276.335	83.19
276.567	99.19
276.799	110.19
277.031	105.19
277.262	96.19
277.494	89.19
277.726	89.19
277.957	84.19
278.189	75.19
278.421	93.19
278.652	93.19
278.884	87.19
279.115	90.19
279.347	98.19
279.579	80.19
279.81	70.19
280.042	84.19
280.273	89.19
280.505	86.19
280.736	88.19
280.968	86.19
281.199	101.19
281.431	96.19
281.662	89.19
281.894	94.19
282.125	95.19
282.356	114.19
282.588	149.19
282.819	121.19
283.051	91.19
283.282	88.19
283.513	83.19
283.745	85.19
283.976	85.19
284.207	90.19
284.439	98.19
284.67	90.19
284.901	91.19
285.132	85.19
285.364	83.19
285.595	101.19
285.826	96.19
286.057	95.19
286.288	92.19
286.52	84.19
286.751	86.19
286.982	95.19
287.213	91.19
287.444	78.19
287.675	85.19
287.906	89.19
288.138	94.19
288.369	95.19
288.6	97.19
288.831	80.19
289.062	84.19
289.293	89.19
289.524	83.19
289.755	83.19
289.986	102.19
290.217	84.19
290.448	87.19
290.679	86.19
290.91	80.19
291.141	95.19
291.371	96.19
291.602	94.19
291.833	96.19
292.064	89.19
292.295	89.19
292.526	84.19
292.757	82.19
292.987	85.19
293.218	86.19
293.449	91.19
293.68	94.19
293.91	87.19
294.141	93.19
294.372	91.19
294.603	94.19
294.833	99.19
295.064	89.19
295.295	90.19
295.525	97.19
295.756	97.19
295.987	103.19
296.217	122.19
296.448	121.19
296.679	97.19
296.909	93.19
297.14	92.19
297.37	94.19
297.601	98.19
297.831	101.19
298.062	95.19
298.292	84.19
298.523	81.19
298.753	96.19
298.984	89.19
299.214	88.19
299.445	87.19
299.675	103.19
299.905	84.19
300.136	86.19
300.366	90.19
300.597	84.19
300.827	103.19
301.057	99.19
301.288	101.19
301.518	93.19
301.748	87.19
301.979	90.19
302.209	96.19
302.439	97.19
302.669	81.19
302.9	93.19
303.13	99.19
303.36	89.19
303.59	86.19
303.82	90.19
304.051	98.19
304.281	97.19
304.511	100.19
304.741	79.19
304.971	94.19
305.201	92.19
305.431	96.19
305.661	84.19
305.891	98.19
306.121	90.19
306.352	100.19
306.582	106.19
306.812	108.19
307.042	96.19
307.272	86.19
307.502	87.19
307.731	93.19
307.961	97.19
308.191	96.19
308.421	91.19
308.651	99.19
308.881	83.19
309.111	90.19
309.341	78.19
309.571	102.19
309.8	108.19
310.03	110.19
310.26	102.19
310.49	106.19
310.72	96.19
310.949	97.19
311.179	104.19
311.409	103.19
311.639	81.19
311.868	101.19
312.098	105.19
312.328	102.19
312.557	94.19
312.787	98.19
313.017	95.19
313.246	95.19
313.476	89.19
313.706	99.19
313.935	102.19
314.165	102.19
314.394	95.19
314.624	103.19
314.853	91.19
315.083	91.19
315.312	103.19
315.542	102.19
315.771	85.19
316.001	100.19
316.23	101.19
316.46	85.19
316.689	109.19
316.919	109.19
317.148	94.19
317.377	103.19
317.607	102.19
317.836	103.19
318.065	104.19
318.295	98.19
318.524	97.19
318.753	87.19
318.983	99.19
319.212	102.19
319.441	113.19
319.67	103.19
319.9	95.19
320.129	99.19
320.358	100.19
320.587	87.19
320.816	100.19
321.046	95.19
321.275	110.19
321.504	102.19
321.733	108.19
321.962	102.19
322.191	87.19
322.42	101.19
322.649	112.19
322.878	114.19
323.108	109.19
323.337	102.19
323.566	119.19
323.795	144.19
324.024	208.19
324.253	419.19
324.482	866.19
324.71	1747.19
324.939	2360.19
325.168	817.19
325.397	234.19
325.626	155.19
325.855	129.19
326.084	126.19
326.313	141.19
326.542	144.19
326.77	231.19
326.999	462.19
327.228	1020.19
327.457	1823.19
327.686	1446.19
327.914	373.19
328.143	182.19
328.372	159.19
328.6	125.19
328.829	118.19
329.058	125.19
329.287	125.19
329.515	112.19
329.744	102.19
329.972	96.19
330.201	86.19
330.43	111.19
330.658	120.19
330.887	135.19
331.115	115.19
331.344	104.19
331.572	105.19
331.801	110.19
332.03	120.19
332.258	104.19
332.486	108.19
332.715	86.19
332.943	101.19
333.172	96.19
333.4	112.19
333.629	102.19
333.857	137.19
334.085	112.19
334.314	110.19
334.542	97.19
334.771	97.19
334.999	103.19
335.227	99.19
335.455	98.19
335.684	90.19
335.912	95.19
336.14	99.19
336.369	105.19
336.597	102.19
336.825	103.19
337.053	96.19
337.281	89.19
337.51	92.19
337.738	111.19
337.966	93.19
338.194	96.19
338.422	99.19
338.65	87.19
338.878	100.19
339.106	87.19
339.334	107.19
339.562	93.19
339.79	96.19
340.018	87.19
340.246	88.19
340.474	92.19
340.702	92.19
340.93	102.19
341.158	106.19
341.386	101.19
341.614	114.19
341.842	90.19
342.07	94.19
342.298	99.19
342.526	91.19
342.754	86.19
342.981	100.19
343.209	87.19
343.437	85.19
343.665	104.19
343.893	99.19
344.12	105.19
344.348	116.19
344.576	91.19
344.804	90.19
345.031	91.19
345.259	103.19
345.487	96.19
345.714	103.19
345.942	113.19
346.17	98.19
346.397	96.19
346.625	98.19
346.853	91.19
347.08	90.19
347.308	107.19
347.535	100.19
347.763	104.19
347.99	110.19
348.218	107.19
348.445	95.19
348.673	97.19
348.9	90.19
349.128	99.19
349.355	87.19
349.583	94.19
349.81	97.19
350.037	85.19
350.265	85.19
350.492	90.19
350.72	88.19
350.947	113.19
351.174	114.19
351.402	131.19
351.629	118.19
351.856	100.19
352.083	111.19
352.311	110.19
352.538	111.19
352.765	86.19
352.992	104.19
353.22	123.19
353.447	109.19
353.674	101.19
353.901	102.19
354.128	103.19
354.355	104.19
354.583	109.19
354.81	85.19
355.037	96.19
355.264	89.19
355.491	101.19
355.718	103.19
355.945	102.19
356.172	102.19
356.399	103.19
356.626	99.19
356.853	87.19
357.08	96.19
357.307	104.19
357.534	84.19
357.761	101.19
357.988	106.19
358.215	105.19
358.441	92.19
358.668	95.19
358.895	87.19
359.122	94.19
359.349	105.19
359.576	99.19
359.802	101.19
360.029	120.19
360.256	95.19
360.483	98.19
360.709	112.19
360.936	100.19
361.163	93.19
361.39	112.19
361.616	90.19
361.843	89.19
362.07	101.19
362.296	90.19
362.523	97.19
362.749	88.19
362.976	91.19
363.203	102.19
363.429	99.19
363.656	91.19
363.882	91.19
364.109	100.19
364.335	89.19
364.562	93.19
364.788	83.19
365.015	105.19
365.241	104.19
365.468	111.19
365.694	97.19
365.92	89.19
366.147	96.19
366.373	91.19
366.599	81.19
366.826	95.19
367.052	94.19
367.278	91.19
367.505	81.19
367.731	92.19
367.957	86.19
368.184	99.19
368.41	98.19
368.636	111.19
368.862	123.19
369.089	109.19
369.315	95.19
369.541	96.19
369.767	98.19
369.993	103.19
370.219	90.19
370.445	94.19
370.672	88.19
370.898	87.19
371.124	99.19
371.35	90.19
371.576	102.19
371.802	92.19
372.028	96.19
372.254	91.19
372.48	101.19
372.706	83.19
372.932	91.19
373.158	95.19
373.384	88.19
373.61	93.19
373.835	80.19
374.061	88.19
374.287	103.19
374.513	95.19
374.739	114.19
374.965	94.19
375.191	86.19
375.416	92.19
375.642	95.19
375.868	100.19
376.094	90.19
376.319	86.19
376.545	93.19
376.771	85.19
376.997	98.19
377.222	84.19
377.448	88.19
377.674	93.19
377.899	96.19
378.125	94.19
378.35	79.19
378.576	102.19
378.802	83.19
379.027	106.19
379.253	96.19
379.478	74.19
379.704	99.19
379.929	93.19
380.155	90.19
380.38	93.19
380.606	89.19
380.831	104.19
381.057	105.19
381.282	94.19
381.507	104.19
381.733	95.19
381.958	104.19
382.184	99.19
382.409	91.19
382.634	109.19
382.86	102.19
383.085	96.19
383.31	89.19
383.535	103.19
383.761	106.19
383.986	90.19
384.211	109.19
384.436	101.19
384.662	98.19
384.887	101.19
385.112	95.19
385.337	94.19
385.562	110.19
385.787	91.19
386.013	100.19
386.238	106.19
386.463	99.19
386.688	103.19
386.913	92.19
387.138	116.19
387.363	89.19
387.588	89.19
387.813	91.19
388.038	118.19
388.263	105.19
388.488	113.19
388.713	112.19
388.938	107.19
389.163	98.19
389.387	101.19
389.612	86.19
389.837	107.19
390.062	97.19
390.287	97.19
390.512	97.19
390.736	107.19
390.961	98.19
391.186	99.19
391.411	113.19
391.636	100.19
391.86	89.19
392.085	99.19
392.31	87.19
392.534	91.19
392.759	98.19
392.984	81.19
393.208	98.19
393.433	70.19
393.658	85.19
393.882	94.19
394.107	92.19
394.331	90.19
394.556	99.19
394.78	86.19
395.005	96.19
395.229	86.19
395.454	89.19
395.678	94.19
395.903	89.19
396.127	89.19
396.352	97.19
396.576	92.19
396.801	97.19
397.025	93.19
397.249	86.19
397.474	89.19
397.698	74.19
397.922	90.19
398.147	87.19
398.371	89.19
398.595	94.19
398.82	91.19
399.044	98.19
399.268	87.19
399.492	87.19
399.717	87.19
399.941	99.19
400.165	93.19
400.389	96.19
400.613	88.19
400.837	100.19
401.062	78.19
401.286	96.19
401.51	100.19
401.734	90.19
401.958	115.19
402.182	125.19
402.406	164.19
402.63	114.19
402.854	117.19
403.078	82.19
403.302	84.19
403.526	104.19
403.75	87.19
403.974	82.19
404.198	89.19
404.422	89.19
404.645	90.19
404.869	79.19
405.093	90.19
405.317	99.19
405.541	101.19
405.765	116.19
405.988	115.19
406.212	155.19
406.436	216.19
406.66	147.19
406.883	83.19
407.107	101.19
407.331	95.19
407.555	103.19
407.778	103.19
408.002	97.19
408.226	100.19
408.449	95.19
408.673	98.19
408.896	96.19
409.12	99.19
409.344	82.19
409.567	85.19
409.791	94.19
410.014	98.19
410.238	85.19
410.461	88.19
410.685	97.19
410.908	98.19
411.132	100.19
411.355	104.19
411.578	88.19
411.802	86.19
412.025	90.19
412.249	82.19
412.472	91.19
412.695	92.19
412.919	83.19
413.142	89.19
413.365	97.19
413.589	85.19
413.812	100.19
414.035	87.19
414.258	97.19
414.482	91.19
414.705	89.19
414.928	86.19
415.151	88.19
415.374	91.19
415.597	99.19
415.821	91.19
416.044	82.19
416.267	93.19
416.49	90.19
416.713	99.19
416.936	97.19
417.159	99.19
417.382	87.19
417.605	77.19
417.828	105.19
418.051	92.19
418.274	77.19
418.497	98.19
418.72	83.19
418.943	89.19
419.166	100.19
419.389	96.19
419.611	90.19
419.834	90.19
420.057	98.19
420.28	89.19
420.503	87.19
420.726	95.19
420.948	104.19
421.171	109.19
421.394	91.19
421.617	101.19
421.839	93.19
422.062	85.19
422.285	102.19
422.507	89.19
422.73	98.19
422.953	104.19
423.175	103.19
423.398	91.19
423.621	82.19
423.843	98.19
424.066	97.19
424.288	92.19
424.511	94.19
424.733	100.19
424.956	113.19
425.178	92.19
425.401	97.19
425.623	99.19
425.846	84.19
426.068	90.19
426.291	90.19
426.513	83.19
426.735	82.19
426.958	89.19
427.18	116.19
427.402	151.19
427.625	178.19
427.847	133.19
428.069	95.19
428.292	94.19
428.514	88.19
428.736	88.19
428.958	83.19
429.181	85.19
429.403	93.19
429.625	106.19
429.847	92.19
430.069	84.19
430.292	97.19
430.514	91.19
430.736	98.19
430.958	82.19
431.18	90.19
431.402	82.19
431.624	90.19
431.846	95.19
432.068	101.19
432.29	95.19
432.512	74.19
432.734	92.19
432.956	99.19
433.178	86.19
433.4	110.19
433.622	104.19
433.844	82.19
434.066	97.19
434.287	99.19
434.509	95.19
434.731	87.19
434.953	99.19
435.175	96.19
435.397	96.19
435.618	105.19
435.84	119.19
436.062	121.19
436.284	119.19
436.505	104.19
436.727	106.19
436.949	94.19
437.17	91.19
437.392	102.19
437.614	91.19
437.835	100.19
438.057	119.19
438.278	133.19
438.5	102.19
438.721	130.19
438.943	119.19
439.165	83.19
439.386	91.19
439.608	88.19
439.829	100.19
440.05	131.19
440.272	149.19
440.493	105.19
440.715	92.19
440.936	94.19
441.158	84.19
441.379	96.19
441.6	101.19
441.822	103.19
442.043	104.19
442.264	95.19
442.486	111.19
442.707	102.19
442.928	97.19
443.149	141.19
443.371	126.19
443.592	90.19
443.813	110.19
444.034	99.19
444.255	106.19
444.476	104.19
444.698	84.19
444.919	81.19
445.14	138.19
445.361	120.19
445.582	124.19
445.803	135.19
446.024	143.19
446.245	143.19
446.466	108.19
446.687	106.19
446.908	105.19
447.129	91.19
447.35	99.19
447.571	81.19
447.792	93.19
448.013	112.19
448.234	104.19
448.455	90.19
448.675	96.19
448.896	112.19
449.117	112.19
449.338	111.19
449.559	130.19
449.779	143.19
450	97.19
450.221	95.19
450.442	92.19
450.662	93.19
450.883	109.19
451.104	99.19
451.324	94.19
451.545	103.19
451.766	82.19
451.986	86.19
452.207	91.19
452.428	93.19
452.648	101.19
452.869	100.19
453.089	108.19
453.31	100.19
453.53	97.19
453.751	97.19
453.971	94.19
454.192	115.19
454.412	104.19
454.633	89.19
454.853	89.19
455.073	93.19
455.294	94.19
455.514	87.19
455.734	98.19
455.955	81.19
456.175	90.19
456.395	101.19
456.616	95.19
456.836	94.19
457.056	98.19
457.276	89.19
457.497	85.19
457.717	91.19
457.937	89.19
458.157	94.19
458.377	102.19
458.598	121.19
458.818	150.19
459.038	150.19
459.258	118.19
459.478	91.19
459.698	81.19
459.918	89.19
460.138	83.19
460.358	82.19
460.578	78.19
460.798	72.19
461.018	89.19
461.238	86.19
461.458	94.19
461.678	95.19
461.898	98.19
462.118	87.19
462.338	86.19
462.558	86.19
462.777	93.19
462.997	88.19
463.217	99.19
463.437	98.19
463.657	75.19
463.876	89.19
464.096	91.19
464.316	74.19
464.536	93.19
464.755	86.19
464.975	95.19
465.195	160.19
465.414	146.19
465.634	85.19
465.854	90.19
466.073	87.19
466.293	90.19
466.512	90.19
466.732	93.19
466.951	91.19
467.171	94.19
467.391	104.19
467.61	119.19
467.829	91.19
468.049	95.19
468.268	77.19
468.488	104.19
468.707	85.19
468.927	87.19
469.146	86.19
469.365	87.19
469.585	101.19
469.804	101.19
470.023	101.19
470.243	86.19
470.462	102.19
470.681	111.19
470.901	83.19
471.12	94.19
471.339	88.19
471.558	104.19
471.777	98.19
471.997	93.19
472.216	104.19
472.435	81.19
472.654	88.19
472.873	98.19
473.092	92.19
473.311	96.19
473.53	83.19
473.749	95.19
473.968	83.19
474.187	97.19
474.406	97.19
474.625	85.19
474.844	87.19
475.063	82.19
475.282	93.19
475.501	89.19
475.72	92.19
475.939	101.19
476.158	84.19
476.377	81.19
476.596	85.19
476.814	96.19
477.033	97.19
477.252	88.19
477.471	88.19
477.69	107.19
477.908	86.19
478.127	82.19
478.346	83.19
478.564	77.19
478.783	96.19
479.002	96.19
479.22	85.19
479.439	111.19
479.658	97.19
479.876	99.19
480.095	103.19
480.313	97.19
480.532	91.19
480.751	87.19
480.969	89.19
481.188	99.19
481.406	92.19
481.624	86.19
481.843	89.19
482.061	88.19
482.28	93.19
482.498	94.19
482.717	97.19
482.935	94.19
483.153	102.19
483.372	102.19
483.59	106.19
483.808	93.19
484.027	99.19
484.245	93.19
484.463	91.19
484.681	90.19
484.9	103.19
485.118	101.19
485.336	98.19
485.554	95.19
485.772	94.19
485.99	107.19
486.209	116.19
486.427	106.19
486.645	101.19
486.863	118.19
487.081	106.19
487.299	94.19
487.517	105.19
487.735	90.19
487.953	90.19
488.171	98.19
488.389	93.19
488.607	98.19
488.825	100.19
489.043	95.19
489.261	96.19
489.479	104.19
489.696	102.19
489.914	94.19
490.132	91.19
490.35	95.19
490.568	98.19
490.786	85.19
491.003	104.19
491.221	87.19
491.439	100.19
491.657	91.19
491.874	95.19
492.092	85.19
492.31	88.19
492.527	104.19
492.745	102.19
492.963	101.19
493.18	82.19
493.398	107.19
493.615	111.19
493.833	96.19
494.05	89.19
494.268	86.19
494.485	93.19
494.703	97.19
494.92	91.19
495.138	97.19
495.355	110.19
495.573	99.19
495.79	97.19
496.008	109.19
496.225	97.19
496.442	89.19
496.66	88.19
496.877	98.19
497.094	84.19
497.312	77.19
497.529	86.19
497.746	105.19
497.963	90.19
498.181	108.19
498.398	109.19
498.615	110.19
498.832	95.19
499.049	94.19
499.267	99.19
499.484	84.19
499.701	104.19
499.918	91.19
500.135	97.19
500.352	93.19
500.569	81.19
500.786	88.19
501.003	75.19
501.22	87.19
501.437	93.19
501.654	88.19
501.871	117.19
502.088	99.19
502.305	102.19
502.522	94.19
502.739	99.19
502.956	91.19
503.172	95.19
503.389	96.19
503.606	110.19
503.823	118.19
504.04	95.19
504.256	95.19
504.473	88.19
504.69	93.19
504.907	103.19
505.123	85.19
505.34	105.19
505.557	99.19
505.773	100.19
505.99	99.19
506.207	85.19
506.423	89.19
506.64	101.19
506.856	93.19
507.073	95.19
507.289	103.19
507.506	106.19
507.722	119.19
507.939	106.19
508.155	104.19
508.372	105.19
508.588	105.19
508.805	107.19
509.021	111.19
509.238	100.19
509.454	92.19
509.67	106.19
509.887	106.19
510.103	126.19
510.319	202.19
510.536	698.19
510.752	2175.19
510.968	620.19
511.184	157.19
511.401	122.19
511.617	110.19
511.833	94.19
512.049	94.19
512.265	100.19
512.481	94.19
512.698	104.19
512.914	84.19
513.13	82.19
513.346	93.19
513.562	89.19
513.778	92.19
513.994	92.19
514.21	112.19
514.426	112.19
514.642	121.19
