Data from Uncirc_2005_H10_HRD10591_00034.txt Node
Date: Wed Jan 03 10:28:31 EST 2024
User: Yrep
Spectrometer: HR+D1059
Trigger mode: 1
Integration Time (sec): 1.000000E-1
Scans to average: 1
Electric dark correction enabled: true
Nonlinearity correction enabled: false
Boxcar width: 0
XAxis mode: Wavelengths
Number of Pixels in Spectrum: 2048
>>>>>Begin Spectral Data<<<<<
223.165	-7.75
223.4	-7.75
223.635	-7.75
223.869	-28.75
224.104	-15.75
224.338	-21.75
224.573	-22.75
224.808	23.25
225.042	2.25
225.277	-5.75
225.511	-10.75
225.746	8.25
225.98	1.25
226.215	12.25
226.449	10.25
226.683	13.25
226.918	31.25
227.152	11.25
227.387	34.25
227.621	31.25
227.856	34.25
228.09	38.25
228.324	65.25
228.559	36.25
228.793	44.25
229.027	56.25
229.262	67.25
229.496	90.25
229.73	86.25
229.964	79.25
230.199	65.25
230.433	75.25
230.667	76.25
230.901	74.25
231.136	86.25
231.37	68.25
231.604	86.25
231.838	89.25
232.072	82.25
232.306	76.25
232.541	76.25
232.775	79.25
233.009	73.25
233.243	65.25
233.477	64.25
233.711	86.25
233.945	85.25
234.179	76.25
234.413	78.25
234.647	72.25
234.881	70.25
235.115	82.25
235.349	67.25
235.583	70.25
235.817	82.25
236.051	87.25
236.285	79.25
236.519	80.25
236.753	83.25
236.987	72.25
237.221	76.25
237.455	77.25
237.689	69.25
237.922	64.25
238.156	83.25
238.39	72.25
238.624	71.25
238.858	84.25
239.091	68.25
239.325	74.25
239.559	85.25
239.793	75.25
240.027	66.25
240.26	86.25
240.494	84.25
240.728	75.25
240.961	66.25
241.195	81.25
241.429	75.25
241.662	69.25
241.896	81.25
242.13	68.25
242.363	68.25
242.597	99.25
242.83	84.25
243.064	64.25
243.298	79.25
243.531	77.25
243.765	87.25
243.998	69.25
244.232	79.25
244.465	77.25
244.699	76.25
244.932	85.25
245.166	84.25
245.399	62.25
245.633	85.25
245.866	83.25
246.099	87.25
246.333	82.25
246.566	80.25
246.8	75.25
247.033	72.25
247.266	80.25
247.5	82.25
247.733	78.25
247.966	74.25
248.2	84.25
248.433	76.25
248.666	75.25
248.899	80.25
249.133	84.25
249.366	84.25
249.599	97.25
249.832	91.25
250.066	72.25
250.299	76.25
250.532	86.25
250.765	86.25
250.998	84.25
251.231	64.25
251.465	68.25
251.698	80.25
251.931	65.25
252.164	83.25
252.397	90.25
252.63	74.25
252.863	83.25
253.096	85.25
253.329	82.25
253.562	81.25
253.795	89.25
254.028	77.25
254.261	74.25
254.494	79.25
254.727	84.25
254.96	86.25
255.193	86.25
255.426	69.25
255.659	68.25
255.892	81.25
256.124	83.25
256.357	89.25
256.59	66.25
256.823	79.25
257.056	69.25
257.289	66.25
257.521	75.25
257.754	74.25
257.987	83.25
258.22	77.25
258.452	79.25
258.685	81.25
258.918	77.25
259.151	66.25
259.383	83.25
259.616	67.25
259.849	83.25
260.081	79.25
260.314	88.25
260.547	84.25
260.779	77.25
261.012	79.25
261.244	80.25
261.477	76.25
261.71	90.25
261.942	103.25
262.175	101.25
262.407	91.25
262.64	106.25
262.872	74.25
263.105	79.25
263.337	76.25
263.57	93.25
263.802	85.25
264.035	85.25
264.267	73.25
264.499	91.25
264.732	65.25
264.964	76.25
265.197	82.25
265.429	74.25
265.661	76.25
265.894	70.25
266.126	73.25
266.358	77.25
266.591	78.25
266.823	74.25
267.055	81.25
267.287	89.25
267.52	82.25
267.752	80.25
267.984	82.25
268.216	76.25
268.448	76.25
268.681	75.25
268.913	84.25
269.145	83.25
269.377	87.25
269.609	83.25
269.841	101.25
270.073	78.25
270.306	88.25
270.538	82.25
270.77	87.25
271.002	80.25
271.234	77.25
271.466	85.25
271.698	70.25
271.93	89.25
272.162	85.25
272.394	80.25
272.626	64.25
272.858	87.25
273.09	81.25
273.322	90.25
273.553	78.25
273.785	93.25
274.017	77.25
274.249	81.25
274.481	88.25
274.713	81.25
274.945	87.25
275.176	95.25
275.408	96.25
275.64	63.25
275.872	62.25
276.104	86.25
276.335	109.25
276.567	111.25
276.799	96.25
277.031	102.25
277.262	81.25
277.494	86.25
277.726	80.25
277.957	88.25
278.189	66.25
278.421	88.25
278.652	76.25
278.884	89.25
279.115	86.25
279.347	90.25
279.579	74.25
279.81	84.25
280.042	81.25
280.273	69.25
280.505	87.25
280.736	69.25
280.968	83.25
281.199	80.25
281.431	85.25
281.662	84.25
281.894	90.25
282.125	92.25
282.356	110.25
282.588	126.25
282.819	101.25
283.051	81.25
283.282	96.25
283.513	78.25
283.745	88.25
283.976	76.25
284.207	71.25
284.439	76.25
284.67	95.25
284.901	90.25
285.132	81.25
285.364	90.25
285.595	85.25
285.826	88.25
286.057	83.25
286.288	77.25
286.52	81.25
286.751	99.25
286.982	97.25
287.213	78.25
287.444	97.25
287.675	90.25
287.906	78.25
288.138	85.25
288.369	78.25
288.6	78.25
288.831	86.25
289.062	102.25
289.293	78.25
289.524	70.25
289.755	76.25
289.986	82.25
290.217	94.25
290.448	78.25
290.679	85.25
290.91	101.25
291.141	93.25
291.371	89.25
291.602	82.25
291.833	80.25
292.064	99.25
292.295	89.25
292.526	89.25
292.757	78.25
292.987	72.25
293.218	86.25
293.449	85.25
293.68	88.25
293.91	90.25
294.141	94.25
294.372	102.25
294.603	97.25
294.833	75.25
295.064	90.25
295.295	75.25
295.525	72.25
295.756	92.25
295.987	116.25
296.217	112.25
296.448	114.25
296.679	93.25
296.909	90.25
297.14	92.25
297.37	94.25
297.601	90.25
297.831	85.25
298.062	78.25
298.292	96.25
298.523	93.25
298.753	88.25
298.984	86.25
299.214	91.25
299.445	88.25
299.675	78.25
299.905	90.25
300.136	82.25
300.366	74.25
300.597	83.25
300.827	98.25
301.057	98.25
301.288	98.25
301.518	108.25
301.748	95.25
301.979	94.25
302.209	85.25
302.439	72.25
302.669	80.25
302.9	85.25
303.13	76.25
303.36	83.25
303.59	99.25
303.82	103.25
304.051	82.25
304.281	96.25
304.511	90.25
304.741	94.25
304.971	103.25
305.201	93.25
305.431	77.25
305.661	88.25
305.891	76.25
306.121	95.25
306.352	84.25
306.582	100.25
306.812	93.25
307.042	89.25
307.272	92.25
307.502	90.25
307.731	89.25
307.961	99.25
308.191	69.25
308.421	92.25
308.651	84.25
308.881	91.25
309.111	96.25
309.341	99.25
309.571	82.25
309.8	91.25
310.03	84.25
310.26	107.25
310.49	91.25
310.72	94.25
310.949	90.25
311.179	92.25
311.409	106.25
311.639	90.25
311.868	104.25
312.098	86.25
312.328	85.25
312.557	100.25
312.787	106.25
313.017	99.25
313.246	95.25
313.476	100.25
313.706	79.25
313.935	84.25
314.165	96.25
314.394	102.25
314.624	99.25
314.853	96.25
315.083	82.25
315.312	79.25
315.542	97.25
315.771	86.25
316.001	80.25
316.23	85.25
316.46	88.25
316.689	93.25
316.919	90.25
317.148	93.25
317.377	106.25
317.607	80.25
317.836	81.25
318.065	104.25
318.295	108.25
318.524	89.25
318.753	75.25
318.983	92.25
319.212	95.25
319.441	84.25
319.67	97.25
319.9	97.25
320.129	88.25
320.358	87.25
320.587	95.25
320.816	89.25
321.046	100.25
321.275	103.25
321.504	91.25
321.733	98.25
321.962	89.25
322.191	96.25
322.42	101.25
322.649	104.25
322.878	106.25
323.108	133.25
323.337	123.25
323.566	128.25
323.795	148.25
324.024	215.25
324.253	424.25
324.482	888.25
324.71	1835.25
324.939	2464.25
325.168	902.25
325.397	254.25
325.626	138.25
325.855	120.25
326.084	116.25
326.313	112.25
326.542	165.25
326.77	258.25
326.999	497.25
327.228	1044.25
327.457	1928.25
327.686	1504.25
327.914	394.25
328.143	199.25
328.372	138.25
328.6	116.25
328.829	100.25
329.058	125.25
329.287	111.25
329.515	93.25
329.744	105.25
329.972	93.25
330.201	103.25
330.43	110.25
330.658	115.25
330.887	126.25
331.115	101.25
331.344	98.25
331.572	95.25
331.801	88.25
332.03	113.25
332.258	77.25
332.486	100.25
332.715	90.25
332.943	95.25
333.172	102.25
333.4	84.25
333.629	96.25
333.857	105.25
334.085	103.25
334.314	98.25
334.542	92.25
334.771	97.25
334.999	92.25
335.227	100.25
335.455	96.25
335.684	89.25
335.912	100.25
336.14	101.25
336.369	103.25
336.597	91.25
336.825	93.25
337.053	84.25
337.281	93.25
337.51	81.25
337.738	78.25
337.966	82.25
338.194	81.25
338.422	94.25
338.65	86.25
338.878	95.25
339.106	73.25
339.334	81.25
339.562	79.25
339.79	78.25
340.018	102.25
340.246	79.25
340.474	103.25
340.702	95.25
340.93	88.25
341.158	77.25
341.386	99.25
341.614	98.25
341.842	99.25
342.07	92.25
342.298	83.25
342.526	109.25
342.754	94.25
342.981	91.25
343.209	80.25
343.437	102.25
343.665	77.25
343.893	88.25
344.12	103.25
344.348	94.25
344.576	85.25
344.804	85.25
345.031	84.25
345.259	97.25
345.487	87.25
345.714	91.25
345.942	75.25
346.17	92.25
346.397	91.25
346.625	86.25
346.853	86.25
347.08	85.25
347.308	94.25
347.535	92.25
347.763	99.25
347.99	90.25
348.218	100.25
348.445	102.25
348.673	88.25
348.9	97.25
349.128	100.25
349.355	87.25
349.583	94.25
349.81	92.25
350.037	84.25
350.265	88.25
350.492	96.25
350.72	90.25
350.947	102.25
351.174	97.25
351.402	99.25
351.629	95.25
351.856	96.25
352.083	104.25
352.311	91.25
352.538	112.25
352.765	109.25
352.992	103.25
353.22	102.25
353.447	102.25
353.674	94.25
353.901	92.25
354.128	90.25
354.355	98.25
354.583	94.25
354.81	93.25
355.037	100.25
355.264	102.25
355.491	92.25
355.718	85.25
355.945	86.25
356.172	97.25
356.399	91.25
356.626	78.25
356.853	91.25
357.08	78.25
357.307	77.25
357.534	86.25
357.761	94.25
357.988	100.25
358.215	108.25
358.441	96.25
358.668	96.25
358.895	92.25
359.122	86.25
359.349	77.25
359.576	91.25
359.802	96.25
360.029	113.25
360.256	94.25
360.483	78.25
360.709	82.25
360.936	90.25
361.163	98.25
361.39	97.25
361.616	94.25
361.843	85.25
362.07	106.25
362.296	100.25
362.523	101.25
362.749	92.25
362.976	78.25
363.203	76.25
363.429	100.25
363.656	83.25
363.882	88.25
364.109	101.25
364.335	76.25
364.562	86.25
364.788	90.25
365.015	99.25
365.241	89.25
365.468	113.25
365.694	94.25
365.92	98.25
366.147	80.25
366.373	70.25
366.599	76.25
366.826	85.25
367.052	90.25
367.278	90.25
367.505	70.25
367.731	103.25
367.957	95.25
368.184	99.25
368.41	101.25
368.636	104.25
368.862	102.25
369.089	90.25
369.315	71.25
369.541	80.25
369.767	84.25
369.993	95.25
370.219	92.25
370.445	81.25
370.672	93.25
370.898	87.25
371.124	88.25
371.35	79.25
371.576	86.25
371.802	89.25
372.028	79.25
372.254	86.25
372.48	77.25
372.706	88.25
372.932	87.25
373.158	86.25
373.384	99.25
373.61	81.25
373.835	91.25
374.061	85.25
374.287	96.25
374.513	88.25
374.739	88.25
374.965	92.25
375.191	76.25
375.416	81.25
375.642	97.25
375.868	98.25
376.094	95.25
376.319	104.25
376.545	84.25
376.771	100.25
376.997	81.25
377.222	96.25
377.448	88.25
377.674	92.25
377.899	96.25
378.125	88.25
378.35	96.25
378.576	86.25
378.802	89.25
379.027	107.25
379.253	86.25
379.478	89.25
379.704	90.25
379.929	100.25
380.155	85.25
380.38	95.25
380.606	100.25
380.831	84.25
381.057	101.25
381.282	101.25
381.507	97.25
381.733	104.25
381.958	100.25
382.184	89.25
382.409	85.25
382.634	109.25
382.86	95.25
383.085	96.25
383.31	99.25
383.535	95.25
383.761	108.25
383.986	81.25
384.211	98.25
384.436	109.25
384.662	102.25
384.887	101.25
385.112	92.25
385.337	104.25
385.562	99.25
385.787	106.25
386.013	102.25
386.238	113.25
386.463	122.25
386.688	108.25
386.913	100.25
387.138	99.25
387.363	108.25
387.588	98.25
387.813	105.25
388.038	108.25
388.263	108.25
388.488	124.25
388.713	85.25
388.938	87.25
389.163	104.25
389.387	86.25
389.612	83.25
389.837	99.25
390.062	93.25
390.287	86.25
390.512	83.25
390.736	83.25
390.961	91.25
391.186	101.25
391.411	101.25
391.636	84.25
391.86	87.25
392.085	93.25
392.31	79.25
392.534	76.25
392.759	88.25
392.984	89.25
393.208	90.25
393.433	90.25
393.658	86.25
393.882	80.25
394.107	85.25
394.331	85.25
394.556	96.25
394.78	93.25
395.005	82.25
395.229	84.25
395.454	90.25
395.678	89.25
395.903	83.25
396.127	80.25
396.352	87.25
396.576	84.25
396.801	79.25
397.025	84.25
397.249	78.25
397.474	84.25
397.698	82.25
397.922	94.25
398.147	77.25
398.371	82.25
398.595	95.25
398.82	92.25
399.044	84.25
399.268	90.25
399.492	89.25
399.717	82.25
399.941	99.25
400.165	86.25
400.389	84.25
400.613	87.25
400.837	81.25
401.062	68.25
401.286	90.25
401.51	93.25
401.734	94.25
401.958	104.25
402.182	129.25
402.406	149.25
402.63	108.25
402.854	90.25
403.078	83.25
403.302	76.25
403.526	95.25
403.75	88.25
403.974	63.25
404.198	85.25
404.422	102.25
404.645	85.25
404.869	86.25
405.093	105.25
405.317	95.25
405.541	90.25
405.765	102.25
405.988	104.25
406.212	160.25
406.436	186.25
406.66	141.25
406.883	96.25
407.107	88.25
407.331	99.25
407.555	93.25
407.778	105.25
408.002	90.25
408.226	83.25
408.449	97.25
408.673	86.25
408.896	95.25
409.12	93.25
409.344	85.25
409.567	83.25
409.791	83.25
410.014	102.25
410.238	96.25
410.461	84.25
410.685	106.25
410.908	94.25
411.132	105.25
411.355	101.25
411.578	85.25
411.802	79.25
412.025	94.25
412.249	74.25
412.472	88.25
412.695	83.25
412.919	97.25
413.142	89.25
413.365	74.25
413.589	93.25
413.812	92.25
414.035	80.25
414.258	84.25
414.482	86.25
414.705	84.25
414.928	76.25
415.151	91.25
415.374	94.25
415.597	75.25
415.821	87.25
416.044	105.25
416.267	80.25
416.49	97.25
416.713	89.25
416.936	85.25
417.159	77.25
417.382	71.25
417.605	92.25
417.828	88.25
418.051	85.25
418.274	80.25
418.497	77.25
418.72	77.25
418.943	78.25
419.166	91.25
419.389	77.25
419.611	90.25
419.834	87.25
420.057	96.25
420.28	82.25
420.503	88.25
420.726	93.25
420.948	79.25
421.171	85.25
421.394	97.25
421.617	89.25
421.839	92.25
422.062	86.25
422.285	86.25
422.507	101.25
422.73	104.25
422.953	91.25
423.175	83.25
423.398	94.25
423.621	97.25
423.843	83.25
424.066	90.25
424.288	90.25
424.511	77.25
424.733	85.25
424.956	100.25
425.178	91.25
425.401	94.25
425.623	100.25
425.846	80.25
426.068	99.25
426.291	84.25
426.513	94.25
426.735	85.25
426.958	96.25
427.18	120.25
427.402	155.25
427.625	154.25
427.847	117.25
428.069	96.25
428.292	84.25
428.514	84.25
428.736	75.25
428.958	79.25
429.181	77.25
429.403	76.25
429.625	86.25
429.847	102.25
430.069	101.25
430.292	82.25
430.514	79.25
430.736	92.25
430.958	81.25
431.18	71.25
431.402	81.25
431.624	84.25
431.846	103.25
432.068	75.25
432.29	78.25
432.512	94.25
432.734	70.25
432.956	86.25
433.178	104.25
433.4	91.25
433.622	75.25
433.844	80.25
434.066	86.25
434.287	86.25
434.509	74.25
434.731	79.25
434.953	92.25
435.175	87.25
435.397	92.25
435.618	82.25
435.84	103.25
436.062	121.25
436.284	117.25
436.505	101.25
436.727	96.25
436.949	97.25
437.17	94.25
437.392	77.25
437.614	90.25
437.835	113.25
438.057	109.25
438.278	98.25
438.5	109.25
438.721	123.25
438.943	96.25
439.165	84.25
439.386	80.25
439.608	78.25
439.829	90.25
440.05	118.25
440.272	144.25
440.493	98.25
440.715	85.25
440.936	93.25
441.158	82.25
441.379	63.25
441.6	87.25
441.822	99.25
442.043	74.25
442.264	108.25
442.486	115.25
442.707	85.25
442.928	102.25
443.149	125.25
443.371	126.25
443.592	103.25
443.813	111.25
444.034	100.25
444.255	97.25
444.476	75.25
444.698	102.25
444.919	79.25
445.14	140.25
445.361	125.25
445.582	111.25
445.803	108.25
446.024	132.25
446.245	145.25
446.466	109.25
446.687	90.25
446.908	80.25
447.129	93.25
447.35	93.25
447.571	87.25
447.792	90.25
448.013	92.25
448.234	106.25
448.455	83.25
448.675	113.25
448.896	106.25
449.117	110.25
449.338	92.25
449.559	130.25
449.779	124.25
450	88.25
450.221	84.25
450.442	83.25
450.662	90.25
450.883	99.25
451.104	110.25
451.324	95.25
451.545	77.25
451.766	86.25
451.986	89.25
452.207	107.25
452.428	91.25
452.648	98.25
452.869	96.25
453.089	109.25
453.31	123.25
453.53	101.25
453.751	86.25
453.971	103.25
454.192	90.25
454.412	86.25
454.633	78.25
454.853	81.25
455.073	77.25
455.294	96.25
455.514	88.25
455.734	60.25
455.955	76.25
456.175	89.25
456.395	92.25
456.616	92.25
456.836	91.25
457.056	81.25
457.276	82.25
457.497	86.25
457.717	76.25
457.937	71.25
458.157	78.25
458.377	87.25
458.598	85.25
458.818	143.25
459.038	148.25
459.258	93.25
459.478	104.25
459.698	73.25
459.918	85.25
460.138	88.25
460.358	99.25
460.578	91.25
460.798	101.25
461.018	84.25
461.238	82.25
461.458	89.25
461.678	79.25
461.898	87.25
462.118	80.25
462.338	99.25
462.558	92.25
462.777	91.25
462.997	85.25
463.217	88.25
463.437	87.25
463.657	93.25
463.876	69.25
464.096	90.25
464.316	83.25
464.536	81.25
464.755	84.25
464.975	109.25
465.195	159.25
465.414	146.25
465.634	90.25
465.854	86.25
466.073	83.25
466.293	97.25
466.512	88.25
466.732	77.25
466.951	97.25
467.171	95.25
467.391	69.25
467.61	115.25
467.829	90.25
468.049	89.25
468.268	89.25
468.488	90.25
468.707	85.25
468.927	72.25
469.146	67.25
469.365	88.25
469.585	94.25
469.804	80.25
470.023	92.25
470.243	93.25
470.462	84.25
470.681	98.25
470.901	90.25
471.12	83.25
471.339	77.25
471.558	91.25
471.777	84.25
471.997	76.25
472.216	94.25
472.435	91.25
472.654	92.25
472.873	88.25
473.092	77.25
473.311	85.25
473.53	81.25
473.749	87.25
473.968	96.25
474.187	108.25
474.406	81.25
474.625	76.25
474.844	78.25
475.063	86.25
475.282	81.25
475.501	86.25
475.72	90.25
475.939	73.25
476.158	85.25
476.377	99.25
476.596	81.25
476.814	83.25
477.033	74.25
477.252	69.25
477.471	81.25
477.69	87.25
477.908	92.25
478.127	83.25
478.346	80.25
478.564	79.25
478.783	101.25
479.002	93.25
479.22	83.25
479.439	100.25
479.658	115.25
479.876	93.25
480.095	77.25
480.313	96.25
480.532	90.25
480.751	92.25
480.969	89.25
481.188	99.25
481.406	94.25
481.624	85.25
481.843	84.25
482.061	78.25
482.28	69.25
482.498	92.25
482.717	86.25
482.935	88.25
483.153	81.25
483.372	86.25
483.59	93.25
483.808	76.25
484.027	88.25
484.245	86.25
484.463	94.25
484.681	91.25
484.9	82.25
485.118	80.25
485.336	80.25
485.554	85.25
485.772	100.25
485.99	100.25
486.209	111.25
486.427	93.25
486.645	99.25
486.863	105.25
487.081	78.25
487.299	92.25
487.517	89.25
487.735	91.25
487.953	83.25
488.171	101.25
488.389	84.25
488.607	102.25
488.825	84.25
489.043	97.25
489.261	82.25
489.479	76.25
489.696	72.25
489.914	97.25
490.132	88.25
490.35	108.25
490.568	89.25
490.786	80.25
491.003	91.25
491.221	92.25
491.439	104.25
491.657	78.25
491.874	85.25
492.092	90.25
492.31	92.25
492.527	80.25
492.745	93.25
492.963	85.25
493.18	91.25
493.398	100.25
493.615	83.25
493.833	89.25
494.05	92.25
494.268	85.25
494.485	74.25
494.703	80.25
494.92	77.25
495.138	84.25
495.355	79.25
495.573	78.25
495.79	93.25
496.008	101.25
496.225	86.25
496.442	84.25
496.66	90.25
496.877	99.25
497.094	85.25
497.312	90.25
497.529	88.25
497.746	91.25
497.963	83.25
498.181	97.25
498.398	92.25
498.615	95.25
498.832	103.25
499.049	86.25
499.267	86.25
499.484	77.25
499.701	86.25
499.918	89.25
500.135	65.25
500.352	89.25
500.569	85.25
500.786	85.25
501.003	80.25
501.22	82.25
501.437	84.25
501.654	80.25
501.871	98.25
502.088	90.25
502.305	83.25
502.522	85.25
502.739	81.25
502.956	92.25
503.172	67.25
503.389	81.25
503.606	102.25
503.823	90.25
504.04	82.25
504.256	86.25
504.473	81.25
504.69	90.25
504.907	82.25
505.123	80.25
505.34	78.25
505.557	89.25
505.773	80.25
505.99	91.25
506.207	76.25
506.423	99.25
506.64	75.25
506.856	77.25
507.073	81.25
507.289	84.25
507.506	98.25
507.722	100.25
507.939	106.25
508.155	94.25
508.372	77.25
508.588	85.25
508.805	90.25
509.021	110.25
509.238	95.25
509.454	89.25
509.67	86.25
509.887	99.25
510.103	136.25
510.319	193.25
510.536	719.25
510.752	2198.25
510.968	613.25
511.184	139.25
511.401	113.25
511.617	103.25
511.833	78.25
512.049	80.25
512.265	94.25
512.481	94.25
512.698	87.25
512.914	82.25
513.13	93.25
513.346	82.25
513.562	96.25
513.778	82.25
513.994	92.25
514.21	98.25
514.426	123.25
514.642	123.25
514.858	107.25
515.074	154.25
515.29	421.25
515.506	1392.25
515.721	531.25
515.937	149.25
516.153	104.25
516.369	99.25
516.585	92.25
