Data from Uncirc_2005_H10_HRD10591_00037.txt Node
Date: Wed Jan 03 10:28:32 EST 2024
User: Yrep
Spectrometer: HR+D1059
Trigger mode: 1
Integration Time (sec): 1.000000E-1
Scans to average: 1
Electric dark correction enabled: true
Nonlinearity correction enabled: false
Boxcar width: 0
XAxis mode: Wavelengths
Number of Pixels in Spectrum: 2048
>>>>>Begin Spectral Data<<<<<
223.165	-15
223.4	-15
223.635	-15
223.869	-28
224.104	-17
224.338	-22
224.573	-10
224.808	4
225.042	-16
225.277	-12
225.511	-11
225.746	1
225.98	2
226.215	19
226.449	21
226.683	19
226.918	29
227.152	36
227.387	14
227.621	36
227.856	56
228.09	46
228.324	49
228.559	50
228.793	69
229.027	67
229.262	70
229.496	72
229.73	92
229.964	86
230.199	77
230.433	86
230.667	79
230.901	74
231.136	73
231.37	75
231.604	69
231.838	85
232.072	86
232.306	83
232.541	80
232.775	91
233.009	77
233.243	78
233.477	74
233.711	64
233.945	76
234.179	94
234.413	92
234.647	64
234.881	85
235.115	81
235.349	89
235.583	82
235.817	69
236.051	77
236.285	85
236.519	82
236.753	84
236.987	81
237.221	85
237.455	78
237.689	75
237.922	83
238.156	76
238.39	79
238.624	82
238.858	76
239.091	83
239.325	70
239.559	69
239.793	82
240.027	80
240.26	82
240.494	93
240.728	84
240.961	85
241.195	95
241.429	74
241.662	69
241.896	75
242.13	84
242.363	84
242.597	78
242.83	78
243.064	87
243.298	83
243.531	84
243.765	86
243.998	75
244.232	74
244.465	84
244.699	102
244.932	85
245.166	73
245.399	79
245.633	89
245.866	91
246.099	69
246.333	77
246.566	84
246.8	78
247.033	86
247.266	81
247.5	71
247.733	86
247.966	83
248.2	75
248.433	81
248.666	74
248.899	72
249.133	69
249.366	98
249.599	96
249.832	86
250.066	84
250.299	79
250.532	88
250.765	80
250.998	96
251.231	65
251.465	72
251.698	91
251.931	77
252.164	88
252.397	80
252.63	80
252.863	94
253.096	72
253.329	80
253.562	84
253.795	90
254.028	70
254.261	87
254.494	69
254.727	92
254.96	83
255.193	77
255.426	86
255.659	77
255.892	77
256.124	83
256.357	84
256.59	78
256.823	83
257.056	77
257.289	81
257.521	75
257.754	85
257.987	86
258.22	94
258.452	90
258.685	70
258.918	87
259.151	86
259.383	87
259.616	81
259.849	72
260.081	90
260.314	75
260.547	78
260.779	89
261.012	89
261.244	75
261.477	90
261.71	84
261.942	110
262.175	103
262.407	86
262.64	73
262.872	81
263.105	75
263.337	80
263.57	66
263.802	102
264.035	80
264.267	80
264.499	85
264.732	81
264.964	87
265.197	90
265.429	88
265.661	83
265.894	91
266.126	92
266.358	78
266.591	84
266.823	70
267.055	67
267.287	78
267.52	96
267.752	84
267.984	88
268.216	101
268.448	91
268.681	82
268.913	78
269.145	71
269.377	80
269.609	78
269.841	90
270.073	87
270.306	77
270.538	82
270.77	83
271.002	83
271.234	87
271.466	91
271.698	77
271.93	96
272.162	79
272.394	88
272.626	78
272.858	83
273.09	93
273.322	83
273.553	86
273.785	77
274.017	85
274.249	97
274.481	89
274.713	97
274.945	97
275.176	71
275.408	82
275.64	87
275.872	76
276.104	89
276.335	87
276.567	89
276.799	85
277.031	95
277.262	85
277.494	91
277.726	93
277.957	88
278.189	69
278.421	87
278.652	81
278.884	84
279.115	101
279.347	76
279.579	89
279.81	103
280.042	84
280.273	81
280.505	88
280.736	79
280.968	84
281.199	78
281.431	87
281.662	87
281.894	85
282.125	93
282.356	119
282.588	106
282.819	108
283.051	103
283.282	82
283.513	88
283.745	85
283.976	87
284.207	93
284.439	90
284.67	94
284.901	88
285.132	89
285.364	82
285.595	95
285.826	75
286.057	90
286.288	95
286.52	92
286.751	94
286.982	108
287.213	89
287.444	87
287.675	95
287.906	96
288.138	89
288.369	86
288.6	89
288.831	83
289.062	82
289.293	92
289.524	86
289.755	95
289.986	76
290.217	89
290.448	82
290.679	91
290.91	82
291.141	101
291.371	79
291.602	83
291.833	89
292.064	88
292.295	86
292.526	88
292.757	89
292.987	87
293.218	95
293.449	80
293.68	90
293.91	91
294.141	87
294.372	96
294.603	93
294.833	103
295.064	87
295.295	92
295.525	98
295.756	96
295.987	109
296.217	116
296.448	121
296.679	107
296.909	80
297.14	99
297.37	97
297.601	96
297.831	83
298.062	79
298.292	93
298.523	99
298.753	84
298.984	90
299.214	85
299.445	91
299.675	93
299.905	92
300.136	96
300.366	91
300.597	95
300.827	103
301.057	105
301.288	90
301.518	85
301.748	70
301.979	99
302.209	95
302.439	92
302.669	85
302.9	92
303.13	99
303.36	87
303.59	94
303.82	103
304.051	97
304.281	104
304.511	85
304.741	88
304.971	98
305.201	86
305.431	86
305.661	87
305.891	101
306.121	92
306.352	87
306.582	100
306.812	99
307.042	96
307.272	102
307.502	79
307.731	92
307.961	98
308.191	83
308.421	97
308.651	83
308.881	88
309.111	105
309.341	96
309.571	102
309.8	105
310.03	81
310.26	96
310.49	100
310.72	101
310.949	97
311.179	101
311.409	87
311.639	97
311.868	89
312.098	75
312.328	99
312.557	98
312.787	108
313.017	85
313.246	92
313.476	94
313.706	99
313.935	94
314.165	100
314.394	89
314.624	106
314.853	101
315.083	89
315.312	104
315.542	76
315.771	93
316.001	89
316.23	104
316.46	93
316.689	108
316.919	83
317.148	95
317.377	80
317.607	85
317.836	92
318.065	82
318.295	87
318.524	93
318.753	89
318.983	100
319.212	97
319.441	103
319.67	98
319.9	95
320.129	85
320.358	86
320.587	91
320.816	90
321.046	83
321.275	117
321.504	105
321.733	102
321.962	91
322.191	98
322.42	109
322.649	96
322.878	105
323.108	118
323.337	135
323.566	128
323.795	136
324.024	195
324.253	379
324.482	792
324.71	1611
324.939	2073
325.168	774
325.397	216
325.626	148
325.855	133
326.084	136
326.313	129
326.542	148
326.77	244
326.999	454
327.228	901
327.457	1653
327.686	1271
327.914	348
328.143	173
328.372	140
328.6	118
328.829	111
329.058	120
329.287	114
329.515	106
329.744	113
329.972	102
330.201	104
330.43	114
330.658	115
330.887	116
331.115	114
331.344	104
331.572	102
331.801	93
332.03	98
332.258	95
332.486	92
332.715	78
332.943	90
333.172	105
333.4	96
333.629	78
333.857	108
334.085	99
334.314	94
334.542	87
334.771	100
334.999	87
335.227	88
335.455	101
335.684	103
335.912	95
336.14	103
336.369	100
336.597	104
336.825	91
337.053	91
337.281	87
337.51	90
337.738	82
337.966	96
338.194	106
338.422	89
338.65	96
338.878	90
339.106	83
339.334	81
339.562	100
339.79	91
340.018	96
340.246	91
340.474	94
340.702	72
340.93	93
341.158	89
341.386	94
341.614	99
341.842	91
342.07	90
342.298	96
342.526	78
342.754	88
342.981	95
343.209	92
343.437	103
343.665	81
343.893	100
344.12	92
344.348	95
344.576	97
344.804	72
345.031	91
345.259	91
345.487	89
345.714	88
345.942	87
346.17	93
346.397	89
346.625	96
346.853	98
347.08	106
347.308	109
347.535	103
347.763	74
347.99	104
348.218	100
348.445	101
348.673	103
348.9	86
349.128	89
349.355	92
349.583	93
349.81	88
350.037	93
350.265	91
350.492	97
350.72	107
350.947	85
351.174	106
351.402	97
351.629	99
351.856	100
352.083	96
352.311	110
352.538	108
352.765	107
352.992	123
353.22	127
353.447	114
353.674	93
353.901	107
354.128	113
354.355	107
354.583	97
354.81	92
355.037	89
355.264	92
355.491	107
355.718	102
355.945	103
356.172	102
356.399	96
356.626	93
356.853	92
357.08	78
357.307	94
357.534	87
357.761	99
357.988	108
358.215	112
358.441	110
358.668	83
358.895	92
359.122	94
359.349	85
359.576	94
359.802	93
360.029	100
360.256	106
360.483	97
360.709	89
360.936	94
361.163	84
361.39	95
361.616	91
361.843	89
362.07	92
362.296	87
362.523	96
362.749	91
362.976	93
363.203	93
363.429	98
363.656	90
363.882	88
364.109	92
364.335	88
364.562	89
364.788	100
365.015	105
365.241	103
365.468	94
365.694	99
365.92	91
366.147	91
366.373	88
366.599	87
366.826	99
367.052	88
367.278	95
367.505	101
367.731	89
367.957	81
368.184	79
368.41	106
368.636	110
368.862	101
369.089	108
369.315	83
369.541	87
369.767	89
369.993	96
370.219	102
370.445	76
370.672	85
370.898	94
371.124	87
371.35	79
371.576	78
371.802	90
372.028	86
372.254	87
372.48	82
372.706	85
372.932	96
373.158	86
373.384	87
373.61	92
373.835	85
374.061	100
374.287	94
374.513	86
374.739	86
374.965	83
375.191	95
375.416	87
375.642	87
375.868	95
376.094	80
376.319	83
376.545	90
376.771	80
376.997	99
377.222	95
377.448	87
377.674	73
377.899	79
378.125	79
378.35	95
378.576	95
378.802	103
379.027	107
379.253	101
379.478	90
379.704	86
379.929	101
380.155	83
380.38	96
380.606	104
380.831	81
381.057	89
381.282	89
381.507	94
381.733	112
381.958	100
382.184	113
382.409	115
382.634	87
382.86	105
383.085	96
383.31	111
383.535	113
383.761	97
383.986	106
384.211	107
384.436	105
384.662	106
384.887	99
385.112	106
385.337	99
385.562	89
385.787	99
386.013	112
386.238	111
386.463	102
386.688	116
386.913	105
387.138	117
387.363	106
387.588	102
387.813	103
388.038	109
388.263	108
388.488	128
388.713	98
388.938	87
389.163	97
389.387	104
389.612	100
389.837	108
390.062	100
390.287	95
390.512	93
390.736	82
390.961	89
391.186	99
391.411	94
391.636	101
391.86	86
392.085	85
392.31	84
392.534	89
392.759	83
392.984	86
393.208	81
393.433	87
393.658	82
393.882	94
394.107	79
394.331	96
394.556	93
394.78	81
395.005	96
395.229	91
395.454	92
395.678	84
395.903	82
396.127	89
396.352	87
396.576	89
396.801	85
397.025	87
397.249	81
397.474	94
397.698	87
397.922	100
398.147	92
398.371	79
398.595	93
398.82	89
399.044	85
399.268	81
399.492	78
399.717	89
399.941	84
400.165	94
400.389	93
400.613	92
400.837	92
401.062	80
401.286	86
401.51	97
401.734	79
401.958	98
402.182	129
402.406	135
402.63	104
402.854	86
403.078	97
403.302	96
403.526	82
403.75	89
403.974	74
404.198	97
404.422	85
404.645	97
404.869	91
405.093	90
405.317	94
405.541	94
405.765	99
405.988	106
406.212	146
406.436	184
406.66	132
406.883	100
407.107	100
407.331	101
407.555	97
407.778	94
408.002	92
408.226	84
408.449	89
408.673	87
408.896	97
409.12	95
409.344	92
409.567	100
409.791	91
410.014	98
410.238	96
410.461	89
410.685	101
410.908	104
411.132	93
411.355	94
411.578	102
411.802	98
412.025	88
412.249	79
412.472	81
412.695	89
412.919	89
413.142	77
413.365	81
413.589	96
413.812	81
414.035	90
414.258	97
414.482	80
414.705	89
414.928	86
415.151	91
415.374	83
415.597	72
415.821	89
416.044	103
416.267	92
416.49	81
416.713	95
416.936	104
417.159	90
417.382	77
417.605	97
417.828	93
418.051	85
418.274	86
418.497	91
418.72	90
418.943	79
419.166	93
419.389	86
419.611	81
419.834	84
420.057	84
420.28	91
420.503	82
420.726	71
420.948	84
421.171	89
421.394	85
421.617	97
421.839	85
422.062	96
422.285	95
422.507	100
422.73	99
422.953	93
423.175	87
423.398	91
423.621	94
423.843	91
424.066	87
424.288	88
424.511	96
424.733	94
424.956	99
425.178	107
425.401	98
425.623	78
425.846	89
426.068	91
426.291	94
426.513	84
426.735	79
426.958	94
427.18	97
427.402	142
427.625	163
427.847	119
428.069	95
428.292	85
428.514	92
428.736	69
428.958	87
429.181	83
429.403	83
429.625	86
429.847	101
430.069	88
430.292	88
430.514	93
430.736	86
430.958	94
431.18	73
431.402	85
431.624	84
431.846	83
432.068	89
432.29	89
432.512	88
432.734	97
432.956	105
433.178	92
433.4	92
433.622	94
433.844	87
434.066	95
434.287	95
434.509	91
434.731	93
434.953	101
435.175	93
435.397	94
435.618	95
435.84	92
436.062	107
436.284	98
436.505	107
436.727	101
436.949	95
437.17	87
437.392	89
437.614	76
437.835	81
438.057	106
438.278	101
438.5	109
438.721	119
438.943	103
439.165	104
439.386	84
439.608	93
439.829	80
440.05	107
440.272	104
440.493	105
440.715	98
440.936	102
441.158	88
441.379	84
441.6	83
441.822	98
442.043	95
442.264	91
442.486	95
442.707	79
442.928	107
443.149	129
443.371	105
443.592	113
443.813	99
444.034	111
444.255	74
444.476	89
444.698	91
444.919	92
445.14	123
445.361	124
445.582	102
445.803	113
446.024	118
446.245	114
446.466	97
446.687	81
446.908	97
447.129	101
447.35	81
447.571	98
447.792	93
448.013	84
448.234	107
448.455	103
448.675	118
448.896	119
449.117	110
449.338	103
449.559	120
449.779	128
450	99
450.221	89
450.442	87
450.662	92
450.883	96
451.104	97
451.324	99
451.545	85
451.766	84
451.986	89
452.207	89
452.428	85
452.648	97
452.869	99
453.089	112
453.31	97
453.53	90
453.751	92
453.971	116
454.192	118
454.412	102
454.633	78
454.853	92
455.073	86
455.294	74
455.514	98
455.734	106
455.955	88
456.175	88
456.395	80
456.616	86
456.836	82
457.056	78
457.276	86
457.497	79
457.717	86
457.937	96
458.157	112
458.377	92
458.598	103
458.818	128
459.038	132
459.258	90
459.478	95
459.698	84
459.918	98
460.138	87
460.358	88
460.578	81
460.798	99
461.018	84
461.238	84
461.458	89
461.678	93
461.898	86
462.118	105
462.338	87
462.558	76
462.777	75
462.997	91
463.217	86
463.437	75
463.657	85
463.876	91
464.096	85
464.316	100
464.536	94
464.755	98
464.975	110
465.195	137
465.414	130
465.634	107
465.854	93
466.073	82
466.293	80
466.512	99
466.732	87
466.951	79
467.171	90
467.391	95
467.61	92
467.829	87
468.049	89
468.268	87
468.488	89
468.707	86
468.927	87
469.146	93
469.365	81
469.585	92
469.804	91
470.023	108
470.243	93
470.462	104
470.681	88
470.901	97
471.12	98
471.339	92
471.558	102
471.777	109
471.997	82
472.216	95
472.435	91
472.654	95
472.873	85
473.092	82
473.311	99
473.53	87
473.749	80
473.968	95
474.187	101
474.406	92
474.625	92
474.844	85
475.063	96
475.282	84
475.501	88
475.72	80
475.939	94
476.158	84
476.377	65
476.596	91
476.814	88
477.033	84
477.252	81
477.471	84
477.69	80
477.908	88
478.127	92
478.346	93
478.564	92
478.783	85
479.002	94
479.22	103
479.439	93
479.658	103
479.876	88
480.095	83
480.313	82
480.532	88
480.751	94
480.969	97
481.188	114
481.406	96
481.624	89
481.843	83
482.061	79
482.28	69
482.498	91
482.717	89
482.935	95
483.153	91
483.372	105
483.59	102
483.808	86
484.027	99
484.245	83
484.463	94
484.681	82
484.9	100
485.118	94
485.336	104
485.554	99
485.772	83
485.99	98
486.209	107
486.427	108
486.645	108
486.863	100
487.081	113
487.299	87
487.517	92
487.735	95
487.953	92
488.171	100
488.389	88
488.607	94
488.825	86
489.043	87
489.261	87
489.479	87
489.696	95
489.914	96
490.132	86
490.35	95
490.568	96
490.786	104
491.003	72
491.221	85
491.439	98
491.657	89
491.874	81
492.092	93
492.31	100
492.527	91
492.745	90
492.963	109
493.18	99
493.398	80
493.615	104
493.833	98
494.05	92
494.268	99
494.485	103
494.703	88
494.92	95
495.138	100
495.355	94
495.573	76
495.79	94
496.008	87
496.225	94
496.442	84
496.66	116
496.877	86
497.094	85
497.312	86
497.529	88
497.746	89
497.963	92
498.181	90
498.398	92
498.615	114
498.832	89
499.049	85
499.267	92
499.484	96
499.701	93
499.918	97
500.135	85
500.352	87
500.569	97
500.786	87
501.003	91
501.22	89
501.437	91
501.654	76
501.871	105
502.088	84
502.305	97
502.522	88
502.739	88
502.956	98
503.172	105
503.389	99
503.606	95
503.823	107
504.04	89
504.256	90
504.473	89
504.69	101
504.907	96
505.123	83
505.34	95
505.557	86
505.773	89
505.99	83
506.207	94
506.423	75
506.64	100
506.856	100
507.073	99
507.289	95
507.506	87
507.722	111
507.939	105
508.155	88
508.372	98
508.588	92
508.805	87
509.021	105
509.238	86
509.454	87
509.67	94
509.887	107
510.103	125
510.319	206
510.536	663
510.752	1950
510.968	568
511.184	157
511.401	117
511.617	90
511.833	103
512.049	88
512.265	96
512.481	101
512.698	91
512.914	96
513.13	107
513.346	88
513.562	89
513.778	93
513.994	96
514.21	101
514.426	120
514.642	119
514.858	121
515.074	153
515.29	381
515.506	1202
515.721	458
515.937	141
516.153	115
516.369	98
516.585	85
516.801	87
517.016	97
517.232	89
517.448	91
517.664	95
517.879	84
518.095	96
518.311	100
518.527	86
518.742	94
518.958	97
519.173	102
519.389	97
519.605	94
519.82	108
520.036	95
520.251	104
520.467	96
520.682	111
520.898	101
521.113	118
521.329	129
521.544	197
521.76	496
521.975	1957
522.19	1187
522.406	277
522.621	110
522.836	104
523.052	102
523.267	94
523.482	88
523.698	89
523.913	109
524.128	96
524.343	102
524.559	101
524.774	94
524.989	98
525.204	100
525.419	115
525.634	90
525.849	88
526.064	79
526.28	120
526.495	87
526.71	81
526.925	79
527.14	82
527.355	88
527.57	93
527.785	88
527.999	89
528.214	96
528.429	88
528.644	85
528.859	93
529.074	94
529.289	110
529.503	164
529.718	104
529.933	99
530.148	97
530.363	85
530.577	73
530.792	99
531.007	96
531.221	99
531.436	91
531.651	92
531.865	84
532.08	88
532.295	92
532.509	88
532.724	80
532.938	96
533.153	101
533.367	90
533.582	96
533.796	98
534.011	83
534.225	86
534.44	80
534.654	94
534.868	93
535.083	101
535.297	105
535.511	112
535.726	88
535.94	95
536.154	87
536.369	87
536.583	80
536.797	91
537.011	87
537.225	80
537.44	96
537.654	82
537.868	88
538.082	95
538.296	71
538.51	89
538.724	99
538.938	86
539.153	100
539.367	94
539.581	89
539.795	81
540.009	80
540.222	95
540.436	100
540.65	91
540.864	93
541.078	93
541.292	92
541.506	90
541.72	89
541.934	97
542.147	95
542.361	84
542.575	83
542.789	85
543.002	87
543.216	97
543.43	107
543.644	104
543.857	98
544.071	92
544.285	82
544.498	90
544.712	88
544.925	95
545.139	80
545.352	85
545.566	99
545.779	88
545.993	102
546.206	103
546.42	84
546.633	91
546.847	87
547.06	85
547.274	88
547.487	90
547.7	70
547.914	94
548.127	92
548.34	85
548.554	87
548.767	93
548.98	81
549.193	92
549.407	88
549.62	80
549.833	95
550.046	104
550.259	86
550.473	89
550.686	85
550.899	73
551.112	83
551.325	82
551.538	78
551.751	80
551.964	94
552.177	91
552.39	93
552.603	80
552.816	95
553.029	96
553.242	98
553.455	92
553.667	104
553.88	105
554.093	84
554.306	87
554.519	86
554.732	93
554.944	85
555.157	86
555.37	97
555.583	83
555.795	99
556.008	83
556.221	102
556.433	81
556.646	89
556.859	93
557.071	97
557.284	96
557.496	108
557.709	82
557.921	84
558.134	91
558.346	96
558.559	103
558.771	98
558.984	81
559.196	102
559.409	88
559.621	94
559.833	108
560.046	88
560.258	92
560.47	89
560.683	94
560.895	93
561.107	100
561.32	91
561.532	72
561.744	83
561.956	86
562.168	97
562.381	94
562.593	94
562.805	88
563.017	91
563.229	95
563.441	83
563.653	88
563.865	88
564.077	98
564.289	83
564.501	78
564.713	88
564.925	84
565.137	82
565.349	88
565.561	71
565.773	81
565.985	91
566.197	95
566.408	100
566.62	83
566.832	78
567.044	88
567.255	87
567.467	83
567.679	82
567.891	99
568.102	79
568.314	65
568.526	80
568.737	88
568.949	88
569.161	72
569.372	86
569.584	79
569.795	87
570.007	108
570.218	227
570.43	136
570.641	102
570.853	90
571.064	72
571.276	79
571.487	97
571.698	87
571.91	92
572.121	107
572.333	105
572.544	84
572.755	97
572.966	88
573.178	80
573.389	89
573.6	104
573.811	80
574.023	97
574.234	89
574.445	92
574.656	83
574.867	98
575.078	94
575.289	93
575.501	83
575.712	91
575.923	84
576.134	98
576.345	76
576.556	85
576.767	96
576.978	88
577.188	83
577.399	97
577.61	82
577.821	97
578.032	110
578.243	231
578.454	672
578.665	204
578.875	102
579.086	101
579.297	100
579.508	96
579.718	89
579.929	83
580.14	67
580.35	95
580.561	88
580.772	91
580.982	87
581.193	89
581.403	83
581.614	87
581.825	81
582.035	91
582.246	75
582.456	76
582.667	92
582.877	90
583.087	84
583.298	89
583.508	94
583.719	76
583.929	90
584.139	95
584.35	90
584.56	93
