Data from Uncirc_2005_H10_HRD10591_00042.txt Node
Date: Wed Jan 03 10:28:33 EST 2024
User: Yrep
Spectrometer: HR+D1059
Trigger mode: 1
Integration Time (sec): 1.000000E-1
Scans to average: 1
Electric dark correction enabled: true
Nonlinearity correction enabled: false
Boxcar width: 0
XAxis mode: Wavelengths
Number of Pixels in Spectrum: 2048
>>>>>Begin Spectral Data<<<<<
223.165	-16.81
223.4	-16.81
223.635	-16.81
223.869	-24.81
224.104	-10.81
224.338	-17.81
224.573	-8.81
224.808	-14.81
225.042	-1.81
225.277	-21.81
225.511	-7.81
225.746	13.19
225.98	13.19
226.215	12.19
226.449	12.19
226.683	30.19
226.918	19.19
227.152	25.19
227.387	50.19
227.621	34.19
227.856	58.19
228.09	49.19
228.324	48.19
228.559	57.19
228.793	51.19
229.027	67.19
229.262	71.19
229.496	82.19
229.73	75.19
229.964	89.19
230.199	77.19
230.433	77.19
230.667	71.19
230.901	74.19
231.136	69.19
231.37	81.19
231.604	75.19
231.838	81.19
232.072	71.19
232.306	78.19
232.541	84.19
232.775	72.19
233.009	69.19
233.243	79.19
233.477	77.19
233.711	73.19
233.945	69.19
234.179	74.19
234.413	79.19
234.647	88.19
234.881	81.19
235.115	78.19
235.349	76.19
235.583	74.19
235.817	64.19
236.051	91.19
236.285	78.19
236.519	84.19
236.753	86.19
236.987	74.19
237.221	91.19
237.455	87.19
237.689	81.19
237.922	81.19
238.156	62.19
238.39	86.19
238.624	62.19
238.858	75.19
239.091	76.19
239.325	81.19
239.559	52.19
239.793	73.19
240.027	75.19
240.26	74.19
240.494	77.19
240.728	78.19
240.961	78.19
241.195	58.19
241.429	70.19
241.662	78.19
241.896	84.19
242.13	65.19
242.363	62.19
242.597	78.19
242.83	75.19
243.064	80.19
243.298	91.19
243.531	69.19
243.765	67.19
243.998	63.19
244.232	82.19
244.465	92.19
244.699	77.19
244.932	83.19
245.166	64.19
245.399	81.19
245.633	71.19
245.866	72.19
246.099	69.19
246.333	83.19
246.566	76.19
246.8	73.19
247.033	75.19
247.266	71.19
247.5	78.19
247.733	82.19
247.966	71.19
248.2	80.19
248.433	75.19
248.666	73.19
248.899	80.19
249.133	70.19
249.366	90.19
249.599	92.19
249.832	83.19
250.066	79.19
250.299	85.19
250.532	73.19
250.765	71.19
250.998	70.19
251.231	66.19
251.465	80.19
251.698	77.19
251.931	64.19
252.164	75.19
252.397	77.19
252.63	72.19
252.863	83.19
253.096	75.19
253.329	85.19
253.562	83.19
253.795	73.19
254.028	92.19
254.261	80.19
254.494	89.19
254.727	84.19
254.96	87.19
255.193	80.19
255.426	70.19
255.659	64.19
255.892	88.19
256.124	76.19
256.357	69.19
256.59	78.19
256.823	78.19
257.056	81.19
257.289	86.19
257.521	93.19
257.754	84.19
257.987	68.19
258.22	81.19
258.452	84.19
258.685	77.19
258.918	82.19
259.151	84.19
259.383	78.19
259.616	84.19
259.849	94.19
260.081	83.19
260.314	84.19
260.547	73.19
260.779	81.19
261.012	64.19
261.244	90.19
261.477	82.19
261.71	110.19
261.942	102.19
262.175	115.19
262.407	89.19
262.64	93.19
262.872	78.19
263.105	90.19
263.337	79.19
263.57	81.19
263.802	71.19
264.035	82.19
264.267	77.19
264.499	74.19
264.732	81.19
264.964	83.19
265.197	79.19
265.429	85.19
265.661	78.19
265.894	79.19
266.126	77.19
266.358	82.19
266.591	70.19
266.823	76.19
267.055	91.19
267.287	79.19
267.52	91.19
267.752	65.19
267.984	85.19
268.216	81.19
268.448	78.19
268.681	84.19
268.913	76.19
269.145	76.19
269.377	78.19
269.609	87.19
269.841	81.19
270.073	93.19
270.306	86.19
270.538	73.19
270.77	84.19
271.002	86.19
271.234	85.19
271.466	83.19
271.698	97.19
271.93	83.19
272.162	81.19
272.394	89.19
272.626	70.19
272.858	78.19
273.09	92.19
273.322	93.19
273.553	89.19
273.785	76.19
274.017	75.19
274.249	71.19
274.481	89.19
274.713	89.19
274.945	89.19
275.176	81.19
275.408	77.19
275.64	84.19
275.872	77.19
276.104	95.19
276.335	87.19
276.567	92.19
276.799	89.19
277.031	91.19
277.262	92.19
277.494	101.19
277.726	84.19
277.957	69.19
278.189	87.19
278.421	80.19
278.652	75.19
278.884	84.19
279.115	70.19
279.347	77.19
279.579	96.19
279.81	93.19
280.042	94.19
280.273	93.19
280.505	83.19
280.736	79.19
280.968	63.19
281.199	96.19
281.431	96.19
281.662	93.19
281.894	91.19
282.125	88.19
282.356	102.19
282.588	121.19
282.819	106.19
283.051	81.19
283.282	73.19
283.513	80.19
283.745	101.19
283.976	81.19
284.207	84.19
284.439	93.19
284.67	81.19
284.901	80.19
285.132	96.19
285.364	91.19
285.595	80.19
285.826	91.19
286.057	97.19
286.288	92.19
286.52	86.19
286.751	95.19
286.982	86.19
287.213	79.19
287.444	85.19
287.675	86.19
287.906	80.19
288.138	91.19
288.369	85.19
288.6	98.19
288.831	83.19
289.062	89.19
289.293	80.19
289.524	81.19
289.755	97.19
289.986	77.19
290.217	76.19
290.448	81.19
290.679	86.19
290.91	90.19
291.141	77.19
291.371	93.19
291.602	102.19
291.833	82.19
292.064	79.19
292.295	73.19
292.526	98.19
292.757	82.19
292.987	86.19
293.218	79.19
293.449	85.19
293.68	81.19
293.91	84.19
294.141	89.19
294.372	79.19
294.603	87.19
294.833	77.19
295.064	74.19
295.295	94.19
295.525	88.19
295.756	93.19
295.987	102.19
296.217	127.19
296.448	100.19
296.679	96.19
296.909	75.19
297.14	91.19
297.37	92.19
297.601	67.19
297.831	86.19
298.062	86.19
298.292	89.19
298.523	80.19
298.753	85.19
298.984	82.19
299.214	88.19
299.445	88.19
299.675	92.19
299.905	86.19
300.136	88.19
300.366	89.19
300.597	95.19
300.827	83.19
301.057	94.19
301.288	84.19
301.518	87.19
301.748	83.19
301.979	82.19
302.209	85.19
302.439	90.19
302.669	96.19
302.9	69.19
303.13	103.19
303.36	101.19
303.59	88.19
303.82	97.19
304.051	85.19
304.281	87.19
304.511	90.19
304.741	84.19
304.971	86.19
305.201	88.19
305.431	99.19
305.661	84.19
305.891	87.19
306.121	109.19
306.352	93.19
306.582	98.19
306.812	91.19
307.042	83.19
307.272	81.19
307.502	73.19
307.731	90.19
307.961	88.19
308.191	86.19
308.421	85.19
308.651	82.19
308.881	94.19
309.111	94.19
309.341	86.19
309.571	98.19
309.8	82.19
310.03	92.19
310.26	93.19
310.49	98.19
310.72	91.19
310.949	94.19
311.179	95.19
311.409	89.19
311.639	101.19
311.868	76.19
312.098	97.19
312.328	95.19
312.557	92.19
312.787	107.19
313.017	104.19
313.246	85.19
313.476	87.19
313.706	89.19
313.935	108.19
314.165	109.19
314.394	89.19
314.624	84.19
314.853	91.19
315.083	87.19
315.312	98.19
315.542	90.19
315.771	90.19
316.001	97.19
316.23	96.19
316.46	94.19
316.689	85.19
316.919	86.19
317.148	90.19
317.377	97.19
317.607	110.19
317.836	105.19
318.065	93.19
318.295	94.19
318.524	87.19
318.753	90.19
318.983	99.19
319.212	92.19
319.441	97.19
319.67	96.19
319.9	86.19
320.129	85.19
320.358	77.19
320.587	87.19
320.816	99.19
321.046	102.19
321.275	97.19
321.504	95.19
321.733	101.19
321.962	98.19
322.191	104.19
322.42	99.19
322.649	107.19
322.878	118.19
323.108	99.19
323.337	125.19
323.566	126.19
323.795	142.19
324.024	201.19
324.253	394.19
324.482	836.19
324.71	1730.19
324.939	2265.19
325.168	814.19
325.397	258.19
325.626	152.19
325.855	137.19
326.084	116.19
326.313	125.19
326.542	141.19
326.77	229.19
326.999	463.19
327.228	950.19
327.457	1759.19
327.686	1389.19
327.914	348.19
328.143	177.19
328.372	119.19
328.6	106.19
328.829	104.19
329.058	114.19
329.287	111.19
329.515	107.19
329.744	91.19
329.972	94.19
330.201	97.19
330.43	121.19
330.658	109.19
330.887	116.19
331.115	115.19
331.344	92.19
331.572	87.19
331.801	99.19
332.03	93.19
332.258	91.19
332.486	91.19
332.715	107.19
332.943	85.19
333.172	94.19
333.4	96.19
333.629	102.19
333.857	108.19
334.085	101.19
334.314	91.19
334.542	87.19
334.771	94.19
334.999	89.19
335.227	86.19
335.455	89.19
335.684	89.19
335.912	103.19
336.14	114.19
336.369	91.19
336.597	85.19
336.825	94.19
337.053	92.19
337.281	101.19
337.51	101.19
337.738	82.19
337.966	98.19
338.194	95.19
338.422	88.19
338.65	97.19
338.878	77.19
339.106	94.19
339.334	91.19
339.562	88.19
339.79	78.19
340.018	86.19
340.246	100.19
340.474	88.19
340.702	93.19
340.93	94.19
341.158	85.19
341.386	87.19
341.614	94.19
341.842	85.19
342.07	82.19
342.298	91.19
342.526	93.19
342.754	92.19
342.981	92.19
343.209	85.19
343.437	101.19
343.665	85.19
343.893	93.19
344.12	91.19
344.348	94.19
344.576	91.19
344.804	92.19
345.031	89.19
345.259	92.19
345.487	94.19
345.714	105.19
345.942	90.19
346.17	88.19
346.397	93.19
346.625	97.19
346.853	96.19
347.08	91.19
347.308	93.19
347.535	81.19
347.763	89.19
347.99	99.19
348.218	88.19
348.445	92.19
348.673	90.19
348.9	87.19
349.128	90.19
349.355	89.19
349.583	86.19
349.81	87.19
350.037	87.19
350.265	98.19
350.492	90.19
350.72	92.19
350.947	89.19
351.174	109.19
351.402	103.19
351.629	107.19
351.856	84.19
352.083	106.19
352.311	90.19
352.538	101.19
352.765	109.19
352.992	113.19
353.22	114.19
353.447	105.19
353.674	92.19
353.901	108.19
354.128	100.19
354.355	98.19
354.583	87.19
354.81	99.19
355.037	87.19
355.264	91.19
355.491	98.19
355.718	80.19
355.945	92.19
356.172	98.19
356.399	76.19
356.626	98.19
356.853	100.19
357.08	109.19
357.307	93.19
357.534	86.19
357.761	87.19
357.988	86.19
358.215	100.19
358.441	88.19
358.668	93.19
358.895	101.19
359.122	86.19
359.349	93.19
359.576	75.19
359.802	95.19
360.029	121.19
360.256	123.19
360.483	107.19
360.709	77.19
360.936	74.19
361.163	109.19
361.39	105.19
361.616	85.19
361.843	98.19
362.07	93.19
362.296	87.19
362.523	84.19
362.749	90.19
362.976	91.19
363.203	90.19
363.429	80.19
363.656	86.19
363.882	71.19
364.109	100.19
364.335	92.19
364.562	93.19
364.788	99.19
365.015	93.19
365.241	94.19
365.468	101.19
365.694	99.19
365.92	82.19
366.147	83.19
366.373	84.19
366.599	89.19
366.826	70.19
367.052	68.19
367.278	96.19
367.505	95.19
367.731	83.19
367.957	92.19
368.184	93.19
368.41	99.19
368.636	90.19
368.862	121.19
369.089	95.19
369.315	102.19
369.541	87.19
369.767	86.19
369.993	99.19
370.219	86.19
370.445	78.19
370.672	83.19
370.898	85.19
371.124	82.19
371.35	91.19
371.576	96.19
371.802	80.19
372.028	95.19
372.254	97.19
372.48	100.19
372.706	88.19
372.932	83.19
373.158	84.19
373.384	105.19
373.61	94.19
373.835	87.19
374.061	91.19
374.287	82.19
374.513	94.19
374.739	75.19
374.965	87.19
375.191	85.19
375.416	92.19
375.642	76.19
375.868	88.19
376.094	77.19
376.319	100.19
376.545	85.19
376.771	86.19
376.997	98.19
377.222	78.19
377.448	89.19
377.674	84.19
377.899	91.19
378.125	83.19
378.35	90.19
378.576	77.19
378.802	87.19
379.027	97.19
379.253	96.19
379.478	81.19
379.704	74.19
379.929	93.19
380.155	99.19
380.38	91.19
380.606	84.19
380.831	91.19
381.057	99.19
381.282	86.19
381.507	91.19
381.733	85.19
381.958	94.19
382.184	94.19
382.409	97.19
382.634	99.19
382.86	97.19
383.085	96.19
383.31	97.19
383.535	117.19
383.761	95.19
383.986	91.19
384.211	98.19
384.436	91.19
384.662	102.19
384.887	109.19
385.112	99.19
385.337	111.19
385.562	105.19
385.787	98.19
386.013	105.19
386.238	118.19
386.463	108.19
386.688	118.19
386.913	114.19
387.138	104.19
387.363	112.19
387.588	97.19
387.813	113.19
388.038	98.19
388.263	126.19
388.488	97.19
388.713	99.19
388.938	93.19
389.163	103.19
389.387	100.19
389.612	90.19
389.837	77.19
390.062	91.19
390.287	78.19
390.512	102.19
390.736	97.19
390.961	89.19
391.186	84.19
391.411	92.19
391.636	97.19
391.86	85.19
392.085	82.19
392.31	83.19
392.534	76.19
392.759	91.19
392.984	85.19
393.208	87.19
393.433	94.19
393.658	90.19
393.882	80.19
394.107	89.19
394.331	84.19
394.556	77.19
394.78	102.19
395.005	77.19
395.229	77.19
395.454	75.19
395.678	78.19
395.903	86.19
396.127	78.19
396.352	89.19
396.576	103.19
396.801	81.19
397.025	108.19
397.249	99.19
397.474	102.19
397.698	86.19
397.922	93.19
398.147	86.19
398.371	90.19
398.595	89.19
398.82	96.19
399.044	106.19
399.268	94.19
399.492	79.19
399.717	95.19
399.941	90.19
400.165	77.19
400.389	81.19
400.613	89.19
400.837	86.19
401.062	76.19
401.286	110.19
401.51	85.19
401.734	83.19
401.958	97.19
402.182	123.19
402.406	137.19
402.63	96.19
402.854	100.19
403.078	92.19
403.302	82.19
403.526	81.19
403.75	89.19
403.974	82.19
404.198	89.19
404.422	90.19
404.645	86.19
404.869	79.19
405.093	86.19
405.317	92.19
405.541	100.19
405.765	103.19
405.988	119.19
406.212	156.19
406.436	186.19
406.66	127.19
406.883	93.19
407.107	86.19
407.331	91.19
407.555	97.19
407.778	86.19
408.002	80.19
408.226	70.19
408.449	92.19
408.673	87.19
408.896	95.19
409.12	77.19
409.344	98.19
409.567	81.19
409.791	93.19
410.014	93.19
410.238	87.19
410.461	95.19
410.685	99.19
410.908	90.19
411.132	98.19
411.355	94.19
411.578	74.19
411.802	76.19
412.025	83.19
412.249	78.19
412.472	85.19
412.695	85.19
412.919	85.19
413.142	91.19
413.365	109.19
413.589	81.19
413.812	87.19
414.035	95.19
414.258	89.19
414.482	84.19
414.705	86.19
414.928	94.19
415.151	90.19
415.374	79.19
415.597	67.19
415.821	75.19
416.044	72.19
416.267	95.19
416.49	85.19
416.713	89.19
416.936	109.19
417.159	71.19
417.382	87.19
417.605	84.19
417.828	91.19
418.051	86.19
418.274	94.19
418.497	91.19
418.72	80.19
418.943	67.19
419.166	87.19
419.389	77.19
419.611	99.19
419.834	97.19
420.057	90.19
420.28	86.19
420.503	82.19
420.726	92.19
420.948	85.19
421.171	102.19
421.394	79.19
421.617	81.19
421.839	91.19
422.062	92.19
422.285	83.19
422.507	106.19
422.73	97.19
422.953	102.19
423.175	75.19
423.398	90.19
423.621	91.19
423.843	84.19
424.066	90.19
424.288	92.19
424.511	82.19
424.733	100.19
424.956	108.19
425.178	96.19
425.401	101.19
425.623	79.19
425.846	84.19
426.068	78.19
426.291	101.19
426.513	91.19
426.735	93.19
426.958	94.19
427.18	104.19
427.402	124.19
427.625	155.19
427.847	116.19
428.069	103.19
428.292	85.19
428.514	88.19
428.736	77.19
428.958	81.19
429.181	78.19
429.403	67.19
429.625	78.19
429.847	95.19
430.069	101.19
430.292	91.19
430.514	96.19
430.736	89.19
430.958	77.19
431.18	83.19
431.402	76.19
431.624	82.19
431.846	93.19
432.068	86.19
432.29	76.19
432.512	82.19
432.734	99.19
432.956	97.19
433.178	98.19
433.4	89.19
433.622	81.19
433.844	92.19
434.066	92.19
434.287	93.19
434.509	92.19
434.731	81.19
434.953	83.19
435.175	87.19
435.397	95.19
435.618	90.19
435.84	101.19
436.062	119.19
436.284	105.19
436.505	76.19
436.727	95.19
436.949	97.19
437.17	97.19
437.392	86.19
437.614	96.19
437.835	85.19
438.057	102.19
438.278	105.19
438.5	101.19
438.721	122.19
438.943	96.19
439.165	93.19
439.386	84.19
439.608	89.19
439.829	82.19
440.05	124.19
440.272	135.19
440.493	75.19
440.715	85.19
440.936	94.19
441.158	93.19
441.379	85.19
441.6	83.19
441.822	88.19
442.043	96.19
442.264	93.19
442.486	100.19
442.707	101.19
442.928	102.19
443.149	109.19
443.371	112.19
443.592	105.19
443.813	108.19
444.034	113.19
444.255	93.19
444.476	90.19
444.698	93.19
444.919	93.19
445.14	132.19
445.361	109.19
445.582	105.19
445.803	130.19
446.024	129.19
446.245	129.19
446.466	102.19
446.687	102.19
446.908	76.19
447.129	88.19
447.35	95.19
447.571	69.19
447.792	84.19
448.013	94.19
448.234	102.19
448.455	116.19
448.675	111.19
448.896	118.19
449.117	110.19
449.338	105.19
449.559	132.19
449.779	128.19
450	76.19
450.221	101.19
450.442	85.19
450.662	93.19
450.883	99.19
451.104	102.19
451.324	93.19
451.545	101.19
451.766	79.19
451.986	92.19
452.207	85.19
452.428	87.19
452.648	97.19
452.869	104.19
453.089	98.19
453.31	110.19
453.53	89.19
453.751	100.19
453.971	72.19
454.192	89.19
454.412	99.19
454.633	92.19
454.853	84.19
455.073	79.19
455.294	89.19
455.514	74.19
455.734	75.19
455.955	90.19
456.175	75.19
456.395	88.19
456.616	83.19
456.836	81.19
457.056	91.19
457.276	70.19
457.497	76.19
457.717	101.19
457.937	90.19
458.157	87.19
458.377	105.19
458.598	105.19
458.818	133.19
459.038	147.19
459.258	122.19
459.478	97.19
459.698	81.19
459.918	86.19
460.138	79.19
460.358	86.19
460.578	88.19
460.798	95.19
461.018	97.19
461.238	87.19
461.458	83.19
461.678	79.19
461.898	99.19
462.118	91.19
462.338	76.19
462.558	83.19
462.777	84.19
462.997	75.19
463.217	87.19
463.437	83.19
463.657	83.19
463.876	81.19
464.096	80.19
464.316	91.19
464.536	105.19
464.755	89.19
464.975	112.19
465.195	150.19
465.414	149.19
465.634	104.19
465.854	85.19
466.073	84.19
466.293	85.19
466.512	77.19
466.732	85.19
466.951	85.19
467.171	86.19
467.391	82.19
467.61	95.19
467.829	101.19
468.049	90.19
468.268	78.19
468.488	94.19
468.707	73.19
468.927	87.19
469.146	78.19
469.365	78.19
469.585	81.19
469.804	77.19
470.023	103.19
470.243	92.19
470.462	95.19
470.681	105.19
470.901	81.19
471.12	82.19
471.339	82.19
471.558	92.19
471.777	88.19
471.997	91.19
472.216	88.19
472.435	84.19
472.654	96.19
472.873	82.19
473.092	94.19
473.311	81.19
473.53	74.19
473.749	91.19
473.968	90.19
474.187	104.19
474.406	96.19
474.625	84.19
474.844	92.19
475.063	92.19
475.282	77.19
475.501	81.19
475.72	81.19
475.939	90.19
476.158	85.19
476.377	88.19
476.596	92.19
476.814	81.19
477.033	77.19
477.252	79.19
477.471	82.19
477.69	87.19
477.908	87.19
478.127	87.19
478.346	78.19
478.564	98.19
478.783	85.19
479.002	81.19
479.22	94.19
479.439	105.19
479.658	96.19
479.876	93.19
480.095	90.19
480.313	92.19
480.532	90.19
480.751	88.19
480.969	93.19
481.188	102.19
481.406	97.19
481.624	101.19
481.843	87.19
482.061	83.19
482.28	91.19
482.498	82.19
482.717	85.19
482.935	92.19
483.153	82.19
483.372	94.19
483.59	96.19
483.808	97.19
484.027	79.19
484.245	81.19
484.463	85.19
484.681	80.19
484.9	88.19
485.118	104.19
485.336	101.19
485.554	99.19
485.772	95.19
485.99	98.19
486.209	106.19
486.427	105.19
486.645	105.19
486.863	116.19
487.081	103.19
487.299	92.19
487.517	91.19
487.735	91.19
487.953	90.19
488.171	108.19
488.389	86.19
488.607	98.19
488.825	71.19
489.043	80.19
489.261	101.19
489.479	75.19
489.696	91.19
489.914	91.19
490.132	74.19
490.35	85.19
490.568	83.19
490.786	85.19
491.003	81.19
491.221	79.19
491.439	89.19
491.657	82.19
491.874	87.19
492.092	84.19
492.31	74.19
492.527	97.19
492.745	77.19
492.963	88.19
493.18	91.19
493.398	93.19
493.615	78.19
493.833	92.19
494.05	102.19
494.268	97.19
494.485	102.19
494.703	89.19
494.92	94.19
495.138	86.19
495.355	85.19
495.573	81.19
495.79	95.19
496.008	85.19
496.225	98.19
496.442	73.19
496.66	83.19
496.877	93.19
497.094	83.19
497.312	98.19
497.529	72.19
497.746	95.19
497.963	95.19
498.181	94.19
498.398	87.19
498.615	112.19
498.832	95.19
499.049	84.19
499.267	77.19
499.484	79.19
499.701	85.19
499.918	89.19
500.135	90.19
500.352	85.19
500.569	91.19
500.786	81.19
501.003	74.19
501.22	92.19
501.437	87.19
501.654	93.19
501.871	98.19
502.088	102.19
502.305	97.19
502.522	96.19
502.739	87.19
502.956	87.19
503.172	88.19
503.389	91.19
503.606	88.19
503.823	98.19
504.04	87.19
504.256	94.19
504.473	79.19
504.69	71.19
504.907	85.19
505.123	94.19
505.34	91.19
505.557	98.19
505.773	89.19
505.99	92.19
506.207	91.19
506.423	104.19
506.64	88.19
506.856	89.19
507.073	77.19
507.289	69.19
507.506	84.19
507.722	90.19
507.939	116.19
508.155	93.19
508.372	80.19
508.588	85.19
508.805	94.19
509.021	91.19
509.238	100.19
509.454	91.19
509.67	91.19
509.887	92.19
510.103	135.19
510.319	201.19
510.536	707.19
510.752	2073.19
510.968	603.19
511.184	147.19
511.401	85.19
511.617	92.19
511.833	86.19
512.049	93.19
512.265	78.19
512.481	89.19
512.698	84.19
512.914	99.19
513.13	82.19
513.346	92.19
513.562	97.19
513.778	98.19
513.994	86.19
514.21	92.19
514.426	116.19
514.642	128.19
514.858	105.19
515.074	156.19
515.29	403.19
515.506	1223.19
515.721	493.19
515.937	145.19
516.153	103.19
516.369	88.19
516.585	104.19
516.801	92.19
