Data from Uncirc_2005_H10_HRD10591_00033.txt Node
Date: Wed Jan 03 10:28:31 EST 2024
User: Yrep
Spectrometer: HR+D1059
Trigger mode: 1
Integration Time (sec): 1.000000E-1
Scans to average: 1
Electric dark correction enabled: true
Nonlinearity correction enabled: false
Boxcar width: 0
XAxis mode: Wavelengths
Number of Pixels in Spectrum: 2048
>>>>>Begin Spectral Data<<<<<
223.165	-18.88
223.4	-18.88
223.635	-18.88
223.869	-32.88
224.104	-11.88
224.338	-16.88
224.573	-8.88
224.808	-15.88
225.042	-11.88
225.277	-6.88
225.511	-9.88
225.746	15.12
225.98	3.12
226.215	4.12
226.449	11.12
226.683	23.12
226.918	38.12
227.152	39.12
227.387	33.12
227.621	30.12
227.856	47.12
228.09	46.12
228.324	43.12
228.559	49.12
228.793	58.12
229.027	57.12
229.262	80.12
229.496	80.12
229.73	90.12
229.964	98.12
230.199	67.12
230.433	65.12
230.667	76.12
230.901	85.12
231.136	85.12
231.37	80.12
231.604	80.12
231.838	60.12
232.072	59.12
232.306	79.12
232.541	96.12
232.775	82.12
233.009	85.12
233.243	74.12
233.477	86.12
233.711	72.12
233.945	82.12
234.179	81.12
234.413	86.12
234.647	77.12
234.881	70.12
235.115	75.12
235.349	89.12
235.583	75.12
235.817	76.12
236.051	73.12
236.285	75.12
236.519	78.12
236.753	84.12
236.987	91.12
237.221	85.12
237.455	95.12
237.689	72.12
237.922	81.12
238.156	82.12
238.39	75.12
238.624	77.12
238.858	77.12
239.091	59.12
239.325	69.12
239.559	81.12
239.793	78.12
240.027	78.12
240.26	86.12
240.494	76.12
240.728	74.12
240.961	74.12
241.195	77.12
241.429	93.12
241.662	77.12
241.896	74.12
242.13	82.12
242.363	65.12
242.597	65.12
242.83	71.12
243.064	69.12
243.298	67.12
243.531	85.12
243.765	74.12
243.998	65.12
244.232	65.12
244.465	84.12
244.699	93.12
244.932	70.12
245.166	73.12
245.399	75.12
245.633	76.12
245.866	77.12
246.099	69.12
246.333	78.12
246.566	69.12
246.8	77.12
247.033	71.12
247.266	78.12
247.5	84.12
247.733	74.12
247.966	88.12
248.2	84.12
248.433	80.12
248.666	81.12
248.899	93.12
249.133	78.12
249.366	106.12
249.599	91.12
249.832	69.12
250.066	94.12
250.299	87.12
250.532	69.12
250.765	85.12
250.998	81.12
251.231	74.12
251.465	70.12
251.698	75.12
251.931	80.12
252.164	71.12
252.397	76.12
252.63	78.12
252.863	79.12
253.096	78.12
253.329	83.12
253.562	83.12
253.795	70.12
254.028	92.12
254.261	74.12
254.494	84.12
254.727	83.12
254.96	81.12
255.193	85.12
255.426	74.12
255.659	91.12
255.892	92.12
256.124	63.12
256.357	74.12
256.59	79.12
256.823	86.12
257.056	86.12
257.289	85.12
257.521	76.12
257.754	82.12
257.987	71.12
258.22	77.12
258.452	84.12
258.685	80.12
258.918	76.12
259.151	89.12
259.383	91.12
259.616	72.12
259.849	89.12
260.081	85.12
260.314	80.12
260.547	82.12
260.779	94.12
261.012	84.12
261.244	91.12
261.477	93.12
261.71	92.12
261.942	102.12
262.175	94.12
262.407	84.12
262.64	84.12
262.872	76.12
263.105	80.12
263.337	86.12
263.57	83.12
263.802	70.12
264.035	84.12
264.267	81.12
264.499	80.12
264.732	77.12
264.964	75.12
265.197	85.12
265.429	91.12
265.661	81.12
265.894	75.12
266.126	95.12
266.358	73.12
266.591	84.12
266.823	80.12
267.055	78.12
267.287	77.12
267.52	85.12
267.752	60.12
267.984	87.12
268.216	91.12
268.448	92.12
268.681	74.12
268.913	77.12
269.145	62.12
269.377	81.12
269.609	71.12
269.841	81.12
270.073	74.12
270.306	86.12
270.538	74.12
270.77	84.12
271.002	90.12
271.234	95.12
271.466	86.12
271.698	78.12
271.93	90.12
272.162	82.12
272.394	86.12
272.626	82.12
272.858	73.12
273.09	65.12
273.322	79.12
273.553	80.12
273.785	83.12
274.017	72.12
274.249	78.12
274.481	87.12
274.713	93.12
274.945	81.12
275.176	69.12
275.408	83.12
275.64	78.12
275.872	85.12
276.104	88.12
276.335	77.12
276.567	78.12
276.799	86.12
277.031	79.12
277.262	75.12
277.494	82.12
277.726	73.12
277.957	84.12
278.189	68.12
278.421	86.12
278.652	82.12
278.884	86.12
279.115	71.12
279.347	69.12
279.579	91.12
279.81	85.12
280.042	72.12
280.273	86.12
280.505	77.12
280.736	86.12
280.968	85.12
281.199	85.12
281.431	92.12
281.662	85.12
281.894	101.12
282.125	101.12
282.356	114.12
282.588	106.12
282.819	110.12
283.051	82.12
283.282	75.12
283.513	83.12
283.745	86.12
283.976	83.12
284.207	89.12
284.439	74.12
284.67	74.12
284.901	94.12
285.132	92.12
285.364	86.12
285.595	76.12
285.826	79.12
286.057	86.12
286.288	82.12
286.52	86.12
286.751	90.12
286.982	96.12
287.213	87.12
287.444	85.12
287.675	83.12
287.906	91.12
288.138	87.12
288.369	94.12
288.6	100.12
288.831	84.12
289.062	94.12
289.293	83.12
289.524	77.12
289.755	84.12
289.986	74.12
290.217	82.12
290.448	96.12
290.679	75.12
290.91	88.12
291.141	76.12
291.371	92.12
291.602	93.12
291.833	82.12
292.064	85.12
292.295	94.12
292.526	80.12
292.757	87.12
292.987	85.12
293.218	89.12
293.449	82.12
293.68	92.12
293.91	97.12
294.141	100.12
294.372	67.12
294.603	85.12
294.833	102.12
295.064	86.12
295.295	83.12
295.525	93.12
295.756	91.12
295.987	99.12
296.217	138.12
296.448	112.12
296.679	79.12
296.909	77.12
297.14	76.12
297.37	79.12
297.601	93.12
297.831	81.12
298.062	98.12
298.292	99.12
298.523	96.12
298.753	78.12
298.984	66.12
299.214	74.12
299.445	97.12
299.675	99.12
299.905	97.12
300.136	83.12
300.366	86.12
300.597	82.12
300.827	87.12
301.057	98.12
301.288	107.12
301.518	97.12
301.748	89.12
301.979	109.12
302.209	93.12
302.439	98.12
302.669	87.12
302.9	98.12
303.13	92.12
303.36	89.12
303.59	97.12
303.82	105.12
304.051	99.12
304.281	95.12
304.511	81.12
304.741	70.12
304.971	84.12
305.201	91.12
305.431	86.12
305.661	81.12
305.891	93.12
306.121	86.12
306.352	87.12
306.582	106.12
306.812	91.12
307.042	92.12
307.272	89.12
307.502	108.12
307.731	96.12
307.961	91.12
308.191	91.12
308.421	80.12
308.651	103.12
308.881	105.12
309.111	93.12
309.341	103.12
309.571	94.12
309.8	90.12
310.03	87.12
310.26	94.12
310.49	97.12
310.72	96.12
310.949	95.12
311.179	96.12
311.409	85.12
311.639	95.12
311.868	89.12
312.098	102.12
312.328	96.12
312.557	92.12
312.787	79.12
313.017	96.12
313.246	95.12
313.476	98.12
313.706	84.12
313.935	89.12
314.165	82.12
314.394	103.12
314.624	101.12
314.853	91.12
315.083	83.12
315.312	96.12
315.542	77.12
315.771	84.12
316.001	107.12
316.23	82.12
316.46	81.12
316.689	83.12
316.919	105.12
317.148	77.12
317.377	87.12
317.607	76.12
317.836	80.12
318.065	94.12
318.295	101.12
318.524	95.12
318.753	94.12
318.983	97.12
319.212	103.12
319.441	103.12
319.67	94.12
319.9	94.12
320.129	90.12
320.358	100.12
320.587	92.12
320.816	107.12
321.046	94.12
321.275	95.12
321.504	98.12
321.733	92.12
321.962	94.12
322.191	93.12
322.42	100.12
322.649	112.12
322.878	103.12
323.108	115.12
323.337	110.12
323.566	118.12
323.795	153.12
324.024	198.12
324.253	406.12
324.482	860.12
324.71	1779.12
324.939	2341.12
325.168	845.12
325.397	236.12
325.626	164.12
325.855	127.12
326.084	126.12
326.313	125.12
326.542	157.12
326.77	244.12
326.999	477.12
327.228	1011.12
327.457	1864.12
327.686	1455.12
327.914	377.12
328.143	187.12
328.372	128.12
328.6	119.12
328.829	115.12
329.058	119.12
329.287	133.12
329.515	110.12
329.744	98.12
329.972	95.12
330.201	96.12
330.43	99.12
330.658	114.12
330.887	132.12
331.115	122.12
331.344	102.12
331.572	105.12
331.801	100.12
332.03	101.12
332.258	93.12
332.486	87.12
332.715	94.12
332.943	84.12
333.172	106.12
333.4	98.12
333.629	92.12
333.857	108.12
334.085	100.12
334.314	94.12
334.542	91.12
334.771	97.12
334.999	100.12
335.227	93.12
335.455	93.12
335.684	104.12
335.912	78.12
336.14	89.12
336.369	91.12
336.597	103.12
336.825	94.12
337.053	103.12
337.281	85.12
337.51	70.12
337.738	71.12
337.966	93.12
338.194	86.12
338.422	100.12
338.65	85.12
338.878	95.12
339.106	105.12
339.334	84.12
339.562	97.12
339.79	92.12
340.018	87.12
340.246	100.12
340.474	91.12
340.702	92.12
340.93	97.12
341.158	88.12
341.386	89.12
341.614	94.12
341.842	98.12
342.07	89.12
342.298	90.12
342.526	90.12
342.754	96.12
342.981	91.12
343.209	84.12
343.437	90.12
343.665	70.12
343.893	72.12
344.12	91.12
344.348	98.12
344.576	96.12
344.804	82.12
345.031	85.12
345.259	99.12
345.487	97.12
345.714	103.12
345.942	100.12
346.17	94.12
346.397	92.12
346.625	78.12
346.853	98.12
347.08	75.12
347.308	100.12
347.535	82.12
347.763	84.12
347.99	99.12
348.218	97.12
348.445	100.12
348.673	102.12
348.9	105.12
349.128	96.12
349.355	102.12
349.583	95.12
349.81	78.12
350.037	90.12
350.265	106.12
350.492	92.12
350.72	92.12
350.947	100.12
351.174	105.12
351.402	106.12
351.629	102.12
351.856	102.12
352.083	100.12
352.311	102.12
352.538	111.12
352.765	101.12
352.992	108.12
353.22	101.12
353.447	99.12
353.674	97.12
353.901	94.12
354.128	101.12
354.355	111.12
354.583	102.12
354.81	100.12
355.037	96.12
355.264	91.12
355.491	93.12
355.718	85.12
355.945	98.12
356.172	102.12
356.399	97.12
356.626	106.12
356.853	105.12
357.08	93.12
357.307	92.12
357.534	93.12
357.761	88.12
357.988	94.12
358.215	97.12
358.441	104.12
358.668	94.12
358.895	88.12
359.122	90.12
359.349	88.12
359.576	95.12
359.802	95.12
360.029	109.12
360.256	108.12
360.483	93.12
360.709	93.12
360.936	106.12
361.163	107.12
361.39	101.12
361.616	92.12
361.843	76.12
362.07	86.12
362.296	109.12
362.523	84.12
362.749	98.12
362.976	87.12
363.203	79.12
363.429	89.12
363.656	86.12
363.882	79.12
364.109	90.12
364.335	88.12
364.562	93.12
364.788	86.12
365.015	99.12
365.241	93.12
365.468	98.12
365.694	102.12
365.92	102.12
366.147	89.12
366.373	90.12
366.599	94.12
366.826	96.12
367.052	98.12
367.278	73.12
367.505	93.12
367.731	108.12
367.957	102.12
368.184	94.12
368.41	105.12
368.636	109.12
368.862	114.12
369.089	99.12
369.315	96.12
369.541	98.12
369.767	86.12
369.993	87.12
370.219	87.12
370.445	83.12
370.672	88.12
370.898	87.12
371.124	91.12
371.35	90.12
371.576	93.12
371.802	105.12
372.028	96.12
372.254	88.12
372.48	79.12
372.706	81.12
372.932	86.12
373.158	97.12
373.384	96.12
373.61	86.12
373.835	83.12
374.061	96.12
374.287	90.12
374.513	104.12
374.739	87.12
374.965	92.12
375.191	83.12
375.416	102.12
375.642	91.12
375.868	104.12
376.094	89.12
376.319	89.12
376.545	94.12
376.771	90.12
376.997	81.12
377.222	91.12
377.448	92.12
377.674	93.12
377.899	94.12
378.125	91.12
378.35	81.12
378.576	97.12
378.802	94.12
379.027	89.12
379.253	97.12
379.478	92.12
379.704	87.12
379.929	94.12
380.155	95.12
380.38	81.12
380.606	89.12
380.831	93.12
381.057	91.12
381.282	101.12
381.507	102.12
381.733	95.12
381.958	103.12
382.184	99.12
382.409	104.12
382.634	114.12
382.86	99.12
383.085	94.12
383.31	125.12
383.535	111.12
383.761	109.12
383.986	89.12
384.211	108.12
384.436	111.12
384.662	110.12
384.887	98.12
385.112	109.12
385.337	100.12
385.562	109.12
385.787	103.12
386.013	114.12
386.238	123.12
386.463	91.12
386.688	117.12
386.913	111.12
387.138	116.12
387.363	107.12
387.588	107.12
387.813	113.12
388.038	122.12
388.263	127.12
388.488	135.12
388.713	99.12
388.938	101.12
389.163	89.12
389.387	95.12
389.612	89.12
389.837	101.12
390.062	84.12
390.287	99.12
390.512	90.12
390.736	87.12
390.961	97.12
391.186	97.12
391.411	90.12
391.636	81.12
391.86	103.12
392.085	85.12
392.31	91.12
392.534	99.12
392.759	88.12
392.984	89.12
393.208	71.12
393.433	90.12
393.658	86.12
393.882	87.12
394.107	96.12
394.331	81.12
394.556	83.12
394.78	89.12
395.005	88.12
395.229	74.12
395.454	99.12
395.678	97.12
395.903	91.12
396.127	93.12
396.352	85.12
396.576	89.12
396.801	87.12
397.025	88.12
397.249	82.12
397.474	91.12
397.698	82.12
397.922	76.12
398.147	90.12
398.371	91.12
398.595	87.12
398.82	94.12
399.044	100.12
399.268	89.12
399.492	97.12
399.717	85.12
399.941	99.12
400.165	103.12
400.389	93.12
400.613	95.12
400.837	96.12
401.062	94.12
401.286	91.12
401.51	85.12
401.734	86.12
401.958	93.12
402.182	120.12
402.406	150.12
402.63	114.12
402.854	89.12
403.078	86.12
403.302	77.12
403.526	95.12
403.75	84.12
403.974	84.12
404.198	78.12
404.422	95.12
404.645	95.12
404.869	80.12
405.093	103.12
405.317	105.12
405.541	110.12
405.765	109.12
405.988	99.12
406.212	159.12
406.436	208.12
406.66	135.12
406.883	93.12
407.107	97.12
407.331	94.12
407.555	98.12
407.778	102.12
408.002	99.12
408.226	91.12
408.449	91.12
408.673	89.12
408.896	91.12
409.12	102.12
409.344	87.12
409.567	78.12
409.791	90.12
410.014	102.12
410.238	109.12
410.461	87.12
410.685	93.12
410.908	93.12
411.132	113.12
411.355	93.12
411.578	85.12
411.802	97.12
412.025	100.12
412.249	90.12
412.472	90.12
412.695	78.12
412.919	88.12
413.142	85.12
413.365	97.12
413.589	84.12
413.812	87.12
414.035	86.12
414.258	94.12
414.482	92.12
414.705	88.12
414.928	91.12
415.151	89.12
415.374	93.12
415.597	79.12
415.821	91.12
416.044	91.12
416.267	90.12
416.49	92.12
416.713	92.12
416.936	85.12
417.159	99.12
417.382	88.12
417.605	77.12
417.828	102.12
418.051	96.12
418.274	97.12
418.497	91.12
418.72	91.12
418.943	103.12
419.166	88.12
419.389	94.12
419.611	88.12
419.834	100.12
420.057	89.12
420.28	77.12
420.503	100.12
420.726	88.12
420.948	85.12
421.171	101.12
421.394	87.12
421.617	105.12
421.839	84.12
422.062	88.12
422.285	85.12
422.507	105.12
422.73	100.12
422.953	84.12
423.175	78.12
423.398	85.12
423.621	78.12
423.843	86.12
424.066	83.12
424.288	90.12
424.511	88.12
424.733	104.12
424.956	87.12
425.178	98.12
425.401	117.12
425.623	105.12
425.846	101.12
426.068	91.12
426.291	96.12
426.513	96.12
426.735	91.12
426.958	94.12
427.18	110.12
427.402	143.12
427.625	164.12
427.847	125.12
428.069	105.12
428.292	87.12
428.514	91.12
428.736	88.12
428.958	77.12
429.181	88.12
429.403	74.12
429.625	86.12
429.847	93.12
430.069	91.12
430.292	96.12
430.514	90.12
430.736	87.12
430.958	97.12
431.18	83.12
431.402	86.12
431.624	69.12
431.846	87.12
432.068	92.12
432.29	86.12
432.512	95.12
432.734	79.12
432.956	101.12
433.178	107.12
433.4	114.12
433.622	82.12
433.844	89.12
434.066	76.12
434.287	87.12
434.509	90.12
434.731	94.12
434.953	95.12
435.175	85.12
435.397	92.12
435.618	97.12
435.84	91.12
436.062	124.12
436.284	137.12
436.505	116.12
436.727	97.12
436.949	82.12
437.17	86.12
437.392	69.12
437.614	90.12
437.835	93.12
438.057	116.12
438.278	114.12
438.5	89.12
438.721	127.12
438.943	110.12
439.165	94.12
439.386	85.12
439.608	71.12
439.829	103.12
440.05	130.12
440.272	153.12
440.493	93.12
440.715	86.12
440.936	77.12
441.158	99.12
441.379	84.12
441.6	102.12
441.822	101.12
442.043	94.12
442.264	103.12
442.486	86.12
442.707	84.12
442.928	97.12
443.149	133.12
443.371	119.12
443.592	114.12
443.813	123.12
444.034	111.12
444.255	91.12
444.476	96.12
444.698	95.12
444.919	102.12
445.14	126.12
445.361	105.12
445.582	116.12
445.803	140.12
446.024	149.12
446.245	145.12
446.466	134.12
446.687	98.12
446.908	66.12
447.129	92.12
447.35	84.12
447.571	79.12
447.792	105.12
448.013	115.12
448.234	97.12
448.455	91.12
448.675	112.12
448.896	121.12
449.117	109.12
449.338	88.12
449.559	136.12
449.779	162.12
450	110.12
450.221	87.12
450.442	99.12
450.662	84.12
450.883	106.12
451.104	103.12
451.324	111.12
451.545	87.12
451.766	94.12
451.986	85.12
452.207	94.12
452.428	93.12
452.648	85.12
452.869	107.12
453.089	112.12
453.31	101.12
453.53	81.12
453.751	103.12
453.971	106.12
454.192	107.12
454.412	101.12
454.633	86.12
454.853	87.12
455.073	83.12
455.294	94.12
455.514	102.12
455.734	94.12
455.955	76.12
456.175	92.12
456.395	73.12
456.616	81.12
456.836	94.12
457.056	98.12
457.276	94.12
457.497	80.12
457.717	83.12
457.937	82.12
458.157	84.12
458.377	85.12
458.598	105.12
458.818	122.12
459.038	140.12
459.258	116.12
459.478	90.12
459.698	74.12
459.918	84.12
460.138	85.12
460.358	85.12
460.578	81.12
460.798	83.12
461.018	95.12
461.238	78.12
461.458	99.12
461.678	80.12
461.898	87.12
462.118	91.12
462.338	71.12
462.558	90.12
462.777	82.12
462.997	75.12
463.217	88.12
463.437	82.12
463.657	80.12
463.876	82.12
464.096	92.12
464.316	84.12
464.536	95.12
464.755	99.12
464.975	90.12
465.195	161.12
465.414	162.12
465.634	79.12
465.854	93.12
466.073	98.12
466.293	86.12
466.512	81.12
466.732	94.12
466.951	84.12
467.171	90.12
467.391	75.12
467.61	106.12
467.829	101.12
468.049	102.12
468.268	101.12
468.488	80.12
468.707	91.12
468.927	90.12
469.146	87.12
469.365	87.12
469.585	83.12
469.804	90.12
470.023	92.12
470.243	110.12
470.462	98.12
470.681	115.12
470.901	94.12
471.12	94.12
471.339	87.12
471.558	103.12
471.777	80.12
471.997	93.12
472.216	97.12
472.435	88.12
472.654	94.12
472.873	91.12
473.092	84.12
473.311	74.12
473.53	93.12
473.749	79.12
473.968	91.12
474.187	114.12
474.406	110.12
474.625	93.12
474.844	78.12
475.063	75.12
475.282	77.12
475.501	91.12
475.72	84.12
475.939	88.12
476.158	93.12
476.377	80.12
476.596	86.12
476.814	80.12
477.033	87.12
477.252	94.12
477.471	86.12
477.69	76.12
477.908	90.12
478.127	91.12
478.346	85.12
478.564	70.12
478.783	94.12
479.002	95.12
479.22	106.12
479.439	100.12
479.658	101.12
479.876	85.12
480.095	92.12
480.313	93.12
480.532	91.12
480.751	99.12
480.969	88.12
481.188	107.12
481.406	106.12
481.624	83.12
481.843	83.12
482.061	93.12
482.28	81.12
482.498	86.12
482.717	87.12
482.935	86.12
483.153	77.12
483.372	96.12
483.59	83.12
483.808	81.12
484.027	95.12
484.245	85.12
484.463	87.12
484.681	81.12
484.9	81.12
485.118	90.12
485.336	99.12
485.554	109.12
485.772	85.12
485.99	104.12
486.209	93.12
486.427	95.12
486.645	101.12
486.863	105.12
487.081	106.12
487.299	93.12
487.517	91.12
487.735	96.12
487.953	103.12
488.171	92.12
488.389	90.12
488.607	97.12
488.825	79.12
489.043	93.12
489.261	87.12
489.479	82.12
489.696	94.12
489.914	86.12
490.132	83.12
490.35	87.12
490.568	93.12
490.786	94.12
491.003	91.12
491.221	73.12
491.439	87.12
491.657	91.12
491.874	86.12
492.092	84.12
492.31	93.12
492.527	87.12
492.745	84.12
492.963	70.12
493.18	76.12
493.398	102.12
493.615	86.12
493.833	72.12
494.05	86.12
494.268	91.12
494.485	93.12
494.703	91.12
494.92	84.12
495.138	86.12
495.355	87.12
495.573	80.12
495.79	74.12
496.008	80.12
496.225	81.12
496.442	94.12
496.66	85.12
496.877	81.12
497.094	86.12
497.312	97.12
497.529	84.12
497.746	67.12
497.963	84.12
498.181	95.12
498.398	102.12
498.615	107.12
498.832	100.12
499.049	87.12
499.267	99.12
499.484	110.12
499.701	83.12
499.918	86.12
500.135	93.12
500.352	77.12
500.569	104.12
500.786	96.12
501.003	84.12
501.22	83.12
501.437	86.12
501.654	86.12
501.871	109.12
502.088	78.12
502.305	95.12
502.522	86.12
502.739	90.12
502.956	86.12
503.172	86.12
503.389	82.12
503.606	108.12
503.823	88.12
504.04	89.12
504.256	82.12
504.473	82.12
504.69	102.12
504.907	97.12
505.123	74.12
505.34	91.12
505.557	93.12
505.773	89.12
505.99	74.12
506.207	79.12
506.423	91.12
506.64	98.12
506.856	93.12
507.073	69.12
507.289	87.12
507.506	93.12
507.722	113.12
507.939	107.12
508.155	99.12
508.372	84.12
508.588	83.12
508.805	101.12
509.021	98.12
509.238	96.12
509.454	96.12
509.67	97.12
509.887	111.12
510.103	124.12
510.319	201.12
510.536	703.12
510.752	2111.12
510.968	606.12
511.184	148.12
511.401	119.12
511.617	106.12
511.833	99.12
512.049	101.12
512.265	84.12
512.481	95.12
512.698	97.12
512.914	83.12
513.13	90.12
513.346	102.12
513.562	83.12
513.778	86.12
513.994	91.12
514.21	101.12
514.426	108.12
514.642	130.12
514.858	115.12
515.074	165.12
515.29	431.12
515.506	1388.12
515.721	510.12
515.937	145.12
