Data from Uncirc_2005_H10_HRD10591_00093.txt Node
Date: Wed Jan 03 10:28:43 EST 2024
User: Yrep
Spectrometer: HR+D1059
Trigger mode: 1
Integration Time (sec): 1.000000E-1
Scans to average: 1
Electric dark correction enabled: true
Nonlinearity correction enabled: false
Boxcar width: 0
XAxis mode: Wavelengths
Number of Pixels in Spectrum: 2048
>>>>>Begin Spectral Data<<<<<
223.165	-7.06
223.4	-7.06
223.635	-7.06
223.869	-14.06
224.104	-26.06
224.338	-32.06
224.573	-13.06
224.808	-7.06
225.042	-2.06
225.277	-12.06
225.511	-9.06
225.746	1.94
225.98	3.94
226.215	13.94
226.449	20.94
226.683	29.94
226.918	29.94
227.152	21.94
227.387	31.94
227.621	29.94
227.856	52.94
228.09	59.94
228.324	61.94
228.559	63.94
228.793	50.94
229.027	65.94
229.262	66.94
229.496	70.94
229.73	67.94
229.964	81.94
230.199	81.94
230.433	71.94
230.667	80.94
230.901	70.94
231.136	83.94
231.37	85.94
231.604	66.94
231.838	71.94
232.072	77.94
232.306	73.94
232.541	75.94
232.775	88.94
233.009	86.94
233.243	69.94
233.477	82.94
233.711	73.94
233.945	79.94
234.179	73.94
234.413	69.94
234.647	67.94
234.881	76.94
235.115	69.94
235.349	74.94
235.583	73.94
235.817	73.94
236.051	90.94
236.285	69.94
236.519	69.94
236.753	76.94
236.987	81.94
237.221	92.94
237.455	75.94
237.689	69.94
237.922	82.94
238.156	75.94
238.39	76.94
238.624	90.94
238.858	66.94
239.091	69.94
239.325	83.94
239.559	61.94
239.793	76.94
240.027	85.94
240.26	74.94
240.494	64.94
240.728	83.94
240.961	80.94
241.195	90.94
241.429	67.94
241.662	81.94
241.896	73.94
242.13	65.94
242.363	71.94
242.597	74.94
242.83	73.94
243.064	77.94
243.298	86.94
243.531	71.94
243.765	78.94
243.998	88.94
244.232	82.94
244.465	87.94
244.699	71.94
244.932	86.94
245.166	78.94
245.399	73.94
245.633	81.94
245.866	72.94
246.099	72.94
246.333	78.94
246.566	67.94
246.8	82.94
247.033	84.94
247.266	72.94
247.5	62.94
247.733	76.94
247.966	84.94
248.2	89.94
248.433	79.94
248.666	77.94
248.899	81.94
249.133	85.94
249.366	93.94
249.599	108.94
249.832	85.94
250.066	83.94
250.299	71.94
250.532	93.94
250.765	81.94
250.998	81.94
251.231	87.94
251.465	78.94
251.698	81.94
251.931	80.94
252.164	66.94
252.397	87.94
252.63	81.94
252.863	82.94
253.096	84.94
253.329	87.94
253.562	68.94
253.795	70.94
254.028	86.94
254.261	79.94
254.494	83.94
254.727	79.94
254.96	99.94
255.193	83.94
255.426	88.94
255.659	78.94
255.892	77.94
256.124	88.94
256.357	92.94
256.59	76.94
256.823	81.94
257.056	82.94
257.289	88.94
257.521	83.94
257.754	82.94
257.987	78.94
258.22	86.94
258.452	66.94
258.685	79.94
258.918	73.94
259.151	68.94
259.383	81.94
259.616	73.94
259.849	85.94
260.081	92.94
260.314	85.94
260.547	89.94
260.779	78.94
261.012	106.94
261.244	82.94
261.477	95.94
261.71	89.94
261.942	109.94
262.175	105.94
262.407	86.94
262.64	77.94
262.872	80.94
263.105	92.94
263.337	101.94
263.57	89.94
263.802	84.94
264.035	73.94
264.267	87.94
264.499	83.94
264.732	93.94
264.964	82.94
265.197	77.94
265.429	92.94
265.661	75.94
265.894	78.94
266.126	81.94
266.358	75.94
266.591	91.94
266.823	86.94
267.055	89.94
267.287	87.94
267.52	68.94
267.752	70.94
267.984	80.94
268.216	86.94
268.448	92.94
268.681	86.94
268.913	74.94
269.145	92.94
269.377	105.94
269.609	84.94
269.841	69.94
270.073	74.94
270.306	77.94
270.538	73.94
270.77	91.94
271.002	85.94
271.234	83.94
271.466	93.94
271.698	62.94
271.93	85.94
272.162	75.94
272.394	74.94
272.626	81.94
272.858	76.94
273.09	82.94
273.322	102.94
273.553	75.94
273.785	67.94
274.017	70.94
274.249	81.94
274.481	87.94
274.713	74.94
274.945	80.94
275.176	87.94
275.408	94.94
275.64	88.94
275.872	84.94
276.104	96.94
276.335	83.94
276.567	89.94
276.799	114.94
277.031	90.94
277.262	97.94
277.494	92.94
277.726	76.94
277.957	85.94
278.189	84.94
278.421	74.94
278.652	78.94
278.884	73.94
279.115	76.94
279.347	77.94
279.579	68.94
279.81	83.94
280.042	98.94
280.273	89.94
280.505	86.94
280.736	90.94
280.968	79.94
281.199	81.94
281.431	79.94
281.662	70.94
281.894	86.94
282.125	105.94
282.356	113.94
282.588	119.94
282.819	111.94
283.051	82.94
283.282	89.94
283.513	95.94
283.745	90.94
283.976	85.94
284.207	86.94
284.439	79.94
284.67	92.94
284.901	84.94
285.132	94.94
285.364	87.94
285.595	96.94
285.826	79.94
286.057	98.94
286.288	89.94
286.52	94.94
286.751	74.94
286.982	81.94
287.213	94.94
287.444	87.94
287.675	89.94
287.906	69.94
288.138	79.94
288.369	89.94
288.6	88.94
288.831	79.94
289.062	96.94
289.293	86.94
289.524	86.94
289.755	87.94
289.986	81.94
290.217	73.94
290.448	83.94
290.679	98.94
290.91	90.94
291.141	95.94
291.371	78.94
291.602	82.94
291.833	77.94
292.064	88.94
292.295	104.94
292.526	84.94
292.757	99.94
292.987	88.94
293.218	88.94
293.449	87.94
293.68	87.94
293.91	103.94
294.141	92.94
294.372	105.94
294.603	88.94
294.833	87.94
295.064	85.94
295.295	86.94
295.525	89.94
295.756	98.94
295.987	103.94
296.217	116.94
296.448	123.94
296.679	86.94
296.909	93.94
297.14	82.94
297.37	88.94
297.601	87.94
297.831	74.94
298.062	84.94
298.292	73.94
298.523	76.94
298.753	74.94
298.984	87.94
299.214	77.94
299.445	100.94
299.675	93.94
299.905	84.94
300.136	98.94
300.366	93.94
300.597	85.94
300.827	100.94
301.057	110.94
301.288	95.94
301.518	84.94
301.748	87.94
301.979	93.94
302.209	95.94
302.439	97.94
302.669	93.94
302.9	83.94
303.13	91.94
303.36	89.94
303.59	97.94
303.82	107.94
304.051	99.94
304.281	88.94
304.511	93.94
304.741	87.94
304.971	84.94
305.201	83.94
305.431	96.94
305.661	83.94
305.891	79.94
306.121	91.94
306.352	82.94
306.582	100.94
306.812	93.94
307.042	85.94
307.272	95.94
307.502	100.94
307.731	91.94
307.961	87.94
308.191	85.94
308.421	88.94
308.651	91.94
308.881	94.94
309.111	89.94
309.341	94.94
309.571	101.94
309.8	93.94
310.03	86.94
310.26	100.94
310.49	87.94
310.72	92.94
310.949	106.94
311.179	90.94
311.409	96.94
311.639	105.94
311.868	105.94
312.098	92.94
312.328	102.94
312.557	95.94
312.787	108.94
313.017	90.94
313.246	97.94
313.476	95.94
313.706	85.94
313.935	91.94
314.165	92.94
314.394	100.94
314.624	105.94
314.853	86.94
315.083	86.94
315.312	83.94
315.542	70.94
315.771	78.94
316.001	91.94
316.23	94.94
316.46	85.94
316.689	87.94
316.919	97.94
317.148	96.94
317.377	116.94
317.607	93.94
317.836	102.94
318.065	105.94
318.295	98.94
318.524	91.94
318.753	107.94
318.983	99.94
319.212	111.94
319.441	98.94
319.67	90.94
319.9	92.94
320.129	89.94
320.358	94.94
320.587	107.94
320.816	95.94
321.046	91.94
321.275	112.94
321.504	92.94
321.733	92.94
321.962	90.94
322.191	100.94
322.42	108.94
322.649	106.94
322.878	113.94
323.108	109.94
323.337	125.94
323.566	145.94
323.795	152.94
324.024	205.94
324.253	409.94
324.482	869.94
324.71	1773.94
324.939	2331.94
325.168	856.94
325.397	234.94
325.626	148.94
325.855	126.94
326.084	120.94
326.313	125.94
326.542	150.94
326.77	233.94
326.999	474.94
327.228	990.94
327.457	1785.94
327.686	1441.94
327.914	394.94
328.143	183.94
328.372	151.94
328.6	132.94
328.829	107.94
329.058	125.94
329.287	118.94
329.515	110.94
329.744	108.94
329.972	97.94
330.201	101.94
330.43	115.94
330.658	125.94
330.887	139.94
331.115	122.94
331.344	99.94
331.572	89.94
331.801	106.94
332.03	98.94
332.258	95.94
332.486	91.94
332.715	100.94
332.943	102.94
333.172	93.94
333.4	91.94
333.629	101.94
333.857	115.94
334.085	108.94
334.314	106.94
334.542	100.94
334.771	101.94
334.999	104.94
335.227	104.94
335.455	78.94
335.684	113.94
335.912	94.94
336.14	87.94
336.369	95.94
336.597	93.94
336.825	91.94
337.053	97.94
337.281	90.94
337.51	80.94
337.738	101.94
337.966	83.94
338.194	102.94
338.422	102.94
338.65	90.94
338.878	99.94
339.106	91.94
339.334	89.94
339.562	92.94
339.79	86.94
340.018	103.94
340.246	94.94
340.474	100.94
340.702	91.94
340.93	104.94
341.158	81.94
341.386	83.94
341.614	99.94
341.842	93.94
342.07	90.94
342.298	81.94
342.526	80.94
342.754	99.94
342.981	70.94
343.209	94.94
343.437	96.94
343.665	87.94
343.893	89.94
344.12	87.94
344.348	92.94
344.576	95.94
344.804	106.94
345.031	87.94
345.259	98.94
345.487	92.94
345.714	94.94
345.942	80.94
346.17	99.94
346.397	83.94
346.625	85.94
346.853	81.94
347.08	89.94
347.308	87.94
347.535	88.94
347.763	93.94
347.99	86.94
348.218	101.94
348.445	94.94
348.673	101.94
348.9	110.94
349.128	82.94
349.355	97.94
349.583	87.94
349.81	71.94
350.037	87.94
350.265	93.94
350.492	93.94
350.72	91.94
350.947	107.94
351.174	114.94
351.402	119.94
351.629	103.94
351.856	92.94
352.083	99.94
352.311	106.94
352.538	101.94
352.765	116.94
352.992	103.94
353.22	107.94
353.447	114.94
353.674	83.94
353.901	116.94
354.128	95.94
354.355	99.94
354.583	99.94
354.81	82.94
355.037	95.94
355.264	99.94
355.491	90.94
355.718	90.94
355.945	98.94
356.172	98.94
356.399	95.94
356.626	102.94
356.853	84.94
357.08	92.94
357.307	91.94
357.534	90.94
357.761	81.94
357.988	94.94
358.215	93.94
358.441	103.94
358.668	92.94
358.895	87.94
359.122	93.94
359.349	91.94
359.576	99.94
359.802	98.94
360.029	109.94
360.256	121.94
360.483	101.94
360.709	85.94
360.936	93.94
361.163	86.94
361.39	89.94
361.616	91.94
361.843	99.94
362.07	77.94
362.296	101.94
362.523	82.94
362.749	95.94
362.976	80.94
363.203	85.94
363.429	76.94
363.656	84.94
363.882	92.94
364.109	95.94
364.335	77.94
364.562	94.94
364.788	89.94
365.015	75.94
365.241	94.94
365.468	97.94
365.694	110.94
365.92	100.94
366.147	96.94
366.373	87.94
366.599	102.94
366.826	96.94
367.052	82.94
367.278	93.94
367.505	99.94
367.731	96.94
367.957	97.94
368.184	84.94
368.41	96.94
368.636	94.94
368.862	116.94
369.089	98.94
369.315	92.94
369.541	86.94
369.767	78.94
369.993	87.94
370.219	100.94
370.445	86.94
370.672	88.94
370.898	78.94
371.124	92.94
371.35	97.94
371.576	95.94
371.802	89.94
372.028	81.94
372.254	77.94
372.48	73.94
372.706	85.94
372.932	82.94
373.158	87.94
373.384	97.94
373.61	88.94
373.835	78.94
374.061	95.94
374.287	93.94
374.513	84.94
374.739	84.94
374.965	86.94
375.191	97.94
375.416	75.94
375.642	90.94
375.868	92.94
376.094	72.94
376.319	95.94
376.545	105.94
376.771	105.94
376.997	80.94
377.222	94.94
377.448	94.94
377.674	87.94
377.899	108.94
378.125	84.94
378.35	82.94
378.576	90.94
378.802	91.94
379.027	95.94
379.253	83.94
379.478	92.94
379.704	89.94
379.929	94.94
380.155	92.94
380.38	95.94
380.606	78.94
380.831	97.94
381.057	112.94
381.282	96.94
381.507	93.94
381.733	99.94
381.958	90.94
382.184	94.94
382.409	94.94
382.634	102.94
382.86	106.94
383.085	96.94
383.31	105.94
383.535	108.94
383.761	90.94
383.986	95.94
384.211	88.94
384.436	96.94
384.662	101.94
384.887	105.94
385.112	102.94
385.337	104.94
385.562	102.94
385.787	85.94
386.013	90.94
386.238	123.94
386.463	107.94
386.688	106.94
386.913	99.94
387.138	99.94
387.363	100.94
387.588	97.94
387.813	100.94
388.038	84.94
388.263	114.94
388.488	99.94
388.713	87.94
388.938	95.94
389.163	85.94
389.387	92.94
389.612	96.94
389.837	87.94
390.062	84.94
390.287	90.94
390.512	93.94
390.736	94.94
390.961	90.94
391.186	100.94
391.411	90.94
391.636	92.94
391.86	93.94
392.085	79.94
392.31	83.94
392.534	76.94
392.759	98.94
392.984	94.94
393.208	91.94
393.433	93.94
393.658	94.94
393.882	90.94
394.107	86.94
394.331	81.94
394.556	94.94
394.78	84.94
395.005	92.94
395.229	92.94
395.454	82.94
395.678	85.94
395.903	80.94
396.127	91.94
396.352	70.94
396.576	80.94
396.801	89.94
397.025	86.94
397.249	88.94
397.474	89.94
397.698	89.94
397.922	96.94
398.147	85.94
398.371	88.94
398.595	103.94
398.82	78.94
399.044	90.94
399.268	94.94
399.492	91.94
399.717	88.94
399.941	80.94
400.165	86.94
400.389	104.94
400.613	96.94
400.837	83.94
401.062	86.94
401.286	83.94
401.51	91.94
401.734	73.94
401.958	110.94
402.182	136.94
402.406	151.94
402.63	116.94
402.854	83.94
403.078	74.94
403.302	95.94
403.526	82.94
403.75	88.94
403.974	87.94
404.198	98.94
404.422	95.94
404.645	86.94
404.869	89.94
405.093	97.94
405.317	98.94
405.541	72.94
405.765	97.94
405.988	106.94
406.212	158.94
406.436	206.94
406.66	113.94
406.883	83.94
407.107	90.94
407.331	87.94
407.555	110.94
407.778	101.94
408.002	94.94
408.226	80.94
408.449	83.94
408.673	98.94
408.896	108.94
409.12	89.94
409.344	93.94
409.567	87.94
409.791	77.94
410.014	109.94
410.238	101.94
410.461	101.94
410.685	82.94
410.908	97.94
411.132	102.94
411.355	84.94
411.578	93.94
411.802	93.94
412.025	84.94
412.249	91.94
412.472	91.94
412.695	95.94
412.919	99.94
413.142	93.94
413.365	82.94
413.589	84.94
413.812	76.94
414.035	105.94
414.258	100.94
414.482	91.94
414.705	87.94
414.928	86.94
415.151	92.94
415.374	80.94
415.597	86.94
415.821	83.94
416.044	93.94
416.267	85.94
416.49	74.94
416.713	80.94
416.936	87.94
417.159	71.94
417.382	91.94
417.605	93.94
417.828	95.94
418.051	79.94
418.274	97.94
418.497	86.94
418.72	96.94
418.943	76.94
419.166	90.94
419.389	80.94
419.611	82.94
419.834	94.94
420.057	99.94
420.28	87.94
420.503	80.94
420.726	88.94
420.948	91.94
421.171	99.94
421.394	95.94
421.617	93.94
421.839	81.94
422.062	96.94
422.285	91.94
422.507	102.94
422.73	94.94
422.953	100.94
423.175	94.94
423.398	84.94
423.621	87.94
423.843	97.94
424.066	82.94
424.288	84.94
424.511	87.94
424.733	78.94
424.956	94.94
425.178	102.94
425.401	92.94
425.623	97.94
425.846	94.94
426.068	94.94
426.291	98.94
426.513	90.94
426.735	79.94
426.958	94.94
427.18	95.94
427.402	149.94
427.625	169.94
427.847	125.94
428.069	99.94
428.292	85.94
428.514	85.94
428.736	82.94
428.958	69.94
429.181	67.94
429.403	82.94
429.625	112.94
429.847	97.94
430.069	91.94
430.292	100.94
430.514	95.94
430.736	86.94
430.958	89.94
431.18	79.94
431.402	74.94
431.624	86.94
431.846	71.94
432.068	86.94
432.29	90.94
432.512	92.94
432.734	90.94
432.956	98.94
433.178	97.94
433.4	102.94
433.622	92.94
433.844	92.94
434.066	93.94
434.287	99.94
434.509	92.94
434.731	73.94
434.953	75.94
435.175	80.94
435.397	91.94
435.618	95.94
435.84	101.94
436.062	114.94
436.284	111.94
436.505	101.94
436.727	92.94
436.949	96.94
437.17	78.94
437.392	82.94
437.614	95.94
437.835	102.94
438.057	120.94
438.278	106.94
438.5	102.94
438.721	116.94
438.943	89.94
439.165	93.94
439.386	69.94
439.608	82.94
439.829	91.94
440.05	114.94
440.272	129.94
440.493	85.94
440.715	92.94
440.936	92.94
441.158	86.94
441.379	77.94
441.6	93.94
441.822	83.94
442.043	83.94
442.264	101.94
442.486	93.94
442.707	83.94
442.928	93.94
443.149	135.94
443.371	126.94
443.592	103.94
443.813	114.94
444.034	112.94
444.255	91.94
444.476	94.94
444.698	90.94
444.919	91.94
445.14	116.94
445.361	129.94
445.582	116.94
445.803	134.94
446.024	126.94
446.245	127.94
446.466	104.94
446.687	80.94
446.908	91.94
447.129	94.94
447.35	95.94
447.571	96.94
447.792	88.94
448.013	81.94
448.234	98.94
448.455	102.94
448.675	113.94
448.896	111.94
449.117	85.94
449.338	100.94
449.559	140.94
449.779	130.94
450	104.94
450.221	87.94
450.442	82.94
450.662	87.94
450.883	100.94
451.104	111.94
451.324	95.94
451.545	83.94
451.766	85.94
451.986	82.94
452.207	82.94
452.428	95.94
452.648	105.94
452.869	90.94
453.089	114.94
453.31	111.94
453.53	91.94
453.751	85.94
453.971	93.94
454.192	105.94
454.412	93.94
454.633	82.94
454.853	87.94
455.073	84.94
455.294	74.94
455.514	82.94
455.734	86.94
455.955	79.94
456.175	79.94
456.395	90.94
456.616	91.94
456.836	88.94
457.056	87.94
457.276	84.94
457.497	76.94
457.717	84.94
457.937	91.94
458.157	86.94
458.377	97.94
458.598	107.94
458.818	137.94
459.038	152.94
459.258	117.94
459.478	93.94
459.698	94.94
459.918	80.94
460.138	79.94
460.358	87.94
460.578	98.94
460.798	75.94
461.018	86.94
461.238	87.94
461.458	81.94
461.678	73.94
461.898	78.94
462.118	85.94
462.338	95.94
462.558	70.94
462.777	97.94
462.997	82.94
463.217	87.94
463.437	73.94
463.657	77.94
463.876	105.94
464.096	81.94
464.316	87.94
464.536	88.94
464.755	100.94
464.975	98.94
465.195	146.94
465.414	149.94
465.634	91.94
465.854	94.94
466.073	94.94
466.293	95.94
466.512	81.94
466.732	80.94
466.951	81.94
467.171	92.94
467.391	95.94
467.61	105.94
467.829	100.94
468.049	82.94
468.268	87.94
468.488	87.94
468.707	85.94
468.927	82.94
469.146	78.94
469.365	99.94
469.585	80.94
469.804	91.94
470.023	82.94
470.243	100.94
470.462	107.94
470.681	97.94
470.901	90.94
471.12	91.94
471.339	80.94
471.558	70.94
471.777	93.94
471.997	83.94
472.216	100.94
472.435	91.94
472.654	92.94
472.873	85.94
473.092	83.94
473.311	81.94
473.53	85.94
473.749	83.94
473.968	88.94
474.187	79.94
474.406	91.94
474.625	83.94
474.844	84.94
475.063	88.94
475.282	93.94
475.501	83.94
475.72	92.94
475.939	81.94
476.158	79.94
476.377	78.94
476.596	77.94
476.814	90.94
477.033	86.94
477.252	76.94
477.471	85.94
477.69	71.94
477.908	93.94
478.127	92.94
478.346	93.94
478.564	89.94
478.783	88.94
479.002	79.94
479.22	99.94
479.439	98.94
479.658	82.94
479.876	84.94
480.095	92.94
480.313	77.94
480.532	86.94
480.751	87.94
480.969	81.94
481.188	88.94
481.406	95.94
481.624	76.94
481.843	75.94
482.061	79.94
482.28	92.94
482.498	78.94
482.717	88.94
482.935	79.94
483.153	87.94
483.372	89.94
483.59	86.94
483.808	94.94
484.027	94.94
484.245	88.94
484.463	102.94
484.681	87.94
484.9	100.94
485.118	100.94
485.336	84.94
485.554	91.94
485.772	102.94
485.99	99.94
486.209	105.94
486.427	99.94
486.645	115.94
486.863	124.94
487.081	97.94
487.299	87.94
487.517	83.94
487.735	87.94
487.953	90.94
488.171	94.94
488.389	98.94
488.607	100.94
488.825	93.94
489.043	86.94
489.261	93.94
489.479	72.94
489.696	73.94
489.914	83.94
490.132	84.94
490.35	98.94
490.568	71.94
490.786	83.94
491.003	96.94
491.221	90.94
491.439	104.94
491.657	92.94
491.874	96.94
492.092	86.94
492.31	81.94
492.527	69.94
492.745	97.94
492.963	92.94
493.18	85.94
493.398	93.94
493.615	76.94
493.833	93.94
494.05	108.94
494.268	97.94
494.485	88.94
494.703	90.94
494.92	82.94
495.138	86.94
495.355	87.94
495.573	92.94
495.79	101.94
496.008	97.94
496.225	91.94
496.442	87.94
496.66	85.94
496.877	84.94
497.094	90.94
497.312	79.94
497.529	80.94
497.746	93.94
497.963	92.94
498.181	82.94
498.398	113.94
498.615	107.94
498.832	101.94
499.049	69.94
499.267	102.94
499.484	92.94
499.701	86.94
499.918	94.94
500.135	96.94
500.352	81.94
500.569	89.94
500.786	81.94
501.003	92.94
501.22	79.94
501.437	80.94
501.654	94.94
501.871	99.94
502.088	90.94
502.305	92.94
502.522	87.94
502.739	77.94
502.956	78.94
503.172	74.94
503.389	98.94
503.606	94.94
503.823	96.94
504.04	98.94
504.256	86.94
504.473	80.94
504.69	92.94
504.907	72.94
505.123	75.94
505.34	82.94
505.557	81.94
505.773	77.94
505.99	104.94
506.207	97.94
506.423	96.94
506.64	86.94
506.856	90.94
507.073	97.94
507.289	93.94
507.506	76.94
507.722	97.94
507.939	110.94
508.155	89.94
508.372	81.94
508.588	93.94
508.805	101.94
509.021	90.94
509.238	100.94
509.454	109.94
509.67	102.94
509.887	99.94
510.103	130.94
510.319	198.94
510.536	734.94
510.752	2290.94
510.968	647.94
511.184	157.94
511.401	118.94
511.617	114.94
511.833	88.94
512.049	82.94
512.265	82.94
512.481	84.94
512.698	86.94
512.914	93.94
513.13	100.94
513.346	97.94
513.562	74.94
513.778	99.94
513.994	96.94
514.21	105.94
514.426	111.94
514.642	146.94
514.858	128.94
515.074	158.94
515.29	429.94
515.506	1409.94
515.721	527.94
515.937	143.94
516.153	104.94
516.369	87.94
