Data from Uncirc_2005_H10_HRD10591_00024.txt Node
Date: Wed Jan 03 10:28:29 EST 2024
User: Yrep
Spectrometer: HR+D1059
Trigger mode: 1
Integration Time (sec): 1.000000E-1
Scans to average: 1
Electric dark correction enabled: true
Nonlinearity correction enabled: false
Boxcar width: 0
XAxis mode: Wavelengths
Number of Pixels in Spectrum: 2048
>>>>>Begin Spectral Data<<<<<
223.165	-10.19
223.4	-10.19
223.635	-10.19
223.869	-19.19
224.104	-24.19
224.338	-15.19
224.573	-14.19
224.808	-8.19
225.042	1.81
225.277	-2.19
225.511	7.81
225.746	-11.19
225.98	3.81
226.215	4.81
226.449	13.81
226.683	28.81
226.918	17.81
227.152	25.81
227.387	27.81
227.621	41.81
227.856	50.81
228.09	59.81
228.324	48.81
228.559	52.81
228.793	66.81
229.027	50.81
229.262	51.81
229.496	78.81
229.73	82.81
229.964	81.81
230.199	72.81
230.433	76.81
230.667	77.81
230.901	72.81
231.136	73.81
231.37	75.81
231.604	82.81
231.838	89.81
232.072	79.81
232.306	72.81
232.541	83.81
232.775	80.81
233.009	72.81
233.243	78.81
233.477	74.81
233.711	82.81
233.945	87.81
234.179	81.81
234.413	68.81
234.647	76.81
234.881	76.81
235.115	87.81
235.349	91.81
235.583	84.81
235.817	65.81
236.051	80.81
236.285	59.81
236.519	84.81
236.753	84.81
236.987	69.81
237.221	64.81
237.455	81.81
237.689	61.81
237.922	80.81
238.156	59.81
238.39	71.81
238.624	64.81
238.858	63.81
239.091	80.81
239.325	83.81
239.559	85.81
239.793	67.81
240.027	79.81
240.26	87.81
240.494	68.81
240.728	73.81
240.961	63.81
241.195	73.81
241.429	75.81
241.662	81.81
241.896	74.81
242.13	67.81
242.363	76.81
242.597	73.81
242.83	76.81
243.064	77.81
243.298	68.81
243.531	65.81
243.765	77.81
243.998	68.81
244.232	73.81
244.465	72.81
244.699	72.81
244.932	77.81
245.166	68.81
245.399	77.81
245.633	84.81
245.866	64.81
246.099	82.81
246.333	84.81
246.566	74.81
246.8	89.81
247.033	73.81
247.266	66.81
247.5	77.81
247.733	66.81
247.966	76.81
248.2	79.81
248.433	76.81
248.666	77.81
248.899	80.81
249.133	93.81
249.366	73.81
249.599	80.81
249.832	69.81
250.066	92.81
250.299	72.81
250.532	81.81
250.765	65.81
250.998	78.81
251.231	67.81
251.465	75.81
251.698	84.81
251.931	90.81
252.164	74.81
252.397	82.81
252.63	81.81
252.863	71.81
253.096	64.81
253.329	88.81
253.562	67.81
253.795	74.81
254.028	88.81
254.261	79.81
254.494	68.81
254.727	78.81
254.96	86.81
255.193	74.81
255.426	76.81
255.659	79.81
255.892	75.81
256.124	82.81
256.357	80.81
256.59	68.81
256.823	68.81
257.056	67.81
257.289	68.81
257.521	89.81
257.754	75.81
257.987	81.81
258.22	80.81
258.452	69.81
258.685	65.81
258.918	83.81
259.151	73.81
259.383	73.81
259.616	84.81
259.849	80.81
260.081	87.81
260.314	82.81
260.547	84.81
260.779	75.81
261.012	90.81
261.244	82.81
261.477	89.81
261.71	87.81
261.942	92.81
262.175	91.81
262.407	86.81
262.64	82.81
262.872	82.81
263.105	77.81
263.337	72.81
263.57	71.81
263.802	81.81
264.035	82.81
264.267	89.81
264.499	64.81
264.732	89.81
264.964	88.81
265.197	71.81
265.429	85.81
265.661	70.81
265.894	79.81
266.126	75.81
266.358	77.81
266.591	81.81
266.823	90.81
267.055	85.81
267.287	76.81
267.52	80.81
267.752	78.81
267.984	88.81
268.216	80.81
268.448	84.81
268.681	74.81
268.913	80.81
269.145	78.81
269.377	73.81
269.609	67.81
269.841	87.81
270.073	83.81
270.306	90.81
270.538	68.81
270.77	76.81
271.002	79.81
271.234	84.81
271.466	74.81
271.698	82.81
271.93	92.81
272.162	85.81
272.394	86.81
272.626	81.81
272.858	79.81
273.09	80.81
273.322	80.81
273.553	89.81
273.785	89.81
274.017	77.81
274.249	83.81
274.481	83.81
274.713	85.81
274.945	93.81
275.176	90.81
275.408	92.81
275.64	93.81
275.872	85.81
276.104	89.81
276.335	81.81
276.567	91.81
276.799	96.81
277.031	91.81
277.262	78.81
277.494	86.81
277.726	80.81
277.957	86.81
278.189	63.81
278.421	97.81
278.652	73.81
278.884	82.81
279.115	85.81
279.347	76.81
279.579	78.81
279.81	87.81
280.042	84.81
280.273	97.81
280.505	80.81
280.736	86.81
280.968	78.81
281.199	82.81
281.431	77.81
281.662	89.81
281.894	92.81
282.125	101.81
282.356	120.81
282.588	121.81
282.819	89.81
283.051	73.81
283.282	88.81
283.513	88.81
283.745	69.81
283.976	84.81
284.207	88.81
284.439	65.81
284.67	80.81
284.901	90.81
285.132	89.81
285.364	87.81
285.595	92.81
285.826	83.81
286.057	82.81
286.288	72.81
286.52	90.81
286.751	87.81
286.982	81.81
287.213	85.81
287.444	81.81
287.675	92.81
287.906	78.81
288.138	91.81
288.369	98.81
288.6	71.81
288.831	77.81
289.062	82.81
289.293	79.81
289.524	87.81
289.755	75.81
289.986	78.81
290.217	84.81
290.448	74.81
290.679	82.81
290.91	97.81
291.141	88.81
291.371	80.81
291.602	91.81
291.833	83.81
292.064	89.81
292.295	90.81
292.526	74.81
292.757	86.81
292.987	79.81
293.218	79.81
293.449	73.81
293.68	82.81
293.91	89.81
294.141	102.81
294.372	75.81
294.603	83.81
294.833	102.81
295.064	81.81
295.295	84.81
295.525	85.81
295.756	81.81
295.987	104.81
296.217	130.81
296.448	87.81
296.679	98.81
296.909	80.81
297.14	95.81
297.37	98.81
297.601	88.81
297.831	97.81
298.062	85.81
298.292	92.81
298.523	87.81
298.753	74.81
298.984	84.81
299.214	88.81
299.445	96.81
299.675	84.81
299.905	88.81
300.136	85.81
300.366	83.81
300.597	80.81
300.827	93.81
301.057	109.81
301.288	101.81
301.518	100.81
301.748	77.81
301.979	102.81
302.209	87.81
302.439	81.81
302.669	79.81
302.9	92.81
303.13	84.81
303.36	99.81
303.59	93.81
303.82	107.81
304.051	88.81
304.281	82.81
304.511	103.81
304.741	92.81
304.971	100.81
305.201	78.81
305.431	89.81
305.661	91.81
305.891	61.81
306.121	87.81
306.352	96.81
306.582	88.81
306.812	85.81
307.042	92.81
307.272	84.81
307.502	95.81
307.731	75.81
307.961	83.81
308.191	98.81
308.421	81.81
308.651	97.81
308.881	94.81
309.111	92.81
309.341	76.81
309.571	87.81
309.8	84.81
310.03	95.81
310.26	88.81
310.49	93.81
310.72	93.81
310.949	98.81
311.179	93.81
311.409	82.81
311.639	92.81
311.868	82.81
312.098	89.81
312.328	90.81
312.557	95.81
312.787	94.81
313.017	91.81
313.246	88.81
313.476	95.81
313.706	86.81
313.935	92.81
314.165	95.81
314.394	98.81
314.624	91.81
314.853	77.81
315.083	83.81
315.312	71.81
315.542	96.81
315.771	86.81
316.001	91.81
316.23	81.81
316.46	93.81
316.689	81.81
316.919	88.81
317.148	84.81
317.377	84.81
317.607	84.81
317.836	91.81
318.065	95.81
318.295	93.81
318.524	93.81
318.753	93.81
318.983	91.81
319.212	90.81
319.441	92.81
319.67	89.81
319.9	100.81
320.129	85.81
320.358	85.81
320.587	120.81
320.816	105.81
321.046	90.81
321.275	93.81
321.504	79.81
321.733	78.81
321.962	93.81
322.191	93.81
322.42	92.81
322.649	103.81
322.878	103.81
323.108	105.81
323.337	107.81
323.566	121.81
323.795	155.81
324.024	187.81
324.253	373.81
324.482	799.81
324.71	1645.81
324.939	2160.81
325.168	767.81
325.397	234.81
325.626	143.81
325.855	125.81
326.084	126.81
326.313	110.81
326.542	148.81
326.77	225.81
326.999	468.81
327.228	905.81
327.457	1707.81
327.686	1328.81
327.914	366.81
328.143	186.81
328.372	139.81
328.6	113.81
328.829	107.81
329.058	118.81
329.287	114.81
329.515	98.81
329.744	90.81
329.972	92.81
330.201	109.81
330.43	113.81
330.658	94.81
330.887	128.81
331.115	107.81
331.344	89.81
331.572	94.81
331.801	105.81
332.03	85.81
332.258	113.81
332.486	86.81
332.715	104.81
332.943	77.81
333.172	89.81
333.4	90.81
333.629	93.81
333.857	103.81
334.085	94.81
334.314	94.81
334.542	97.81
334.771	92.81
334.999	100.81
335.227	73.81
335.455	74.81
335.684	103.81
335.912	90.81
336.14	92.81
336.369	77.81
336.597	89.81
336.825	97.81
337.053	94.81
337.281	87.81
337.51	93.81
337.738	84.81
337.966	88.81
338.194	85.81
338.422	98.81
338.65	93.81
338.878	95.81
339.106	77.81
339.334	84.81
339.562	88.81
339.79	91.81
340.018	99.81
340.246	100.81
340.474	95.81
340.702	96.81
340.93	96.81
341.158	86.81
341.386	89.81
341.614	99.81
341.842	96.81
342.07	78.81
342.298	91.81
342.526	91.81
342.754	73.81
342.981	94.81
343.209	89.81
343.437	102.81
343.665	78.81
343.893	84.81
344.12	96.81
344.348	87.81
344.576	84.81
344.804	75.81
345.031	95.81
345.259	88.81
345.487	91.81
345.714	82.81
345.942	72.81
346.17	83.81
346.397	94.81
346.625	97.81
346.853	92.81
347.08	96.81
347.308	96.81
347.535	97.81
347.763	96.81
347.99	100.81
348.218	93.81
348.445	87.81
348.673	90.81
348.9	72.81
349.128	79.81
349.355	89.81
349.583	88.81
349.81	96.81
350.037	101.81
350.265	85.81
350.492	90.81
350.72	93.81
350.947	91.81
351.174	105.81
351.402	114.81
351.629	83.81
351.856	80.81
352.083	92.81
352.311	88.81
352.538	105.81
352.765	97.81
352.992	115.81
353.22	108.81
353.447	94.81
353.674	86.81
353.901	95.81
354.128	91.81
354.355	83.81
354.583	106.81
354.81	83.81
355.037	78.81
355.264	94.81
355.491	89.81
355.718	89.81
355.945	90.81
356.172	80.81
356.399	96.81
356.626	86.81
356.853	81.81
357.08	89.81
357.307	101.81
357.534	98.81
357.761	77.81
357.988	100.81
358.215	92.81
358.441	96.81
358.668	93.81
358.895	93.81
359.122	72.81
359.349	87.81
359.576	100.81
359.802	97.81
360.029	109.81
360.256	104.81
360.483	100.81
360.709	88.81
360.936	92.81
361.163	95.81
361.39	87.81
361.616	91.81
361.843	91.81
362.07	88.81
362.296	86.81
362.523	83.81
362.749	94.81
362.976	95.81
363.203	90.81
363.429	84.81
363.656	77.81
363.882	90.81
364.109	81.81
364.335	90.81
364.562	74.81
364.788	89.81
365.015	93.81
365.241	91.81
365.468	104.81
365.694	114.81
365.92	114.81
366.147	89.81
366.373	92.81
366.599	80.81
366.826	80.81
367.052	95.81
367.278	106.81
367.505	102.81
367.731	79.81
367.957	85.81
368.184	104.81
368.41	89.81
368.636	103.81
368.862	108.81
369.089	102.81
369.315	84.81
369.541	101.81
369.767	83.81
369.993	88.81
370.219	81.81
370.445	87.81
370.672	85.81
370.898	85.81
371.124	89.81
371.35	82.81
371.576	93.81
371.802	84.81
372.028	80.81
372.254	101.81
372.48	81.81
372.706	84.81
372.932	92.81
373.158	91.81
373.384	86.81
373.61	85.81
373.835	88.81
374.061	80.81
374.287	92.81
374.513	101.81
374.739	95.81
374.965	90.81
375.191	73.81
375.416	97.81
375.642	72.81
375.868	95.81
376.094	83.81
376.319	89.81
376.545	77.81
376.771	98.81
376.997	97.81
377.222	89.81
377.448	81.81
377.674	106.81
377.899	78.81
378.125	92.81
378.35	102.81
378.576	80.81
378.802	103.81
379.027	69.81
379.253	85.81
379.478	96.81
379.704	91.81
379.929	93.81
380.155	96.81
380.38	91.81
380.606	84.81
380.831	97.81
381.057	100.81
381.282	90.81
381.507	100.81
381.733	102.81
381.958	89.81
382.184	87.81
382.409	100.81
382.634	110.81
382.86	106.81
383.085	112.81
383.31	97.81
383.535	113.81
383.761	100.81
383.986	95.81
384.211	105.81
384.436	106.81
384.662	105.81
384.887	95.81
385.112	104.81
385.337	110.81
385.562	105.81
385.787	106.81
386.013	98.81
386.238	110.81
386.463	102.81
386.688	121.81
386.913	118.81
387.138	102.81
387.363	108.81
387.588	108.81
387.813	104.81
388.038	122.81
388.263	109.81
388.488	132.81
388.713	95.81
388.938	95.81
389.163	84.81
389.387	90.81
389.612	91.81
389.837	91.81
390.062	102.81
390.287	79.81
390.512	90.81
390.736	89.81
390.961	86.81
391.186	103.81
391.411	99.81
391.636	95.81
391.86	92.81
392.085	91.81
392.31	82.81
392.534	84.81
392.759	76.81
392.984	101.81
393.208	82.81
393.433	95.81
393.658	92.81
393.882	87.81
394.107	92.81
394.331	79.81
394.556	75.81
394.78	83.81
395.005	88.81
395.229	90.81
395.454	88.81
395.678	95.81
395.903	78.81
396.127	85.81
396.352	95.81
396.576	84.81
396.801	97.81
397.025	74.81
397.249	73.81
397.474	96.81
397.698	79.81
397.922	81.81
398.147	92.81
398.371	76.81
398.595	79.81
398.82	80.81
399.044	84.81
399.268	88.81
399.492	90.81
399.717	83.81
399.941	87.81
400.165	96.81
400.389	91.81
400.613	79.81
400.837	90.81
401.062	98.81
401.286	85.81
401.51	99.81
401.734	104.81
401.958	100.81
402.182	120.81
402.406	153.81
402.63	101.81
402.854	85.81
403.078	105.81
403.302	79.81
403.526	82.81
403.75	91.81
403.974	87.81
404.198	81.81
404.422	98.81
404.645	76.81
404.869	78.81
405.093	77.81
405.317	86.81
405.541	90.81
405.765	86.81
405.988	100.81
406.212	145.81
406.436	190.81
406.66	125.81
406.883	92.81
407.107	95.81
407.331	93.81
407.555	97.81
407.778	83.81
408.002	81.81
408.226	90.81
408.449	84.81
408.673	92.81
408.896	100.81
409.12	77.81
409.344	90.81
409.567	87.81
409.791	90.81
410.014	79.81
410.238	79.81
410.461	96.81
410.685	81.81
410.908	95.81
411.132	84.81
411.355	91.81
411.578	93.81
411.802	85.81
412.025	93.81
412.249	89.81
412.472	90.81
412.695	92.81
412.919	75.81
413.142	94.81
413.365	92.81
413.589	98.81
413.812	79.81
414.035	88.81
414.258	99.81
414.482	91.81
414.705	86.81
414.928	82.81
415.151	89.81
415.374	83.81
415.597	89.81
415.821	105.81
416.044	99.81
416.267	83.81
416.49	84.81
416.713	97.81
416.936	96.81
417.159	89.81
417.382	81.81
417.605	95.81
417.828	88.81
418.051	85.81
418.274	91.81
418.497	83.81
418.72	94.81
418.943	100.81
419.166	77.81
419.389	79.81
419.611	82.81
419.834	87.81
420.057	84.81
420.28	84.81
420.503	92.81
420.726	85.81
420.948	78.81
421.171	88.81
421.394	88.81
421.617	97.81
421.839	97.81
422.062	89.81
422.285	89.81
422.507	85.81
422.73	87.81
422.953	94.81
423.175	81.81
423.398	91.81
423.621	97.81
423.843	96.81
424.066	93.81
424.288	81.81
424.511	89.81
424.733	95.81
424.956	98.81
425.178	104.81
425.401	98.81
425.623	98.81
425.846	94.81
426.068	89.81
426.291	92.81
426.513	83.81
426.735	82.81
426.958	85.81
427.18	100.81
427.402	142.81
427.625	155.81
427.847	96.81
428.069	99.81
428.292	81.81
428.514	84.81
428.736	82.81
428.958	87.81
429.181	77.81
429.403	86.81
429.625	93.81
429.847	83.81
430.069	82.81
430.292	78.81
430.514	80.81
430.736	89.81
430.958	104.81
431.18	97.81
431.402	83.81
431.624	80.81
431.846	78.81
432.068	86.81
432.29	84.81
432.512	82.81
432.734	87.81
432.956	85.81
433.178	85.81
433.4	107.81
433.622	85.81
433.844	80.81
434.066	92.81
434.287	100.81
434.509	88.81
434.731	95.81
434.953	83.81
435.175	88.81
435.397	76.81
435.618	84.81
435.84	106.81
436.062	121.81
436.284	117.81
436.505	112.81
436.727	97.81
436.949	78.81
437.17	81.81
437.392	96.81
437.614	81.81
437.835	72.81
438.057	116.81
438.278	102.81
438.5	106.81
438.721	119.81
438.943	100.81
439.165	99.81
439.386	88.81
439.608	81.81
439.829	77.81
440.05	107.81
440.272	127.81
440.493	81.81
440.715	80.81
440.936	78.81
441.158	85.81
441.379	85.81
441.6	82.81
441.822	85.81
442.043	85.81
442.264	99.81
442.486	85.81
442.707	90.81
442.928	101.81
443.149	117.81
443.371	119.81
443.592	100.81
443.813	120.81
444.034	108.81
444.255	97.81
444.476	79.81
444.698	80.81
444.919	100.81
445.14	111.81
445.361	121.81
445.582	101.81
445.803	99.81
446.024	116.81
446.245	120.81
446.466	109.81
446.687	86.81
446.908	80.81
447.129	77.81
447.35	88.81
447.571	76.81
447.792	72.81
448.013	81.81
448.234	99.81
448.455	94.81
448.675	115.81
448.896	122.81
449.117	97.81
449.338	89.81
449.559	124.81
449.779	124.81
450	85.81
450.221	77.81
450.442	79.81
450.662	87.81
450.883	110.81
451.104	96.81
451.324	98.81
451.545	74.81
451.766	88.81
451.986	84.81
452.207	78.81
452.428	99.81
452.648	88.81
452.869	100.81
453.089	90.81
453.31	92.81
453.53	88.81
453.751	85.81
453.971	95.81
454.192	111.81
454.412	88.81
454.633	65.81
454.853	85.81
455.073	91.81
455.294	89.81
455.514	81.81
455.734	95.81
455.955	79.81
456.175	90.81
456.395	92.81
456.616	74.81
456.836	79.81
457.056	91.81
457.276	79.81
457.497	66.81
457.717	82.81
457.937	89.81
458.157	97.81
458.377	87.81
458.598	101.81
458.818	118.81
459.038	127.81
459.258	100.81
459.478	83.81
459.698	79.81
459.918	93.81
460.138	92.81
460.358	75.81
460.578	76.81
460.798	72.81
461.018	93.81
461.238	90.81
461.458	81.81
461.678	79.81
461.898	88.81
462.118	84.81
462.338	85.81
462.558	91.81
462.777	79.81
462.997	92.81
463.217	83.81
463.437	77.81
463.657	71.81
463.876	99.81
464.096	79.81
464.316	90.81
464.536	83.81
464.755	77.81
464.975	109.81
465.195	132.81
465.414	125.81
465.634	88.81
465.854	95.81
466.073	95.81
466.293	92.81
466.512	78.81
466.732	75.81
466.951	79.81
467.171	77.81
467.391	92.81
467.61	107.81
467.829	92.81
468.049	83.81
468.268	96.81
468.488	83.81
468.707	76.81
468.927	100.81
469.146	85.81
469.365	73.81
469.585	82.81
469.804	76.81
470.023	101.81
470.243	87.81
470.462	85.81
470.681	97.81
470.901	86.81
471.12	78.81
471.339	87.81
471.558	73.81
471.777	94.81
471.997	87.81
472.216	83.81
472.435	92.81
472.654	74.81
472.873	84.81
473.092	83.81
473.311	105.81
473.53	81.81
473.749	91.81
473.968	93.81
474.187	110.81
474.406	89.81
474.625	66.81
474.844	71.81
475.063	99.81
475.282	79.81
475.501	79.81
475.72	97.81
475.939	91.81
476.158	78.81
476.377	104.81
476.596	84.81
476.814	76.81
477.033	91.81
477.252	84.81
477.471	76.81
477.69	75.81
477.908	88.81
478.127	74.81
478.346	84.81
478.564	79.81
478.783	92.81
479.002	95.81
479.22	89.81
479.439	96.81
479.658	101.81
479.876	94.81
480.095	65.81
480.313	92.81
480.532	93.81
480.751	88.81
480.969	99.81
481.188	97.81
481.406	91.81
481.624	87.81
481.843	79.81
482.061	76.81
482.28	89.81
482.498	73.81
482.717	92.81
482.935	89.81
483.153	88.81
483.372	73.81
483.59	95.81
483.808	79.81
484.027	91.81
484.245	103.81
484.463	83.81
484.681	104.81
484.9	79.81
485.118	96.81
485.336	84.81
485.554	92.81
485.772	96.81
485.99	90.81
486.209	101.81
486.427	96.81
486.645	110.81
486.863	99.81
487.081	105.81
487.299	104.81
487.517	93.81
487.735	80.81
487.953	100.81
488.171	94.81
488.389	97.81
488.607	81.81
488.825	85.81
489.043	84.81
489.261	93.81
489.479	89.81
489.696	81.81
489.914	83.81
490.132	94.81
490.35	98.81
490.568	89.81
490.786	86.81
491.003	82.81
491.221	82.81
491.439	98.81
491.657	107.81
491.874	74.81
492.092	80.81
492.31	65.81
492.527	75.81
492.745	76.81
492.963	80.81
493.18	94.81
493.398	96.81
493.615	87.81
493.833	90.81
494.05	87.81
494.268	84.81
494.485	97.81
494.703	84.81
494.92	85.81
495.138	92.81
495.355	82.81
495.573	96.81
495.79	91.81
496.008	86.81
496.225	79.81
496.442	85.81
496.66	92.81
496.877	91.81
497.094	88.81
497.312	81.81
497.529	84.81
497.746	91.81
497.963	94.81
498.181	89.81
498.398	93.81
498.615	105.81
498.832	100.81
499.049	79.81
499.267	80.81
499.484	76.81
499.701	93.81
499.918	87.81
500.135	89.81
500.352	73.81
500.569	69.81
500.786	72.81
501.003	73.81
501.22	80.81
501.437	80.81
501.654	89.81
501.871	100.81
502.088	104.81
502.305	92.81
502.522	80.81
502.739	75.81
502.956	88.81
503.172	81.81
503.389	88.81
503.606	116.81
503.823	95.81
504.04	74.81
504.256	92.81
504.473	81.81
504.69	75.81
504.907	101.81
505.123	85.81
505.34	66.81
505.557	83.81
505.773	79.81
505.99	92.81
506.207	85.81
506.423	101.81
506.64	93.81
506.856	95.81
507.073	112.81
507.289	80.81
507.506	95.81
507.722	110.81
507.939	109.81
508.155	82.81
508.372	93.81
508.588	94.81
508.805	92.81
509.021	76.81
509.238	97.81
509.454	75.81
509.67	98.81
509.887	103.81
510.103	113.81
510.319	186.81
510.536	637.81
510.752	1902.81
510.968	555.81
511.184	151.81
511.401	105.81
511.617	81.81
511.833	91.81
512.049	74.81
512.265	91.81
512.481	84.81
512.698	96.81
512.914	100.81
513.13	101.81
513.346	87.81
513.562	85.81
513.778	87.81
513.994	100.81
514.21	79.81
514.426	113.81
514.642	105.81
514.858	120.81
515.074	156.81
515.29	367.81
515.506	1175.81
515.721	441.81
515.937	152.81
516.153	106.81
516.369	119.81
516.585	89.81
516.801	74.81
517.016	90.81
