Data from Uncirc_2005_H10_HRD10591_00058.txt Node
Date: Wed Jan 03 10:28:36 EST 2024
User: Yrep
Spectrometer: HR+D1059
Trigger mode: 1
Integration Time (sec): 1.000000E-1
Scans to average: 1
Electric dark correction enabled: true
Nonlinearity correction enabled: false
Boxcar width: 0
XAxis mode: Wavelengths
Number of Pixels in Spectrum: 2048
>>>>>Begin Spectral Data<<<<<
223.165	-16.69
223.4	-16.69
223.635	-16.69
223.869	-25.69
224.104	-24.69
224.338	-11.69
224.573	-25.69
224.808	-12.69
225.042	-6.69
225.277	-8.69
225.511	-5.69
225.746	2.31
225.98	20.31
226.215	15.31
226.449	12.31
226.683	30.31
226.918	29.31
227.152	28.31
227.387	31.31
227.621	18.31
227.856	42.31
228.09	28.31
228.324	55.31
228.559	55.31
228.793	166.31
229.027	427.31
229.262	514.31
229.496	615.31
229.73	795.31
229.964	812.31
230.199	528.31
230.433	473.31
230.667	476.31
230.901	452.31
231.136	417.31
231.37	435.31
231.604	422.31
231.838	440.31
232.072	462.31
232.306	466.31
232.541	443.31
232.775	460.31
233.009	462.31
233.243	467.31
233.477	447.31
233.711	476.31
233.945	479.31
234.179	508.31
234.413	497.31
234.647	482.31
234.881	487.31
235.115	526.31
235.349	513.31
235.583	540.31
235.817	592.31
236.051	632.31
236.285	585.31
236.519	594.31
236.753	676.31
236.987	882.31
237.221	1371.31
237.455	1507.31
237.689	887.31
237.922	714.31
238.156	691.31
238.39	671.31
238.624	634.31
238.858	635.31
239.091	624.31
239.325	633.31
239.559	660.31
239.793	707.31
240.027	762.31
240.26	894.31
240.494	956.31
240.728	965.31
240.961	927.31
241.195	830.31
241.429	760.31
241.662	777.31
241.896	733.31
242.13	731.31
242.363	772.31
242.597	796.31
242.83	804.31
243.064	803.31
243.298	808.31
243.531	814.31
243.765	801.31
243.998	807.31
244.232	840.31
244.465	882.31
244.699	911.31
244.932	903.31
245.166	867.31
245.399	877.31
245.633	875.31
245.866	890.31
246.099	889.31
246.333	928.31
246.566	969.31
246.8	962.31
247.033	997.31
247.266	1077.31
247.5	1090.31
247.733	1156.31
247.966	1142.31
248.2	1124.31
248.433	1140.31
248.666	1203.31
248.899	1315.31
249.133	1439.31
249.366	1401.31
249.599	1303.31
249.832	1190.31
250.066	1206.31
250.299	1205.31
250.532	1321.31
250.765	1475.31
250.998	1712.31
251.231	1618.31
251.465	1479.31
251.698	1414.31
251.931	1360.31
252.164	1401.31
252.397	1420.31
252.63	1446.31
252.863	1524.31
253.096	1665.31
253.329	1724.31
253.562	1632.31
253.795	1531.31
254.028	1530.31
254.261	1622.31
254.494	1853.31
254.727	2149.31
254.96	2269.31
255.193	1934.31
255.426	1703.31
255.659	1624.31
255.892	1565.31
256.124	1537.31
256.357	1494.31
256.59	1489.31
256.823	1474.31
257.056	1484.31
257.289	1479.31
257.521	1485.31
257.754	1554.31
257.987	1507.31
258.22	1537.31
258.452	1520.31
258.685	1534.31
258.918	1562.31
259.151	1591.31
259.383	1682.31
259.616	1690.31
259.849	1748.31
260.081	1912.31
260.314	2103.31
260.547	2027.31
260.779	1848.31
261.012	1773.31
261.244	1699.31
261.477	1650.31
261.71	1671.31
261.942	1694.31
262.175	1739.31
262.407	1697.31
262.64	1643.31
262.872	1640.31
263.105	1627.31
263.337	1610.31
263.57	1615.31
263.802	1660.31
264.035	1674.31
264.267	1663.31
264.499	1673.31
264.732	1647.31
264.964	1652.31
265.197	1704.31
265.429	1668.31
265.661	1672.31
265.894	1686.31
266.126	1683.31
266.358	1766.31
266.591	1737.31
266.823	1807.31
267.055	1873.31
267.287	1847.31
267.52	1817.31
267.752	1811.31
267.984	1837.31
268.216	1835.31
268.448	1908.31
268.681	2010.31
268.913	2081.31
269.145	2336.31
269.377	2365.31
269.609	2281.31
269.841	2270.31
270.073	2340.31
270.306	2678.31
270.538	2852.31
270.77	2678.31
271.002	2536.31
271.234	2449.31
271.466	2587.31
271.698	2764.31
271.93	2711.31
272.162	2812.31
272.394	2673.31
272.626	2493.31
272.858	2360.31
273.09	2285.31
273.322	2267.31
273.553	2207.31
273.785	2215.31
274.017	2218.31
274.249	2209.31
274.481	2200.31
274.713	2243.31
274.945	2296.31
275.176	2242.31
275.408	2218.31
275.64	2216.31
275.872	2226.31
276.104	2294.31
276.335	2355.31
276.567	2331.31
276.799	2503.31
277.031	2754.31
277.262	2844.31
277.494	2748.31
277.726	2599.31
277.957	2477.31
278.189	2400.31
278.421	2348.31
278.652	2382.31
278.884	2338.31
279.115	2317.31
279.347	2344.31
279.579	2318.31
279.81	2326.31
280.042	2362.31
280.273	2392.31
280.505	2339.31
280.736	2377.31
280.968	2387.31
281.199	2395.31
281.431	2412.31
281.662	2389.31
281.894	2465.31
282.125	2490.31
282.356	2643.31
282.588	2815.31
282.819	2633.31
283.051	2498.31
283.282	2458.31
283.513	2471.31
283.745	2573.31
283.976	2621.31
284.207	2676.31
284.439	2583.31
284.67	2560.31
284.901	2610.31
285.132	2566.31
285.364	2580.31
285.595	2583.31
285.826	2583.31
286.057	2660.31
286.288	2606.31
286.52	2614.31
286.751	2612.31
286.982	2681.31
287.213	2666.31
287.444	2674.31
287.675	2819.31
287.906	2892.31
288.138	2882.31
288.369	2887.31
288.6	2849.31
288.831	2798.31
289.062	2815.31
289.293	2837.31
289.524	2785.31
289.755	2804.31
289.986	2792.31
290.217	2757.31
290.448	2758.31
290.679	2806.31
290.91	2736.31
291.141	2746.31
291.371	2765.31
291.602	2762.31
291.833	2706.31
292.064	2824.31
292.295	2747.31
292.526	2801.31
292.757	2780.31
292.987	2762.31
293.218	2768.31
293.449	2824.31
293.68	2800.31
293.91	2817.31
294.141	2801.31
294.372	2790.31
294.603	2830.31
294.833	2863.31
295.064	2844.31
295.295	2874.31
295.525	2844.31
295.756	2936.31
295.987	2981.31
296.217	3142.31
296.448	3057.31
296.679	2928.31
296.909	2890.31
297.14	2898.31
297.37	2891.31
297.601	3020.31
297.831	3000.31
298.062	3009.31
298.292	3002.31
298.523	3058.31
298.753	3075.31
298.984	3080.31
299.214	3072.31
299.445	3072.31
299.675	3035.31
299.905	3107.31
300.136	3088.31
300.366	3076.31
300.597	3101.31
300.827	3218.31
301.057	3372.31
301.288	3343.31
301.518	3296.31
301.748	3290.31
301.979	3397.31
302.209	3329.31
302.439	3302.31
302.669	3279.31
302.9	3285.31
303.13	3272.31
303.36	3295.31
303.59	3312.31
303.82	3354.31
304.051	3352.31
304.281	3305.31
304.511	3210.31
304.741	3325.31
304.971	3230.31
305.201	3211.31
305.431	3231.31
305.661	3242.31
305.891	3228.31
306.121	3277.31
306.352	3260.31
306.582	3328.31
306.812	3164.31
307.042	3260.31
307.272	3248.31
307.502	3214.31
307.731	3223.31
307.961	3222.31
308.191	3237.31
308.421	3247.31
308.651	3273.31
308.881	3281.31
309.111	3370.31
309.341	3330.31
309.571	3402.31
309.8	3474.31
310.03	3510.31
310.26	3622.31
310.49	3507.31
310.72	3702.31
310.949	3736.31
311.179	3702.31
311.409	3588.31
311.639	3581.31
311.868	3576.31
312.098	3608.31
312.328	3769.31
312.557	3839.31
312.787	4000.31
313.017	3869.31
313.246	3753.31
313.476	3658.31
313.706	3733.31
313.935	3787.31
314.165	3933.31
314.394	3905.31
314.624	3876.31
314.853	3779.31
315.083	3710.31
315.312	3707.31
315.542	3655.31
315.771	3613.31
316.001	3660.31
316.23	3643.31
316.46	3587.31
316.689	3695.31
316.919	3786.31
317.148	3743.31
317.377	3760.31
317.607	3675.31
317.836	3693.31
318.065	3648.31
318.295	3578.31
318.524	3614.31
318.753	3654.31
318.983	3622.31
319.212	3635.31
319.441	3736.31
319.67	3693.31
319.9	3676.31
320.129	3658.31
320.358	3671.31
320.587	3682.31
320.816	3777.31
321.046	3848.31
321.275	3754.31
321.504	3782.31
321.733	3822.31
321.962	3885.31
322.191	3933.31
322.42	4139.31
322.649	4187.31
322.878	4170.31
323.108	4247.31
323.337	4442.31
323.566	4656.31
323.795	4926.31
324.024	5498.31
324.253	7162.31
324.482	10666.31
324.71	15036.31
324.939	15604.31
325.168	12824.31
325.397	6480.31
325.626	5153.31
325.855	4835.31
326.084	4759.31
326.313	4721.31
326.542	4798.31
326.77	5417.31
326.999	6893.31
327.228	9947.31
327.457	14095.31
327.686	13476.31
327.914	7271.31
328.143	5728.31
328.372	5362.31
328.6	5228.31
328.829	5112.31
329.058	5293.31
329.287	5254.31
329.515	4898.31
329.744	4713.31
329.972	4728.31
330.201	4886.31
330.43	5038.31
330.658	5408.31
330.887	5627.31
331.115	5319.31
331.344	4927.31
331.572	4832.31
331.801	4929.31
332.03	4947.31
332.258	4873.31
332.486	4927.31
332.715	4951.31
332.943	5129.31
333.172	5308.31
333.4	5344.31
333.629	5471.31
333.857	5514.31
334.085	5427.31
334.314	5405.31
334.542	5375.31
334.771	5265.31
334.999	5206.31
335.227	5068.31
335.455	5059.31
335.684	5020.31
335.912	4930.31
336.14	4882.31
336.369	4897.31
336.597	4983.31
336.825	4860.31
337.053	4801.31
337.281	4777.31
337.51	4653.31
337.738	4655.31
337.966	4701.31
338.194	4652.31
338.422	4602.31
338.65	4548.31
338.878	4524.31
339.106	4470.31
339.334	4470.31
339.562	4373.31
339.79	4384.31
340.018	4362.31
340.246	4342.31
340.474	4438.31
340.702	4399.31
340.93	4391.31
341.158	4372.31
341.386	4339.31
341.614	4376.31
341.842	4350.31
342.07	4256.31
342.298	4278.31
342.526	4292.31
342.754	4223.31
342.981	4317.31
343.209	4346.31
343.437	4626.31
343.665	4891.31
343.893	5078.31
344.12	5144.31
344.348	4875.31
344.576	4779.31
344.804	4694.31
345.031	4534.31
345.259	4593.31
345.487	4370.31
345.714	4283.31
345.942	4209.31
346.17	4209.31
346.397	4187.31
346.625	4152.31
346.853	4144.31
347.08	4193.31
347.308	4176.31
347.535	4300.31
347.763	4243.31
347.99	4211.31
348.218	4267.31
348.445	4335.31
348.673	4191.31
348.9	4212.31
349.128	4111.31
349.355	4057.31
349.583	4060.31
349.81	4043.31
350.037	4015.31
350.265	3969.31
350.492	4001.31
350.72	4104.31
350.947	4062.31
351.174	4138.31
351.402	4156.31
351.629	4205.31
351.856	4172.31
352.083	4145.31
352.311	4247.31
352.538	4170.31
352.765	4203.31
352.992	4119.31
353.22	4062.31
353.447	4063.31
353.674	3958.31
353.901	3999.31
354.128	3950.31
354.355	3899.31
354.583	3945.31
354.81	3902.31
355.037	3930.31
355.264	3877.31
355.491	3938.31
355.718	3896.31
355.945	3867.31
356.172	3943.31
356.399	3904.31
356.626	3882.31
356.853	3977.31
357.08	3915.31
357.307	3983.31
357.534	3936.31
357.761	3928.31
357.988	3984.31
358.215	3920.31
358.441	3994.31
358.668	3935.31
358.895	3990.31
359.122	4040.31
359.349	4129.31
359.576	4181.31
359.802	4416.31
360.029	4576.31
360.256	4562.31
360.483	4391.31
360.709	4215.31
360.936	4180.31
361.163	4150.31
361.39	4172.31
361.616	4152.31
361.843	4156.31
362.07	4223.31
362.296	4233.31
362.523	4184.31
362.749	4120.31
362.976	4078.31
363.203	4094.31
363.429	4021.31
363.656	4015.31
363.882	4046.31
364.109	3998.31
364.335	4028.31
364.562	3997.31
364.788	4004.31
365.015	4004.31
365.241	4019.31
365.468	4059.31
365.694	4113.31
365.92	4081.31
366.147	4029.31
366.373	3993.31
366.599	4026.31
366.826	3955.31
367.052	3924.31
367.278	4001.31
367.505	4047.31
367.731	4018.31
367.957	4006.31
368.184	4086.31
368.41	4185.31
368.636	4222.31
368.862	4208.31
369.089	4160.31
369.315	4064.31
369.541	4143.31
369.767	4145.31
369.993	4110.31
370.219	4142.31
370.445	4127.31
370.672	4194.31
370.898	4194.31
371.124	4185.31
371.35	4298.31
371.576	4232.31
371.802	4262.31
372.028	4175.31
372.254	4234.31
372.48	4251.31
372.706	4442.31
372.932	4472.31
373.158	4422.31
373.384	4320.31
373.61	4290.31
373.835	4391.31
374.061	4357.31
374.287	4479.31
374.513	4455.31
374.739	4551.31
374.965	4696.31
375.191	4601.31
375.416	4649.31
375.642	4536.31
375.868	4440.31
376.094	4382.31
376.319	4380.31
376.545	4376.31
376.771	4258.31
376.997	4322.31
377.222	4309.31
377.448	4240.31
377.674	4310.31
377.899	4230.31
378.125	4290.31
378.35	4236.31
378.576	4243.31
378.802	4219.31
379.027	4218.31
379.253	4288.31
379.478	4173.31
379.704	4182.31
379.929	4269.31
380.155	4333.31
380.38	4300.31
380.606	4304.31
380.831	4263.31
381.057	4332.31
381.282	4266.31
381.507	4409.31
381.733	4422.31
381.958	4402.31
382.184	4456.31
382.409	4470.31
382.634	4522.31
382.86	4545.31
383.085	4572.31
383.31	4585.31
383.535	4679.31
383.761	4802.31
383.986	4838.31
384.211	5009.31
384.436	5045.31
384.662	5076.31
384.887	5140.31
385.112	5114.31
385.337	5146.31
385.562	5211.31
385.787	5199.31
386.013	5336.31
386.238	5275.31
386.463	5259.31
386.688	5239.31
386.913	5122.31
387.138	5089.31
387.363	5057.31
387.588	5068.31
387.813	5115.31
388.038	5124.31
388.263	5203.31
388.488	5123.31
388.713	5086.31
388.938	5117.31
389.163	5118.31
389.387	5091.31
389.612	5030.31
389.837	5066.31
390.062	5056.31
390.287	5080.31
390.512	5048.31
390.736	5118.31
390.961	5162.31
391.186	5274.31
391.411	5423.31
391.636	5556.31
391.86	5710.31
392.085	5778.31
392.31	5679.31
392.534	5537.31
392.759	5519.31
392.984	5332.31
393.208	5304.31
393.433	5281.31
393.658	5336.31
393.882	5285.31
394.107	5321.31
394.331	5452.31
394.556	5469.31
394.78	5474.31
395.005	5457.31
395.229	5578.31
395.454	5610.31
395.678	5733.31
395.903	5815.31
396.127	5816.31
396.352	5638.31
396.576	5410.31
396.801	5387.31
397.025	5509.31
397.249	5599.31
397.474	5733.31
397.698	5725.31
397.922	5873.31
398.147	5981.31
398.371	6148.31
398.595	6280.31
398.82	6534.31
399.044	7131.31
399.268	7888.31
399.492	8959.31
399.717	9567.31
399.941	9224.31
400.165	8696.31
400.389	8034.31
400.613	7240.31
400.837	6807.31
401.062	6654.31
401.286	6518.31
401.51	6520.31
401.734	6423.31
401.958	6594.31
402.182	6656.31
402.406	6858.31
402.63	6816.31
402.854	6947.31
403.078	7018.31
403.302	7237.31
403.526	7280.31
403.75	7314.31
403.974	7405.31
404.198	7350.31
404.422	7544.31
404.645	7275.31
404.869	7262.31
405.093	7490.31
405.317	7544.31
405.541	7545.31
405.765	7289.31
405.988	7229.31
406.212	7415.31
406.436	7578.31
406.66	7687.31
406.883	7663.31
407.107	8282.31
407.331	8768.31
407.555	9338.31
407.778	8956.31
408.002	8275.31
408.226	7859.31
408.449	7620.31
408.673	7533.31
408.896	7813.31
409.12	7853.31
409.344	7522.31
409.567	7098.31
409.791	7078.31
410.014	7002.31
410.238	6867.31
410.461	6958.31
410.685	7090.31
410.908	7082.31
411.132	7255.31
411.355	7269.31
411.578	6926.31
411.802	6689.31
412.025	6639.31
412.249	6826.31
412.472	6773.31
412.695	6678.31
412.919	6538.31
413.142	6462.31
413.365	6405.31
413.589	6464.31
413.812	6288.31
414.035	6239.31
414.258	6282.31
414.482	6328.31
414.705	6419.31
414.928	6363.31
415.151	6310.31
415.374	6405.31
415.597	6291.31
415.821	6160.31
416.044	6204.31
416.267	6367.31
416.49	6145.31
416.713	6234.31
416.936	6248.31
417.159	6276.31
417.382	6374.31
417.605	6312.31
417.828	6511.31
418.051	6646.31
418.274	6532.31
418.497	6283.31
418.72	6490.31
418.943	6352.31
419.166	6766.31
419.389	7229.31
419.611	7060.31
419.834	6881.31
420.057	6794.31
420.28	6462.31
420.503	6344.31
420.726	6378.31
420.948	6561.31
421.171	7020.31
421.394	7036.31
421.617	6510.31
421.839	6443.31
422.062	6544.31
422.285	6726.31
422.507	7434.31
422.73	7849.31
422.953	7354.31
423.175	6975.31
423.398	6986.31
423.621	7005.31
423.843	7233.31
424.066	7182.31
424.288	7109.31
424.511	7279.31
424.733	7802.31
424.956	8166.31
425.178	7744.31
425.401	7922.31
425.623	7851.31
425.846	6747.31
426.068	6623.31
426.291	6558.31
426.513	6515.31
426.735	6676.31
426.958	7081.31
427.18	7818.31
427.402	9006.31
427.625	8952.31
427.847	7586.31
428.069	6731.31
428.292	6398.31
428.514	6114.31
428.736	5936.31
428.958	5995.31
429.181	5766.31
429.403	5773.31
429.625	6050.31
429.847	6372.31
430.069	6799.31
430.292	6446.31
430.514	5824.31
430.736	5866.31
430.958	5712.31
431.18	5651.31
431.402	5633.31
431.624	5558.31
431.846	5747.31
432.068	5803.31
432.29	5842.31
432.512	5647.31
432.734	5798.31
432.956	5814.31
433.178	5826.31
433.4	5774.31
433.622	5727.31
433.844	5757.31
434.066	5756.31
434.287	5834.31
434.509	6072.31
434.731	6359.31
434.953	6463.31
435.175	6534.31
435.397	6715.31
435.618	6604.31
435.84	6938.31
436.062	7738.31
436.284	7799.31
436.505	6625.31
436.727	6267.31
436.949	5902.31
437.17	5804.31
437.392	5878.31
437.614	6032.31
437.835	6416.31
438.057	7353.31
438.278	7957.31
438.5	7882.31
438.721	8724.31
438.943	7665.31
439.165	6475.31
439.386	6274.31
439.608	6317.31
439.829	6375.31
440.05	6729.31
440.272	6984.31
440.493	6463.31
440.715	6169.31
440.936	6120.31
441.158	6170.31
441.379	6241.31
441.6	6621.31
441.822	6848.31
442.043	7276.31
442.264	8026.31
442.486	7775.31
442.707	6950.31
442.928	6726.31
443.149	6984.31
443.371	7202.31
443.592	7726.31
443.813	8740.31
444.034	8633.31
444.255	7543.31
444.476	7331.31
444.698	7588.31
444.919	7604.31
445.14	7433.31
445.361	7316.31
445.582	7314.31
445.803	8031.31
446.024	8681.31
446.245	8254.31
446.466	7517.31
446.687	6530.31
446.908	6137.31
447.129	5813.31
447.35	5747.31
447.571	5643.31
447.792	5521.31
448.013	5688.31
448.234	5872.31
448.455	6469.31
448.675	7711.31
448.896	8148.31
449.117	6789.31
449.338	6887.31
449.559	8244.31
449.779	8427.31
450	6580.31
450.221	5820.31
450.442	5568.31
450.662	5440.31
450.883	5587.31
451.104	5680.31
451.324	5485.31
451.545	5406.31
451.766	5249.31
451.986	5176.31
452.207	5060.31
452.428	5036.31
452.648	5140.31
452.869	5122.31
453.089	5215.31
453.31	5308.31
453.53	5097.31
453.751	5025.31
453.971	5106.31
454.192	5126.31
454.412	5009.31
454.633	4940.31
454.853	4857.31
455.073	4956.31
455.294	5392.31
455.514	5850.31
455.734	5440.31
455.955	4882.31
456.175	4729.31
456.395	4676.31
456.616	4624.31
456.836	4615.31
457.056	4645.31
457.276	4572.31
457.497	4758.31
457.717	4764.31
457.937	4810.31
458.157	4844.31
458.377	5045.31
458.598	5305.31
458.818	6082.31
459.038	6691.31
459.258	6642.31
459.478	5995.31
459.698	5780.31
459.918	5868.31
460.138	5996.31
460.358	6259.31
460.578	6272.31
460.798	6349.31
461.018	6380.31
461.238	6136.31
461.458	6217.31
461.678	6189.31
461.898	6245.31
462.118	6354.31
462.338	6682.31
462.558	6835.31
462.777	7198.31
462.997	7734.31
463.217	8105.31
463.437	7982.31
463.657	7387.31
463.876	7090.31
464.096	7170.31
464.316	7167.31
464.536	7188.31
464.755	6953.31
464.975	6859.31
465.195	6969.31
465.414	7055.31
465.634	6243.31
465.854	5867.31
466.073	5694.31
466.293	5524.31
466.512	5331.31
466.732	5242.31
466.951	5190.31
467.171	5218.31
467.391	5352.31
467.61	5289.31
467.829	5191.31
468.049	5208.31
468.268	5072.31
468.488	5030.31
468.707	4930.31
468.927	4986.31
469.146	4936.31
469.365	5050.31
469.585	5071.31
469.804	5219.31
470.023	5448.31
470.243	5390.31
470.462	5512.31
470.681	5643.31
470.901	5518.31
471.12	5334.31
471.339	5256.31
471.558	5276.31
471.777	5202.31
471.997	5023.31
472.216	5010.31
472.435	5036.31
472.654	4956.31
472.873	4907.31
473.092	4928.31
473.311	4924.31
473.53	5012.31
473.749	5134.31
473.968	5643.31
474.187	6703.31
474.406	6253.31
474.625	5347.31
474.844	5056.31
475.063	5019.31
475.282	5018.31
475.501	5065.31
475.72	5133.31
475.939	5150.31
476.158	5151.31
476.377	5233.31
476.596	5122.31
476.814	5346.31
477.033	5363.31
477.252	5411.31
477.471	5501.31
477.69	5585.31
477.908	5824.31
478.127	5914.31
478.346	5914.31
478.564	5992.31
478.783	6183.31
479.002	6323.31
479.22	6341.31
479.439	6331.31
479.658	6371.31
479.876	6601.31
480.095	6774.31
480.313	7169.31
480.532	7122.31
480.751	6865.31
480.969	6919.31
481.188	6703.31
481.406	6451.31
481.624	6238.31
481.843	6134.31
482.061	6014.31
482.28	5862.31
482.498	5915.31
482.717	5800.31
482.935	5851.31
483.153	5862.31
483.372	5850.31
483.59	5847.31
483.808	5839.31
484.027	5882.31
484.245	5928.31
484.463	5899.31
484.681	6009.31
484.9	6047.31
485.118	6113.31
485.336	6185.31
485.554	6283.31
485.772	6332.31
485.99	6216.31
486.209	6296.31
486.427	6326.31
486.645	6346.31
486.863	6540.31
487.081	6481.31
487.299	6354.31
487.517	6354.31
487.735	6258.31
487.953	6340.31
