Data from Uncirc_2005_H10_HRD10591_00052.txt Node
Date: Wed Jan 03 10:28:35 EST 2024
User: Yrep
Spectrometer: HR+D1059
Trigger mode: 1
Integration Time (sec): 1.000000E-1
Scans to average: 1
Electric dark correction enabled: true
Nonlinearity correction enabled: false
Boxcar width: 0
XAxis mode: Wavelengths
Number of Pixels in Spectrum: 2048
>>>>>Begin Spectral Data<<<<<
223.165	-6.25
223.4	-6.25
223.635	-6.25
223.869	-36.25
224.104	-17.25
224.338	-12.25
224.573	-12.25
224.808	-14.25
225.042	-5.25
225.277	-10.25
225.511	-0.25
225.746	8.75
225.98	4.75
226.215	5.75
226.449	14.75
226.683	22.75
226.918	26.75
227.152	30.75
227.387	44.75
227.621	22.75
227.856	57.75
228.09	49.75
228.324	44.75
228.559	62.75
228.793	47.75
229.027	65.75
229.262	82.75
229.496	82.75
229.73	86.75
229.964	66.75
230.199	67.75
230.433	62.75
230.667	60.75
230.901	83.75
231.136	67.75
231.37	71.75
231.604	85.75
231.838	77.75
232.072	73.75
232.306	84.75
232.541	77.75
232.775	94.75
233.009	83.75
233.243	79.75
233.477	84.75
233.711	82.75
233.945	76.75
234.179	77.75
234.413	89.75
234.647	69.75
234.881	92.75
235.115	75.75
235.349	60.75
235.583	76.75
235.817	86.75
236.051	49.75
236.285	85.75
236.519	85.75
236.753	85.75
236.987	76.75
237.221	78.75
237.455	88.75
237.689	82.75
237.922	72.75
238.156	60.75
238.39	67.75
238.624	80.75
238.858	75.75
239.091	64.75
239.325	77.75
239.559	79.75
239.793	82.75
240.027	69.75
240.26	79.75
240.494	81.75
240.728	78.75
240.961	78.75
241.195	70.75
241.429	74.75
241.662	54.75
241.896	74.75
242.13	76.75
242.363	69.75
242.597	78.75
242.83	70.75
243.064	73.75
243.298	86.75
243.531	81.75
243.765	83.75
243.998	67.75
244.232	83.75
244.465	89.75
244.699	66.75
244.932	81.75
245.166	72.75
245.399	79.75
245.633	78.75
245.866	77.75
246.099	76.75
246.333	90.75
246.566	77.75
246.8	75.75
247.033	100.75
247.266	84.75
247.5	87.75
247.733	94.75
247.966	82.75
248.2	72.75
248.433	70.75
248.666	80.75
248.899	82.75
249.133	79.75
249.366	95.75
249.599	95.75
249.832	72.75
250.066	87.75
250.299	63.75
250.532	85.75
250.765	81.75
250.998	72.75
251.231	79.75
251.465	70.75
251.698	83.75
251.931	71.75
252.164	82.75
252.397	88.75
252.63	68.75
252.863	72.75
253.096	78.75
253.329	77.75
253.562	80.75
253.795	90.75
254.028	69.75
254.261	72.75
254.494	71.75
254.727	80.75
254.96	82.75
255.193	75.75
255.426	76.75
255.659	73.75
255.892	82.75
256.124	81.75
256.357	90.75
256.59	75.75
256.823	84.75
257.056	85.75
257.289	80.75
257.521	88.75
257.754	87.75
257.987	83.75
258.22	66.75
258.452	83.75
258.685	80.75
258.918	79.75
259.151	75.75
259.383	84.75
259.616	83.75
259.849	84.75
260.081	78.75
260.314	62.75
260.547	78.75
260.779	103.75
261.012	78.75
261.244	85.75
261.477	88.75
261.71	88.75
261.942	90.75
262.175	122.75
262.407	85.75
262.64	87.75
262.872	74.75
263.105	83.75
263.337	80.75
263.57	78.75
263.802	77.75
264.035	72.75
264.267	83.75
264.499	91.75
264.732	88.75
264.964	79.75
265.197	79.75
265.429	68.75
265.661	89.75
265.894	90.75
266.126	71.75
266.358	83.75
266.591	80.75
266.823	91.75
267.055	86.75
267.287	86.75
267.52	75.75
267.752	78.75
267.984	80.75
268.216	60.75
268.448	86.75
268.681	79.75
268.913	74.75
269.145	86.75
269.377	75.75
269.609	86.75
269.841	86.75
270.073	80.75
270.306	84.75
270.538	72.75
270.77	77.75
271.002	85.75
271.234	72.75
271.466	84.75
271.698	88.75
271.93	76.75
272.162	76.75
272.394	79.75
272.626	76.75
272.858	75.75
273.09	84.75
273.322	85.75
273.553	74.75
273.785	75.75
274.017	81.75
274.249	85.75
274.481	79.75
274.713	90.75
274.945	94.75
275.176	84.75
275.408	90.75
275.64	79.75
275.872	80.75
276.104	89.75
276.335	81.75
276.567	86.75
276.799	87.75
277.031	99.75
277.262	96.75
277.494	84.75
277.726	86.75
277.957	78.75
278.189	83.75
278.421	94.75
278.652	95.75
278.884	88.75
279.115	70.75
279.347	102.75
279.579	82.75
279.81	91.75
280.042	92.75
280.273	80.75
280.505	85.75
280.736	84.75
280.968	70.75
281.199	90.75
281.431	89.75
281.662	90.75
281.894	83.75
282.125	99.75
282.356	106.75
282.588	132.75
282.819	104.75
283.051	95.75
283.282	95.75
283.513	85.75
283.745	91.75
283.976	74.75
284.207	78.75
284.439	86.75
284.67	93.75
284.901	72.75
285.132	77.75
285.364	73.75
285.595	93.75
285.826	79.75
286.057	95.75
286.288	86.75
286.52	82.75
286.751	71.75
286.982	85.75
287.213	95.75
287.444	93.75
287.675	87.75
287.906	101.75
288.138	85.75
288.369	102.75
288.6	76.75
288.831	104.75
289.062	106.75
289.293	100.75
289.524	69.75
289.755	79.75
289.986	99.75
290.217	88.75
290.448	80.75
290.679	88.75
290.91	76.75
291.141	95.75
291.371	68.75
291.602	86.75
291.833	89.75
292.064	81.75
292.295	84.75
292.526	76.75
292.757	80.75
292.987	97.75
293.218	84.75
293.449	84.75
293.68	89.75
293.91	76.75
294.141	88.75
294.372	102.75
294.603	85.75
294.833	77.75
295.064	92.75
295.295	82.75
295.525	89.75
295.756	92.75
295.987	105.75
296.217	129.75
296.448	106.75
296.679	96.75
296.909	86.75
297.14	77.75
297.37	85.75
297.601	84.75
297.831	83.75
298.062	97.75
298.292	97.75
298.523	88.75
298.753	91.75
298.984	67.75
299.214	81.75
299.445	81.75
299.675	110.75
299.905	93.75
300.136	83.75
300.366	94.75
300.597	89.75
300.827	96.75
301.057	96.75
301.288	106.75
301.518	98.75
301.748	90.75
301.979	98.75
302.209	79.75
302.439	93.75
302.669	106.75
302.9	84.75
303.13	96.75
303.36	94.75
303.59	95.75
303.82	101.75
304.051	99.75
304.281	93.75
304.511	91.75
304.741	85.75
304.971	72.75
305.201	77.75
305.431	79.75
305.661	83.75
305.891	101.75
306.121	97.75
306.352	98.75
306.582	89.75
306.812	97.75
307.042	87.75
307.272	80.75
307.502	101.75
307.731	84.75
307.961	92.75
308.191	81.75
308.421	86.75
308.651	88.75
308.881	95.75
309.111	87.75
309.341	90.75
309.571	97.75
309.8	97.75
310.03	83.75
310.26	85.75
310.49	98.75
310.72	103.75
310.949	101.75
311.179	101.75
311.409	89.75
311.639	105.75
311.868	114.75
312.098	89.75
312.328	95.75
312.557	97.75
312.787	105.75
313.017	97.75
313.246	91.75
313.476	81.75
313.706	93.75
313.935	97.75
314.165	89.75
314.394	81.75
314.624	102.75
314.853	78.75
315.083	105.75
315.312	99.75
315.542	88.75
315.771	106.75
316.001	80.75
316.23	70.75
316.46	91.75
316.689	92.75
316.919	89.75
317.148	96.75
317.377	95.75
317.607	94.75
317.836	89.75
318.065	90.75
318.295	86.75
318.524	78.75
318.753	85.75
318.983	96.75
319.212	95.75
319.441	100.75
319.67	99.75
319.9	90.75
320.129	105.75
320.358	96.75
320.587	96.75
320.816	96.75
321.046	101.75
321.275	96.75
321.504	90.75
321.733	98.75
321.962	98.75
322.191	90.75
322.42	100.75
322.649	120.75
322.878	111.75
323.108	108.75
323.337	134.75
323.566	122.75
323.795	161.75
324.024	206.75
324.253	436.75
324.482	913.75
324.71	1931.75
324.939	2585.75
325.168	944.75
325.397	262.75
325.626	145.75
325.855	120.75
326.084	124.75
326.313	140.75
326.542	157.75
326.77	248.75
326.999	513.75
327.228	1083.75
327.457	1992.75
327.686	1578.75
327.914	407.75
328.143	189.75
328.372	142.75
328.6	126.75
328.829	122.75
329.058	122.75
329.287	121.75
329.515	97.75
329.744	109.75
329.972	91.75
330.201	102.75
330.43	103.75
330.658	116.75
330.887	123.75
331.115	100.75
331.344	100.75
331.572	92.75
331.801	90.75
332.03	94.75
332.258	102.75
332.486	84.75
332.715	90.75
332.943	82.75
333.172	90.75
333.4	97.75
333.629	104.75
333.857	112.75
334.085	113.75
334.314	96.75
334.542	110.75
334.771	88.75
334.999	97.75
335.227	102.75
335.455	94.75
335.684	102.75
335.912	89.75
336.14	90.75
336.369	92.75
336.597	98.75
336.825	97.75
337.053	84.75
337.281	91.75
337.51	98.75
337.738	92.75
337.966	89.75
338.194	92.75
338.422	97.75
338.65	95.75
338.878	98.75
339.106	89.75
339.334	81.75
339.562	80.75
339.79	78.75
340.018	76.75
340.246	96.75
340.474	101.75
340.702	99.75
340.93	102.75
341.158	106.75
341.386	104.75
341.614	96.75
341.842	82.75
342.07	93.75
342.298	81.75
342.526	89.75
342.754	82.75
342.981	89.75
343.209	78.75
343.437	105.75
343.665	77.75
343.893	89.75
344.12	94.75
344.348	111.75
344.576	85.75
344.804	87.75
345.031	89.75
345.259	95.75
345.487	95.75
345.714	90.75
345.942	89.75
346.17	98.75
346.397	95.75
346.625	81.75
346.853	91.75
347.08	90.75
347.308	89.75
347.535	91.75
347.763	101.75
347.99	84.75
348.218	108.75
348.445	101.75
348.673	96.75
348.9	88.75
349.128	106.75
349.355	95.75
349.583	88.75
349.81	81.75
350.037	92.75
350.265	104.75
350.492	100.75
350.72	93.75
350.947	106.75
351.174	95.75
351.402	98.75
351.629	108.75
351.856	85.75
352.083	80.75
352.311	115.75
352.538	105.75
352.765	97.75
352.992	125.75
353.22	109.75
353.447	103.75
353.674	108.75
353.901	92.75
354.128	94.75
354.355	84.75
354.583	102.75
354.81	89.75
355.037	107.75
355.264	85.75
355.491	94.75
355.718	92.75
355.945	97.75
356.172	107.75
356.399	104.75
356.626	83.75
356.853	91.75
357.08	86.75
357.307	100.75
357.534	97.75
357.761	90.75
357.988	103.75
358.215	93.75
358.441	100.75
358.668	102.75
358.895	87.75
359.122	87.75
359.349	81.75
359.576	81.75
359.802	83.75
360.029	106.75
360.256	109.75
360.483	79.75
360.709	84.75
360.936	90.75
361.163	91.75
361.39	100.75
361.616	91.75
361.843	99.75
362.07	100.75
362.296	108.75
362.523	86.75
362.749	94.75
362.976	90.75
363.203	88.75
363.429	83.75
363.656	98.75
363.882	96.75
364.109	89.75
364.335	85.75
364.562	79.75
364.788	82.75
365.015	96.75
365.241	91.75
365.468	104.75
365.694	105.75
365.92	97.75
366.147	86.75
366.373	91.75
366.599	83.75
366.826	93.75
367.052	82.75
367.278	88.75
367.505	89.75
367.731	92.75
367.957	86.75
368.184	99.75
368.41	101.75
368.636	117.75
368.862	113.75
369.089	113.75
369.315	85.75
369.541	86.75
369.767	84.75
369.993	78.75
370.219	96.75
370.445	87.75
370.672	82.75
370.898	85.75
371.124	82.75
371.35	76.75
371.576	86.75
371.802	86.75
372.028	98.75
372.254	96.75
372.48	75.75
372.706	65.75
372.932	78.75
373.158	84.75
373.384	84.75
373.61	70.75
373.835	93.75
374.061	96.75
374.287	85.75
374.513	91.75
374.739	92.75
374.965	94.75
375.191	86.75
375.416	86.75
375.642	92.75
375.868	97.75
376.094	83.75
376.319	85.75
376.545	88.75
376.771	93.75
376.997	97.75
377.222	98.75
377.448	81.75
377.674	91.75
377.899	88.75
378.125	102.75
378.35	90.75
378.576	82.75
378.802	91.75
379.027	94.75
379.253	93.75
379.478	91.75
379.704	97.75
379.929	80.75
380.155	88.75
380.38	91.75
380.606	96.75
380.831	62.75
381.057	106.75
381.282	76.75
381.507	102.75
381.733	98.75
381.958	85.75
382.184	84.75
382.409	108.75
382.634	112.75
382.86	108.75
383.085	87.75
383.31	99.75
383.535	93.75
383.761	107.75
383.986	92.75
384.211	86.75
384.436	94.75
384.662	83.75
384.887	98.75
385.112	100.75
385.337	96.75
385.562	100.75
385.787	105.75
386.013	123.75
386.238	115.75
386.463	107.75
386.688	112.75
386.913	109.75
387.138	101.75
387.363	114.75
387.588	101.75
387.813	102.75
388.038	102.75
388.263	107.75
388.488	97.75
388.713	98.75
388.938	104.75
389.163	89.75
389.387	87.75
389.612	81.75
389.837	96.75
390.062	101.75
390.287	89.75
390.512	81.75
390.736	85.75
390.961	86.75
391.186	84.75
391.411	82.75
391.636	88.75
391.86	78.75
392.085	82.75
392.31	83.75
392.534	81.75
392.759	78.75
392.984	80.75
393.208	83.75
393.433	88.75
393.658	88.75
393.882	92.75
394.107	90.75
394.331	85.75
394.556	81.75
394.78	92.75
395.005	96.75
395.229	89.75
395.454	92.75
395.678	83.75
395.903	77.75
396.127	80.75
396.352	87.75
396.576	81.75
396.801	98.75
397.025	87.75
397.249	87.75
397.474	85.75
397.698	79.75
397.922	80.75
398.147	76.75
398.371	90.75
398.595	91.75
398.82	86.75
399.044	82.75
399.268	90.75
399.492	86.75
399.717	77.75
399.941	85.75
400.165	90.75
400.389	81.75
400.613	79.75
400.837	92.75
401.062	80.75
401.286	84.75
401.51	97.75
401.734	100.75
401.958	98.75
402.182	113.75
402.406	148.75
402.63	117.75
402.854	83.75
403.078	84.75
403.302	83.75
403.526	88.75
403.75	83.75
403.974	94.75
404.198	78.75
404.422	78.75
404.645	99.75
404.869	84.75
405.093	95.75
405.317	110.75
405.541	94.75
405.765	92.75
405.988	100.75
406.212	150.75
406.436	212.75
406.66	138.75
406.883	113.75
407.107	89.75
407.331	105.75
407.555	109.75
407.778	111.75
408.002	84.75
408.226	84.75
408.449	96.75
408.673	78.75
408.896	105.75
409.12	83.75
409.344	85.75
409.567	93.75
409.791	110.75
410.014	97.75
410.238	103.75
410.461	86.75
410.685	96.75
410.908	99.75
411.132	91.75
411.355	94.75
411.578	84.75
411.802	82.75
412.025	86.75
412.249	90.75
412.472	82.75
412.695	92.75
412.919	86.75
413.142	88.75
413.365	81.75
413.589	99.75
413.812	90.75
414.035	81.75
414.258	84.75
414.482	93.75
414.705	92.75
414.928	93.75
415.151	91.75
415.374	92.75
415.597	96.75
415.821	77.75
416.044	66.75
416.267	85.75
416.49	79.75
416.713	84.75
416.936	93.75
417.159	76.75
417.382	85.75
417.605	87.75
417.828	90.75
418.051	89.75
418.274	86.75
418.497	93.75
418.72	92.75
418.943	80.75
419.166	93.75
419.389	76.75
419.611	85.75
419.834	100.75
420.057	91.75
420.28	84.75
420.503	101.75
420.726	93.75
420.948	85.75
421.171	88.75
421.394	92.75
421.617	90.75
421.839	93.75
422.062	86.75
422.285	88.75
422.507	92.75
422.73	99.75
422.953	94.75
423.175	67.75
423.398	86.75
423.621	82.75
423.843	90.75
424.066	89.75
424.288	89.75
424.511	89.75
424.733	84.75
424.956	101.75
425.178	107.75
425.401	93.75
425.623	85.75
425.846	80.75
426.068	79.75
426.291	94.75
426.513	86.75
426.735	70.75
426.958	78.75
427.18	100.75
427.402	142.75
427.625	169.75
427.847	132.75
428.069	94.75
428.292	89.75
428.514	96.75
428.736	83.75
428.958	79.75
429.181	68.75
429.403	80.75
429.625	88.75
429.847	95.75
430.069	95.75
430.292	83.75
430.514	78.75
430.736	83.75
430.958	76.75
431.18	80.75
431.402	76.75
431.624	82.75
431.846	87.75
432.068	88.75
432.29	81.75
432.512	78.75
432.734	77.75
432.956	85.75
433.178	111.75
433.4	98.75
433.622	95.75
433.844	78.75
434.066	99.75
434.287	92.75
434.509	83.75
434.731	95.75
434.953	91.75
435.175	82.75
435.397	93.75
435.618	82.75
435.84	112.75
436.062	124.75
436.284	115.75
436.505	102.75
436.727	95.75
436.949	101.75
437.17	76.75
437.392	86.75
437.614	84.75
437.835	98.75
438.057	114.75
438.278	113.75
438.5	108.75
438.721	140.75
438.943	102.75
439.165	87.75
439.386	80.75
439.608	83.75
439.829	101.75
440.05	129.75
440.272	146.75
440.493	106.75
440.715	85.75
440.936	88.75
441.158	83.75
441.379	85.75
441.6	89.75
441.822	101.75
442.043	98.75
442.264	111.75
442.486	107.75
442.707	97.75
442.928	92.75
443.149	127.75
443.371	120.75
443.592	94.75
443.813	108.75
444.034	115.75
444.255	92.75
444.476	74.75
444.698	77.75
444.919	59.75
445.14	117.75
445.361	125.75
445.582	101.75
445.803	135.75
446.024	130.75
446.245	126.75
446.466	93.75
446.687	99.75
446.908	87.75
447.129	83.75
447.35	83.75
447.571	88.75
447.792	85.75
448.013	100.75
448.234	110.75
448.455	99.75
448.675	101.75
448.896	135.75
449.117	84.75
449.338	105.75
449.559	139.75
449.779	141.75
450	106.75
450.221	83.75
450.442	90.75
450.662	97.75
450.883	95.75
451.104	106.75
451.324	99.75
451.545	75.75
451.766	87.75
451.986	83.75
452.207	72.75
452.428	79.75
452.648	88.75
452.869	100.75
453.089	100.75
453.31	115.75
453.53	79.75
453.751	97.75
453.971	91.75
454.192	114.75
454.412	98.75
454.633	85.75
454.853	78.75
455.073	94.75
455.294	89.75
455.514	102.75
455.734	100.75
455.955	88.75
456.175	84.75
456.395	84.75
456.616	82.75
456.836	76.75
457.056	82.75
457.276	82.75
457.497	79.75
457.717	91.75
457.937	91.75
458.157	69.75
458.377	83.75
458.598	113.75
458.818	161.75
459.038	150.75
459.258	101.75
459.478	93.75
459.698	99.75
459.918	77.75
460.138	78.75
460.358	76.75
460.578	81.75
460.798	82.75
461.018	93.75
461.238	93.75
461.458	71.75
461.678	70.75
461.898	86.75
462.118	79.75
462.338	80.75
462.558	106.75
462.777	84.75
462.997	72.75
463.217	88.75
463.437	85.75
463.657	75.75
463.876	83.75
464.096	85.75
464.316	80.75
464.536	85.75
464.755	88.75
464.975	92.75
465.195	156.75
465.414	170.75
465.634	93.75
465.854	94.75
466.073	76.75
466.293	82.75
466.512	102.75
466.732	81.75
466.951	93.75
467.171	96.75
467.391	94.75
467.61	90.75
467.829	91.75
468.049	80.75
468.268	86.75
468.488	83.75
468.707	84.75
468.927	79.75
469.146	91.75
469.365	87.75
469.585	86.75
469.804	92.75
470.023	91.75
470.243	93.75
470.462	98.75
470.681	104.75
470.901	86.75
471.12	83.75
471.339	88.75
471.558	75.75
471.777	76.75
471.997	93.75
472.216	97.75
472.435	84.75
472.654	89.75
472.873	89.75
473.092	83.75
473.311	85.75
473.53	89.75
473.749	96.75
473.968	93.75
474.187	102.75
474.406	89.75
474.625	92.75
474.844	90.75
475.063	88.75
475.282	100.75
475.501	81.75
475.72	95.75
475.939	78.75
476.158	97.75
476.377	79.75
476.596	92.75
476.814	88.75
477.033	84.75
477.252	97.75
477.471	94.75
477.69	108.75
477.908	89.75
478.127	92.75
478.346	88.75
478.564	91.75
478.783	84.75
479.002	104.75
479.22	105.75
479.439	102.75
479.658	80.75
479.876	91.75
480.095	104.75
480.313	98.75
480.532	86.75
480.751	102.75
480.969	90.75
481.188	91.75
481.406	91.75
481.624	95.75
481.843	86.75
482.061	88.75
482.28	69.75
482.498	74.75
482.717	80.75
482.935	91.75
483.153	68.75
483.372	88.75
483.59	82.75
483.808	94.75
484.027	93.75
484.245	84.75
484.463	89.75
484.681	94.75
484.9	92.75
485.118	91.75
485.336	89.75
485.554	86.75
485.772	101.75
485.99	93.75
486.209	100.75
486.427	90.75
486.645	103.75
486.863	114.75
487.081	113.75
487.299	95.75
487.517	86.75
487.735	95.75
487.953	83.75
488.171	97.75
488.389	79.75
488.607	113.75
488.825	92.75
489.043	90.75
489.261	99.75
489.479	100.75
489.696	98.75
489.914	80.75
490.132	95.75
490.35	92.75
490.568	84.75
490.786	87.75
491.003	78.75
491.221	87.75
491.439	94.75
491.657	84.75
491.874	101.75
492.092	96.75
492.31	82.75
492.527	92.75
492.745	79.75
492.963	83.75
493.18	97.75
493.398	95.75
493.615	85.75
493.833	84.75
494.05	101.75
494.268	89.75
494.485	104.75
494.703	95.75
494.92	85.75
495.138	87.75
495.355	79.75
495.573	78.75
495.79	88.75
496.008	92.75
496.225	76.75
496.442	83.75
496.66	96.75
496.877	84.75
497.094	82.75
497.312	99.75
497.529	84.75
497.746	80.75
497.963	91.75
498.181	81.75
498.398	86.75
498.615	106.75
498.832	101.75
499.049	90.75
499.267	80.75
499.484	79.75
499.701	83.75
499.918	81.75
500.135	84.75
500.352	83.75
500.569	94.75
500.786	85.75
501.003	85.75
501.22	91.75
501.437	86.75
501.654	87.75
501.871	96.75
502.088	93.75
502.305	89.75
502.522	89.75
502.739	102.75
502.956	84.75
503.172	89.75
503.389	88.75
503.606	94.75
503.823	96.75
504.04	94.75
504.256	89.75
504.473	84.75
504.69	98.75
504.907	93.75
505.123	92.75
505.34	88.75
505.557	80.75
505.773	81.75
505.99	84.75
506.207	106.75
506.423	88.75
506.64	95.75
506.856	85.75
507.073	86.75
507.289	89.75
507.506	90.75
507.722	111.75
507.939	109.75
508.155	106.75
508.372	97.75
508.588	93.75
508.805	94.75
509.021	92.75
509.238	95.75
509.454	85.75
509.67	107.75
509.887	102.75
510.103	140.75
510.319	202.75
510.536	723.75
510.752	2219.75
510.968	625.75
511.184	134.75
511.401	92.75
511.617	88.75
511.833	96.75
512.049	77.75
512.265	89.75
512.481	97.75
512.698	99.75
512.914	83.75
513.13	88.75
513.346	82.75
513.562	97.75
513.778	94.75
513.994	106.75
514.21	108.75
514.426	112.75
514.642	145.75
514.858	126.75
515.074	156.75
515.29	429.75
515.506	1404.75
515.721	524.75
515.937	128.75
516.153	100.75
516.369	94.75
