Data from Uncirc_2005_H10_HRD10591_00097.txt Node
Date: Wed Jan 03 10:28:44 EST 2024
User: Yrep
Spectrometer: HR+D1059
Trigger mode: 1
Integration Time (sec): 1.000000E-1
Scans to average: 1
Electric dark correction enabled: true
Nonlinearity correction enabled: false
Boxcar width: 0
XAxis mode: Wavelengths
Number of Pixels in Spectrum: 2048
>>>>>Begin Spectral Data<<<<<
223.165	-15
223.4	-15
223.635	-15
223.869	-17
224.104	-18
224.338	-20
224.573	-15
224.808	-8
225.042	-9
225.277	-19
225.511	10
225.746	14
225.98	-1
226.215	5
226.449	12
226.683	13
226.918	37
227.152	31
227.387	29
227.621	41
227.856	32
228.09	45
228.324	51
228.559	51
228.793	75
229.027	56
229.262	63
229.496	64
229.73	80
229.964	78
230.199	77
230.433	72
230.667	72
230.901	67
231.136	70
231.37	78
231.604	81
231.838	80
232.072	73
232.306	80
232.541	84
232.775	83
233.009	83
233.243	97
233.477	89
233.711	84
233.945	82
234.179	99
234.413	89
234.647	64
234.881	69
235.115	70
235.349	78
235.583	70
235.817	93
236.051	86
236.285	74
236.519	73
236.753	81
236.987	80
237.221	68
237.455	96
237.689	85
237.922	83
238.156	83
238.39	92
238.624	74
238.858	82
239.091	65
239.325	66
239.559	76
239.793	92
240.027	73
240.26	75
240.494	80
240.728	75
240.961	79
241.195	79
241.429	76
241.662	73
241.896	83
242.13	89
242.363	70
242.597	69
242.83	93
243.064	86
243.298	88
243.531	88
243.765	83
243.998	79
244.232	90
244.465	89
244.699	88
244.932	77
245.166	79
245.399	82
245.633	80
245.866	80
246.099	79
246.333	94
246.566	78
246.8	70
247.033	82
247.266	83
247.5	76
247.733	75
247.966	82
248.2	79
248.433	82
248.666	80
248.899	82
249.133	86
249.366	85
249.599	84
249.832	69
250.066	85
250.299	72
250.532	86
250.765	76
250.998	72
251.231	75
251.465	90
251.698	82
251.931	79
252.164	85
252.397	92
252.63	73
252.863	88
253.096	79
253.329	77
253.562	77
253.795	76
254.028	86
254.261	86
254.494	81
254.727	71
254.96	72
255.193	88
255.426	72
255.659	90
255.892	103
256.124	92
256.357	79
256.59	82
256.823	74
257.056	82
257.289	83
257.521	101
257.754	77
257.987	83
258.22	84
258.452	85
258.685	74
258.918	84
259.151	73
259.383	83
259.616	76
259.849	89
260.081	83
260.314	84
260.547	83
260.779	79
261.012	85
261.244	89
261.477	91
261.71	91
261.942	113
262.175	109
262.407	83
262.64	88
262.872	79
263.105	78
263.337	97
263.57	96
263.802	79
264.035	82
264.267	86
264.499	92
264.732	80
264.964	64
265.197	77
265.429	77
265.661	80
265.894	82
266.126	81
266.358	91
266.591	80
266.823	79
267.055	88
267.287	86
267.52	89
267.752	95
267.984	88
268.216	81
268.448	78
268.681	82
268.913	86
269.145	75
269.377	69
269.609	71
269.841	74
270.073	79
270.306	84
270.538	79
270.77	104
271.002	101
271.234	89
271.466	95
271.698	88
271.93	101
272.162	109
272.394	81
272.626	76
272.858	88
273.09	88
273.322	79
273.553	72
273.785	86
274.017	99
274.249	92
274.481	96
274.713	87
274.945	103
275.176	88
275.408	78
275.64	69
275.872	83
276.104	83
276.335	79
276.567	99
276.799	100
277.031	92
277.262	95
277.494	99
277.726	87
277.957	96
278.189	88
278.421	88
278.652	94
278.884	83
279.115	94
279.347	86
279.579	87
279.81	83
280.042	99
280.273	85
280.505	89
280.736	94
280.968	101
281.199	83
281.431	86
281.662	91
281.894	70
282.125	92
282.356	121
282.588	140
282.819	126
283.051	103
283.282	80
283.513	96
283.745	88
283.976	86
284.207	80
284.439	102
284.67	94
284.901	90
285.132	89
285.364	87
285.595	91
285.826	88
286.057	89
286.288	81
286.52	86
286.751	93
286.982	100
287.213	91
287.444	91
287.675	88
287.906	88
288.138	94
288.369	93
288.6	84
288.831	97
289.062	104
289.293	87
289.524	73
289.755	89
289.986	87
290.217	83
290.448	87
290.679	89
290.91	85
291.141	82
291.371	104
291.602	83
291.833	83
292.064	88
292.295	85
292.526	83
292.757	88
292.987	76
293.218	73
293.449	69
293.68	82
293.91	96
294.141	103
294.372	92
294.603	87
294.833	95
295.064	88
295.295	87
295.525	84
295.756	101
295.987	118
296.217	133
296.448	129
296.679	101
296.909	97
297.14	99
297.37	91
297.601	86
297.831	100
298.062	87
298.292	89
298.523	78
298.753	95
298.984	78
299.214	78
299.445	88
299.675	97
299.905	100
300.136	99
300.366	93
300.597	91
300.827	81
301.057	92
301.288	95
301.518	98
301.748	82
301.979	111
302.209	89
302.439	101
302.669	72
302.9	89
303.13	73
303.36	88
303.59	105
303.82	107
304.051	104
304.281	86
304.511	87
304.741	98
304.971	94
305.201	99
305.431	95
305.661	83
305.891	100
306.121	98
306.352	101
306.582	103
306.812	92
307.042	93
307.272	93
307.502	93
307.731	86
307.961	88
308.191	89
308.421	97
308.651	97
308.881	97
309.111	94
309.341	84
309.571	78
309.8	99
310.03	105
310.26	95
310.49	86
310.72	94
310.949	128
311.179	108
311.409	101
311.639	97
311.868	101
312.098	95
312.328	101
312.557	124
312.787	104
313.017	76
313.246	83
313.476	86
313.706	88
313.935	87
314.165	101
314.394	98
314.624	98
314.853	97
315.083	91
315.312	100
315.542	87
315.771	98
316.001	85
316.23	90
316.46	83
316.689	83
316.919	97
317.148	89
317.377	92
317.607	112
317.836	90
318.065	80
318.295	98
318.524	87
318.753	82
318.983	85
319.212	95
319.441	116
319.67	107
319.9	86
320.129	88
320.358	94
320.587	105
320.816	109
321.046	114
321.275	114
321.504	96
321.733	94
321.962	111
322.191	84
322.42	101
322.649	108
322.878	106
323.108	127
323.337	129
323.566	132
323.795	155
324.024	218
324.253	423
324.482	837
324.71	1766
324.939	2288
325.168	811
325.397	241
325.626	145
325.855	139
326.084	136
326.313	139
326.542	163
326.77	232
326.999	464
327.228	1003
327.457	1769
327.686	1405
327.914	371
328.143	184
328.372	151
328.6	128
328.829	113
329.058	130
329.287	109
329.515	116
329.744	126
329.972	84
330.201	110
330.43	104
330.658	133
330.887	135
331.115	113
331.344	92
331.572	105
331.801	111
332.03	96
332.258	94
332.486	102
332.715	86
332.943	110
333.172	88
333.4	96
333.629	106
333.857	103
334.085	101
334.314	94
334.542	89
334.771	97
334.999	109
335.227	88
335.455	90
335.684	98
335.912	99
336.14	85
336.369	92
336.597	93
336.825	98
337.053	80
337.281	100
337.51	76
337.738	87
337.966	93
338.194	85
338.422	94
338.65	93
338.878	91
339.106	88
339.334	90
339.562	95
339.79	96
340.018	98
340.246	94
340.474	100
340.702	105
340.93	85
341.158	96
341.386	96
341.614	107
341.842	101
342.07	99
342.298	84
342.526	89
342.754	85
342.981	92
343.209	91
343.437	111
343.665	81
343.893	71
344.12	96
344.348	89
344.576	84
344.804	81
345.031	95
345.259	92
345.487	94
345.714	107
345.942	86
346.17	100
346.397	85
346.625	100
346.853	100
347.08	95
347.308	101
347.535	104
347.763	109
347.99	108
348.218	117
348.445	106
348.673	87
348.9	100
349.128	97
349.355	86
349.583	109
349.81	95
350.037	101
350.265	101
350.492	99
350.72	84
350.947	93
351.174	101
351.402	120
351.629	104
351.856	108
352.083	102
352.311	109
352.538	110
352.765	109
352.992	126
353.22	127
353.447	88
353.674	100
353.901	96
354.128	100
354.355	85
354.583	106
354.81	101
355.037	92
355.264	104
355.491	92
355.718	96
355.945	94
356.172	91
356.399	97
356.626	93
356.853	107
357.08	102
357.307	99
357.534	91
357.761	77
357.988	105
358.215	91
358.441	101
358.668	88
358.895	85
359.122	96
359.349	85
359.576	95
359.802	95
360.029	101
360.256	113
360.483	99
360.709	85
360.936	92
361.163	106
361.39	112
361.616	92
361.843	94
362.07	93
362.296	84
362.523	86
362.749	101
362.976	98
363.203	88
363.429	97
363.656	86
363.882	86
364.109	112
364.335	95
364.562	87
364.788	95
365.015	111
365.241	112
365.468	103
365.694	112
365.92	111
366.147	89
366.373	80
366.599	79
366.826	87
367.052	94
367.278	82
367.505	95
367.731	88
367.957	94
368.184	94
368.41	96
368.636	118
368.862	109
369.089	111
369.315	92
369.541	106
369.767	94
369.993	87
370.219	99
370.445	89
370.672	88
370.898	80
371.124	86
371.35	84
371.576	88
371.802	92
372.028	88
372.254	93
372.48	89
372.706	93
372.932	103
373.158	100
373.384	93
373.61	87
373.835	93
374.061	94
374.287	75
374.513	78
374.739	87
374.965	102
375.191	86
375.416	78
375.642	92
375.868	89
376.094	70
376.319	88
376.545	89
376.771	86
376.997	70
377.222	92
377.448	105
377.674	101
377.899	84
378.125	97
378.35	93
378.576	99
378.802	87
379.027	102
379.253	94
379.478	99
379.704	96
379.929	101
380.155	88
380.38	102
380.606	93
380.831	102
381.057	95
381.282	95
381.507	91
381.733	96
381.958	106
382.184	100
382.409	95
382.634	104
382.86	95
383.085	99
383.31	94
383.535	89
383.761	95
383.986	95
384.211	90
384.436	98
384.662	95
384.887	103
385.112	102
385.337	101
385.562	95
385.787	115
386.013	116
386.238	100
386.463	105
386.688	98
386.913	112
387.138	100
387.363	97
387.588	112
387.813	116
388.038	112
388.263	114
388.488	107
388.713	102
388.938	111
389.163	108
389.387	102
389.612	94
389.837	92
390.062	113
390.287	95
390.512	85
390.736	94
390.961	100
391.186	95
391.411	97
391.636	95
391.86	87
392.085	80
392.31	80
392.534	95
392.759	88
392.984	85
393.208	104
393.433	89
393.658	80
393.882	90
394.107	80
394.331	95
394.556	86
394.78	85
395.005	88
395.229	88
395.454	101
395.678	71
395.903	92
396.127	88
396.352	82
396.576	89
396.801	92
397.025	79
397.249	85
397.474	91
397.698	77
397.922	100
398.147	101
398.371	86
398.595	102
398.82	80
399.044	69
399.268	91
399.492	84
399.717	75
399.941	92
400.165	85
400.389	86
400.613	79
400.837	92
401.062	96
401.286	80
401.51	79
401.734	85
401.958	110
402.182	134
402.406	151
402.63	111
402.854	101
403.078	88
403.302	97
403.526	77
403.75	89
403.974	83
404.198	81
404.422	64
404.645	81
404.869	92
405.093	104
405.317	101
405.541	91
405.765	96
405.988	109
406.212	165
406.436	210
406.66	140
406.883	91
407.107	93
407.331	85
407.555	93
407.778	97
408.002	94
408.226	90
408.449	94
408.673	82
408.896	105
409.12	98
409.344	86
409.567	97
409.791	98
410.014	111
410.238	84
410.461	96
410.685	83
410.908	96
411.132	118
411.355	84
411.578	91
411.802	97
412.025	98
412.249	106
412.472	84
412.695	92
412.919	86
413.142	84
413.365	86
413.589	95
413.812	96
414.035	101
414.258	88
414.482	92
414.705	85
414.928	87
415.151	89
415.374	85
415.597	89
415.821	92
416.044	99
416.267	82
416.49	92
416.713	93
416.936	86
417.159	82
417.382	97
417.605	82
417.828	102
418.051	83
418.274	95
418.497	82
418.72	90
418.943	88
419.166	105
419.389	100
419.611	89
419.834	91
420.057	101
420.28	76
420.503	80
420.726	91
420.948	89
421.171	94
421.394	81
421.617	75
421.839	90
422.062	84
422.285	100
422.507	105
422.73	105
422.953	98
423.175	93
423.398	84
423.621	91
423.843	83
424.066	88
424.288	100
424.511	94
424.733	96
424.956	93
425.178	85
425.401	99
425.623	108
425.846	93
426.068	99
426.291	84
426.513	93
426.735	82
426.958	83
427.18	100
427.402	149
427.625	165
427.847	134
428.069	96
428.292	75
428.514	88
428.736	84
428.958	93
429.181	84
429.403	89
429.625	87
429.847	85
430.069	87
430.292	102
430.514	90
430.736	81
430.958	82
431.18	88
431.402	75
431.624	87
431.846	86
432.068	79
432.29	88
432.512	87
432.734	91
432.956	89
433.178	101
433.4	108
433.622	88
433.844	94
434.066	99
434.287	89
434.509	87
434.731	83
434.953	86
435.175	88
435.397	100
435.618	96
435.84	104
436.062	116
436.284	100
436.505	96
436.727	92
436.949	91
437.17	77
437.392	78
437.614	101
437.835	93
438.057	118
438.278	102
438.5	107
438.721	123
438.943	94
439.165	95
439.386	85
439.608	93
439.829	113
440.05	106
440.272	154
440.493	103
440.715	81
440.936	83
441.158	85
441.379	85
441.6	89
441.822	93
442.043	96
442.264	93
442.486	104
442.707	84
442.928	97
443.149	139
443.371	132
443.592	105
443.813	107
444.034	100
444.255	103
444.476	94
444.698	87
444.919	88
445.14	120
445.361	120
445.582	135
445.803	128
446.024	124
446.245	136
446.466	94
446.687	89
446.908	83
447.129	94
447.35	92
447.571	87
447.792	84
448.013	104
448.234	97
448.455	96
448.675	117
448.896	116
449.117	110
449.338	111
449.559	113
449.779	140
450	91
450.221	86
450.442	94
450.662	100
450.883	96
451.104	115
451.324	103
451.545	92
451.766	72
451.986	87
452.207	91
452.428	86
452.648	99
452.869	110
453.089	119
453.31	116
453.53	98
453.751	97
453.971	96
454.192	104
454.412	92
454.633	93
454.853	102
455.073	86
455.294	92
455.514	92
455.734	85
455.955	78
456.175	79
456.395	81
456.616	104
456.836	99
457.056	88
457.276	88
457.497	84
457.717	81
457.937	93
458.157	100
458.377	99
458.598	101
458.818	148
459.038	158
459.258	102
459.478	84
459.698	93
459.918	84
460.138	88
460.358	73
460.578	93
460.798	94
461.018	92
461.238	100
461.458	88
461.678	93
461.898	81
462.118	89
462.338	95
462.558	85
462.777	83
462.997	90
463.217	78
463.437	82
463.657	85
463.876	80
464.096	89
464.316	88
464.536	86
464.755	93
464.975	96
465.195	155
465.414	149
465.634	85
465.854	91
466.073	86
466.293	87
466.512	85
466.732	93
466.951	77
467.171	89
467.391	93
467.61	103
467.829	102
468.049	90
468.268	85
468.488	80
468.707	69
468.927	82
469.146	93
469.365	78
469.585	92
469.804	88
470.023	85
470.243	86
470.462	104
470.681	125
470.901	91
471.12	93
471.339	104
471.558	88
471.777	88
471.997	93
472.216	95
472.435	92
472.654	89
472.873	87
473.092	87
473.311	76
473.53	87
473.749	79
473.968	93
474.187	95
474.406	95
474.625	97
474.844	89
475.063	91
475.282	89
475.501	101
475.72	102
475.939	83
476.158	84
476.377	94
476.596	97
476.814	89
477.033	80
477.252	96
477.471	92
477.69	85
477.908	86
478.127	92
478.346	85
478.564	99
478.783	87
479.002	100
479.22	101
479.439	107
479.658	99
479.876	99
480.095	102
480.313	92
480.532	87
480.751	89
480.969	93
481.188	104
481.406	104
481.624	92
481.843	81
482.061	93
482.28	88
482.498	100
482.717	75
482.935	91
483.153	81
483.372	101
483.59	99
483.808	77
484.027	71
484.245	93
484.463	102
484.681	99
484.9	93
485.118	104
485.336	100
485.554	105
485.772	102
485.99	104
486.209	108
486.427	92
486.645	106
486.863	113
487.081	102
487.299	97
487.517	107
487.735	80
487.953	81
488.171	98
488.389	90
488.607	93
488.825	89
489.043	84
489.261	90
489.479	97
489.696	88
489.914	94
490.132	89
490.35	93
490.568	87
490.786	94
491.003	91
491.221	80
491.439	92
491.657	101
491.874	97
492.092	104
492.31	78
492.527	85
492.745	94
492.963	77
493.18	81
493.398	83
493.615	101
493.833	105
494.05	94
494.268	106
494.485	96
494.703	87
494.92	93
495.138	81
495.355	93
495.573	91
495.79	88
496.008	80
496.225	76
496.442	89
496.66	96
496.877	108
497.094	95
497.312	67
497.529	99
497.746	89
497.963	83
498.181	93
498.398	91
498.615	97
498.832	103
499.049	96
499.267	92
499.484	95
499.701	96
499.918	95
500.135	88
500.352	94
500.569	91
500.786	106
501.003	95
501.22	83
501.437	98
501.654	92
501.871	113
502.088	93
502.305	88
502.522	93
502.739	77
502.956	100
503.172	79
503.389	111
503.606	107
503.823	97
504.04	93
504.256	96
504.473	98
504.69	97
504.907	99
505.123	87
505.34	93
505.557	81
505.773	88
505.99	83
506.207	83
506.423	82
506.64	87
506.856	89
507.073	102
507.289	84
507.506	96
507.722	113
507.939	117
508.155	91
508.372	78
508.588	97
508.805	102
509.021	102
509.238	93
509.454	110
509.67	119
509.887	119
510.103	137
510.319	187
510.536	773
510.752	2317
510.968	663
511.184	164
511.401	115
511.617	108
511.833	97
512.049	89
512.265	80
512.481	87
512.698	105
512.914	99
513.13	107
513.346	102
513.562	95
513.778	93
513.994	96
514.21	94
514.426	123
514.642	112
514.858	119
515.074	163
515.29	427
515.506	1454
515.721	534
515.937	152
516.153	103
516.369	83
516.585	87
516.801	99
517.016	92
517.232	95
517.448	92
517.664	91
517.879	98
518.095	92
518.311	87
518.527	105
518.742	96
518.958	93
519.173	92
519.389	99
519.605	96
519.82	90
520.036	107
520.251	111
520.467	112
520.682	113
520.898	105
521.113	111
521.329	127
521.544	197
521.76	525
521.975	2341
522.19	1414
522.406	300
522.621	123
522.836	107
523.052	94
523.267	102
523.482	92
523.698	84
523.913	111
524.128	96
524.343	86
524.559	103
524.774	96
524.989	87
525.204	115
525.419	110
525.634	87
525.849	91
526.064	84
526.28	101
526.495	104
526.71	87
526.925	86
527.14	102
527.355	80
527.57	86
527.785	89
527.999	97
528.214	84
528.429	87
528.644	104
528.859	103
529.074	83
529.289	115
529.503	167
529.718	103
529.933	101
530.148	93
530.363	94
530.577	91
530.792	84
531.007	96
531.221	97
531.436	101
531.651	89
531.865	85
532.08	105
532.295	86
532.509	103
532.724	95
532.938	85
533.153	89
533.367	94
533.582	96
533.796	83
534.011	104
534.225	83
534.44	97
534.654	94
534.868	103
535.083	72
535.297	73
535.511	112
535.726	111
535.94	104
536.154	91
536.369	92
536.583	85
536.797	83
537.011	91
537.225	91
537.44	100
537.654	86
537.868	103
538.082	84
538.296	86
538.51	85
538.724	86
538.938	96
539.153	97
539.367	97
539.581	99
539.795	85
540.009	82
540.222	88
540.436	92
540.65	86
540.864	86
541.078	91
541.292	94
541.506	99
541.72	105
541.934	87
542.147	84
542.361	80
542.575	77
542.789	88
543.002	101
543.216	90
543.43	97
543.644	96
543.857	95
544.071	84
544.285	110
544.498	97
544.712	82
544.925	88
545.139	96
545.352	85
545.566	92
545.779	106
545.993	95
546.206	110
546.42	84
546.633	87
546.847	90
547.06	89
547.274	104
547.487	87
547.7	77
547.914	92
548.127	91
548.34	107
548.554	107
548.767	78
548.98	106
549.193	83
549.407	89
549.62	84
549.833	100
550.046	88
550.259	84
550.473	85
550.686	99
550.899	90
551.112	88
551.325	96
551.538	85
551.751	81
551.964	88
552.177	94
552.39	101
552.603	88
552.816	96
553.029	87
553.242	100
553.455	107
553.667	105
553.88	111
554.093	92
554.306	96
554.519	90
554.732	92
554.944	87
555.157	85
555.37	94
555.583	97
555.795	99
556.008	93
556.221	95
556.433	105
556.646	97
556.859	98
557.071	77
557.284	93
557.496	95
557.709	96
557.921	89
558.134	90
558.346	77
558.559	94
558.771	85
558.984	90
559.196	92
559.409	80
559.621	96
559.833	99
560.046	89
560.258	93
560.47	84
560.683	105
560.895	78
561.107	83
561.32	94
561.532	92
561.744	102
561.956	91
562.168	99
562.381	89
562.593	89
562.805	92
563.017	91
563.229	88
563.441	84
563.653	97
563.865	91
564.077	92
564.289	84
564.501	98
564.713	95
564.925	93
565.137	105
565.349	97
565.561	79
565.773	96
565.985	80
566.197	99
566.408	88
566.62	95
566.832	84
567.044	84
567.255	96
567.467	96
567.679	86
567.891	89
568.102	73
568.314	77
568.526	101
568.737	103
568.949	91
569.161	91
569.372	84
569.584	92
569.795	80
570.007	109
570.218	253
570.43	149
570.641	98
570.853	93
571.064	93
571.276	93
571.487	104
571.698	90
571.91	86
572.121	87
572.333	95
572.544	88
572.755	93
572.966	87
573.178	99
573.389	109
573.6	96
573.811	93
574.023	95
574.234	81
574.445	95
574.656	87
574.867	84
575.078	91
575.289	93
575.501	91
575.712	87
575.923	100
576.134	107
576.345	101
576.556	72
576.767	93
576.978	100
577.188	72
577.399	104
577.61	106
577.821	100
578.032	123
578.243	266
578.454	765
578.665	217
578.875	113
579.086	96
579.297	90
579.508	93
579.718	100
579.929	89
580.14	86
580.35	87
580.561	92
580.772	91
580.982	95
581.193	96
581.403	86
581.614	75
581.825	94
582.035	82
582.246	93
582.456	85
582.667	75
582.877	83
583.087	92
583.298	101
583.508	87
