Data from Uncirc_2005_H10_HRD10591_00029.txt Node
Date: Wed Jan 03 10:28:30 EST 2024
User: Yrep
Spectrometer: HR+D1059
Trigger mode: 1
Integration Time (sec): 1.000000E-1
Scans to average: 1
Electric dark correction enabled: true
Nonlinearity correction enabled: false
Boxcar width: 0
XAxis mode: Wavelengths
Number of Pixels in Spectrum: 2048
>>>>>Begin Spectral Data<<<<<
223.165	-17.94
223.4	-17.94
223.635	-17.94
223.869	-19.94
224.104	-20.94
224.338	-28.94
224.573	-10.94
224.808	0.06
225.042	-8.94
225.277	-4.94
225.511	1.06
225.746	-2.94
225.98	0.06
226.215	-0.94
226.449	23.06
226.683	37.06
226.918	18.06
227.152	37.06
227.387	25.06
227.621	33.06
227.856	45.06
228.09	48.06
228.324	41.06
228.559	49.06
228.793	55.06
229.027	62.06
229.262	63.06
229.496	63.06
229.73	71.06
229.964	79.06
230.199	71.06
230.433	82.06
230.667	68.06
230.901	80.06
231.136	58.06
231.37	67.06
231.604	80.06
231.838	77.06
232.072	76.06
232.306	73.06
232.541	68.06
232.775	97.06
233.009	81.06
233.243	73.06
233.477	74.06
233.711	87.06
233.945	75.06
234.179	84.06
234.413	73.06
234.647	80.06
234.881	78.06
235.115	81.06
235.349	82.06
235.583	80.06
235.817	84.06
236.051	87.06
236.285	75.06
236.519	85.06
236.753	61.06
236.987	69.06
237.221	82.06
237.455	78.06
237.689	73.06
237.922	79.06
238.156	82.06
238.39	82.06
238.624	63.06
238.858	78.06
239.091	80.06
239.325	78.06
239.559	71.06
239.793	81.06
240.027	78.06
240.26	73.06
240.494	74.06
240.728	74.06
240.961	96.06
241.195	67.06
241.429	90.06
241.662	65.06
241.896	73.06
242.13	85.06
242.363	70.06
242.597	78.06
242.83	91.06
243.064	75.06
243.298	92.06
243.531	76.06
243.765	74.06
243.998	74.06
244.232	90.06
244.465	77.06
244.699	75.06
244.932	77.06
245.166	73.06
245.399	72.06
245.633	82.06
245.866	85.06
246.099	78.06
246.333	65.06
246.566	79.06
246.8	74.06
247.033	79.06
247.266	96.06
247.5	82.06
247.733	79.06
247.966	87.06
248.2	85.06
248.433	83.06
248.666	87.06
248.899	92.06
249.133	90.06
249.366	105.06
249.599	76.06
249.832	76.06
250.066	76.06
250.299	79.06
250.532	78.06
250.765	81.06
250.998	91.06
251.231	77.06
251.465	75.06
251.698	77.06
251.931	60.06
252.164	80.06
252.397	71.06
252.63	78.06
252.863	95.06
253.096	75.06
253.329	84.06
253.562	68.06
253.795	68.06
254.028	87.06
254.261	73.06
254.494	77.06
254.727	70.06
254.96	82.06
255.193	70.06
255.426	68.06
255.659	74.06
255.892	78.06
256.124	90.06
256.357	69.06
256.59	58.06
256.823	90.06
257.056	74.06
257.289	89.06
257.521	85.06
257.754	84.06
257.987	78.06
258.22	69.06
258.452	75.06
258.685	75.06
258.918	79.06
259.151	79.06
259.383	81.06
259.616	74.06
259.849	75.06
260.081	79.06
260.314	83.06
260.547	72.06
260.779	75.06
261.012	86.06
261.244	84.06
261.477	91.06
261.71	83.06
261.942	89.06
262.175	104.06
262.407	81.06
262.64	79.06
262.872	94.06
263.105	83.06
263.337	71.06
263.57	81.06
263.802	76.06
264.035	71.06
264.267	78.06
264.499	82.06
264.732	80.06
264.964	84.06
265.197	71.06
265.429	82.06
265.661	87.06
265.894	80.06
266.126	90.06
266.358	73.06
266.591	77.06
266.823	86.06
267.055	88.06
267.287	85.06
267.52	86.06
267.752	83.06
267.984	87.06
268.216	91.06
268.448	98.06
268.681	83.06
268.913	88.06
269.145	79.06
269.377	91.06
269.609	74.06
269.841	81.06
270.073	84.06
270.306	88.06
270.538	82.06
270.77	85.06
271.002	93.06
271.234	76.06
271.466	92.06
271.698	82.06
271.93	91.06
272.162	81.06
272.394	70.06
272.626	66.06
272.858	79.06
273.09	97.06
273.322	81.06
273.553	85.06
273.785	91.06
274.017	77.06
274.249	87.06
274.481	78.06
274.713	82.06
274.945	93.06
275.176	86.06
275.408	80.06
275.64	88.06
275.872	82.06
276.104	78.06
276.335	68.06
276.567	89.06
276.799	102.06
277.031	93.06
277.262	81.06
277.494	86.06
277.726	98.06
277.957	77.06
278.189	82.06
278.421	84.06
278.652	77.06
278.884	92.06
279.115	94.06
279.347	90.06
279.579	87.06
279.81	87.06
280.042	82.06
280.273	79.06
280.505	86.06
280.736	77.06
280.968	80.06
281.199	93.06
281.431	88.06
281.662	82.06
281.894	88.06
282.125	88.06
282.356	92.06
282.588	125.06
282.819	103.06
283.051	93.06
283.282	96.06
283.513	86.06
283.745	83.06
283.976	87.06
284.207	63.06
284.439	89.06
284.67	93.06
284.901	85.06
285.132	83.06
285.364	80.06
285.595	94.06
285.826	85.06
286.057	86.06
286.288	82.06
286.52	80.06
286.751	82.06
286.982	89.06
287.213	81.06
287.444	86.06
287.675	80.06
287.906	82.06
288.138	83.06
288.369	92.06
288.6	94.06
288.831	95.06
289.062	81.06
289.293	81.06
289.524	77.06
289.755	90.06
289.986	84.06
290.217	92.06
290.448	97.06
290.679	83.06
290.91	81.06
291.141	90.06
291.371	96.06
291.602	77.06
291.833	83.06
292.064	91.06
292.295	96.06
292.526	89.06
292.757	90.06
292.987	79.06
293.218	91.06
293.449	95.06
293.68	77.06
293.91	79.06
294.141	78.06
294.372	97.06
294.603	99.06
294.833	80.06
295.064	81.06
295.295	87.06
295.525	98.06
295.756	85.06
295.987	101.06
296.217	117.06
296.448	111.06
296.679	91.06
296.909	81.06
297.14	89.06
297.37	101.06
297.601	100.06
297.831	82.06
298.062	86.06
298.292	86.06
298.523	84.06
298.753	86.06
298.984	77.06
299.214	73.06
299.445	79.06
299.675	106.06
299.905	94.06
300.136	94.06
300.366	96.06
300.597	87.06
300.827	91.06
301.057	87.06
301.288	103.06
301.518	89.06
301.748	99.06
301.979	103.06
302.209	91.06
302.439	96.06
302.669	88.06
302.9	94.06
303.13	94.06
303.36	113.06
303.59	84.06
303.82	100.06
304.051	93.06
304.281	85.06
304.511	99.06
304.741	84.06
304.971	81.06
305.201	77.06
305.431	78.06
305.661	76.06
305.891	80.06
306.121	85.06
306.352	88.06
306.582	103.06
306.812	98.06
307.042	101.06
307.272	97.06
307.502	87.06
307.731	92.06
307.961	85.06
308.191	76.06
308.421	90.06
308.651	85.06
308.881	91.06
309.111	85.06
309.341	81.06
309.571	93.06
309.8	94.06
310.03	93.06
310.26	89.06
310.49	86.06
310.72	105.06
310.949	100.06
311.179	108.06
311.409	84.06
311.639	90.06
311.868	105.06
312.098	101.06
312.328	102.06
312.557	105.06
312.787	103.06
313.017	93.06
313.246	97.06
313.476	96.06
313.706	90.06
313.935	95.06
314.165	94.06
314.394	96.06
314.624	99.06
314.853	87.06
315.083	84.06
315.312	93.06
315.542	72.06
315.771	95.06
316.001	79.06
316.23	78.06
316.46	85.06
316.689	103.06
316.919	89.06
317.148	95.06
317.377	98.06
317.607	87.06
317.836	98.06
318.065	92.06
318.295	83.06
318.524	89.06
318.753	89.06
318.983	99.06
319.212	99.06
319.441	87.06
319.67	100.06
319.9	90.06
320.129	105.06
320.358	98.06
320.587	97.06
320.816	92.06
321.046	92.06
321.275	104.06
321.504	90.06
321.733	97.06
321.962	107.06
322.191	104.06
322.42	96.06
322.649	118.06
322.878	110.06
323.108	101.06
323.337	109.06
323.566	113.06
323.795	137.06
324.024	195.06
324.253	371.06
324.482	765.06
324.71	1534.06
324.939	1989.06
325.168	737.06
325.397	225.06
325.626	144.06
325.855	121.06
326.084	111.06
326.313	122.06
326.542	138.06
326.77	209.06
326.999	426.06
327.228	864.06
327.457	1595.06
327.686	1239.06
327.914	323.06
328.143	179.06
328.372	147.06
328.6	119.06
328.829	114.06
329.058	126.06
329.287	116.06
329.515	99.06
329.744	105.06
329.972	101.06
330.201	99.06
330.43	101.06
330.658	113.06
330.887	113.06
331.115	105.06
331.344	108.06
331.572	102.06
331.801	90.06
332.03	99.06
332.258	89.06
332.486	99.06
332.715	85.06
332.943	100.06
333.172	85.06
333.4	98.06
333.629	88.06
333.857	98.06
334.085	100.06
334.314	96.06
334.542	89.06
334.771	101.06
334.999	91.06
335.227	84.06
335.455	88.06
335.684	91.06
335.912	93.06
336.14	102.06
336.369	94.06
336.597	92.06
336.825	76.06
337.053	111.06
337.281	75.06
337.51	76.06
337.738	86.06
337.966	81.06
338.194	91.06
338.422	98.06
338.65	105.06
338.878	70.06
339.106	73.06
339.334	92.06
339.562	103.06
339.79	89.06
340.018	88.06
340.246	90.06
340.474	91.06
340.702	86.06
340.93	84.06
341.158	82.06
341.386	91.06
341.614	88.06
341.842	78.06
342.07	85.06
342.298	92.06
342.526	92.06
342.754	85.06
342.981	96.06
343.209	83.06
343.437	108.06
343.665	97.06
343.893	91.06
344.12	90.06
344.348	85.06
344.576	102.06
344.804	83.06
345.031	88.06
345.259	88.06
345.487	92.06
345.714	89.06
345.942	106.06
346.17	91.06
346.397	80.06
346.625	94.06
346.853	86.06
347.08	92.06
347.308	97.06
347.535	100.06
347.763	94.06
347.99	87.06
348.218	101.06
348.445	107.06
348.673	97.06
348.9	82.06
349.128	91.06
349.355	85.06
349.583	96.06
349.81	102.06
350.037	90.06
350.265	94.06
350.492	93.06
350.72	84.06
350.947	88.06
351.174	97.06
351.402	98.06
351.629	106.06
351.856	103.06
352.083	112.06
352.311	114.06
352.538	95.06
352.765	105.06
352.992	102.06
353.22	98.06
353.447	103.06
353.674	101.06
353.901	93.06
354.128	94.06
354.355	89.06
354.583	94.06
354.81	91.06
355.037	100.06
355.264	102.06
355.491	80.06
355.718	76.06
355.945	99.06
356.172	97.06
356.399	97.06
356.626	96.06
356.853	81.06
357.08	88.06
357.307	87.06
357.534	98.06
357.761	93.06
357.988	89.06
358.215	87.06
358.441	102.06
358.668	87.06
358.895	79.06
359.122	84.06
359.349	95.06
359.576	89.06
359.802	82.06
360.029	101.06
360.256	106.06
360.483	103.06
360.709	78.06
360.936	90.06
361.163	94.06
361.39	90.06
361.616	83.06
361.843	86.06
362.07	97.06
362.296	90.06
362.523	89.06
362.749	90.06
362.976	93.06
363.203	97.06
363.429	78.06
363.656	91.06
363.882	104.06
364.109	92.06
364.335	87.06
364.562	100.06
364.788	94.06
365.015	82.06
365.241	92.06
365.468	114.06
365.694	97.06
365.92	90.06
366.147	82.06
366.373	84.06
366.599	74.06
366.826	86.06
367.052	69.06
367.278	77.06
367.505	99.06
367.731	95.06
367.957	94.06
368.184	101.06
368.41	85.06
368.636	101.06
368.862	105.06
369.089	97.06
369.315	78.06
369.541	93.06
369.767	94.06
369.993	99.06
370.219	90.06
370.445	91.06
370.672	92.06
370.898	93.06
371.124	88.06
371.35	90.06
371.576	88.06
371.802	98.06
372.028	79.06
372.254	103.06
372.48	86.06
372.706	88.06
372.932	101.06
373.158	78.06
373.384	79.06
373.61	82.06
373.835	85.06
374.061	91.06
374.287	99.06
374.513	103.06
374.739	91.06
374.965	75.06
375.191	81.06
375.416	84.06
375.642	89.06
375.868	81.06
376.094	76.06
376.319	87.06
376.545	89.06
376.771	83.06
376.997	78.06
377.222	86.06
377.448	87.06
377.674	76.06
377.899	98.06
378.125	99.06
378.35	94.06
378.576	73.06
378.802	85.06
379.027	92.06
379.253	92.06
379.478	98.06
379.704	87.06
379.929	95.06
380.155	78.06
380.38	76.06
380.606	83.06
380.831	90.06
381.057	102.06
381.282	95.06
381.507	106.06
381.733	86.06
381.958	82.06
382.184	92.06
382.409	91.06
382.634	102.06
382.86	87.06
383.085	99.06
383.31	106.06
383.535	82.06
383.761	97.06
383.986	99.06
384.211	97.06
384.436	82.06
384.662	98.06
384.887	118.06
385.112	110.06
385.337	110.06
385.562	105.06
385.787	108.06
386.013	105.06
386.238	114.06
386.463	116.06
386.688	110.06
386.913	105.06
387.138	112.06
387.363	115.06
387.588	103.06
387.813	109.06
388.038	116.06
388.263	117.06
388.488	111.06
388.713	118.06
388.938	101.06
389.163	98.06
389.387	97.06
389.612	94.06
389.837	73.06
390.062	84.06
390.287	93.06
390.512	93.06
390.736	82.06
390.961	87.06
391.186	94.06
391.411	87.06
391.636	91.06
391.86	86.06
392.085	75.06
392.31	73.06
392.534	86.06
392.759	86.06
392.984	77.06
393.208	92.06
393.433	92.06
393.658	93.06
393.882	75.06
394.107	71.06
394.331	83.06
394.556	74.06
394.78	75.06
395.005	93.06
395.229	78.06
395.454	79.06
395.678	85.06
395.903	77.06
396.127	79.06
396.352	81.06
396.576	91.06
396.801	84.06
397.025	82.06
397.249	104.06
397.474	94.06
397.698	84.06
397.922	85.06
398.147	97.06
398.371	85.06
398.595	97.06
398.82	83.06
399.044	86.06
399.268	89.06
399.492	97.06
399.717	90.06
399.941	87.06
400.165	93.06
400.389	78.06
400.613	82.06
400.837	92.06
401.062	80.06
401.286	99.06
401.51	81.06
401.734	89.06
401.958	98.06
402.182	108.06
402.406	147.06
402.63	114.06
402.854	84.06
403.078	92.06
403.302	76.06
403.526	74.06
403.75	90.06
403.974	89.06
404.198	94.06
404.422	97.06
404.645	94.06
404.869	82.06
405.093	81.06
405.317	96.06
405.541	94.06
405.765	100.06
405.988	98.06
406.212	138.06
406.436	177.06
406.66	109.06
406.883	97.06
407.107	86.06
407.331	86.06
407.555	86.06
407.778	73.06
408.002	91.06
408.226	108.06
408.449	82.06
408.673	89.06
408.896	108.06
409.12	92.06
409.344	73.06
409.567	81.06
409.791	95.06
410.014	105.06
410.238	84.06
410.461	92.06
410.685	91.06
410.908	99.06
411.132	94.06
411.355	104.06
411.578	83.06
411.802	92.06
412.025	97.06
412.249	84.06
412.472	92.06
412.695	91.06
412.919	103.06
413.142	85.06
413.365	85.06
413.589	88.06
413.812	84.06
414.035	97.06
414.258	85.06
414.482	83.06
414.705	85.06
414.928	90.06
415.151	93.06
415.374	90.06
415.597	94.06
415.821	82.06
416.044	80.06
416.267	84.06
416.49	87.06
416.713	89.06
416.936	95.06
417.159	88.06
417.382	78.06
417.605	80.06
417.828	91.06
418.051	83.06
418.274	87.06
418.497	85.06
418.72	72.06
418.943	81.06
419.166	80.06
419.389	74.06
419.611	100.06
419.834	91.06
420.057	102.06
420.28	89.06
420.503	83.06
420.726	100.06
420.948	85.06
421.171	86.06
421.394	90.06
421.617	81.06
421.839	105.06
422.062	90.06
422.285	87.06
422.507	101.06
422.73	94.06
422.953	93.06
423.175	79.06
423.398	92.06
423.621	80.06
423.843	79.06
424.066	90.06
424.288	85.06
424.511	107.06
424.733	98.06
424.956	94.06
425.178	84.06
425.401	101.06
425.623	91.06
425.846	95.06
426.068	86.06
426.291	100.06
426.513	84.06
426.735	79.06
426.958	78.06
427.18	101.06
427.402	121.06
427.625	114.06
427.847	111.06
428.069	95.06
428.292	90.06
428.514	87.06
428.736	86.06
428.958	95.06
429.181	75.06
429.403	80.06
429.625	83.06
429.847	86.06
430.069	90.06
430.292	87.06
430.514	86.06
430.736	85.06
430.958	59.06
431.18	92.06
431.402	97.06
431.624	69.06
431.846	87.06
432.068	86.06
432.29	84.06
432.512	87.06
432.734	90.06
432.956	98.06
433.178	96.06
433.4	90.06
433.622	101.06
433.844	91.06
434.066	72.06
434.287	91.06
434.509	84.06
434.731	100.06
434.953	80.06
435.175	82.06
435.397	77.06
435.618	77.06
435.84	96.06
436.062	110.06
436.284	100.06
436.505	108.06
436.727	100.06
436.949	89.06
437.17	65.06
437.392	92.06
437.614	94.06
437.835	92.06
438.057	116.06
438.278	102.06
438.5	96.06
438.721	102.06
438.943	92.06
439.165	89.06
439.386	82.06
439.608	95.06
439.829	88.06
440.05	114.06
440.272	124.06
440.493	92.06
440.715	87.06
440.936	89.06
441.158	87.06
441.379	75.06
441.6	96.06
441.822	86.06
442.043	85.06
442.264	106.06
442.486	86.06
442.707	92.06
442.928	96.06
443.149	110.06
443.371	111.06
443.592	111.06
443.813	93.06
444.034	90.06
444.255	92.06
444.476	86.06
444.698	80.06
444.919	77.06
445.14	128.06
445.361	113.06
445.582	105.06
445.803	109.06
446.024	125.06
446.245	123.06
446.466	112.06
446.687	75.06
446.908	99.06
447.129	85.06
447.35	85.06
447.571	100.06
447.792	87.06
448.013	94.06
448.234	97.06
448.455	103.06
448.675	117.06
448.896	117.06
449.117	96.06
449.338	91.06
449.559	128.06
449.779	113.06
450	74.06
450.221	82.06
450.442	83.06
450.662	92.06
450.883	91.06
451.104	101.06
451.324	93.06
451.545	78.06
451.766	88.06
451.986	94.06
452.207	79.06
452.428	98.06
452.648	98.06
452.869	97.06
453.089	85.06
453.31	105.06
453.53	88.06
453.751	84.06
453.971	90.06
454.192	101.06
454.412	89.06
454.633	75.06
454.853	91.06
455.073	83.06
455.294	98.06
455.514	97.06
455.734	92.06
455.955	89.06
456.175	89.06
456.395	78.06
456.616	72.06
456.836	90.06
457.056	77.06
457.276	86.06
457.497	81.06
457.717	83.06
457.937	82.06
458.157	78.06
458.377	79.06
458.598	93.06
458.818	134.06
459.038	150.06
459.258	107.06
459.478	91.06
459.698	81.06
459.918	81.06
460.138	87.06
460.358	82.06
460.578	81.06
460.798	81.06
461.018	84.06
461.238	85.06
461.458	87.06
461.678	82.06
461.898	82.06
462.118	79.06
462.338	77.06
462.558	82.06
462.777	79.06
462.997	82.06
463.217	74.06
463.437	82.06
463.657	82.06
463.876	78.06
464.096	78.06
464.316	92.06
464.536	93.06
464.755	89.06
464.975	109.06
465.195	151.06
465.414	136.06
465.634	101.06
465.854	86.06
466.073	86.06
466.293	77.06
466.512	79.06
466.732	84.06
466.951	77.06
467.171	93.06
467.391	93.06
467.61	106.06
467.829	98.06
468.049	92.06
468.268	94.06
468.488	88.06
468.707	81.06
468.927	78.06
469.146	87.06
469.365	76.06
469.585	86.06
469.804	95.06
470.023	87.06
470.243	77.06
470.462	97.06
470.681	103.06
470.901	80.06
471.12	84.06
471.339	82.06
471.558	75.06
471.777	91.06
471.997	81.06
472.216	86.06
472.435	87.06
472.654	82.06
472.873	78.06
473.092	86.06
473.311	84.06
473.53	93.06
473.749	86.06
473.968	91.06
474.187	94.06
474.406	95.06
474.625	90.06
474.844	79.06
475.063	86.06
475.282	90.06
475.501	95.06
475.72	90.06
475.939	82.06
476.158	91.06
476.377	87.06
476.596	90.06
476.814	82.06
477.033	90.06
477.252	78.06
477.471	79.06
477.69	86.06
477.908	95.06
478.127	76.06
478.346	77.06
478.564	87.06
478.783	89.06
479.002	81.06
479.22	96.06
479.439	84.06
479.658	86.06
479.876	92.06
480.095	86.06
480.313	93.06
480.532	88.06
480.751	87.06
480.969	85.06
481.188	122.06
481.406	90.06
481.624	71.06
481.843	80.06
482.061	82.06
482.28	63.06
482.498	71.06
482.717	77.06
482.935	101.06
483.153	103.06
483.372	92.06
483.59	84.06
483.808	91.06
484.027	86.06
484.245	84.06
484.463	105.06
484.681	82.06
484.9	92.06
485.118	90.06
485.336	91.06
485.554	92.06
485.772	80.06
485.99	102.06
486.209	95.06
486.427	96.06
486.645	111.06
486.863	106.06
487.081	100.06
487.299	90.06
487.517	87.06
487.735	103.06
487.953	75.06
488.171	86.06
488.389	82.06
488.607	101.06
488.825	81.06
489.043	79.06
489.261	85.06
489.479	75.06
489.696	99.06
489.914	92.06
490.132	82.06
490.35	85.06
490.568	94.06
490.786	104.06
491.003	95.06
491.221	82.06
491.439	81.06
491.657	83.06
491.874	87.06
492.092	85.06
492.31	79.06
492.527	90.06
492.745	95.06
492.963	84.06
493.18	86.06
493.398	85.06
493.615	94.06
493.833	90.06
494.05	92.06
494.268	89.06
494.485	82.06
494.703	86.06
494.92	93.06
495.138	85.06
495.355	89.06
495.573	98.06
495.79	96.06
496.008	88.06
496.225	100.06
496.442	100.06
496.66	97.06
496.877	90.06
497.094	82.06
497.312	91.06
497.529	93.06
497.746	92.06
497.963	86.06
498.181	100.06
498.398	97.06
498.615	104.06
498.832	113.06
499.049	95.06
499.267	91.06
499.484	82.06
499.701	89.06
499.918	100.06
500.135	80.06
500.352	81.06
500.569	82.06
500.786	72.06
501.003	85.06
501.22	99.06
501.437	85.06
501.654	74.06
501.871	108.06
502.088	82.06
502.305	93.06
502.522	91.06
502.739	77.06
502.956	100.06
503.172	90.06
503.389	105.06
503.606	101.06
503.823	91.06
504.04	79.06
504.256	90.06
504.473	85.06
504.69	89.06
504.907	90.06
505.123	94.06
505.34	87.06
505.557	97.06
505.773	95.06
505.99	89.06
506.207	92.06
506.423	92.06
506.64	82.06
506.856	82.06
507.073	92.06
507.289	91.06
507.506	93.06
507.722	93.06
507.939	101.06
508.155	93.06
508.372	96.06
508.588	88.06
508.805	105.06
509.021	91.06
509.238	92.06
509.454	100.06
509.67	101.06
509.887	107.06
510.103	123.06
510.319	181.06
510.536	601.06
510.752	1945.06
510.968	567.06
511.184	139.06
511.401	101.06
511.617	97.06
511.833	83.06
512.049	97.06
512.265	85.06
512.481	82.06
512.698	78.06
512.914	96.06
513.13	89.06
513.346	96.06
513.562	101.06
513.778	96.06
513.994	89.06
514.21	97.06
514.426	103.06
514.642	115.06
514.858	108.06
515.074	134.06
515.29	351.06
515.506	1132.06
515.721	445.06
515.937	141.06
516.153	118.06
516.369	80.06
516.585	87.06
516.801	89.06
