Data from Uncirc_2005_H10_HRD10591_00012.txt Node
Date: Wed Jan 03 10:28:27 EST 2024
User: Yrep
Spectrometer: HR+D1059
Trigger mode: 1
Integration Time (sec): 1.000000E-1
Scans to average: 1
Electric dark correction enabled: true
Nonlinearity correction enabled: false
Boxcar width: 0
XAxis mode: Wavelengths
Number of Pixels in Spectrum: 2048
>>>>>Begin Spectral Data<<<<<
223.165	-9.62
223.4	-9.62
223.635	-9.62
223.869	-24.62
224.104	-40.62
224.338	-10.62
224.573	-32.62
224.808	4.38
225.042	1.38
225.277	-14.62
225.511	-4.62
225.746	12.38
225.98	9.38
226.215	4.38
226.449	22.38
226.683	23.38
226.918	22.38
227.152	37.38
227.387	35.38
227.621	32.38
227.856	43.38
228.09	41.38
228.324	49.38
228.559	45.38
228.793	148.38
229.027	444.38
229.262	534.38
229.496	615.38
229.73	825.38
229.964	806.38
230.199	524.38
230.433	461.38
230.667	463.38
230.901	449.38
231.136	441.38
231.37	456.38
231.604	445.38
231.838	467.38
232.072	448.38
232.306	460.38
232.541	461.38
232.775	473.38
233.009	456.38
233.243	474.38
233.477	466.38
233.711	492.38
233.945	497.38
234.179	522.38
234.413	489.38
234.647	515.38
234.881	514.38
235.115	523.38
235.349	547.38
235.583	592.38
235.817	601.38
236.051	621.38
236.285	615.38
236.519	606.38
236.753	703.38
236.987	881.38
237.221	1347.38
237.455	1516.38
237.689	876.38
237.922	751.38
238.156	703.38
238.39	656.38
238.624	617.38
238.858	646.38
239.091	652.38
239.325	659.38
239.559	667.38
239.793	717.38
240.027	785.38
240.26	914.38
240.494	977.38
240.728	974.38
240.961	904.38
241.195	797.38
241.429	797.38
241.662	772.38
241.896	766.38
242.13	771.38
242.363	774.38
242.597	782.38
242.83	829.38
243.064	821.38
243.298	833.38
243.531	836.38
243.765	799.38
243.998	827.38
244.232	816.38
244.465	857.38
244.699	893.38
244.932	872.38
245.166	881.38
245.399	920.38
245.633	911.38
245.866	915.38
246.099	928.38
246.333	918.38
246.566	948.38
246.8	979.38
247.033	966.38
247.266	1016.38
247.5	1113.38
247.733	1157.38
247.966	1156.38
248.2	1116.38
248.433	1166.38
248.666	1191.38
248.899	1345.38
249.133	1437.38
249.366	1442.38
249.599	1295.38
249.832	1235.38
250.066	1191.38
250.299	1242.38
250.532	1311.38
250.765	1517.38
250.998	1705.38
251.231	1681.38
251.465	1479.38
251.698	1413.38
251.931	1387.38
252.164	1383.38
252.397	1415.38
252.63	1440.38
252.863	1541.38
253.096	1700.38
253.329	1752.38
253.562	1648.38
253.795	1552.38
254.028	1525.38
254.261	1621.38
254.494	1811.38
254.727	2179.38
254.96	2244.38
255.193	1914.38
255.426	1749.38
255.659	1621.38
255.892	1602.38
256.124	1553.38
256.357	1508.38
256.59	1500.38
256.823	1446.38
257.056	1430.38
257.289	1484.38
257.521	1499.38
257.754	1540.38
257.987	1532.38
258.22	1502.38
258.452	1519.38
258.685	1547.38
258.918	1539.38
259.151	1630.38
259.383	1672.38
259.616	1688.38
259.849	1769.38
260.081	1911.38
260.314	2081.38
260.547	2016.38
260.779	1852.38
261.012	1776.38
261.244	1705.38
261.477	1675.38
261.71	1646.38
261.942	1713.38
262.175	1757.38
262.407	1655.38
262.64	1607.38
262.872	1611.38
263.105	1616.38
263.337	1590.38
263.57	1629.38
263.802	1635.38
264.035	1642.38
264.267	1660.38
264.499	1648.38
264.732	1667.38
264.964	1670.38
265.197	1677.38
265.429	1691.38
265.661	1692.38
265.894	1733.38
266.126	1719.38
266.358	1771.38
266.591	1757.38
266.823	1855.38
267.055	1849.38
267.287	1842.38
267.52	1849.38
267.752	1834.38
267.984	1836.38
268.216	1845.38
268.448	1895.38
268.681	1934.38
268.913	2105.38
269.145	2324.38
269.377	2414.38
269.609	2331.38
269.841	2242.38
270.073	2392.38
270.306	2681.38
270.538	2805.38
270.77	2625.38
271.002	2479.38
271.234	2484.38
271.466	2640.38
271.698	2764.38
271.93	2786.38
272.162	2762.38
272.394	2699.38
272.626	2478.38
272.858	2357.38
273.09	2304.38
273.322	2230.38
273.553	2174.38
273.785	2199.38
274.017	2223.38
274.249	2274.38
274.481	2261.38
274.713	2235.38
274.945	2274.38
275.176	2283.38
275.408	2248.38
275.64	2224.38
275.872	2219.38
276.104	2275.38
276.335	2291.38
276.567	2378.38
276.799	2543.38
277.031	2716.38
277.262	2864.38
277.494	2777.38
277.726	2591.38
277.957	2487.38
278.189	2355.38
278.421	2367.38
278.652	2380.38
278.884	2348.38
279.115	2349.38
279.347	2344.38
279.579	2343.38
279.81	2319.38
280.042	2308.38
280.273	2353.38
280.505	2370.38
280.736	2371.38
280.968	2404.38
281.199	2402.38
281.431	2410.38
281.662	2412.38
281.894	2430.38
282.125	2509.38
282.356	2619.38
282.588	2770.38
282.819	2695.38
283.051	2540.38
283.282	2532.38
283.513	2544.38
283.745	2568.38
283.976	2622.38
284.207	2636.38
284.439	2627.38
284.67	2622.38
284.901	2599.38
285.132	2597.38
285.364	2569.38
285.595	2590.38
285.826	2591.38
286.057	2600.38
286.288	2632.38
286.52	2637.38
286.751	2687.38
286.982	2677.38
287.213	2627.38
287.444	2736.38
287.675	2760.38
287.906	2836.38
288.138	2916.38
288.369	2909.38
288.6	2897.38
288.831	2815.38
289.062	2797.38
289.293	2789.38
289.524	2781.38
289.755	2789.38
289.986	2765.38
290.217	2762.38
290.448	2780.38
290.679	2754.38
290.91	2752.38
291.141	2755.38
291.371	2824.38
291.602	2800.38
291.833	2737.38
292.064	2804.38
292.295	2727.38
292.526	2809.38
292.757	2828.38
292.987	2789.38
293.218	2791.38
293.449	2839.38
293.68	2852.38
293.91	2828.38
294.141	2808.38
294.372	2757.38
294.603	2838.38
294.833	2811.38
295.064	2869.38
295.295	2836.38
295.525	2901.38
295.756	2921.38
295.987	2931.38
296.217	3190.38
296.448	3076.38
296.679	2956.38
296.909	2928.38
297.14	2956.38
297.37	2975.38
297.601	3030.38
297.831	3005.38
298.062	3018.38
298.292	3062.38
298.523	3078.38
298.753	3083.38
298.984	3057.38
299.214	3098.38
299.445	3060.38
299.675	3087.38
299.905	3109.38
300.136	3115.38
300.366	3079.38
300.597	3137.38
300.827	3265.38
301.057	3333.38
301.288	3343.38
301.518	3269.38
301.748	3301.38
301.979	3408.38
302.209	3327.38
302.439	3331.38
302.669	3340.38
302.9	3226.38
303.13	3268.38
303.36	3301.38
303.59	3374.38
303.82	3357.38
304.051	3309.38
304.281	3302.38
304.511	3263.38
304.741	3222.38
304.971	3305.38
305.201	3244.38
305.431	3259.38
305.661	3241.38
305.891	3222.38
306.121	3219.38
306.352	3288.38
306.582	3266.38
306.812	3205.38
307.042	3209.38
307.272	3252.38
307.502	3236.38
307.731	3316.38
307.961	3199.38
308.191	3232.38
308.421	3225.38
308.651	3309.38
308.881	3276.38
309.111	3374.38
309.341	3297.38
309.571	3458.38
309.8	3457.38
310.03	3533.38
310.26	3547.38
310.49	3547.38
310.72	3729.38
310.949	3750.38
311.179	3747.38
311.409	3633.38
311.639	3546.38
311.868	3605.38
312.098	3685.38
312.328	3679.38
312.557	3827.38
312.787	3927.38
313.017	3843.38
313.246	3799.38
313.476	3732.38
313.706	3709.38
313.935	3799.38
314.165	3894.38
314.394	3979.38
314.624	3887.38
314.853	3748.38
315.083	3819.38
315.312	3739.38
315.542	3696.38
315.771	3659.38
316.001	3632.38
316.23	3632.38
316.46	3629.38
316.689	3726.38
316.919	3763.38
317.148	3760.38
317.377	3750.38
317.607	3698.38
317.836	3640.38
318.065	3609.38
318.295	3658.38
318.524	3646.38
318.753	3594.38
318.983	3643.38
319.212	3597.38
319.441	3710.38
319.67	3748.38
319.9	3644.38
320.129	3688.38
320.358	3691.38
320.587	3702.38
320.816	3744.38
321.046	3821.38
321.275	3752.38
321.504	3790.38
321.733	3767.38
321.962	3839.38
322.191	4013.38
322.42	4065.38
322.649	4128.38
322.878	4270.38
323.108	4311.38
323.337	4511.38
323.566	4655.38
323.795	4911.38
324.024	5509.38
324.253	7182.38
324.482	10922.38
324.71	15260.38
324.939	15609.38
325.168	13053.38
325.397	6455.38
325.626	5150.38
325.855	4753.38
326.084	4699.38
326.313	4696.38
326.542	4847.38
326.77	5475.38
326.999	6922.38
327.228	10207.38
327.457	14369.38
327.686	13693.38
327.914	7291.38
328.143	5755.38
328.372	5394.38
328.6	5126.38
328.829	5136.38
329.058	5333.38
329.287	5331.38
329.515	4946.38
329.744	4677.38
329.972	4705.38
330.201	4852.38
330.43	5064.38
330.658	5405.38
330.887	5702.38
331.115	5367.38
331.344	4988.38
331.572	4877.38
331.801	4942.38
332.03	4933.38
332.258	4857.38
332.486	4903.38
332.715	4991.38
332.943	5126.38
333.172	5277.38
333.4	5472.38
333.629	5473.38
333.857	5570.38
334.085	5443.38
334.314	5407.38
334.542	5371.38
334.771	5318.38
334.999	5213.38
335.227	5177.38
335.455	5122.38
335.684	4968.38
335.912	4981.38
336.14	4882.38
336.369	4834.38
336.597	4952.38
336.825	4933.38
337.053	4797.38
337.281	4732.38
337.51	4670.38
337.738	4730.38
337.966	4689.38
338.194	4691.38
338.422	4572.38
338.65	4460.38
338.878	4534.38
339.106	4541.38
339.334	4514.38
339.562	4391.38
339.79	4359.38
340.018	4389.38
340.246	4363.38
340.474	4397.38
340.702	4384.38
340.93	4383.38
341.158	4363.38
341.386	4372.38
341.614	4409.38
341.842	4346.38
342.07	4286.38
342.298	4297.38
342.526	4302.38
342.754	4295.38
342.981	4292.38
343.209	4434.38
343.437	4547.38
343.665	4883.38
343.893	5165.38
344.12	5157.38
344.348	4930.38
344.576	4745.38
344.804	4735.38
345.031	4633.38
345.259	4599.38
345.487	4376.38
345.714	4335.38
345.942	4237.38
346.17	4166.38
346.397	4156.38
346.625	4153.38
346.853	4235.38
347.08	4147.38
347.308	4260.38
347.535	4227.38
347.763	4273.38
347.99	4265.38
348.218	4290.38
348.445	4310.38
348.673	4188.38
348.9	4175.38
349.128	4074.38
349.355	4041.38
349.583	4052.38
349.81	4039.38
350.037	4048.38
350.265	3987.38
350.492	4063.38
350.72	3985.38
350.947	4118.38
351.174	4162.38
351.402	4220.38
351.629	4156.38
351.856	4202.38
352.083	4221.38
352.311	4228.38
352.538	4223.38
352.765	4209.38
352.992	4192.38
353.22	4019.38
353.447	4070.38
353.674	4049.38
353.901	3963.38
354.128	3890.38
354.355	3904.38
354.583	3926.38
354.81	3986.38
355.037	3953.38
355.264	3945.38
355.491	3929.38
355.718	3872.38
355.945	3895.38
356.172	3888.38
356.399	3890.38
356.626	3895.38
356.853	3916.38
357.08	3933.38
357.307	3919.38
357.534	3897.38
357.761	3973.38
357.988	3971.38
358.215	3914.38
358.441	3918.38
358.668	4030.38
358.895	3999.38
359.122	4005.38
359.349	4128.38
359.576	4189.38
359.802	4480.38
360.029	4529.38
360.256	4619.38
360.483	4418.38
360.709	4195.38
360.936	4120.38
361.163	4242.38
361.39	4224.38
361.616	4171.38
361.843	4121.38
362.07	4103.38
362.296	4246.38
362.523	4175.38
362.749	4176.38
362.976	4048.38
363.203	4102.38
363.429	4011.38
363.656	4061.38
363.882	3997.38
364.109	4044.38
364.335	3961.38
364.562	4024.38
364.788	4000.38
365.015	3985.38
365.241	3973.38
365.468	4035.38
365.694	4084.38
365.92	4106.38
366.147	4041.38
366.373	3948.38
366.599	4027.38
366.826	3965.38
367.052	3999.38
367.278	3930.38
367.505	3989.38
367.731	4020.38
367.957	4033.38
368.184	4079.38
368.41	4113.38
368.636	4255.38
368.862	4218.38
369.089	4202.38
369.315	4156.38
369.541	4137.38
369.767	4118.38
369.993	4134.38
370.219	4211.38
370.445	4159.38
370.672	4192.38
370.898	4221.38
371.124	4213.38
371.35	4274.38
371.576	4283.38
371.802	4225.38
372.028	4196.38
372.254	4220.38
372.48	4343.38
372.706	4454.38
372.932	4449.38
373.158	4409.38
373.384	4353.38
373.61	4327.38
373.835	4307.38
374.061	4349.38
374.287	4414.38
374.513	4521.38
374.739	4592.38
374.965	4697.38
375.191	4699.38
375.416	4536.38
375.642	4445.38
375.868	4535.38
376.094	4404.38
376.319	4311.38
376.545	4337.38
376.771	4352.38
376.997	4355.38
377.222	4306.38
377.448	4271.38
377.674	4269.38
377.899	4216.38
378.125	4274.38
378.35	4235.38
378.576	4245.38
378.802	4236.38
379.027	4217.38
379.253	4286.38
379.478	4273.38
379.704	4287.38
379.929	4351.38
380.155	4321.38
380.38	4270.38
380.606	4320.38
380.831	4328.38
381.057	4364.38
381.282	4315.38
381.507	4373.38
381.733	4424.38
381.958	4290.38
382.184	4480.38
382.409	4541.38
382.634	4571.38
382.86	4548.38
383.085	4614.38
383.31	4709.38
383.535	4795.38
383.761	4824.38
383.986	4837.38
384.211	4992.38
384.436	4983.38
384.662	5035.38
384.887	5132.38
385.112	5189.38
385.337	5204.38
385.562	5216.38
385.787	5330.38
386.013	5277.38
386.238	5363.38
386.463	5331.38
386.688	5246.38
386.913	5131.38
387.138	5199.38
387.363	5180.38
387.588	5082.38
387.813	5104.38
388.038	5107.38
388.263	5206.38
388.488	5308.38
388.713	5157.38
388.938	5099.38
389.163	5126.38
389.387	5041.38
389.612	4985.38
389.837	5072.38
390.062	4993.38
390.287	5047.38
390.512	5021.38
390.736	5157.38
390.961	5189.38
391.186	5290.38
391.411	5459.38
391.636	5590.38
391.86	5694.38
392.085	5777.38
392.31	5744.38
392.534	5564.38
392.759	5424.38
392.984	5361.38
393.208	5352.38
393.433	5328.38
393.658	5284.38
393.882	5331.38
394.107	5409.38
394.331	5401.38
394.556	5386.38
394.78	5443.38
395.005	5518.38
395.229	5520.38
395.454	5702.38
395.678	5919.38
395.903	5769.38
396.127	5864.38
396.352	5668.38
396.576	5435.38
396.801	5382.38
397.025	5460.38
397.249	5595.38
397.474	5768.38
397.698	5828.38
397.922	5936.38
398.147	6064.38
398.371	6055.38
398.595	6252.38
398.82	6478.38
399.044	7103.38
399.268	7875.38
399.492	9085.38
399.717	9588.38
399.941	9253.38
400.165	8782.38
400.389	7960.38
400.613	7195.38
400.837	6831.38
401.062	6686.38
401.286	6512.38
401.51	6507.38
401.734	6409.38
401.958	6602.38
402.182	6691.38
402.406	6784.38
402.63	6904.38
402.854	6936.38
403.078	6996.38
403.302	7192.38
403.526	7376.38
403.75	7341.38
403.974	7435.38
404.198	7391.38
404.422	7449.38
404.645	7395.38
404.869	7311.38
405.093	7498.38
405.317	7504.38
405.541	7547.38
405.765	7192.38
405.988	7177.38
406.212	7429.38
406.436	7532.38
406.66	7683.38
406.883	7678.38
407.107	8302.38
407.331	8877.38
407.555	9401.38
407.778	8917.38
408.002	8278.38
408.226	7814.38
408.449	7839.38
408.673	7515.38
408.896	7800.38
409.12	7946.38
409.344	7458.38
409.567	7131.38
409.791	7014.38
410.014	7115.38
410.238	6919.38
410.461	7009.38
410.685	6944.38
410.908	7120.38
411.132	7355.38
411.355	7423.38
411.578	6996.38
411.802	6707.38
412.025	6655.38
412.249	6773.38
412.472	6681.38
412.695	6676.38
412.919	6420.38
413.142	6385.38
413.365	6417.38
413.589	6389.38
413.812	6295.38
414.035	6260.38
414.258	6291.38
414.482	6302.38
414.705	6369.38
414.928	6376.38
415.151	6360.38
415.374	6361.38
415.597	6313.38
415.821	6209.38
416.044	6212.38
416.267	6245.38
416.49	6156.38
416.713	6193.38
416.936	6244.38
417.159	6218.38
417.382	6322.38
417.605	6391.38
417.828	6463.38
418.051	6548.38
418.274	6547.38
418.497	6445.38
418.72	6536.38
418.943	6425.38
419.166	6887.38
419.389	7220.38
419.611	7011.38
419.834	6853.38
420.057	6768.38
420.28	6490.38
420.503	6368.38
420.726	6422.38
420.948	6561.38
421.171	6998.38
421.394	7021.38
421.617	6553.38
421.839	6463.38
422.062	6550.38
422.285	6740.38
422.507	7377.38
422.73	7963.38
422.953	7277.38
423.175	6946.38
423.398	7035.38
423.621	7003.38
423.843	7253.38
424.066	7291.38
424.288	7054.38
424.511	7322.38
424.733	7789.38
424.956	8189.38
425.178	7722.38
425.401	7915.38
425.623	7795.38
425.846	6774.38
426.068	6627.38
426.291	6503.38
426.513	6563.38
426.735	6657.38
426.958	7080.38
427.18	7901.38
427.402	8963.38
427.625	9130.38
427.847	7625.38
428.069	6751.38
428.292	6315.38
428.514	5980.38
428.736	5922.38
428.958	5925.38
429.181	5772.38
429.403	5747.38
429.625	5913.38
429.847	6308.38
430.069	6775.38
430.292	6356.38
430.514	5832.38
430.736	5826.38
430.958	5727.38
431.18	5614.38
431.402	5677.38
431.624	5681.38
431.846	5670.38
432.068	5761.38
432.29	5761.38
432.512	5658.38
432.734	5823.38
432.956	5724.38
433.178	5712.38
433.4	5870.38
433.622	5777.38
433.844	5704.38
434.066	5785.38
434.287	5873.38
434.509	6103.38
434.731	6277.38
434.953	6421.38
435.175	6657.38
435.397	6609.38
435.618	6588.38
435.84	6919.38
436.062	7871.38
436.284	7664.38
436.505	6550.38
436.727	6200.38
436.949	5976.38
437.17	5779.38
437.392	5782.38
437.614	5949.38
437.835	6277.38
438.057	7367.38
438.278	7933.38
438.5	7788.38
438.721	8661.38
438.943	7521.38
439.165	6396.38
439.386	6247.38
439.608	6232.38
439.829	6294.38
440.05	6692.38
440.272	7137.38
440.493	6510.38
440.715	6184.38
440.936	6089.38
441.158	6113.38
441.379	6298.38
441.6	6611.38
441.822	6819.38
442.043	7251.38
442.264	7936.38
442.486	7800.38
442.707	6862.38
442.928	6730.38
443.149	6973.38
443.371	7197.38
443.592	7703.38
443.813	8725.38
444.034	8644.38
444.255	7487.38
444.476	7363.38
444.698	7574.38
444.919	7585.38
445.14	7382.38
445.361	7230.38
445.582	7391.38
445.803	7963.38
446.024	8676.38
446.245	8290.38
446.466	7371.38
446.687	6417.38
446.908	6099.38
447.129	5827.38
447.35	5687.38
447.571	5669.38
447.792	5535.38
448.013	5659.38
448.234	5759.38
448.455	6496.38
448.675	7739.38
448.896	8143.38
449.117	6728.38
449.338	6915.38
449.559	8167.38
449.779	8482.38
450	6490.38
450.221	5793.38
450.442	5573.38
450.662	5407.38
450.883	5589.38
451.104	5627.38
451.324	5503.38
451.545	5324.38
451.766	5194.38
451.986	5111.38
452.207	5063.38
452.428	4964.38
452.648	5073.38
452.869	5110.38
453.089	5143.38
453.31	5292.38
453.53	5076.38
453.751	5038.38
453.971	5101.38
454.192	5232.38
454.412	4995.38
454.633	4891.38
454.853	4866.38
455.073	4933.38
455.294	5358.38
455.514	5919.38
455.734	5358.38
455.955	4804.38
456.175	4779.38
456.395	4605.38
456.616	4630.38
456.836	4649.38
457.056	4651.38
457.276	4540.38
457.497	4758.38
457.717	4749.38
457.937	4760.38
458.157	4864.38
458.377	4987.38
458.598	5236.38
458.818	6039.38
459.038	6772.38
459.258	6702.38
459.478	5974.38
459.698	5828.38
459.918	5850.38
460.138	6009.38
460.358	6339.38
460.578	6225.38
460.798	6374.38
461.018	6368.38
461.238	6214.38
461.458	6175.38
461.678	6161.38
461.898	6347.38
462.118	6318.38
462.338	6717.38
462.558	6849.38
462.777	7142.38
462.997	7721.38
463.217	8135.38
463.437	7882.38
463.657	7310.38
463.876	7067.38
464.096	7137.38
464.316	7170.38
464.536	7292.38
464.755	7062.38
464.975	6934.38
465.195	7041.38
465.414	7133.38
465.634	6207.38
465.854	5921.38
466.073	5624.38
466.293	5467.38
466.512	5271.38
466.732	5187.38
466.951	5209.38
467.171	5202.38
467.391	5369.38
467.61	5310.38
467.829	5317.38
468.049	5171.38
468.268	5019.38
468.488	4999.38
468.707	4934.38
468.927	4974.38
469.146	4990.38
469.365	5003.38
469.585	5105.38
469.804	5303.38
470.023	5414.38
470.243	5467.38
470.462	5485.38
470.681	5638.38
470.901	5521.38
471.12	5340.38
471.339	5288.38
471.558	5279.38
471.777	5188.38
471.997	5010.38
472.216	4971.38
472.435	5096.38
472.654	4981.38
472.873	4866.38
473.092	4934.38
473.311	4891.38
473.53	5011.38
473.749	5123.38
473.968	5617.38
474.187	6653.38
474.406	6185.38
474.625	5278.38
474.844	5039.38
475.063	4933.38
475.282	4986.38
475.501	5108.38
475.72	5147.38
475.939	5112.38
476.158	5255.38
476.377	5206.38
476.596	5164.38
476.814	5286.38
477.033	5390.38
477.252	5501.38
477.471	5543.38
477.69	5679.38
477.908	5666.38
478.127	5870.38
478.346	5975.38
478.564	6032.38
478.783	6186.38
479.002	6302.38
479.22	6319.38
479.439	6436.38
479.658	6547.38
479.876	6638.38
480.095	6774.38
480.313	7202.38
480.532	7137.38
480.751	6855.38
480.969	6773.38
481.188	6711.38
481.406	6421.38
481.624	6218.38
481.843	6124.38
482.061	6028.38
482.28	5958.38
482.498	5892.38
482.717	5849.38
482.935	5819.38
483.153	5906.38
483.372	5829.38
483.59	5901.38
483.808	5869.38
484.027	5833.38
484.245	6012.38
484.463	5999.38
484.681	6080.38
484.9	6049.38
485.118	6138.38
485.336	6123.38
485.554	6284.38
485.772	6235.38
485.99	6279.38
486.209	6251.38
486.427	6303.38
486.645	6452.38
486.863	6527.38
487.081	6466.38
487.299	6309.38
487.517	6433.38
487.735	6345.38
487.953	6295.38
