Data from Uncirc_2005_H10_HRD10591_00004.txt Node
Date: Wed Jan 03 10:28:25 EST 2024
User: Yrep
Spectrometer: HR+D1059
Trigger mode: 1
Integration Time (sec): 1.000000E-1
Scans to average: 1
Electric dark correction enabled: true
Nonlinearity correction enabled: false
Boxcar width: 0
XAxis mode: Wavelengths
Number of Pixels in Spectrum: 2048
>>>>>Begin Spectral Data<<<<<
223.165	-29.75
223.4	-29.75
223.635	-29.75
223.869	-29.75
224.104	-17.75
224.338	-22.75
224.573	-19.75
224.808	-14.75
225.042	-10.75
225.277	-5.75
225.511	-4.75
225.746	1.25
225.98	5.25
226.215	27.25
226.449	17.25
226.683	26.25
226.918	34.25
227.152	44.25
227.387	43.25
227.621	44.25
227.856	60.25
228.09	43.25
228.324	50.25
228.559	55.25
228.793	60.25
229.027	60.25
229.262	73.25
229.496	81.25
229.73	82.25
229.964	84.25
230.199	69.25
230.433	72.25
230.667	78.25
230.901	82.25
231.136	97.25
231.37	61.25
231.604	70.25
231.838	76.25
232.072	80.25
232.306	78.25
232.541	82.25
232.775	74.25
233.009	77.25
233.243	86.25
233.477	79.25
233.711	80.25
233.945	67.25
234.179	78.25
234.413	74.25
234.647	82.25
234.881	81.25
235.115	69.25
235.349	85.25
235.583	81.25
235.817	76.25
236.051	77.25
236.285	79.25
236.519	83.25
236.753	70.25
236.987	85.25
237.221	63.25
237.455	82.25
237.689	83.25
237.922	75.25
238.156	70.25
238.39	66.25
238.624	78.25
238.858	70.25
239.091	81.25
239.325	80.25
239.559	69.25
239.793	77.25
240.027	66.25
240.26	59.25
240.494	80.25
240.728	68.25
240.961	72.25
241.195	87.25
241.429	68.25
241.662	83.25
241.896	64.25
242.13	65.25
242.363	82.25
242.597	83.25
242.83	78.25
243.064	74.25
243.298	76.25
243.531	82.25
243.765	97.25
243.998	76.25
244.232	94.25
244.465	84.25
244.699	81.25
244.932	76.25
245.166	73.25
245.399	79.25
245.633	88.25
245.866	81.25
246.099	77.25
246.333	75.25
246.566	71.25
246.8	81.25
247.033	74.25
247.266	79.25
247.5	78.25
247.733	78.25
247.966	77.25
248.2	91.25
248.433	75.25
248.666	83.25
248.899	91.25
249.133	96.25
249.366	109.25
249.599	86.25
249.832	82.25
250.066	75.25
250.299	73.25
250.532	79.25
250.765	68.25
250.998	73.25
251.231	100.25
251.465	85.25
251.698	78.25
251.931	77.25
252.164	75.25
252.397	78.25
252.63	78.25
252.863	62.25
253.096	80.25
253.329	80.25
253.562	77.25
253.795	83.25
254.028	79.25
254.261	79.25
254.494	80.25
254.727	81.25
254.96	81.25
255.193	78.25
255.426	79.25
255.659	75.25
255.892	82.25
256.124	78.25
256.357	79.25
256.59	80.25
256.823	82.25
257.056	73.25
257.289	70.25
257.521	80.25
257.754	67.25
257.987	68.25
258.22	75.25
258.452	75.25
258.685	67.25
258.918	68.25
259.151	91.25
259.383	75.25
259.616	86.25
259.849	88.25
260.081	100.25
260.314	75.25
260.547	89.25
260.779	71.25
261.012	96.25
261.244	79.25
261.477	82.25
261.71	87.25
261.942	106.25
262.175	109.25
262.407	75.25
262.64	89.25
262.872	102.25
263.105	89.25
263.337	86.25
263.57	83.25
263.802	79.25
264.035	92.25
264.267	84.25
264.499	84.25
264.732	85.25
264.964	62.25
265.197	81.25
265.429	81.25
265.661	78.25
265.894	98.25
266.126	73.25
266.358	82.25
266.591	72.25
266.823	71.25
267.055	75.25
267.287	77.25
267.52	77.25
267.752	78.25
267.984	91.25
268.216	62.25
268.448	75.25
268.681	62.25
268.913	85.25
269.145	71.25
269.377	94.25
269.609	81.25
269.841	90.25
270.073	83.25
270.306	82.25
270.538	93.25
270.77	71.25
271.002	87.25
271.234	77.25
271.466	88.25
271.698	69.25
271.93	80.25
272.162	76.25
272.394	90.25
272.626	83.25
272.858	76.25
273.09	90.25
273.322	85.25
273.553	82.25
273.785	79.25
274.017	69.25
274.249	89.25
274.481	91.25
274.713	84.25
274.945	84.25
275.176	87.25
275.408	91.25
275.64	83.25
275.872	86.25
276.104	87.25
276.335	105.25
276.567	83.25
276.799	84.25
277.031	85.25
277.262	75.25
277.494	101.25
277.726	78.25
277.957	77.25
278.189	86.25
278.421	92.25
278.652	85.25
278.884	74.25
279.115	83.25
279.347	86.25
279.579	77.25
279.81	85.25
280.042	78.25
280.273	97.25
280.505	80.25
280.736	91.25
280.968	101.25
281.199	87.25
281.431	93.25
281.662	93.25
281.894	95.25
282.125	90.25
282.356	102.25
282.588	123.25
282.819	99.25
283.051	83.25
283.282	84.25
283.513	92.25
283.745	82.25
283.976	93.25
284.207	81.25
284.439	79.25
284.67	91.25
284.901	71.25
285.132	75.25
285.364	79.25
285.595	74.25
285.826	84.25
286.057	80.25
286.288	86.25
286.52	86.25
286.751	78.25
286.982	88.25
287.213	80.25
287.444	84.25
287.675	96.25
287.906	92.25
288.138	88.25
288.369	84.25
288.6	95.25
288.831	81.25
289.062	82.25
289.293	79.25
289.524	86.25
289.755	84.25
289.986	86.25
290.217	84.25
290.448	104.25
290.679	89.25
290.91	82.25
291.141	85.25
291.371	86.25
291.602	88.25
291.833	89.25
292.064	87.25
292.295	91.25
292.526	103.25
292.757	70.25
292.987	97.25
293.218	92.25
293.449	92.25
293.68	90.25
293.91	89.25
294.141	90.25
294.372	74.25
294.603	83.25
294.833	92.25
295.064	95.25
295.295	97.25
295.525	92.25
295.756	84.25
295.987	95.25
296.217	126.25
296.448	115.25
296.679	91.25
296.909	90.25
297.14	92.25
297.37	80.25
297.601	88.25
297.831	84.25
298.062	90.25
298.292	91.25
298.523	89.25
298.753	82.25
298.984	82.25
299.214	83.25
299.445	93.25
299.675	94.25
299.905	82.25
300.136	91.25
300.366	86.25
300.597	74.25
300.827	106.25
301.057	98.25
301.288	84.25
301.518	94.25
301.748	89.25
301.979	86.25
302.209	89.25
302.439	86.25
302.669	77.25
302.9	85.25
303.13	72.25
303.36	80.25
303.59	90.25
303.82	104.25
304.051	84.25
304.281	93.25
304.511	89.25
304.741	86.25
304.971	82.25
305.201	90.25
305.431	86.25
305.661	84.25
305.891	77.25
306.121	90.25
306.352	100.25
306.582	95.25
306.812	85.25
307.042	97.25
307.272	80.25
307.502	99.25
307.731	93.25
307.961	95.25
308.191	85.25
308.421	79.25
308.651	91.25
308.881	78.25
309.111	89.25
309.341	77.25
309.571	94.25
309.8	90.25
310.03	92.25
310.26	93.25
310.49	91.25
310.72	107.25
310.949	91.25
311.179	101.25
311.409	99.25
311.639	84.25
311.868	99.25
312.098	87.25
312.328	98.25
312.557	82.25
312.787	99.25
313.017	87.25
313.246	89.25
313.476	86.25
313.706	101.25
313.935	85.25
314.165	90.25
314.394	104.25
314.624	91.25
314.853	91.25
315.083	88.25
315.312	86.25
315.542	96.25
315.771	89.25
316.001	89.25
316.23	88.25
316.46	92.25
316.689	85.25
316.919	90.25
317.148	82.25
317.377	102.25
317.607	87.25
317.836	82.25
318.065	97.25
318.295	80.25
318.524	88.25
318.753	81.25
318.983	92.25
319.212	91.25
319.441	89.25
319.67	98.25
319.9	100.25
320.129	96.25
320.358	79.25
320.587	98.25
320.816	97.25
321.046	99.25
321.275	83.25
321.504	102.25
321.733	97.25
321.962	99.25
322.191	94.25
322.42	91.25
322.649	115.25
322.878	104.25
323.108	109.25
323.337	118.25
323.566	131.25
323.795	139.25
324.024	207.25
324.253	387.25
324.482	784.25
324.71	1664.25
324.939	2170.25
325.168	789.25
325.397	230.25
325.626	143.25
325.855	121.25
326.084	111.25
326.313	130.25
326.542	141.25
326.77	234.25
326.999	457.25
327.228	933.25
327.457	1693.25
327.686	1310.25
327.914	354.25
328.143	191.25
328.372	140.25
328.6	106.25
328.829	114.25
329.058	109.25
329.287	108.25
329.515	97.25
329.744	98.25
329.972	110.25
330.201	96.25
330.43	121.25
330.658	111.25
330.887	113.25
331.115	108.25
331.344	102.25
331.572	100.25
331.801	85.25
332.03	110.25
332.258	83.25
332.486	86.25
332.715	94.25
332.943	94.25
333.172	77.25
333.4	102.25
333.629	99.25
333.857	93.25
334.085	101.25
334.314	74.25
334.542	98.25
334.771	104.25
334.999	104.25
335.227	93.25
335.455	95.25
335.684	98.25
335.912	95.25
336.14	93.25
336.369	92.25
336.597	101.25
336.825	78.25
337.053	88.25
337.281	87.25
337.51	93.25
337.738	102.25
337.966	88.25
338.194	94.25
338.422	96.25
338.65	104.25
338.878	89.25
339.106	68.25
339.334	91.25
339.562	89.25
339.79	84.25
340.018	86.25
340.246	76.25
340.474	87.25
340.702	83.25
340.93	79.25
341.158	88.25
341.386	104.25
341.614	100.25
341.842	84.25
342.07	87.25
342.298	89.25
342.526	87.25
342.754	93.25
342.981	95.25
343.209	80.25
343.437	105.25
343.665	108.25
343.893	91.25
344.12	82.25
344.348	82.25
344.576	101.25
344.804	101.25
345.031	73.25
345.259	100.25
345.487	90.25
345.714	100.25
345.942	84.25
346.17	77.25
346.397	83.25
346.625	88.25
346.853	98.25
347.08	92.25
347.308	102.25
347.535	98.25
347.763	96.25
347.99	101.25
348.218	92.25
348.445	100.25
348.673	82.25
348.9	97.25
349.128	90.25
349.355	108.25
349.583	101.25
349.81	91.25
350.037	98.25
350.265	87.25
350.492	78.25
350.72	102.25
350.947	94.25
351.174	109.25
351.402	106.25
351.629	98.25
351.856	100.25
352.083	98.25
352.311	89.25
352.538	102.25
352.765	111.25
352.992	113.25
353.22	93.25
353.447	114.25
353.674	108.25
353.901	94.25
354.128	106.25
354.355	106.25
354.583	98.25
354.81	102.25
355.037	95.25
355.264	95.25
355.491	92.25
355.718	111.25
355.945	90.25
356.172	95.25
356.399	109.25
356.626	111.25
356.853	75.25
357.08	111.25
357.307	102.25
357.534	83.25
357.761	93.25
357.988	93.25
358.215	114.25
358.441	100.25
358.668	110.25
358.895	104.25
359.122	97.25
359.349	71.25
359.576	88.25
359.802	99.25
360.029	101.25
360.256	95.25
360.483	92.25
360.709	86.25
360.936	97.25
361.163	94.25
361.39	85.25
361.616	85.25
361.843	83.25
362.07	95.25
362.296	93.25
362.523	91.25
362.749	80.25
362.976	76.25
363.203	95.25
363.429	96.25
363.656	81.25
363.882	82.25
364.109	101.25
364.335	97.25
364.562	102.25
364.788	87.25
365.015	85.25
365.241	106.25
365.468	100.25
365.694	111.25
365.92	89.25
366.147	92.25
366.373	76.25
366.599	86.25
366.826	86.25
367.052	91.25
367.278	99.25
367.505	84.25
367.731	93.25
367.957	92.25
368.184	82.25
368.41	95.25
368.636	113.25
368.862	102.25
369.089	98.25
369.315	86.25
369.541	84.25
369.767	87.25
369.993	85.25
370.219	85.25
370.445	90.25
370.672	79.25
370.898	87.25
371.124	89.25
371.35	91.25
371.576	88.25
371.802	84.25
372.028	89.25
372.254	81.25
372.48	75.25
372.706	82.25
372.932	74.25
373.158	76.25
373.384	93.25
373.61	100.25
373.835	91.25
374.061	92.25
374.287	98.25
374.513	90.25
374.739	97.25
374.965	90.25
375.191	74.25
375.416	92.25
375.642	96.25
375.868	83.25
376.094	91.25
376.319	87.25
376.545	98.25
376.771	85.25
376.997	104.25
377.222	91.25
377.448	102.25
377.674	88.25
377.899	81.25
378.125	98.25
378.35	82.25
378.576	93.25
378.802	106.25
379.027	91.25
379.253	98.25
379.478	82.25
379.704	92.25
379.929	84.25
380.155	107.25
380.38	115.25
380.606	100.25
380.831	97.25
381.057	111.25
381.282	101.25
381.507	110.25
381.733	96.25
381.958	110.25
382.184	103.25
382.409	94.25
382.634	102.25
382.86	106.25
383.085	122.25
383.31	128.25
383.535	112.25
383.761	103.25
383.986	104.25
384.211	105.25
384.436	112.25
384.662	117.25
384.887	109.25
385.112	122.25
385.337	121.25
385.562	109.25
385.787	123.25
386.013	137.25
386.238	136.25
386.463	116.25
386.688	123.25
386.913	123.25
387.138	138.25
387.363	123.25
387.588	108.25
387.813	108.25
388.038	136.25
388.263	133.25
388.488	140.25
388.713	106.25
388.938	87.25
389.163	81.25
389.387	95.25
389.612	91.25
389.837	91.25
390.062	94.25
390.287	104.25
390.512	98.25
390.736	96.25
390.961	91.25
391.186	102.25
391.411	92.25
391.636	87.25
391.86	85.25
392.085	92.25
392.31	96.25
392.534	85.25
392.759	93.25
392.984	99.25
393.208	76.25
393.433	97.25
393.658	98.25
393.882	94.25
394.107	86.25
394.331	100.25
394.556	85.25
394.78	91.25
395.005	100.25
395.229	81.25
395.454	82.25
395.678	77.25
395.903	79.25
396.127	97.25
396.352	89.25
396.576	106.25
396.801	79.25
397.025	100.25
397.249	74.25
397.474	83.25
397.698	97.25
397.922	96.25
398.147	100.25
398.371	93.25
398.595	89.25
398.82	84.25
399.044	87.25
399.268	88.25
399.492	77.25
399.717	73.25
399.941	93.25
400.165	95.25
400.389	92.25
400.613	75.25
400.837	89.25
401.062	92.25
401.286	93.25
401.51	90.25
401.734	84.25
401.958	103.25
402.182	116.25
402.406	126.25
402.63	91.25
402.854	88.25
403.078	90.25
403.302	95.25
403.526	94.25
403.75	86.25
403.974	89.25
404.198	81.25
404.422	89.25
404.645	89.25
404.869	87.25
405.093	94.25
405.317	113.25
405.541	86.25
405.765	85.25
405.988	118.25
406.212	144.25
406.436	180.25
406.66	139.25
406.883	95.25
407.107	96.25
407.331	102.25
407.555	98.25
407.778	94.25
408.002	82.25
408.226	75.25
408.449	92.25
408.673	90.25
408.896	92.25
409.12	82.25
409.344	104.25
409.567	86.25
409.791	79.25
410.014	98.25
410.238	97.25
410.461	90.25
410.685	99.25
410.908	91.25
411.132	113.25
411.355	94.25
411.578	103.25
411.802	82.25
412.025	95.25
412.249	83.25
412.472	93.25
412.695	90.25
412.919	83.25
413.142	78.25
413.365	89.25
413.589	85.25
413.812	91.25
414.035	91.25
414.258	102.25
414.482	88.25
414.705	105.25
414.928	99.25
415.151	91.25
415.374	94.25
415.597	96.25
415.821	87.25
416.044	83.25
416.267	100.25
416.49	87.25
416.713	90.25
416.936	94.25
417.159	80.25
417.382	87.25
417.605	89.25
417.828	95.25
418.051	87.25
418.274	100.25
418.497	90.25
418.72	96.25
418.943	87.25
419.166	99.25
419.389	84.25
419.611	92.25
419.834	98.25
420.057	98.25
420.28	86.25
420.503	97.25
420.726	94.25
420.948	104.25
421.171	94.25
421.394	96.25
421.617	85.25
421.839	99.25
422.062	78.25
422.285	82.25
422.507	94.25
422.73	97.25
422.953	86.25
423.175	77.25
423.398	92.25
423.621	76.25
423.843	81.25
424.066	87.25
424.288	82.25
424.511	77.25
424.733	73.25
424.956	101.25
425.178	87.25
425.401	100.25
425.623	76.25
425.846	91.25
426.068	84.25
426.291	93.25
426.513	86.25
426.735	88.25
426.958	94.25
427.18	91.25
427.402	121.25
427.625	145.25
427.847	123.25
428.069	92.25
428.292	91.25
428.514	73.25
428.736	85.25
428.958	73.25
429.181	93.25
429.403	86.25
429.625	79.25
429.847	79.25
430.069	91.25
430.292	93.25
430.514	86.25
430.736	89.25
430.958	85.25
431.18	79.25
431.402	75.25
431.624	84.25
431.846	94.25
432.068	81.25
432.29	76.25
432.512	79.25
432.734	75.25
432.956	80.25
433.178	95.25
433.4	85.25
433.622	82.25
433.844	88.25
434.066	93.25
434.287	85.25
434.509	76.25
434.731	92.25
434.953	85.25
435.175	80.25
435.397	90.25
435.618	89.25
435.84	103.25
436.062	126.25
436.284	115.25
436.505	101.25
436.727	95.25
436.949	94.25
437.17	94.25
437.392	80.25
437.614	104.25
437.835	87.25
438.057	112.25
438.278	98.25
438.5	103.25
438.721	129.25
438.943	92.25
439.165	85.25
439.386	93.25
439.608	83.25
439.829	86.25
440.05	121.25
440.272	136.25
440.493	99.25
440.715	94.25
440.936	86.25
441.158	73.25
441.379	91.25
441.6	96.25
441.822	93.25
442.043	86.25
442.264	87.25
442.486	85.25
442.707	81.25
442.928	83.25
443.149	111.25
443.371	111.25
443.592	108.25
443.813	108.25
444.034	103.25
444.255	83.25
444.476	83.25
444.698	84.25
444.919	86.25
445.14	121.25
445.361	112.25
445.582	125.25
445.803	151.25
446.024	109.25
446.245	118.25
446.466	102.25
446.687	85.25
446.908	91.25
447.129	85.25
447.35	83.25
447.571	93.25
447.792	89.25
448.013	88.25
448.234	103.25
448.455	90.25
448.675	107.25
448.896	112.25
449.117	99.25
449.338	81.25
449.559	114.25
449.779	124.25
450	83.25
450.221	103.25
450.442	103.25
450.662	91.25
450.883	96.25
451.104	94.25
451.324	102.25
451.545	78.25
451.766	81.25
451.986	87.25
452.207	91.25
452.428	86.25
452.648	100.25
452.869	107.25
453.089	105.25
453.31	102.25
453.53	90.25
453.751	90.25
453.971	114.25
454.192	112.25
454.412	93.25
454.633	86.25
454.853	83.25
455.073	82.25
455.294	81.25
455.514	106.25
455.734	89.25
455.955	86.25
456.175	85.25
456.395	72.25
456.616	85.25
456.836	77.25
457.056	78.25
457.276	91.25
457.497	73.25
457.717	89.25
457.937	90.25
458.157	90.25
458.377	88.25
458.598	103.25
458.818	127.25
459.038	129.25
459.258	110.25
459.478	85.25
459.698	91.25
459.918	86.25
460.138	90.25
460.358	93.25
460.578	102.25
460.798	86.25
461.018	97.25
461.238	87.25
461.458	74.25
461.678	88.25
461.898	95.25
462.118	81.25
462.338	84.25
462.558	82.25
462.777	94.25
462.997	76.25
463.217	90.25
463.437	81.25
463.657	84.25
463.876	85.25
464.096	91.25
464.316	96.25
464.536	89.25
464.755	77.25
464.975	101.25
465.195	150.25
465.414	153.25
465.634	107.25
465.854	78.25
466.073	92.25
466.293	94.25
466.512	82.25
466.732	86.25
466.951	90.25
467.171	82.25
467.391	89.25
467.61	102.25
467.829	85.25
468.049	84.25
468.268	84.25
468.488	80.25
468.707	85.25
468.927	91.25
469.146	85.25
469.365	78.25
469.585	91.25
469.804	90.25
470.023	83.25
470.243	78.25
470.462	81.25
470.681	85.25
470.901	85.25
471.12	97.25
471.339	71.25
471.558	92.25
471.777	70.25
471.997	102.25
472.216	78.25
472.435	96.25
472.654	101.25
472.873	84.25
473.092	85.25
473.311	90.25
473.53	81.25
473.749	82.25
473.968	90.25
474.187	101.25
474.406	96.25
474.625	94.25
474.844	92.25
475.063	86.25
475.282	85.25
475.501	98.25
475.72	80.25
475.939	82.25
476.158	85.25
476.377	79.25
476.596	100.25
476.814	93.25
477.033	82.25
477.252	93.25
477.471	74.25
477.69	85.25
477.908	87.25
478.127	77.25
478.346	98.25
478.564	97.25
478.783	88.25
479.002	85.25
479.22	79.25
479.439	94.25
479.658	110.25
479.876	103.25
480.095	87.25
480.313	86.25
480.532	96.25
480.751	91.25
480.969	75.25
481.188	103.25
481.406	90.25
481.624	87.25
481.843	95.25
482.061	93.25
482.28	95.25
482.498	71.25
482.717	86.25
482.935	91.25
483.153	93.25
483.372	98.25
483.59	102.25
483.808	102.25
484.027	96.25
484.245	95.25
484.463	79.25
484.681	81.25
484.9	79.25
485.118	85.25
485.336	90.25
485.554	83.25
485.772	112.25
485.99	111.25
486.209	102.25
486.427	100.25
486.645	105.25
486.863	100.25
487.081	101.25
487.299	115.25
487.517	89.25
487.735	86.25
487.953	95.25
488.171	83.25
488.389	92.25
488.607	107.25
488.825	92.25
489.043	87.25
489.261	80.25
489.479	86.25
489.696	87.25
489.914	86.25
490.132	85.25
490.35	94.25
490.568	86.25
490.786	90.25
491.003	91.25
491.221	98.25
491.439	90.25
491.657	90.25
491.874	85.25
492.092	78.25
492.31	91.25
492.527	87.25
492.745	92.25
492.963	89.25
493.18	85.25
493.398	92.25
493.615	80.25
493.833	91.25
494.05	88.25
494.268	88.25
494.485	91.25
494.703	97.25
494.92	90.25
495.138	85.25
495.355	85.25
495.573	80.25
495.79	97.25
496.008	88.25
496.225	84.25
496.442	102.25
496.66	110.25
496.877	91.25
497.094	101.25
497.312	97.25
497.529	81.25
497.746	90.25
497.963	69.25
498.181	80.25
498.398	91.25
498.615	103.25
498.832	92.25
499.049	99.25
499.267	93.25
499.484	92.25
499.701	91.25
499.918	97.25
500.135	92.25
500.352	88.25
500.569	67.25
500.786	93.25
501.003	82.25
501.22	77.25
501.437	87.25
501.654	77.25
501.871	86.25
502.088	88.25
502.305	95.25
502.522	77.25
502.739	83.25
502.956	102.25
503.172	85.25
503.389	81.25
503.606	106.25
503.823	90.25
504.04	87.25
504.256	91.25
504.473	90.25
504.69	82.25
504.907	78.25
505.123	87.25
505.34	87.25
505.557	86.25
505.773	88.25
505.99	80.25
506.207	96.25
506.423	83.25
506.64	83.25
506.856	88.25
507.073	93.25
507.289	86.25
507.506	95.25
507.722	95.25
507.939	104.25
508.155	89.25
508.372	100.25
508.588	91.25
508.805	100.25
509.021	97.25
509.238	98.25
509.454	94.25
509.67	90.25
509.887	101.25
510.103	121.25
510.319	193.25
510.536	605.25
510.752	1811.25
510.968	521.25
511.184	141.25
511.401	95.25
511.617	92.25
511.833	94.25
512.049	84.25
512.265	94.25
512.481	84.25
512.698	93.25
512.914	88.25
513.13	80.25
513.346	86.25
513.562	95.25
513.778	94.25
513.994	90.25
514.21	91.25
514.426	103.25
514.642	124.25
514.858	122.25
515.074	156.25
515.29	378.25
515.506	1162.25
515.721	457.25
515.937	139.25
516.153	96.25
