Data from Uncirc_2005_H10_HRD10591_00020.txt Node
Date: Wed Jan 03 10:28:28 EST 2024
User: Yrep
Spectrometer: HR+D1059
Trigger mode: 1
Integration Time (sec): 1.000000E-1
Scans to average: 1
Electric dark correction enabled: true
Nonlinearity correction enabled: false
Boxcar width: 0
XAxis mode: Wavelengths
Number of Pixels in Spectrum: 2048
>>>>>Begin Spectral Data<<<<<
223.165	-17.81
223.4	-17.81
223.635	-17.81
223.869	-24.81
224.104	-14.81
224.338	-14.81
224.573	-21.81
224.808	-13.81
225.042	-17.81
225.277	-7.81
225.511	0.19
225.746	9.19
225.98	6.19
226.215	26.19
226.449	21.19
226.683	14.19
226.918	30.19
227.152	26.19
227.387	24.19
227.621	36.19
227.856	35.19
228.09	41.19
228.324	58.19
228.559	56.19
228.793	65.19
229.027	54.19
229.262	59.19
229.496	64.19
229.73	94.19
229.964	95.19
230.199	79.19
230.433	86.19
230.667	81.19
230.901	76.19
231.136	76.19
231.37	71.19
231.604	63.19
231.838	78.19
232.072	73.19
232.306	70.19
232.541	85.19
232.775	67.19
233.009	78.19
233.243	80.19
233.477	95.19
233.711	70.19
233.945	81.19
234.179	85.19
234.413	80.19
234.647	79.19
234.881	72.19
235.115	81.19
235.349	74.19
235.583	77.19
235.817	87.19
236.051	94.19
236.285	88.19
236.519	80.19
236.753	84.19
236.987	83.19
237.221	88.19
237.455	80.19
237.689	81.19
237.922	75.19
238.156	75.19
238.39	85.19
238.624	70.19
238.858	90.19
239.091	85.19
239.325	88.19
239.559	78.19
239.793	77.19
240.027	71.19
240.26	81.19
240.494	85.19
240.728	76.19
240.961	72.19
241.195	71.19
241.429	88.19
241.662	69.19
241.896	65.19
242.13	73.19
242.363	76.19
242.597	75.19
242.83	62.19
243.064	77.19
243.298	77.19
243.531	71.19
243.765	79.19
243.998	79.19
244.232	85.19
244.465	85.19
244.699	86.19
244.932	81.19
245.166	60.19
245.399	67.19
245.633	75.19
245.866	67.19
246.099	70.19
246.333	85.19
246.566	71.19
246.8	84.19
247.033	69.19
247.266	73.19
247.5	79.19
247.733	77.19
247.966	74.19
248.2	78.19
248.433	82.19
248.666	80.19
248.899	78.19
249.133	83.19
249.366	79.19
249.599	100.19
249.832	88.19
250.066	85.19
250.299	72.19
250.532	76.19
250.765	85.19
250.998	67.19
251.231	84.19
251.465	83.19
251.698	76.19
251.931	75.19
252.164	74.19
252.397	75.19
252.63	76.19
252.863	74.19
253.096	75.19
253.329	78.19
253.562	68.19
253.795	89.19
254.028	87.19
254.261	70.19
254.494	93.19
254.727	87.19
254.96	88.19
255.193	92.19
255.426	83.19
255.659	64.19
255.892	84.19
256.124	84.19
256.357	90.19
256.59	72.19
256.823	82.19
257.056	74.19
257.289	70.19
257.521	82.19
257.754	78.19
257.987	69.19
258.22	75.19
258.452	85.19
258.685	96.19
258.918	75.19
259.151	81.19
259.383	80.19
259.616	77.19
259.849	71.19
260.081	84.19
260.314	70.19
260.547	94.19
260.779	83.19
261.012	78.19
261.244	74.19
261.477	81.19
261.71	93.19
261.942	117.19
262.175	136.19
262.407	97.19
262.64	100.19
262.872	82.19
263.105	81.19
263.337	101.19
263.57	82.19
263.802	74.19
264.035	81.19
264.267	68.19
264.499	87.19
264.732	78.19
264.964	85.19
265.197	79.19
265.429	78.19
265.661	82.19
265.894	78.19
266.126	88.19
266.358	80.19
266.591	73.19
266.823	83.19
267.055	74.19
267.287	81.19
267.52	78.19
267.752	68.19
267.984	86.19
268.216	68.19
268.448	81.19
268.681	74.19
268.913	75.19
269.145	80.19
269.377	74.19
269.609	89.19
269.841	100.19
270.073	85.19
270.306	93.19
270.538	78.19
270.77	83.19
271.002	79.19
271.234	77.19
271.466	86.19
271.698	80.19
271.93	79.19
272.162	81.19
272.394	82.19
272.626	86.19
272.858	90.19
273.09	73.19
273.322	82.19
273.553	92.19
273.785	85.19
274.017	84.19
274.249	86.19
274.481	83.19
274.713	93.19
274.945	96.19
275.176	89.19
275.408	87.19
275.64	70.19
275.872	93.19
276.104	84.19
276.335	92.19
276.567	105.19
276.799	118.19
277.031	97.19
277.262	90.19
277.494	79.19
277.726	75.19
277.957	79.19
278.189	86.19
278.421	92.19
278.652	93.19
278.884	90.19
279.115	74.19
279.347	80.19
279.579	90.19
279.81	85.19
280.042	90.19
280.273	86.19
280.505	78.19
280.736	84.19
280.968	86.19
281.199	87.19
281.431	89.19
281.662	84.19
281.894	91.19
282.125	94.19
282.356	122.19
282.588	158.19
282.819	123.19
283.051	81.19
283.282	74.19
283.513	80.19
283.745	93.19
283.976	75.19
284.207	77.19
284.439	84.19
284.67	85.19
284.901	91.19
285.132	82.19
285.364	84.19
285.595	82.19
285.826	92.19
286.057	88.19
286.288	99.19
286.52	86.19
286.751	83.19
286.982	85.19
287.213	83.19
287.444	89.19
287.675	94.19
287.906	91.19
288.138	94.19
288.369	81.19
288.6	84.19
288.831	77.19
289.062	99.19
289.293	82.19
289.524	79.19
289.755	86.19
289.986	85.19
290.217	95.19
290.448	84.19
290.679	78.19
290.91	74.19
291.141	89.19
291.371	88.19
291.602	76.19
291.833	88.19
292.064	78.19
292.295	83.19
292.526	93.19
292.757	85.19
292.987	84.19
293.218	88.19
293.449	73.19
293.68	77.19
293.91	91.19
294.141	105.19
294.372	94.19
294.603	103.19
294.833	100.19
295.064	89.19
295.295	90.19
295.525	80.19
295.756	106.19
295.987	118.19
296.217	134.19
296.448	123.19
296.679	92.19
296.909	99.19
297.14	77.19
297.37	84.19
297.601	80.19
297.831	92.19
298.062	94.19
298.292	97.19
298.523	91.19
298.753	91.19
298.984	96.19
299.214	72.19
299.445	83.19
299.675	95.19
299.905	82.19
300.136	97.19
300.366	93.19
300.597	86.19
300.827	92.19
301.057	98.19
301.288	102.19
301.518	104.19
301.748	97.19
301.979	99.19
302.209	102.19
302.439	98.19
302.669	101.19
302.9	97.19
303.13	96.19
303.36	84.19
303.59	106.19
303.82	99.19
304.051	100.19
304.281	78.19
304.511	95.19
304.741	83.19
304.971	99.19
305.201	81.19
305.431	85.19
305.661	92.19
305.891	86.19
306.121	85.19
306.352	105.19
306.582	109.19
306.812	90.19
307.042	92.19
307.272	104.19
307.502	97.19
307.731	94.19
307.961	90.19
308.191	89.19
308.421	87.19
308.651	104.19
308.881	103.19
309.111	87.19
309.341	93.19
309.571	101.19
309.8	90.19
310.03	81.19
310.26	111.19
310.49	99.19
310.72	87.19
310.949	88.19
311.179	103.19
311.409	98.19
311.639	101.19
311.868	108.19
312.098	95.19
312.328	102.19
312.557	101.19
312.787	113.19
313.017	109.19
313.246	86.19
313.476	91.19
313.706	106.19
313.935	97.19
314.165	95.19
314.394	96.19
314.624	100.19
314.853	86.19
315.083	93.19
315.312	98.19
315.542	86.19
315.771	88.19
316.001	94.19
316.23	94.19
316.46	79.19
316.689	98.19
316.919	76.19
317.148	105.19
317.377	100.19
317.607	87.19
317.836	105.19
318.065	97.19
318.295	94.19
318.524	92.19
318.753	93.19
318.983	87.19
319.212	89.19
319.441	92.19
319.67	100.19
319.9	104.19
320.129	86.19
320.358	80.19
320.587	92.19
320.816	103.19
321.046	107.19
321.275	81.19
321.504	90.19
321.733	104.19
321.962	97.19
322.191	106.19
322.42	106.19
322.649	115.19
322.878	111.19
323.108	107.19
323.337	129.19
323.566	148.19
323.795	177.19
324.024	249.19
324.253	482.19
324.482	1008.19
324.71	2134.19
324.939	2851.19
325.168	1058.19
325.397	278.19
325.626	159.19
325.855	146.19
326.084	141.19
326.313	142.19
326.542	170.19
326.77	276.19
326.999	550.19
327.228	1165.19
327.457	2137.19
327.686	1718.19
327.914	468.19
328.143	218.19
328.372	161.19
328.6	153.19
328.829	116.19
329.058	125.19
329.287	139.19
329.515	124.19
329.744	108.19
329.972	100.19
330.201	99.19
330.43	107.19
330.658	140.19
330.887	156.19
331.115	152.19
331.344	105.19
331.572	99.19
331.801	115.19
332.03	109.19
332.258	102.19
332.486	96.19
332.715	77.19
332.943	82.19
333.172	100.19
333.4	93.19
333.629	105.19
333.857	115.19
334.085	107.19
334.314	105.19
334.542	106.19
334.771	93.19
334.999	95.19
335.227	112.19
335.455	97.19
335.684	99.19
335.912	88.19
336.14	86.19
336.369	84.19
336.597	103.19
336.825	101.19
337.053	113.19
337.281	90.19
337.51	94.19
337.738	100.19
337.966	92.19
338.194	87.19
338.422	88.19
338.65	98.19
338.878	87.19
339.106	91.19
339.334	92.19
339.562	73.19
339.79	104.19
340.018	101.19
340.246	86.19
340.474	88.19
340.702	85.19
340.93	94.19
341.158	100.19
341.386	81.19
341.614	101.19
341.842	98.19
342.07	85.19
342.298	93.19
342.526	93.19
342.754	85.19
342.981	77.19
343.209	84.19
343.437	98.19
343.665	97.19
343.893	92.19
344.12	90.19
344.348	98.19
344.576	97.19
344.804	102.19
345.031	103.19
345.259	95.19
345.487	76.19
345.714	101.19
345.942	96.19
346.17	96.19
346.397	93.19
346.625	100.19
346.853	101.19
347.08	85.19
347.308	91.19
347.535	117.19
347.763	100.19
347.99	102.19
348.218	101.19
348.445	109.19
348.673	102.19
348.9	93.19
349.128	86.19
349.355	82.19
349.583	87.19
349.81	88.19
350.037	85.19
350.265	96.19
350.492	92.19
350.72	93.19
350.947	110.19
351.174	107.19
351.402	125.19
351.629	120.19
351.856	99.19
352.083	110.19
352.311	94.19
352.538	111.19
352.765	109.19
352.992	121.19
353.22	101.19
353.447	98.19
353.674	86.19
353.901	93.19
354.128	88.19
354.355	96.19
354.583	100.19
354.81	94.19
355.037	83.19
355.264	90.19
355.491	89.19
355.718	87.19
355.945	104.19
356.172	100.19
356.399	98.19
356.626	93.19
356.853	92.19
357.08	100.19
357.307	91.19
357.534	99.19
357.761	107.19
357.988	93.19
358.215	92.19
358.441	83.19
358.668	82.19
358.895	92.19
359.122	91.19
359.349	91.19
359.576	82.19
359.802	100.19
360.029	119.19
360.256	129.19
360.483	93.19
360.709	100.19
360.936	109.19
361.163	100.19
361.39	97.19
361.616	100.19
361.843	105.19
362.07	89.19
362.296	84.19
362.523	92.19
362.749	79.19
362.976	111.19
363.203	93.19
363.429	91.19
363.656	97.19
363.882	112.19
364.109	97.19
364.335	88.19
364.562	82.19
364.788	98.19
365.015	89.19
365.241	109.19
365.468	105.19
365.694	104.19
365.92	84.19
366.147	93.19
366.373	75.19
366.599	86.19
366.826	92.19
367.052	85.19
367.278	86.19
367.505	83.19
367.731	87.19
367.957	113.19
368.184	101.19
368.41	95.19
368.636	129.19
368.862	116.19
369.089	100.19
369.315	92.19
369.541	96.19
369.767	92.19
369.993	86.19
370.219	84.19
370.445	88.19
370.672	104.19
370.898	88.19
371.124	86.19
371.35	84.19
371.576	90.19
371.802	85.19
372.028	86.19
372.254	89.19
372.48	88.19
372.706	83.19
372.932	81.19
373.158	86.19
373.384	95.19
373.61	101.19
373.835	93.19
374.061	86.19
374.287	92.19
374.513	104.19
374.739	71.19
374.965	93.19
375.191	96.19
375.416	91.19
375.642	93.19
375.868	98.19
376.094	85.19
376.319	80.19
376.545	91.19
376.771	91.19
376.997	85.19
377.222	90.19
377.448	94.19
377.674	85.19
377.899	96.19
378.125	83.19
378.35	96.19
378.576	87.19
378.802	81.19
379.027	88.19
379.253	94.19
379.478	89.19
379.704	84.19
379.929	89.19
380.155	92.19
380.38	93.19
380.606	96.19
380.831	80.19
381.057	99.19
381.282	98.19
381.507	94.19
381.733	88.19
381.958	100.19
382.184	96.19
382.409	83.19
382.634	106.19
382.86	94.19
383.085	105.19
383.31	88.19
383.535	115.19
383.761	105.19
383.986	92.19
384.211	82.19
384.436	90.19
384.662	103.19
384.887	115.19
385.112	112.19
385.337	113.19
385.562	105.19
385.787	105.19
386.013	121.19
386.238	117.19
386.463	107.19
386.688	102.19
386.913	108.19
387.138	108.19
387.363	119.19
387.588	107.19
387.813	103.19
388.038	95.19
388.263	116.19
388.488	121.19
388.713	98.19
388.938	96.19
389.163	90.19
389.387	82.19
389.612	81.19
389.837	97.19
390.062	104.19
390.287	97.19
390.512	98.19
390.736	90.19
390.961	81.19
391.186	87.19
391.411	83.19
391.636	82.19
391.86	82.19
392.085	80.19
392.31	81.19
392.534	89.19
392.759	76.19
392.984	104.19
393.208	79.19
393.433	88.19
393.658	92.19
393.882	73.19
394.107	87.19
394.331	81.19
394.556	99.19
394.78	87.19
395.005	101.19
395.229	80.19
395.454	70.19
395.678	95.19
395.903	95.19
396.127	87.19
396.352	93.19
396.576	81.19
396.801	82.19
397.025	79.19
397.249	98.19
397.474	83.19
397.698	89.19
397.922	82.19
398.147	88.19
398.371	85.19
398.595	81.19
398.82	75.19
399.044	88.19
399.268	77.19
399.492	79.19
399.717	83.19
399.941	93.19
400.165	83.19
400.389	114.19
400.613	86.19
400.837	85.19
401.062	86.19
401.286	101.19
401.51	79.19
401.734	73.19
401.958	103.19
402.182	145.19
402.406	156.19
402.63	128.19
402.854	114.19
403.078	79.19
403.302	90.19
403.526	85.19
403.75	86.19
403.974	70.19
404.198	85.19
404.422	89.19
404.645	92.19
404.869	76.19
405.093	96.19
405.317	108.19
405.541	97.19
405.765	91.19
405.988	125.19
406.212	202.19
406.436	258.19
406.66	158.19
406.883	92.19
407.107	97.19
407.331	101.19
407.555	100.19
407.778	110.19
408.002	114.19
408.226	94.19
408.449	100.19
408.673	89.19
408.896	95.19
409.12	105.19
409.344	85.19
409.567	96.19
409.791	94.19
410.014	91.19
410.238	90.19
410.461	95.19
410.685	105.19
410.908	92.19
411.132	97.19
411.355	97.19
411.578	82.19
411.802	91.19
412.025	102.19
412.249	106.19
412.472	88.19
412.695	72.19
412.919	80.19
413.142	75.19
413.365	72.19
413.589	82.19
413.812	92.19
414.035	94.19
414.258	84.19
414.482	86.19
414.705	99.19
414.928	94.19
415.151	88.19
415.374	94.19
415.597	90.19
415.821	82.19
416.044	95.19
416.267	89.19
416.49	85.19
416.713	90.19
416.936	84.19
417.159	89.19
417.382	81.19
417.605	98.19
417.828	86.19
418.051	86.19
418.274	96.19
418.497	93.19
418.72	95.19
418.943	93.19
419.166	98.19
419.389	76.19
419.611	82.19
419.834	83.19
420.057	89.19
420.28	65.19
420.503	85.19
420.726	73.19
420.948	86.19
421.171	98.19
421.394	101.19
421.617	87.19
421.839	93.19
422.062	84.19
422.285	87.19
422.507	97.19
422.73	109.19
422.953	105.19
423.175	91.19
423.398	95.19
423.621	86.19
423.843	90.19
424.066	83.19
424.288	77.19
424.511	99.19
424.733	99.19
424.956	100.19
425.178	101.19
425.401	109.19
425.623	91.19
425.846	97.19
426.068	98.19
426.291	93.19
426.513	101.19
426.735	88.19
426.958	113.19
427.18	119.19
427.402	164.19
427.625	193.19
427.847	163.19
428.069	110.19
428.292	89.19
428.514	83.19
428.736	86.19
428.958	81.19
429.181	85.19
429.403	87.19
429.625	80.19
429.847	93.19
430.069	103.19
430.292	98.19
430.514	97.19
430.736	84.19
430.958	98.19
431.18	94.19
431.402	90.19
431.624	94.19
431.846	89.19
432.068	81.19
432.29	82.19
432.512	91.19
432.734	85.19
432.956	98.19
433.178	89.19
433.4	98.19
433.622	89.19
433.844	89.19
434.066	90.19
434.287	90.19
434.509	92.19
434.731	89.19
434.953	110.19
435.175	97.19
435.397	108.19
435.618	96.19
435.84	108.19
436.062	146.19
436.284	127.19
436.505	102.19
436.727	101.19
436.949	85.19
437.17	86.19
437.392	92.19
437.614	92.19
437.835	106.19
438.057	128.19
438.278	128.19
438.5	120.19
438.721	144.19
438.943	124.19
439.165	91.19
439.386	95.19
439.608	100.19
439.829	91.19
440.05	120.19
440.272	152.19
440.493	112.19
440.715	91.19
440.936	89.19
441.158	85.19
441.379	84.19
441.6	95.19
441.822	72.19
442.043	93.19
442.264	109.19
442.486	104.19
442.707	105.19
442.928	112.19
443.149	133.19
443.371	140.19
443.592	124.19
443.813	113.19
444.034	114.19
444.255	97.19
444.476	87.19
444.698	89.19
444.919	86.19
445.14	133.19
445.361	118.19
445.582	134.19
445.803	170.19
446.024	169.19
446.245	148.19
446.466	116.19
446.687	94.19
446.908	93.19
447.129	87.19
447.35	92.19
447.571	95.19
447.792	99.19
448.013	87.19
448.234	107.19
448.455	106.19
448.675	121.19
448.896	127.19
449.117	109.19
449.338	101.19
449.559	149.19
449.779	149.19
450	104.19
450.221	98.19
450.442	77.19
450.662	114.19
450.883	121.19
451.104	121.19
451.324	96.19
451.545	90.19
451.766	84.19
451.986	88.19
452.207	91.19
452.428	87.19
452.648	90.19
452.869	104.19
453.089	112.19
453.31	131.19
453.53	82.19
453.751	98.19
453.971	113.19
454.192	128.19
454.412	103.19
454.633	87.19
454.853	61.19
455.073	84.19
455.294	72.19
455.514	109.19
455.734	91.19
455.955	80.19
456.175	86.19
456.395	72.19
456.616	70.19
456.836	97.19
457.056	79.19
457.276	85.19
457.497	89.19
457.717	82.19
457.937	85.19
458.157	82.19
458.377	100.19
458.598	104.19
458.818	172.19
459.038	179.19
459.258	122.19
459.478	91.19
459.698	91.19
459.918	86.19
460.138	99.19
460.358	79.19
460.578	90.19
460.798	88.19
461.018	85.19
461.238	109.19
461.458	87.19
461.678	85.19
461.898	83.19
462.118	83.19
462.338	80.19
462.558	82.19
462.777	89.19
462.997	77.19
463.217	96.19
463.437	86.19
463.657	80.19
463.876	90.19
464.096	82.19
464.316	98.19
464.536	83.19
464.755	84.19
464.975	108.19
465.195	184.19
465.414	185.19
465.634	97.19
465.854	90.19
466.073	95.19
466.293	80.19
466.512	73.19
466.732	94.19
466.951	91.19
467.171	90.19
467.391	101.19
467.61	108.19
467.829	93.19
468.049	70.19
468.268	90.19
468.488	96.19
468.707	87.19
468.927	83.19
469.146	81.19
469.365	81.19
469.585	87.19
469.804	104.19
470.023	111.19
470.243	99.19
470.462	85.19
470.681	110.19
470.901	87.19
471.12	78.19
471.339	90.19
471.558	86.19
471.777	90.19
471.997	76.19
472.216	76.19
472.435	87.19
472.654	90.19
472.873	87.19
473.092	88.19
473.311	82.19
473.53	82.19
473.749	76.19
473.968	101.19
474.187	92.19
474.406	92.19
474.625	86.19
474.844	84.19
475.063	86.19
475.282	82.19
475.501	75.19
475.72	88.19
475.939	74.19
476.158	81.19
476.377	103.19
476.596	86.19
476.814	92.19
477.033	86.19
477.252	80.19
477.471	87.19
477.69	77.19
477.908	88.19
478.127	88.19
478.346	86.19
478.564	94.19
478.783	91.19
479.002	102.19
479.22	89.19
479.439	108.19
479.658	111.19
479.876	100.19
480.095	92.19
480.313	109.19
480.532	72.19
480.751	85.19
480.969	86.19
481.188	112.19
481.406	115.19
481.624	85.19
481.843	78.19
482.061	83.19
482.28	69.19
482.498	94.19
482.717	77.19
482.935	84.19
483.153	91.19
483.372	94.19
483.59	89.19
483.808	93.19
484.027	82.19
484.245	78.19
484.463	76.19
484.681	113.19
484.9	101.19
485.118	91.19
485.336	87.19
485.554	93.19
485.772	102.19
485.99	94.19
486.209	100.19
486.427	104.19
486.645	122.19
486.863	122.19
487.081	95.19
487.299	96.19
487.517	82.19
487.735	97.19
487.953	83.19
488.171	102.19
488.389	99.19
488.607	93.19
488.825	79.19
489.043	89.19
489.261	92.19
489.479	77.19
489.696	85.19
489.914	77.19
490.132	86.19
490.35	97.19
490.568	79.19
490.786	88.19
491.003	71.19
491.221	92.19
491.439	70.19
491.657	85.19
491.874	89.19
492.092	90.19
492.31	94.19
492.527	97.19
492.745	92.19
492.963	86.19
493.18	109.19
493.398	105.19
493.615	86.19
493.833	94.19
494.05	95.19
494.268	82.19
494.485	83.19
494.703	93.19
494.92	86.19
495.138	84.19
495.355	82.19
495.573	104.19
495.79	81.19
496.008	83.19
496.225	94.19
496.442	97.19
496.66	88.19
496.877	90.19
497.094	88.19
497.312	97.19
497.529	99.19
497.746	82.19
497.963	94.19
498.181	81.19
498.398	92.19
498.615	103.19
498.832	98.19
499.049	108.19
499.267	93.19
499.484	79.19
499.701	80.19
499.918	88.19
500.135	83.19
500.352	95.19
500.569	96.19
500.786	88.19
501.003	88.19
501.22	76.19
501.437	68.19
501.654	85.19
501.871	111.19
502.088	99.19
502.305	73.19
502.522	87.19
502.739	86.19
502.956	80.19
503.172	108.19
503.389	87.19
503.606	97.19
503.823	99.19
504.04	80.19
504.256	92.19
504.473	93.19
504.69	91.19
504.907	99.19
505.123	95.19
505.34	83.19
505.557	99.19
505.773	108.19
505.99	81.19
506.207	79.19
506.423	86.19
506.64	92.19
506.856	90.19
507.073	102.19
507.289	96.19
507.506	92.19
507.722	119.19
507.939	125.19
508.155	81.19
508.372	84.19
508.588	97.19
508.805	89.19
509.021	92.19
509.238	111.19
509.454	95.19
509.67	100.19
509.887	105.19
510.103	138.19
510.319	235.19
510.536	873.19
510.752	2721.19
510.968	757.19
511.184	163.19
511.401	107.19
511.617	102.19
511.833	88.19
512.049	93.19
512.265	88.19
512.481	91.19
512.698	89.19
512.914	96.19
513.13	95.19
513.346	100.19
513.562	90.19
513.778	108.19
513.994	90.19
514.21	96.19
514.426	114.19
514.642	157.19
514.858	143.19
515.074	181.19
515.29	584.19
