Data from Uncirc_2005_H10_HRD10591_00065.txt Node
Date: Wed Jan 03 10:28:37 EST 2024
User: Yrep
Spectrometer: HR+D1059
Trigger mode: 1
Integration Time (sec): 1.000000E-1
Scans to average: 1
Electric dark correction enabled: true
Nonlinearity correction enabled: false
Boxcar width: 0
XAxis mode: Wavelengths
Number of Pixels in Spectrum: 2048
>>>>>Begin Spectral Data<<<<<
223.165	-19.5
223.4	-19.5
223.635	-19.5
223.869	-15.5
224.104	-27.5
224.338	-22.5
224.573	-19.5
224.808	-18.5
225.042	3.5
225.277	-18.5
225.511	-2.5
225.746	7.5
225.98	5.5
226.215	14.5
226.449	8.5
226.683	37.5
226.918	31.5
227.152	35.5
227.387	34.5
227.621	46.5
227.856	52.5
228.09	42.5
228.324	53.5
228.559	69.5
228.793	52.5
229.027	62.5
229.262	81.5
229.496	60.5
229.73	81.5
229.964	72.5
230.199	82.5
230.433	65.5
230.667	87.5
230.901	82.5
231.136	65.5
231.37	80.5
231.604	97.5
231.838	87.5
232.072	77.5
232.306	75.5
232.541	84.5
232.775	86.5
233.009	64.5
233.243	81.5
233.477	70.5
233.711	70.5
233.945	76.5
234.179	80.5
234.413	78.5
234.647	95.5
234.881	77.5
235.115	77.5
235.349	73.5
235.583	83.5
235.817	74.5
236.051	73.5
236.285	79.5
236.519	80.5
236.753	81.5
236.987	78.5
237.221	87.5
237.455	87.5
237.689	76.5
237.922	92.5
238.156	82.5
238.39	71.5
238.624	84.5
238.858	93.5
239.091	78.5
239.325	79.5
239.559	78.5
239.793	83.5
240.027	80.5
240.26	77.5
240.494	76.5
240.728	71.5
240.961	78.5
241.195	79.5
241.429	82.5
241.662	72.5
241.896	86.5
242.13	90.5
242.363	63.5
242.597	75.5
242.83	84.5
243.064	75.5
243.298	57.5
243.531	75.5
243.765	71.5
243.998	82.5
244.232	77.5
244.465	75.5
244.699	86.5
244.932	74.5
245.166	80.5
245.399	71.5
245.633	80.5
245.866	85.5
246.099	69.5
246.333	71.5
246.566	64.5
246.8	79.5
247.033	63.5
247.266	76.5
247.5	90.5
247.733	75.5
247.966	78.5
248.2	85.5
248.433	94.5
248.666	78.5
248.899	69.5
249.133	92.5
249.366	98.5
249.599	98.5
249.832	89.5
250.066	87.5
250.299	82.5
250.532	81.5
250.765	74.5
250.998	75.5
251.231	76.5
251.465	79.5
251.698	85.5
251.931	78.5
252.164	71.5
252.397	90.5
252.63	83.5
252.863	83.5
253.096	90.5
253.329	62.5
253.562	84.5
253.795	74.5
254.028	87.5
254.261	81.5
254.494	84.5
254.727	82.5
254.96	87.5
255.193	80.5
255.426	81.5
255.659	76.5
255.892	91.5
256.124	72.5
256.357	83.5
256.59	89.5
256.823	81.5
257.056	86.5
257.289	89.5
257.521	79.5
257.754	80.5
257.987	88.5
258.22	91.5
258.452	97.5
258.685	75.5
258.918	87.5
259.151	87.5
259.383	95.5
259.616	73.5
259.849	80.5
260.081	80.5
260.314	85.5
260.547	79.5
260.779	81.5
261.012	88.5
261.244	87.5
261.477	85.5
261.71	88.5
261.942	106.5
262.175	103.5
262.407	82.5
262.64	78.5
262.872	89.5
263.105	85.5
263.337	78.5
263.57	71.5
263.802	81.5
264.035	95.5
264.267	85.5
264.499	81.5
264.732	86.5
264.964	93.5
265.197	92.5
265.429	85.5
265.661	85.5
265.894	99.5
266.126	80.5
266.358	77.5
266.591	80.5
266.823	90.5
267.055	84.5
267.287	71.5
267.52	85.5
267.752	80.5
267.984	84.5
268.216	97.5
268.448	88.5
268.681	78.5
268.913	79.5
269.145	77.5
269.377	83.5
269.609	82.5
269.841	79.5
270.073	74.5
270.306	84.5
270.538	98.5
270.77	70.5
271.002	90.5
271.234	74.5
271.466	69.5
271.698	96.5
271.93	82.5
272.162	78.5
272.394	81.5
272.626	75.5
272.858	76.5
273.09	86.5
273.322	79.5
273.553	87.5
273.785	91.5
274.017	93.5
274.249	85.5
274.481	88.5
274.713	87.5
274.945	93.5
275.176	96.5
275.408	94.5
275.64	82.5
275.872	85.5
276.104	78.5
276.335	95.5
276.567	74.5
276.799	118.5
277.031	107.5
277.262	78.5
277.494	72.5
277.726	74.5
277.957	80.5
278.189	87.5
278.421	93.5
278.652	85.5
278.884	85.5
279.115	75.5
279.347	76.5
279.579	78.5
279.81	86.5
280.042	81.5
280.273	75.5
280.505	75.5
280.736	89.5
280.968	86.5
281.199	81.5
281.431	96.5
281.662	88.5
281.894	81.5
282.125	100.5
282.356	114.5
282.588	141.5
282.819	112.5
283.051	74.5
283.282	86.5
283.513	88.5
283.745	73.5
283.976	72.5
284.207	68.5
284.439	88.5
284.67	102.5
284.901	85.5
285.132	91.5
285.364	82.5
285.595	96.5
285.826	88.5
286.057	94.5
286.288	83.5
286.52	87.5
286.751	93.5
286.982	92.5
287.213	87.5
287.444	68.5
287.675	95.5
287.906	76.5
288.138	95.5
288.369	96.5
288.6	111.5
288.831	87.5
289.062	85.5
289.293	81.5
289.524	86.5
289.755	83.5
289.986	91.5
290.217	83.5
290.448	77.5
290.679	94.5
290.91	93.5
291.141	95.5
291.371	85.5
291.602	83.5
291.833	92.5
292.064	91.5
292.295	82.5
292.526	88.5
292.757	91.5
292.987	89.5
293.218	84.5
293.449	91.5
293.68	92.5
293.91	109.5
294.141	94.5
294.372	78.5
294.603	102.5
294.833	84.5
295.064	91.5
295.295	96.5
295.525	82.5
295.756	84.5
295.987	108.5
296.217	139.5
296.448	114.5
296.679	101.5
296.909	91.5
297.14	86.5
297.37	74.5
297.601	91.5
297.831	102.5
298.062	90.5
298.292	93.5
298.523	83.5
298.753	82.5
298.984	88.5
299.214	95.5
299.445	104.5
299.675	90.5
299.905	100.5
300.136	87.5
300.366	101.5
300.597	92.5
300.827	99.5
301.057	93.5
301.288	94.5
301.518	87.5
301.748	75.5
301.979	87.5
302.209	94.5
302.439	94.5
302.669	96.5
302.9	91.5
303.13	83.5
303.36	92.5
303.59	88.5
303.82	96.5
304.051	100.5
304.281	94.5
304.511	94.5
304.741	92.5
304.971	88.5
305.201	101.5
305.431	95.5
305.661	82.5
305.891	77.5
306.121	83.5
306.352	103.5
306.582	104.5
306.812	94.5
307.042	83.5
307.272	86.5
307.502	81.5
307.731	86.5
307.961	102.5
308.191	104.5
308.421	83.5
308.651	99.5
308.881	87.5
309.111	92.5
309.341	104.5
309.571	100.5
309.8	103.5
310.03	92.5
310.26	96.5
310.49	92.5
310.72	89.5
310.949	95.5
311.179	95.5
311.409	75.5
311.639	89.5
311.868	98.5
312.098	88.5
312.328	110.5
312.557	100.5
312.787	102.5
313.017	85.5
313.246	97.5
313.476	87.5
313.706	82.5
313.935	101.5
314.165	98.5
314.394	88.5
314.624	99.5
314.853	88.5
315.083	81.5
315.312	94.5
315.542	99.5
315.771	109.5
316.001	92.5
316.23	88.5
316.46	100.5
316.689	88.5
316.919	88.5
317.148	104.5
317.377	92.5
317.607	87.5
317.836	90.5
318.065	93.5
318.295	98.5
318.524	75.5
318.753	97.5
318.983	93.5
319.212	96.5
319.441	96.5
319.67	98.5
319.9	95.5
320.129	101.5
320.358	85.5
320.587	98.5
320.816	95.5
321.046	102.5
321.275	84.5
321.504	102.5
321.733	92.5
321.962	93.5
322.191	92.5
322.42	93.5
322.649	100.5
322.878	114.5
323.108	109.5
323.337	109.5
323.566	139.5
323.795	148.5
324.024	212.5
324.253	394.5
324.482	878.5
324.71	1796.5
324.939	2353.5
325.168	848.5
325.397	254.5
325.626	149.5
325.855	136.5
326.084	123.5
326.313	129.5
326.542	165.5
326.77	242.5
326.999	471.5
327.228	1019.5
327.457	1818.5
327.686	1467.5
327.914	372.5
328.143	186.5
328.372	159.5
328.6	118.5
328.829	112.5
329.058	121.5
329.287	117.5
329.515	120.5
329.744	98.5
329.972	100.5
330.201	105.5
330.43	104.5
330.658	116.5
330.887	131.5
331.115	92.5
331.344	95.5
331.572	96.5
331.801	98.5
332.03	102.5
332.258	94.5
332.486	89.5
332.715	82.5
332.943	92.5
333.172	94.5
333.4	91.5
333.629	96.5
333.857	107.5
334.085	100.5
334.314	104.5
334.542	87.5
334.771	94.5
334.999	91.5
335.227	112.5
335.455	93.5
335.684	103.5
335.912	90.5
336.14	95.5
336.369	91.5
336.597	98.5
336.825	102.5
337.053	88.5
337.281	84.5
337.51	99.5
337.738	101.5
337.966	98.5
338.194	97.5
338.422	102.5
338.65	107.5
338.878	100.5
339.106	91.5
339.334	99.5
339.562	95.5
339.79	96.5
340.018	86.5
340.246	101.5
340.474	91.5
340.702	100.5
340.93	94.5
341.158	101.5
341.386	106.5
341.614	95.5
341.842	93.5
342.07	107.5
342.298	90.5
342.526	99.5
342.754	86.5
342.981	74.5
343.209	87.5
343.437	117.5
343.665	93.5
343.893	94.5
344.12	71.5
344.348	88.5
344.576	85.5
344.804	92.5
345.031	85.5
345.259	103.5
345.487	87.5
345.714	83.5
345.942	103.5
346.17	90.5
346.397	99.5
346.625	92.5
346.853	79.5
347.08	86.5
347.308	111.5
347.535	96.5
347.763	95.5
347.99	94.5
348.218	110.5
348.445	93.5
348.673	101.5
348.9	95.5
349.128	92.5
349.355	88.5
349.583	94.5
349.81	90.5
350.037	103.5
350.265	110.5
350.492	99.5
350.72	85.5
350.947	106.5
351.174	101.5
351.402	123.5
351.629	106.5
351.856	106.5
352.083	99.5
352.311	99.5
352.538	109.5
352.765	114.5
352.992	106.5
353.22	117.5
353.447	94.5
353.674	106.5
353.901	104.5
354.128	83.5
354.355	99.5
354.583	104.5
354.81	96.5
355.037	97.5
355.264	88.5
355.491	99.5
355.718	95.5
355.945	103.5
356.172	91.5
356.399	91.5
356.626	75.5
356.853	104.5
357.08	91.5
357.307	82.5
357.534	82.5
357.761	80.5
357.988	92.5
358.215	107.5
358.441	81.5
358.668	107.5
358.895	96.5
359.122	82.5
359.349	105.5
359.576	95.5
359.802	98.5
360.029	96.5
360.256	100.5
360.483	94.5
360.709	94.5
360.936	100.5
361.163	97.5
361.39	92.5
361.616	101.5
361.843	83.5
362.07	91.5
362.296	91.5
362.523	103.5
362.749	110.5
362.976	90.5
363.203	87.5
363.429	88.5
363.656	97.5
363.882	92.5
364.109	82.5
364.335	86.5
364.562	60.5
364.788	82.5
365.015	105.5
365.241	92.5
365.468	97.5
365.694	106.5
365.92	97.5
366.147	92.5
366.373	95.5
366.599	86.5
366.826	98.5
367.052	84.5
367.278	95.5
367.505	92.5
367.731	90.5
367.957	88.5
368.184	90.5
368.41	90.5
368.636	99.5
368.862	115.5
369.089	117.5
369.315	94.5
369.541	82.5
369.767	88.5
369.993	88.5
370.219	88.5
370.445	93.5
370.672	98.5
370.898	86.5
371.124	87.5
371.35	96.5
371.576	94.5
371.802	79.5
372.028	91.5
372.254	97.5
372.48	77.5
372.706	95.5
372.932	84.5
373.158	95.5
373.384	93.5
373.61	90.5
373.835	96.5
374.061	87.5
374.287	65.5
374.513	83.5
374.739	76.5
374.965	76.5
375.191	85.5
375.416	84.5
375.642	78.5
375.868	90.5
376.094	94.5
376.319	90.5
376.545	88.5
376.771	97.5
376.997	87.5
377.222	94.5
377.448	88.5
377.674	102.5
377.899	98.5
378.125	79.5
378.35	94.5
378.576	98.5
378.802	93.5
379.027	88.5
379.253	90.5
379.478	93.5
379.704	86.5
379.929	98.5
380.155	81.5
380.38	103.5
380.606	96.5
380.831	82.5
381.057	104.5
381.282	105.5
381.507	94.5
381.733	102.5
381.958	97.5
382.184	91.5
382.409	99.5
382.634	101.5
382.86	102.5
383.085	104.5
383.31	105.5
383.535	114.5
383.761	101.5
383.986	90.5
384.211	93.5
384.436	108.5
384.662	103.5
384.887	96.5
385.112	112.5
385.337	106.5
385.562	102.5
385.787	88.5
386.013	108.5
386.238	124.5
386.463	106.5
386.688	112.5
386.913	83.5
387.138	96.5
387.363	94.5
387.588	99.5
387.813	100.5
388.038	95.5
388.263	100.5
388.488	103.5
388.713	100.5
388.938	87.5
389.163	83.5
389.387	83.5
389.612	92.5
389.837	96.5
390.062	92.5
390.287	95.5
390.512	101.5
390.736	112.5
390.961	86.5
391.186	95.5
391.411	82.5
391.636	76.5
391.86	89.5
392.085	84.5
392.31	97.5
392.534	94.5
392.759	76.5
392.984	82.5
393.208	69.5
393.433	92.5
393.658	84.5
393.882	101.5
394.107	94.5
394.331	88.5
394.556	81.5
394.78	82.5
395.005	93.5
395.229	97.5
395.454	84.5
395.678	103.5
395.903	88.5
396.127	88.5
396.352	93.5
396.576	88.5
396.801	81.5
397.025	91.5
397.249	86.5
397.474	93.5
397.698	78.5
397.922	77.5
398.147	95.5
398.371	82.5
398.595	83.5
398.82	76.5
399.044	81.5
399.268	76.5
399.492	88.5
399.717	84.5
399.941	102.5
400.165	97.5
400.389	99.5
400.613	84.5
400.837	85.5
401.062	88.5
401.286	85.5
401.51	102.5
401.734	93.5
401.958	98.5
402.182	122.5
402.406	149.5
402.63	123.5
402.854	90.5
403.078	83.5
403.302	79.5
403.526	70.5
403.75	82.5
403.974	86.5
404.198	90.5
404.422	84.5
404.645	86.5
404.869	102.5
405.093	100.5
405.317	89.5
405.541	87.5
405.765	96.5
405.988	105.5
406.212	166.5
406.436	213.5
406.66	147.5
406.883	103.5
407.107	89.5
407.331	96.5
407.555	94.5
407.778	90.5
408.002	86.5
408.226	89.5
408.449	84.5
408.673	85.5
408.896	78.5
409.12	98.5
409.344	84.5
409.567	88.5
409.791	89.5
410.014	92.5
410.238	114.5
410.461	88.5
410.685	91.5
410.908	85.5
411.132	99.5
411.355	93.5
411.578	74.5
411.802	92.5
412.025	80.5
412.249	92.5
412.472	77.5
412.695	90.5
412.919	98.5
413.142	78.5
413.365	72.5
413.589	90.5
413.812	91.5
414.035	89.5
414.258	99.5
414.482	98.5
414.705	83.5
414.928	84.5
415.151	83.5
415.374	103.5
415.597	96.5
415.821	92.5
416.044	95.5
416.267	86.5
416.49	93.5
416.713	97.5
416.936	79.5
417.159	80.5
417.382	72.5
417.605	79.5
417.828	90.5
418.051	82.5
418.274	83.5
418.497	94.5
418.72	101.5
418.943	85.5
419.166	94.5
419.389	93.5
419.611	90.5
419.834	87.5
420.057	92.5
420.28	84.5
420.503	79.5
420.726	87.5
420.948	91.5
421.171	92.5
421.394	98.5
421.617	90.5
421.839	85.5
422.062	90.5
422.285	93.5
422.507	106.5
422.73	95.5
422.953	97.5
423.175	82.5
423.398	92.5
423.621	91.5
423.843	80.5
424.066	89.5
424.288	95.5
424.511	85.5
424.733	107.5
424.956	115.5
425.178	106.5
425.401	102.5
425.623	98.5
425.846	100.5
426.068	87.5
426.291	80.5
426.513	76.5
426.735	101.5
426.958	94.5
427.18	101.5
427.402	127.5
427.625	152.5
427.847	102.5
428.069	88.5
428.292	88.5
428.514	91.5
428.736	85.5
428.958	101.5
429.181	94.5
429.403	88.5
429.625	79.5
429.847	101.5
430.069	96.5
430.292	98.5
430.514	71.5
430.736	80.5
430.958	86.5
431.18	92.5
431.402	85.5
431.624	87.5
431.846	99.5
432.068	94.5
432.29	91.5
432.512	96.5
432.734	74.5
432.956	86.5
433.178	96.5
433.4	100.5
433.622	87.5
433.844	84.5
434.066	90.5
434.287	96.5
434.509	99.5
434.731	95.5
434.953	80.5
435.175	66.5
435.397	94.5
435.618	90.5
435.84	101.5
436.062	114.5
436.284	108.5
436.505	100.5
436.727	107.5
436.949	101.5
437.17	84.5
437.392	83.5
437.614	94.5
437.835	110.5
438.057	126.5
438.278	104.5
438.5	101.5
438.721	115.5
438.943	99.5
439.165	101.5
439.386	79.5
439.608	85.5
439.829	95.5
440.05	114.5
440.272	131.5
440.493	86.5
440.715	72.5
440.936	100.5
441.158	94.5
441.379	79.5
441.6	91.5
441.822	97.5
442.043	87.5
442.264	86.5
442.486	114.5
442.707	97.5
442.928	103.5
443.149	126.5
443.371	127.5
443.592	108.5
443.813	110.5
444.034	99.5
444.255	91.5
444.476	79.5
444.698	74.5
444.919	81.5
445.14	133.5
445.361	117.5
445.582	112.5
445.803	139.5
446.024	119.5
446.245	128.5
446.466	119.5
446.687	103.5
446.908	97.5
447.129	83.5
447.35	94.5
447.571	96.5
447.792	94.5
448.013	101.5
448.234	102.5
448.455	91.5
448.675	97.5
448.896	118.5
449.117	103.5
449.338	99.5
449.559	144.5
449.779	122.5
450	101.5
450.221	94.5
450.442	96.5
450.662	95.5
450.883	114.5
451.104	112.5
451.324	92.5
451.545	78.5
451.766	98.5
451.986	86.5
452.207	86.5
452.428	88.5
452.648	98.5
452.869	111.5
453.089	93.5
453.31	113.5
453.53	85.5
453.751	102.5
453.971	102.5
454.192	100.5
454.412	103.5
454.633	92.5
454.853	104.5
455.073	88.5
455.294	94.5
455.514	92.5
455.734	83.5
455.955	92.5
456.175	95.5
456.395	100.5
456.616	81.5
456.836	82.5
457.056	81.5
457.276	96.5
457.497	90.5
457.717	88.5
457.937	83.5
458.157	98.5
458.377	83.5
458.598	105.5
458.818	142.5
459.038	146.5
459.258	107.5
459.478	88.5
459.698	86.5
459.918	89.5
460.138	74.5
460.358	74.5
460.578	79.5
460.798	81.5
461.018	93.5
461.238	98.5
461.458	95.5
461.678	82.5
461.898	90.5
462.118	91.5
462.338	93.5
462.558	85.5
462.777	78.5
462.997	71.5
463.217	84.5
463.437	91.5
463.657	101.5
463.876	101.5
464.096	101.5
464.316	85.5
464.536	81.5
464.755	78.5
464.975	103.5
465.195	160.5
465.414	152.5
465.634	88.5
465.854	82.5
466.073	94.5
466.293	94.5
466.512	88.5
466.732	84.5
466.951	84.5
467.171	98.5
467.391	88.5
467.61	103.5
467.829	101.5
468.049	91.5
468.268	81.5
468.488	90.5
468.707	82.5
468.927	82.5
469.146	78.5
469.365	81.5
469.585	85.5
469.804	102.5
470.023	99.5
470.243	86.5
470.462	94.5
470.681	109.5
470.901	87.5
471.12	100.5
471.339	93.5
471.558	92.5
471.777	80.5
471.997	99.5
472.216	94.5
472.435	92.5
472.654	85.5
472.873	91.5
473.092	94.5
473.311	94.5
473.53	91.5
473.749	94.5
473.968	95.5
474.187	97.5
474.406	93.5
474.625	94.5
474.844	98.5
475.063	85.5
475.282	85.5
475.501	79.5
475.72	90.5
475.939	87.5
476.158	80.5
476.377	85.5
476.596	81.5
476.814	105.5
477.033	93.5
477.252	97.5
477.471	86.5
477.69	84.5
477.908	93.5
478.127	85.5
478.346	73.5
478.564	79.5
478.783	94.5
479.002	81.5
479.22	94.5
479.439	103.5
479.658	96.5
479.876	97.5
480.095	93.5
480.313	81.5
480.532	75.5
480.751	85.5
480.969	71.5
481.188	98.5
481.406	99.5
481.624	94.5
481.843	90.5
482.061	91.5
482.28	96.5
482.498	100.5
482.717	83.5
482.935	94.5
483.153	73.5
483.372	83.5
483.59	95.5
483.808	82.5
484.027	102.5
484.245	96.5
484.463	87.5
484.681	101.5
484.9	89.5
485.118	93.5
485.336	100.5
485.554	98.5
485.772	89.5
485.99	118.5
486.209	108.5
486.427	91.5
486.645	114.5
486.863	140.5
487.081	94.5
487.299	101.5
487.517	84.5
487.735	78.5
487.953	87.5
488.171	83.5
488.389	103.5
488.607	94.5
488.825	86.5
489.043	93.5
489.261	98.5
489.479	87.5
489.696	95.5
489.914	84.5
490.132	99.5
490.35	95.5
490.568	90.5
490.786	83.5
491.003	95.5
491.221	77.5
491.439	92.5
491.657	99.5
491.874	101.5
492.092	110.5
492.31	98.5
492.527	79.5
492.745	95.5
492.963	98.5
493.18	85.5
493.398	89.5
493.615	105.5
493.833	102.5
494.05	95.5
494.268	92.5
494.485	97.5
494.703	83.5
494.92	102.5
495.138	87.5
495.355	95.5
495.573	93.5
495.79	97.5
496.008	94.5
496.225	90.5
496.442	81.5
496.66	91.5
496.877	82.5
497.094	88.5
497.312	88.5
497.529	104.5
497.746	91.5
497.963	88.5
498.181	94.5
498.398	90.5
498.615	107.5
498.832	99.5
499.049	92.5
499.267	103.5
499.484	114.5
499.701	96.5
499.918	98.5
500.135	95.5
500.352	92.5
500.569	93.5
500.786	105.5
501.003	89.5
501.22	88.5
501.437	99.5
501.654	100.5
501.871	110.5
502.088	93.5
502.305	91.5
502.522	95.5
502.739	97.5
502.956	95.5
503.172	99.5
503.389	89.5
503.606	115.5
503.823	106.5
504.04	85.5
504.256	89.5
504.473	101.5
504.69	82.5
504.907	92.5
505.123	77.5
505.34	97.5
505.557	92.5
505.773	80.5
505.99	97.5
506.207	104.5
506.423	89.5
506.64	94.5
506.856	81.5
507.073	79.5
507.289	92.5
507.506	96.5
507.722	99.5
507.939	101.5
508.155	92.5
508.372	110.5
508.588	90.5
508.805	91.5
509.021	98.5
509.238	95.5
509.454	97.5
509.67	109.5
509.887	104.5
510.103	144.5
510.319	213.5
510.536	742.5
510.752	2253.5
510.968	662.5
511.184	174.5
511.401	120.5
511.617	109.5
511.833	85.5
512.049	114.5
512.265	95.5
512.481	87.5
512.698	93.5
512.914	95.5
513.13	104.5
513.346	96.5
513.562	108.5
513.778	96.5
513.994	98.5
514.21	99.5
514.426	111.5
514.642	122.5
514.858	135.5
515.074	159.5
515.29	447.5
515.506	1433.5
515.721	527.5
515.937	148.5
516.153	109.5
516.369	102.5
516.585	90.5
516.801	94.5
517.016	96.5
517.232	103.5
517.448	94.5
517.664	87.5
517.879	101.5
518.095	93.5
518.311	93.5
518.527	94.5
518.742	87.5
518.958	90.5
519.173	84.5
519.389	95.5
519.605	84.5
519.82	86.5
520.036	99.5
520.251	114.5
520.467	109.5
520.682	99.5
520.898	110.5
521.113	132.5
521.329	154.5
521.544	196.5
521.76	528.5
521.975	2315.5
522.19	1399.5
522.406	296.5
522.621	126.5
522.836	110.5
523.052	107.5
523.267	99.5
523.482	93.5
523.698	92.5
523.913	118.5
524.128	108.5
524.343	102.5
524.559	101.5
524.774	99.5
524.989	96.5
525.204	107.5
525.419	110.5
525.634	87.5
525.849	99.5
526.064	101.5
526.28	95.5
526.495	92.5
526.71	81.5
526.925	88.5
527.14	82.5
527.355	96.5
527.57	81.5
527.785	98.5
527.999	89.5
528.214	81.5
528.429	96.5
528.644	102.5
528.859	71.5
529.074	99.5
529.289	133.5
529.503	156.5
529.718	102.5
529.933	86.5
530.148	92.5
530.363	89.5
530.577	83.5
530.792	81.5
531.007	84.5
531.221	95.5
531.436	88.5
531.651	88.5
531.865	99.5
532.08	90.5
532.295	100.5
532.509	96.5
532.724	107.5
532.938	110.5
533.153	97.5
533.367	104.5
533.582	91.5
533.796	100.5
534.011	104.5
534.225	86.5
534.44	97.5
534.654	107.5
534.868	99.5
535.083	93.5
535.297	108.5
