Data from Uncirc_2005_H10_HRD10591_00080.txt Node
Date: Wed Jan 03 10:28:40 EST 2024
User: Yrep
Spectrometer: HR+D1059
Trigger mode: 1
Integration Time (sec): 1.000000E-1
Scans to average: 1
Electric dark correction enabled: true
Nonlinearity correction enabled: false
Boxcar width: 0
XAxis mode: Wavelengths
Number of Pixels in Spectrum: 2048
>>>>>Begin Spectral Data<<<<<
223.165	-17
223.4	-17
223.635	-17
223.869	-19
224.104	-1
224.338	-12
224.573	-30
224.808	-21
225.042	2
225.277	4
225.511	4
225.746	6
225.98	3
226.215	-4
226.449	20
226.683	20
226.918	21
227.152	24
227.387	34
227.621	29
227.856	36
228.09	41
228.324	51
228.559	62
228.793	48
229.027	58
229.262	64
229.496	87
229.73	72
229.964	84
230.199	82
230.433	66
230.667	84
230.901	78
231.136	76
231.37	84
231.604	94
231.838	79
232.072	85
232.306	76
232.541	82
232.775	78
233.009	82
233.243	72
233.477	98
233.711	96
233.945	82
234.179	86
234.413	77
234.647	74
234.881	78
235.115	89
235.349	85
235.583	80
235.817	96
236.051	71
236.285	97
236.519	78
236.753	72
236.987	86
237.221	86
237.455	80
237.689	76
237.922	69
238.156	71
238.39	75
238.624	74
238.858	76
239.091	77
239.325	80
239.559	100
239.793	80
240.027	87
240.26	77
240.494	75
240.728	77
240.961	77
241.195	74
241.429	66
241.662	80
241.896	82
242.13	81
242.363	91
242.597	75
242.83	84
243.064	72
243.298	66
243.531	73
243.765	71
243.998	75
244.232	83
244.465	69
244.699	76
244.932	78
245.166	75
245.399	74
245.633	66
245.866	82
246.099	75
246.333	86
246.566	74
246.8	84
247.033	73
247.266	81
247.5	77
247.733	79
247.966	84
248.2	89
248.433	69
248.666	77
248.899	70
249.133	69
249.366	77
249.599	94
249.832	85
250.066	82
250.299	77
250.532	80
250.765	78
250.998	76
251.231	90
251.465	82
251.698	75
251.931	80
252.164	79
252.397	69
252.63	85
252.863	76
253.096	74
253.329	93
253.562	68
253.795	79
254.028	81
254.261	99
254.494	88
254.727	81
254.96	84
255.193	92
255.426	86
255.659	78
255.892	81
256.124	94
256.357	82
256.59	93
256.823	100
257.056	84
257.289	81
257.521	80
257.754	97
257.987	84
258.22	92
258.452	93
258.685	90
258.918	83
259.151	79
259.383	88
259.616	78
259.849	85
260.081	76
260.314	89
260.547	82
260.779	72
261.012	86
261.244	84
261.477	83
261.71	85
261.942	89
262.175	104
262.407	89
262.64	81
262.872	97
263.105	85
263.337	84
263.57	77
263.802	96
264.035	89
264.267	83
264.499	105
264.732	81
264.964	89
265.197	95
265.429	87
265.661	88
265.894	98
266.126	97
266.358	94
266.591	96
266.823	94
267.055	75
267.287	80
267.52	82
267.752	86
267.984	79
268.216	81
268.448	95
268.681	80
268.913	80
269.145	77
269.377	64
269.609	93
269.841	89
270.073	85
270.306	79
270.538	98
270.77	84
271.002	85
271.234	90
271.466	96
271.698	103
271.93	87
272.162	88
272.394	76
272.626	83
272.858	70
273.09	73
273.322	85
273.553	83
273.785	79
274.017	79
274.249	92
274.481	80
274.713	79
274.945	76
275.176	87
275.408	85
275.64	92
275.872	84
276.104	81
276.335	84
276.567	95
276.799	97
277.031	95
277.262	81
277.494	85
277.726	70
277.957	102
278.189	81
278.421	82
278.652	94
278.884	86
279.115	89
279.347	87
279.579	81
279.81	88
280.042	70
280.273	97
280.505	96
280.736	86
280.968	79
281.199	88
281.431	88
281.662	83
281.894	91
282.125	93
282.356	113
282.588	124
282.819	101
283.051	77
283.282	87
283.513	85
283.745	83
283.976	88
284.207	88
284.439	97
284.67	94
284.901	92
285.132	80
285.364	77
285.595	76
285.826	89
286.057	88
286.288	89
286.52	90
286.751	76
286.982	81
287.213	86
287.444	97
287.675	93
287.906	93
288.138	82
288.369	94
288.6	92
288.831	76
289.062	98
289.293	94
289.524	89
289.755	90
289.986	85
290.217	95
290.448	86
290.679	84
290.91	93
291.141	94
291.371	96
291.602	99
291.833	93
292.064	96
292.295	98
292.526	101
292.757	86
292.987	76
293.218	88
293.449	90
293.68	90
293.91	98
294.141	85
294.372	81
294.603	82
294.833	83
295.064	74
295.295	89
295.525	114
295.756	103
295.987	115
296.217	120
296.448	112
296.679	100
296.909	103
297.14	93
297.37	92
297.601	86
297.831	85
298.062	86
298.292	100
298.523	103
298.753	91
298.984	89
299.214	90
299.445	102
299.675	96
299.905	102
300.136	87
300.366	91
300.597	106
300.827	92
301.057	89
301.288	107
301.518	106
301.748	93
301.979	99
302.209	89
302.439	85
302.669	81
302.9	109
303.13	83
303.36	94
303.59	111
303.82	102
304.051	109
304.281	79
304.511	92
304.741	92
304.971	85
305.201	98
305.431	79
305.661	94
305.891	83
306.121	97
306.352	92
306.582	97
306.812	101
307.042	88
307.272	83
307.502	83
307.731	104
307.961	97
308.191	99
308.421	77
308.651	98
308.881	90
309.111	101
309.341	105
309.571	103
309.8	84
310.03	94
310.26	90
310.49	86
310.72	96
310.949	94
311.179	97
311.409	95
311.639	88
311.868	95
312.098	93
312.328	102
312.557	92
312.787	99
313.017	94
313.246	102
313.476	101
313.706	90
313.935	90
314.165	104
314.394	90
314.624	94
314.853	107
315.083	90
315.312	95
315.542	92
315.771	90
316.001	92
316.23	98
316.46	98
316.689	94
316.919	86
317.148	108
317.377	104
317.607	105
317.836	96
318.065	89
318.295	77
318.524	91
318.753	106
318.983	90
319.212	110
319.441	96
319.67	101
319.9	81
320.129	106
320.358	111
320.587	105
320.816	101
321.046	104
321.275	94
321.504	89
321.733	96
321.962	96
322.191	89
322.42	100
322.649	106
322.878	99
323.108	117
323.337	126
323.566	120
323.795	140
324.024	192
324.253	364
324.482	772
324.71	1538
324.939	2021
325.168	743
325.397	231
325.626	152
325.855	119
326.084	115
326.313	117
326.542	143
326.77	206
326.999	436
327.228	859
327.457	1540
327.686	1215
327.914	338
328.143	172
328.372	145
328.6	125
328.829	112
329.058	109
329.287	125
329.515	112
329.744	100
329.972	95
330.201	108
330.43	106
330.658	104
330.887	132
331.115	110
331.344	100
331.572	103
331.801	105
332.03	114
332.258	103
332.486	89
332.715	94
332.943	95
333.172	105
333.4	98
333.629	97
333.857	117
334.085	111
334.314	87
334.542	97
334.771	99
334.999	94
335.227	101
335.455	93
335.684	94
335.912	90
336.14	104
336.369	105
336.597	100
336.825	98
337.053	96
337.281	93
337.51	74
337.738	104
337.966	87
338.194	110
338.422	90
338.65	90
338.878	94
339.106	88
339.334	84
339.562	85
339.79	84
340.018	94
340.246	91
340.474	92
340.702	93
340.93	104
341.158	79
341.386	85
341.614	90
341.842	112
342.07	97
342.298	97
342.526	96
342.754	79
342.981	95
343.209	85
343.437	93
343.665	85
343.893	95
344.12	96
344.348	89
344.576	85
344.804	92
345.031	104
345.259	94
345.487	90
345.714	89
345.942	85
346.17	96
346.397	92
346.625	94
346.853	83
347.08	99
347.308	92
347.535	101
347.763	88
347.99	93
348.218	105
348.445	97
348.673	95
348.9	94
349.128	104
349.355	93
349.583	90
349.81	107
350.037	104
350.265	97
350.492	89
350.72	92
350.947	109
351.174	101
351.402	110
351.629	111
351.856	98
352.083	103
352.311	96
352.538	123
352.765	110
352.992	116
353.22	109
353.447	96
353.674	96
353.901	96
354.128	99
354.355	100
354.583	90
354.81	94
355.037	99
355.264	92
355.491	96
355.718	105
355.945	98
356.172	89
356.399	93
356.626	105
356.853	93
357.08	90
357.307	88
357.534	98
357.761	99
357.988	98
358.215	102
358.441	107
358.668	97
358.895	92
359.122	94
359.349	98
359.576	88
359.802	82
360.029	101
360.256	110
360.483	101
360.709	90
360.936	98
361.163	94
361.39	95
361.616	100
361.843	97
362.07	93
362.296	97
362.523	94
362.749	76
362.976	81
363.203	81
363.429	99
363.656	97
363.882	79
364.109	93
364.335	100
364.562	93
364.788	95
365.015	89
365.241	101
365.468	112
365.694	118
365.92	94
366.147	82
366.373	90
366.599	95
366.826	99
367.052	86
367.278	100
367.505	106
367.731	98
367.957	97
368.184	97
368.41	98
368.636	117
368.862	119
369.089	101
369.315	99
369.541	101
369.767	94
369.993	91
370.219	83
370.445	94
370.672	89
370.898	78
371.124	98
371.35	97
371.576	93
371.802	103
372.028	91
372.254	90
372.48	90
372.706	83
372.932	63
373.158	97
373.384	88
373.61	95
373.835	94
374.061	84
374.287	121
374.513	81
374.739	97
374.965	94
375.191	87
375.416	77
375.642	77
375.868	84
376.094	81
376.319	88
376.545	96
376.771	82
376.997	80
377.222	99
377.448	96
377.674	92
377.899	99
378.125	94
378.35	80
378.576	82
378.802	92
379.027	104
379.253	89
379.478	73
379.704	96
379.929	82
380.155	96
380.38	87
380.606	91
380.831	96
381.057	97
381.282	96
381.507	99
381.733	87
381.958	103
382.184	113
382.409	102
382.634	114
382.86	92
383.085	103
383.31	103
383.535	97
383.761	78
383.986	85
384.211	86
384.436	95
384.662	108
384.887	101
385.112	121
385.337	104
385.562	103
385.787	103
386.013	126
386.238	108
386.463	117
386.688	104
386.913	116
387.138	93
387.363	108
387.588	92
387.813	98
388.038	121
388.263	120
388.488	108
388.713	95
388.938	96
389.163	95
389.387	88
389.612	93
389.837	84
390.062	98
390.287	97
390.512	99
390.736	82
390.961	101
391.186	107
391.411	99
391.636	88
391.86	97
392.085	95
392.31	105
392.534	87
392.759	90
392.984	90
393.208	101
393.433	83
393.658	86
393.882	88
394.107	100
394.331	81
394.556	84
394.78	92
395.005	93
395.229	89
395.454	77
395.678	81
395.903	102
396.127	89
396.352	77
396.576	90
396.801	87
397.025	94
397.249	85
397.474	98
397.698	100
397.922	88
398.147	102
398.371	87
398.595	106
398.82	96
399.044	90
399.268	91
399.492	71
399.717	80
399.941	92
400.165	76
400.389	96
400.613	96
400.837	90
401.062	79
401.286	82
401.51	97
401.734	82
401.958	95
402.182	130
402.406	154
402.63	113
402.854	76
403.078	88
403.302	86
403.526	87
403.75	96
403.974	88
404.198	88
404.422	92
404.645	88
404.869	88
405.093	77
405.317	99
405.541	94
405.765	101
405.988	115
406.212	162
406.436	217
406.66	144
406.883	108
407.107	89
407.331	88
407.555	92
407.778	90
408.002	76
408.226	99
408.449	95
408.673	89
408.896	97
409.12	104
409.344	102
409.567	101
409.791	86
410.014	96
410.238	96
410.461	101
410.685	89
410.908	106
411.132	106
411.355	101
411.578	100
411.802	96
412.025	86
412.249	93
412.472	89
412.695	82
412.919	93
413.142	86
413.365	85
413.589	82
413.812	93
414.035	99
414.258	110
414.482	80
414.705	88
414.928	96
415.151	110
415.374	90
415.597	95
415.821	99
416.044	89
416.267	88
416.49	85
416.713	88
416.936	91
417.159	80
417.382	76
417.605	90
417.828	102
418.051	81
418.274	84
418.497	84
418.72	100
418.943	90
419.166	83
419.389	96
419.611	89
419.834	84
420.057	97
420.28	86
420.503	91
420.726	88
420.948	77
421.171	90
421.394	103
421.617	96
421.839	84
422.062	81
422.285	105
422.507	89
422.73	93
422.953	102
423.175	86
423.398	90
423.621	79
423.843	101
424.066	90
424.288	110
424.511	100
424.733	97
424.956	115
425.178	114
425.401	100
425.623	101
425.846	82
426.068	92
426.291	108
426.513	90
426.735	76
426.958	99
427.18	96
427.402	125
427.625	165
427.847	113
428.069	92
428.292	85
428.514	108
428.736	102
428.958	100
429.181	93
429.403	95
429.625	90
429.847	98
430.069	99
430.292	101
430.514	87
430.736	86
430.958	94
431.18	84
431.402	97
431.624	88
431.846	94
432.068	85
432.29	101
432.512	87
432.734	96
432.956	94
433.178	98
433.4	94
433.622	88
433.844	90
434.066	87
434.287	105
434.509	84
434.731	87
434.953	89
435.175	78
435.397	84
435.618	98
435.84	103
436.062	119
436.284	114
436.505	110
436.727	104
436.949	93
437.17	88
437.392	93
437.614	88
437.835	109
438.057	124
438.278	104
438.5	100
438.721	105
438.943	99
439.165	79
439.386	86
439.608	72
439.829	78
440.05	109
440.272	132
440.493	104
440.715	88
440.936	96
441.158	96
441.379	90
441.6	102
441.822	90
442.043	91
442.264	106
442.486	90
442.707	94
442.928	108
443.149	127
443.371	126
443.592	101
443.813	111
444.034	100
444.255	88
444.476	89
444.698	93
444.919	82
445.14	120
445.361	109
445.582	98
445.803	129
446.024	120
446.245	136
446.466	95
446.687	98
446.908	95
447.129	79
447.35	93
447.571	90
447.792	81
448.013	104
448.234	113
448.455	99
448.675	115
448.896	110
449.117	108
449.338	104
449.559	119
449.779	130
450	108
450.221	89
450.442	95
450.662	82
450.883	105
451.104	116
451.324	87
451.545	94
451.766	100
451.986	93
452.207	88
452.428	87
452.648	89
452.869	103
453.089	104
453.31	106
453.53	86
453.751	98
453.971	94
454.192	108
454.412	100
454.633	91
454.853	85
455.073	86
455.294	85
455.514	104
455.734	79
455.955	78
456.175	96
456.395	84
456.616	87
456.836	78
457.056	73
457.276	82
457.497	80
457.717	92
457.937	82
458.157	90
458.377	82
458.598	99
458.818	129
459.038	142
459.258	102
459.478	87
459.698	71
459.918	100
460.138	83
460.358	80
460.578	93
460.798	85
461.018	88
461.238	86
461.458	97
461.678	100
461.898	95
462.118	102
462.338	86
462.558	98
462.777	79
462.997	81
463.217	93
463.437	88
463.657	94
463.876	89
464.096	87
464.316	92
464.536	89
464.755	87
464.975	121
465.195	161
465.414	142
465.634	99
465.854	97
466.073	94
466.293	87
466.512	101
466.732	87
466.951	79
467.171	80
467.391	84
467.61	99
467.829	99
468.049	77
468.268	74
468.488	90
468.707	97
468.927	78
469.146	72
469.365	86
469.585	90
469.804	100
470.023	97
470.243	92
470.462	97
470.681	98
470.901	90
471.12	83
471.339	89
471.558	84
471.777	84
471.997	95
472.216	90
472.435	108
472.654	83
472.873	88
473.092	74
473.311	98
473.53	97
473.749	83
473.968	96
474.187	101
474.406	85
474.625	108
474.844	81
475.063	93
475.282	84
475.501	107
475.72	82
475.939	77
476.158	91
476.377	83
476.596	89
476.814	94
477.033	111
477.252	86
477.471	90
477.69	85
477.908	92
478.127	93
478.346	76
478.564	98
478.783	100
479.002	96
479.22	102
479.439	89
479.658	93
479.876	97
480.095	93
480.313	90
480.532	88
480.751	100
480.969	90
481.188	101
481.406	93
481.624	76
481.843	90
482.061	84
482.28	94
482.498	99
482.717	90
482.935	96
483.153	90
483.372	83
483.59	93
483.808	95
484.027	92
484.245	104
484.463	81
484.681	102
484.9	97
485.118	90
485.336	102
485.554	103
485.772	92
485.99	100
486.209	104
486.427	97
486.645	92
486.863	95
487.081	107
487.299	89
487.517	101
487.735	97
487.953	87
488.171	89
488.389	96
488.607	104
488.825	91
489.043	89
489.261	82
489.479	93
489.696	78
489.914	83
490.132	77
490.35	89
490.568	113
490.786	88
491.003	90
491.221	88
491.439	81
491.657	94
491.874	84
492.092	93
492.31	89
492.527	102
492.745	87
492.963	78
493.18	97
493.398	109
493.615	108
493.833	100
494.05	84
494.268	102
494.485	83
494.703	97
494.92	95
495.138	96
495.355	89
495.573	89
495.79	106
496.008	102
496.225	90
496.442	94
496.66	97
496.877	99
497.094	91
497.312	90
497.529	95
497.746	87
497.963	90
498.181	105
498.398	90
498.615	109
498.832	89
499.049	103
499.267	88
499.484	103
499.701	79
499.918	97
500.135	89
500.352	103
500.569	108
500.786	86
501.003	93
501.22	92
501.437	86
501.654	93
501.871	114
502.088	100
502.305	70
502.522	93
502.739	102
502.956	100
503.172	104
503.389	100
503.606	97
503.823	106
504.04	99
504.256	84
504.473	84
504.69	94
504.907	97
505.123	85
505.34	93
505.557	96
505.773	113
505.99	82
506.207	82
506.423	90
506.64	93
506.856	90
507.073	94
507.289	92
507.506	103
507.722	104
507.939	117
508.155	97
508.372	93
508.588	87
508.805	101
509.021	94
509.238	117
509.454	100
509.67	96
509.887	116
510.103	120
510.319	218
510.536	684
510.752	2044
510.968	571
511.184	131
511.401	116
511.617	98
511.833	105
512.049	95
512.265	97
512.481	115
512.698	96
512.914	106
513.13	93
513.346	82
513.562	87
513.778	95
513.994	105
514.21	90
514.426	109
514.642	116
514.858	106
515.074	166
515.29	420
515.506	1238
515.721	461
515.937	135
516.153	104
516.369	100
516.585	93
516.801	102
517.016	88
517.232	94
517.448	95
517.664	88
517.879	93
518.095	90
518.311	97
518.527	88
518.742	90
518.958	99
519.173	93
519.389	102
519.605	106
519.82	109
520.036	102
520.251	105
520.467	112
520.682	105
520.898	102
521.113	99
521.329	140
521.544	180
521.76	488
521.975	2028
522.19	1272
522.406	292
522.621	115
522.836	113
523.052	94
523.267	86
523.482	103
523.698	116
523.913	103
524.128	102
524.343	104
524.559	100
524.774	92
524.989	93
525.204	100
525.419	99
525.634	100
525.849	91
526.064	102
526.28	86
526.495	88
526.71	97
526.925	95
527.14	78
527.355	92
527.57	96
527.785	88
527.999	87
528.214	82
528.429	92
528.644	84
528.859	88
529.074	97
529.289	102
529.503	155
529.718	100
529.933	83
530.148	77
530.363	104
530.577	85
530.792	76
531.007	81
531.221	97
531.436	95
531.651	94
531.865	83
532.08	83
532.295	89
532.509	103
532.724	85
532.938	93
533.153	103
533.367	100
533.582	104
533.796	93
534.011	89
534.225	89
534.44	100
534.654	90
534.868	106
535.083	89
535.297	108
535.511	95
535.726	92
535.94	104
536.154	99
536.369	93
536.583	93
536.797	91
537.011	103
537.225	83
537.44	85
537.654	99
537.868	84
538.082	84
538.296	94
538.51	98
538.724	86
538.938	80
539.153	98
539.367	100
539.581	96
539.795	99
540.009	101
540.222	94
540.436	90
540.65	94
540.864	102
541.078	93
541.292	94
541.506	101
541.72	89
541.934	81
542.147	79
542.361	95
542.575	100
542.789	94
543.002	94
543.216	103
543.43	96
543.644	102
543.857	87
544.071	95
544.285	108
544.498	104
544.712	96
544.925	83
545.139	100
545.352	86
545.566	98
545.779	98
545.993	90
546.206	89
546.42	82
546.633	84
546.847	83
547.06	84
547.274	96
547.487	91
547.7	78
547.914	85
548.127	78
548.34	108
548.554	89
548.767	79
548.98	92
549.193	98
549.407	88
549.62	88
549.833	90
550.046	88
550.259	84
550.473	108
550.686	103
550.899	96
551.112	95
551.325	83
551.538	78
551.751	87
551.964	85
552.177	88
552.39	91
552.603	97
552.816	95
553.029	79
553.242	69
553.455	104
553.667	108
553.88	116
554.093	93
554.306	83
554.519	100
554.732	102
554.944	92
555.157	93
555.37	102
555.583	100
555.795	96
556.008	98
556.221	83
556.433	84
556.646	93
556.859	90
557.071	100
557.284	88
557.496	93
557.709	89
557.921	102
558.134	90
558.346	93
558.559	93
558.771	90
558.984	84
559.196	96
559.409	96
559.621	89
559.833	93
560.046	87
560.258	76
560.47	80
560.683	95
560.895	99
561.107	87
561.32	88
561.532	92
561.744	103
561.956	99
562.168	99
562.381	88
562.593	95
562.805	87
563.017	104
563.229	94
563.441	96
563.653	84
563.865	99
564.077	93
564.289	91
564.501	86
564.713	98
564.925	97
565.137	102
565.349	79
565.561	90
565.773	90
565.985	97
566.197	88
566.408	81
566.62	89
566.832	99
567.044	85
567.255	85
567.467	96
567.679	85
567.891	100
568.102	91
568.314	95
568.526	88
568.737	92
568.949	77
569.161	93
569.372	86
569.584	91
569.795	93
570.007	117
570.218	229
570.43	125
570.641	88
570.853	89
571.064	92
571.276	96
571.487	86
571.698	91
571.91	98
572.121	98
572.333	93
572.544	78
572.755	97
572.966	85
573.178	94
573.389	89
573.6	70
573.811	87
574.023	81
574.234	90
574.445	80
574.656	95
574.867	93
575.078	92
575.289	93
575.501	86
575.712	76
575.923	85
576.134	74
576.345	85
576.556	102
576.767	97
576.978	86
577.188	94
577.399	98
577.61	96
577.821	106
578.032	115
578.243	244
578.454	669
578.665	198
578.875	100
579.086	93
579.297	94
579.508	97
579.718	82
579.929	105
580.14	92
580.35	99
580.561	85
580.772	76
580.982	93
581.193	85
581.403	82
581.614	104
581.825	85
582.035	94
582.246	87
582.456	91
582.667	80
582.877	86
583.087	77
583.298	100
583.508	88
583.719	86
