Data from Uncirc_2005_H10_HRD10591_00059.txt Node
Date: Wed Jan 03 10:28:36 EST 2024
User: Yrep
Spectrometer: HR+D1059
Trigger mode: 1
Integration Time (sec): 1.000000E-1
Scans to average: 1
Electric dark correction enabled: true
Nonlinearity correction enabled: false
Boxcar width: 0
XAxis mode: Wavelengths
Number of Pixels in Spectrum: 2048
>>>>>Begin Spectral Data<<<<<
223.165	-19.31
223.4	-19.31
223.635	-19.31
223.869	-27.31
224.104	-15.31
224.338	-19.31
224.573	-13.31
224.808	-15.31
225.042	-11.31
225.277	1.69
225.511	-1.31
225.746	6.69
225.98	9.69
226.215	20.69
226.449	12.69
226.683	14.69
226.918	28.69
227.152	27.69
227.387	25.69
227.621	30.69
227.856	37.69
228.09	35.69
228.324	54.69
228.559	56.69
228.793	155.69
229.027	488.69
229.262	562.69
229.496	672.69
229.73	921.69
229.964	895.69
230.199	556.69
230.433	496.69
230.667	489.69
230.901	485.69
231.136	463.69
231.37	470.69
231.604	450.69
231.838	461.69
232.072	463.69
232.306	452.69
232.541	473.69
232.775	471.69
233.009	489.69
233.243	498.69
233.477	483.69
233.711	522.69
233.945	500.69
234.179	526.69
234.413	534.69
234.647	543.69
234.881	524.69
235.115	531.69
235.349	532.69
235.583	569.69
235.817	616.69
236.051	661.69
236.285	626.69
236.519	651.69
236.753	716.69
236.987	971.69
237.221	1513.69
237.455	1706.69
237.689	957.69
237.922	774.69
238.156	760.69
238.39	701.69
238.624	664.69
238.858	643.69
239.091	668.69
239.325	677.69
239.559	718.69
239.793	734.69
240.027	822.69
240.26	987.69
240.494	1075.69
240.728	1055.69
240.961	966.69
241.195	875.69
241.429	827.69
241.662	806.69
241.896	780.69
242.13	786.69
242.363	776.69
242.597	836.69
242.83	836.69
243.064	845.69
243.298	880.69
243.531	859.69
243.765	873.69
243.998	865.69
244.232	863.69
244.465	904.69
244.699	912.69
244.932	929.69
245.166	919.69
245.399	919.69
245.633	929.69
245.866	928.69
246.099	949.69
246.333	971.69
246.566	988.69
246.8	1011.69
247.033	1082.69
247.266	1099.69
247.5	1156.69
247.733	1213.69
247.966	1199.69
248.2	1198.69
248.433	1205.69
248.666	1267.69
248.899	1440.69
249.133	1518.69
249.366	1535.69
249.599	1360.69
249.832	1220.69
250.066	1244.69
250.299	1276.69
250.532	1409.69
250.765	1580.69
250.998	1868.69
251.231	1777.69
251.465	1557.69
251.698	1480.69
251.931	1447.69
252.164	1451.69
252.397	1441.69
252.63	1541.69
252.863	1636.69
253.096	1786.69
253.329	1830.69
253.562	1719.69
253.795	1637.69
254.028	1623.69
254.261	1730.69
254.494	1921.69
254.727	2344.69
254.96	2440.69
255.193	2073.69
255.426	1811.69
255.659	1691.69
255.892	1602.69
256.124	1601.69
256.357	1574.69
256.59	1565.69
256.823	1552.69
257.056	1532.69
257.289	1525.69
257.521	1588.69
257.754	1576.69
257.987	1567.69
258.22	1596.69
258.452	1576.69
258.685	1596.69
258.918	1596.69
259.151	1662.69
259.383	1755.69
259.616	1793.69
259.849	1826.69
260.081	2038.69
260.314	2233.69
260.547	2159.69
260.779	1962.69
261.012	1820.69
261.244	1794.69
261.477	1747.69
261.71	1768.69
261.942	1773.69
262.175	1849.69
262.407	1746.69
262.64	1685.69
262.872	1713.69
263.105	1703.69
263.337	1691.69
263.57	1676.69
263.802	1696.69
264.035	1680.69
264.267	1713.69
264.499	1722.69
264.732	1749.69
264.964	1735.69
265.197	1733.69
265.429	1755.69
265.661	1741.69
265.894	1748.69
266.126	1759.69
266.358	1818.69
266.591	1820.69
266.823	1917.69
267.055	1961.69
267.287	1883.69
267.52	1901.69
267.752	1912.69
267.984	1948.69
268.216	1968.69
268.448	2016.69
268.681	2086.69
268.913	2256.69
269.145	2533.69
269.377	2525.69
269.609	2448.69
269.841	2388.69
270.073	2531.69
270.306	2875.69
270.538	3052.69
270.77	2821.69
271.002	2648.69
271.234	2587.69
271.466	2778.69
271.698	2974.69
271.93	2944.69
272.162	2929.69
272.394	2838.69
272.626	2638.69
272.858	2473.69
273.09	2372.69
273.322	2309.69
273.553	2302.69
273.785	2317.69
274.017	2330.69
274.249	2289.69
274.481	2316.69
274.713	2332.69
274.945	2363.69
275.176	2393.69
275.408	2345.69
275.64	2337.69
275.872	2370.69
276.104	2373.69
276.335	2387.69
276.567	2477.69
276.799	2680.69
277.031	2934.69
277.262	3092.69
277.494	2927.69
277.726	2701.69
277.957	2530.69
278.189	2534.69
278.421	2489.69
278.652	2409.69
278.884	2390.69
279.115	2420.69
279.347	2425.69
279.579	2444.69
279.81	2429.69
280.042	2403.69
280.273	2426.69
280.505	2446.69
280.736	2420.69
280.968	2444.69
281.199	2458.69
281.431	2549.69
281.662	2524.69
281.894	2494.69
282.125	2569.69
282.356	2809.69
282.588	2925.69
282.819	2737.69
283.051	2628.69
283.282	2559.69
283.513	2592.69
283.745	2736.69
283.976	2738.69
284.207	2737.69
284.439	2665.69
284.67	2657.69
284.901	2686.69
285.132	2726.69
285.364	2681.69
285.595	2668.69
285.826	2729.69
286.057	2746.69
286.288	2701.69
286.52	2731.69
286.751	2692.69
286.982	2772.69
287.213	2740.69
287.444	2772.69
287.675	2858.69
287.906	2980.69
288.138	3007.69
288.369	2961.69
288.6	3003.69
288.831	2946.69
289.062	2843.69
289.293	2859.69
289.524	2809.69
289.755	2865.69
289.986	2866.69
290.217	2829.69
290.448	2826.69
290.679	2874.69
290.91	2839.69
291.141	2854.69
291.371	2843.69
291.602	2800.69
291.833	2841.69
292.064	2889.69
292.295	2878.69
292.526	2856.69
292.757	2891.69
292.987	2866.69
293.218	2852.69
293.449	2931.69
293.68	2920.69
293.91	2870.69
294.141	2846.69
294.372	2849.69
294.603	2952.69
294.833	2889.69
295.064	2955.69
295.295	2950.69
295.525	2933.69
295.756	3001.69
295.987	3100.69
296.217	3329.69
296.448	3206.69
296.679	3008.69
296.909	2991.69
297.14	2988.69
297.37	3048.69
297.601	3102.69
297.831	3115.69
298.062	3087.69
298.292	3150.69
298.523	3122.69
298.753	3154.69
298.984	3164.69
299.214	3163.69
299.445	3173.69
299.675	3164.69
299.905	3221.69
300.136	3220.69
300.366	3237.69
300.597	3224.69
300.827	3320.69
301.057	3426.69
301.288	3480.69
301.518	3416.69
301.748	3420.69
301.979	3399.69
302.209	3482.69
302.439	3485.69
302.669	3420.69
302.9	3360.69
303.13	3370.69
303.36	3423.69
303.59	3460.69
303.82	3503.69
304.051	3467.69
304.281	3380.69
304.511	3319.69
304.741	3330.69
304.971	3340.69
305.201	3387.69
305.431	3334.69
305.661	3342.69
305.891	3281.69
306.121	3310.69
306.352	3403.69
306.582	3414.69
306.812	3284.69
307.042	3304.69
307.272	3315.69
307.502	3320.69
307.731	3360.69
307.961	3290.69
308.191	3340.69
308.421	3380.69
308.651	3445.69
308.881	3412.69
309.111	3398.69
309.341	3460.69
309.571	3549.69
309.8	3681.69
310.03	3681.69
310.26	3772.69
310.49	3680.69
310.72	3851.69
310.949	4030.69
311.179	3916.69
311.409	3754.69
311.639	3761.69
311.868	3783.69
312.098	3838.69
312.328	3896.69
312.557	4056.69
312.787	4115.69
313.017	4055.69
313.246	3926.69
313.476	3829.69
313.706	3843.69
313.935	3948.69
314.165	4065.69
314.394	4156.69
314.624	4133.69
314.853	3960.69
315.083	3920.69
315.312	3821.69
315.542	3826.69
315.771	3773.69
316.001	3802.69
316.23	3773.69
316.46	3812.69
316.689	3863.69
316.919	3944.69
317.148	3978.69
317.377	3896.69
317.607	3819.69
317.836	3857.69
318.065	3766.69
318.295	3780.69
318.524	3791.69
318.753	3756.69
318.983	3765.69
319.212	3713.69
319.441	3845.69
319.67	3856.69
319.9	3752.69
320.129	3778.69
320.358	3805.69
320.587	3866.69
320.816	3926.69
321.046	3979.69
321.275	3893.69
321.504	3952.69
321.733	3926.69
321.962	4036.69
322.191	4159.69
322.42	4210.69
322.649	4307.69
322.878	4444.69
323.108	4577.69
323.337	4856.69
323.566	5025.69
323.795	5377.69
324.024	6008.69
324.253	8108.69
324.482	12514.69
324.71	15606.69
324.939	15606.69
325.168	14179.69
325.397	7114.69
325.626	5525.69
325.855	5004.69
326.084	4932.69
326.313	4967.69
326.542	5173.69
326.77	5998.69
326.999	7788.69
327.228	11641.69
327.457	15488.69
327.686	14899.69
327.914	8012.69
328.143	6148.69
328.372	5926.69
328.6	5604.69
328.829	5559.69
329.058	5767.69
329.287	5738.69
329.515	5248.69
329.744	4992.69
329.972	5020.69
330.201	5085.69
330.43	5410.69
330.658	5875.69
330.887	6344.69
331.115	5826.69
331.344	5275.69
331.572	5084.69
331.801	5255.69
332.03	5199.69
332.258	5132.69
332.486	5086.69
332.715	5173.69
332.943	5302.69
333.172	5389.69
333.4	5573.69
333.629	5554.69
333.857	5752.69
334.085	5626.69
334.314	5529.69
334.542	5529.69
334.771	5488.69
334.999	5340.69
335.227	5341.69
335.455	5255.69
335.684	5182.69
335.912	5108.69
336.14	5009.69
336.369	5008.69
336.597	5065.69
336.825	5060.69
337.053	4908.69
337.281	4876.69
337.51	4863.69
337.738	4820.69
337.966	4817.69
338.194	4896.69
338.422	4728.69
338.65	4642.69
338.878	4668.69
339.106	4557.69
339.334	4670.69
339.562	4545.69
339.79	4552.69
340.018	4521.69
340.246	4579.69
340.474	4591.69
340.702	4563.69
340.93	4514.69
341.158	4512.69
341.386	4554.69
341.614	4623.69
341.842	4496.69
342.07	4378.69
342.298	4448.69
342.526	4382.69
342.754	4412.69
342.981	4347.69
343.209	4471.69
343.437	4693.69
343.665	4974.69
343.893	5247.69
344.12	5245.69
344.348	5043.69
344.576	4897.69
344.804	4903.69
345.031	4829.69
345.259	4808.69
345.487	4576.69
345.714	4472.69
345.942	4386.69
346.17	4340.69
346.397	4356.69
346.625	4366.69
346.853	4365.69
347.08	4310.69
347.308	4382.69
347.535	4503.69
347.763	4486.69
347.99	4445.69
348.218	4508.69
348.445	4498.69
348.673	4443.69
348.9	4305.69
349.128	4240.69
349.355	4189.69
349.583	4213.69
349.81	4165.69
350.037	4216.69
350.265	4165.69
350.492	4155.69
350.72	4207.69
350.947	4201.69
351.174	4393.69
351.402	4440.69
351.629	4327.69
351.856	4277.69
352.083	4439.69
352.311	4501.69
352.538	4412.69
352.765	4405.69
352.992	4372.69
353.22	4202.69
353.447	4218.69
353.674	4113.69
353.901	4105.69
354.128	4044.69
354.355	4042.69
354.583	4107.69
354.81	4100.69
355.037	4018.69
355.264	4027.69
355.491	4055.69
355.718	4066.69
355.945	4031.69
356.172	4004.69
356.399	4041.69
356.626	4016.69
356.853	4094.69
357.08	4003.69
357.307	3977.69
357.534	4090.69
357.761	4067.69
357.988	4078.69
358.215	4002.69
358.441	4112.69
358.668	4046.69
358.895	4179.69
359.122	4158.69
359.349	4342.69
359.576	4395.69
359.802	4711.69
360.029	4939.69
360.256	4927.69
360.483	4692.69
360.709	4376.69
360.936	4302.69
361.163	4373.69
361.39	4393.69
361.616	4372.69
361.843	4356.69
362.07	4309.69
362.296	4404.69
362.523	4318.69
362.749	4329.69
362.976	4244.69
363.203	4211.69
363.429	4181.69
363.656	4209.69
363.882	4108.69
364.109	4094.69
364.335	4135.69
364.562	4104.69
364.788	4170.69
365.015	4213.69
365.241	4149.69
365.468	4173.69
365.694	4269.69
365.92	4266.69
366.147	4160.69
366.373	4133.69
366.599	4178.69
366.826	4110.69
367.052	4107.69
367.278	4114.69
367.505	4224.69
367.731	4218.69
367.957	4198.69
368.184	4208.69
368.41	4318.69
368.636	4364.69
368.862	4411.69
369.089	4265.69
369.315	4230.69
369.541	4227.69
369.767	4272.69
369.993	4205.69
370.219	4280.69
370.445	4310.69
370.672	4317.69
370.898	4332.69
371.124	4306.69
371.35	4444.69
371.576	4371.69
371.802	4336.69
372.028	4305.69
372.254	4378.69
372.48	4400.69
372.706	4452.69
372.932	4490.69
373.158	4449.69
373.384	4446.69
373.61	4486.69
373.835	4475.69
374.061	4424.69
374.287	4538.69
374.513	4640.69
374.739	4674.69
374.965	4856.69
375.191	4869.69
375.416	4724.69
375.642	4568.69
375.868	4590.69
376.094	4529.69
376.319	4438.69
376.545	4449.69
376.771	4482.69
376.997	4464.69
377.222	4364.69
377.448	4392.69
377.674	4374.69
377.899	4381.69
378.125	4312.69
378.35	4372.69
378.576	4357.69
378.802	4350.69
379.027	4330.69
379.253	4361.69
379.478	4274.69
379.704	4373.69
379.929	4448.69
380.155	4410.69
380.38	4426.69
380.606	4414.69
380.831	4346.69
381.057	4399.69
381.282	4447.69
381.507	4417.69
381.733	4467.69
381.958	4444.69
382.184	4506.69
382.409	4697.69
382.634	4623.69
382.86	4606.69
383.085	4728.69
383.31	4746.69
383.535	4843.69
383.761	4874.69
383.986	4927.69
384.211	5021.69
384.436	5092.69
384.662	5124.69
384.887	5276.69
385.112	5224.69
385.337	5345.69
385.562	5389.69
385.787	5277.69
386.013	5467.69
386.238	5433.69
386.463	5352.69
386.688	5341.69
386.913	5249.69
387.138	5236.69
387.363	5174.69
387.588	5212.69
387.813	5236.69
388.038	5193.69
388.263	5314.69
388.488	5266.69
388.713	5242.69
388.938	5237.69
389.163	5180.69
389.387	5166.69
389.612	5103.69
389.837	5169.69
390.062	5174.69
390.287	5181.69
390.512	5190.69
390.736	5270.69
390.961	5326.69
391.186	5437.69
391.411	5576.69
391.636	5615.69
391.86	5888.69
392.085	5859.69
392.31	5738.69
392.534	5656.69
392.759	5563.69
392.984	5421.69
393.208	5441.69
393.433	5421.69
393.658	5440.69
393.882	5438.69
394.107	5498.69
394.331	5548.69
394.556	5508.69
394.78	5547.69
395.005	5558.69
395.229	5625.69
395.454	5785.69
395.678	5908.69
395.903	5895.69
396.127	5966.69
396.352	5828.69
396.576	5620.69
396.801	5532.69
397.025	5658.69
397.249	5689.69
397.474	5846.69
397.698	5935.69
397.922	6049.69
398.147	6145.69
398.371	6231.69
398.595	6368.69
398.82	6726.69
399.044	7217.69
399.268	8042.69
399.492	9057.69
399.717	9704.69
399.941	9556.69
400.165	8944.69
400.389	8135.69
400.613	7412.69
400.837	6992.69
401.062	6774.69
401.286	6633.69
401.51	6596.69
401.734	6594.69
401.958	6804.69
402.182	6856.69
402.406	6991.69
402.63	7020.69
402.854	7108.69
403.078	7180.69
403.302	7409.69
403.526	7564.69
403.75	7454.69
403.974	7517.69
404.198	7494.69
404.422	7642.69
404.645	7556.69
404.869	7450.69
405.093	7679.69
405.317	7726.69
405.541	7778.69
405.765	7356.69
405.988	7316.69
406.212	7575.69
406.436	7846.69
406.66	7930.69
406.883	7866.69
407.107	8584.69
407.331	9064.69
407.555	9669.69
407.778	9284.69
408.002	8412.69
408.226	8049.69
408.449	7895.69
408.673	7848.69
408.896	7997.69
409.12	8196.69
409.344	7689.69
409.567	7304.69
409.791	7297.69
410.014	7155.69
410.238	7058.69
410.461	7083.69
410.685	7163.69
410.908	7231.69
411.132	7514.69
411.355	7651.69
411.578	7112.69
411.802	6825.69
412.025	6810.69
412.249	6956.69
412.472	6940.69
412.695	6922.69
412.919	6601.69
413.142	6505.69
413.365	6484.69
413.589	6498.69
413.812	6445.69
414.035	6377.69
414.258	6404.69
414.482	6499.69
414.705	6565.69
414.928	6483.69
415.151	6498.69
415.374	6512.69
415.597	6475.69
415.821	6317.69
416.044	6354.69
416.267	6285.69
416.49	6341.69
416.713	6343.69
416.936	6403.69
417.159	6409.69
417.382	6492.69
417.605	6530.69
417.828	6665.69
418.051	6895.69
418.274	6677.69
418.497	6470.69
418.72	6699.69
418.943	6577.69
419.166	6974.69
419.389	7345.69
419.611	7228.69
419.834	7028.69
420.057	6881.69
420.28	6675.69
420.503	6536.69
420.726	6602.69
420.948	6812.69
421.171	7270.69
421.394	7339.69
421.617	6641.69
421.839	6621.69
422.062	6762.69
422.285	6903.69
422.507	7676.69
422.73	8341.69
422.953	7613.69
423.175	7251.69
423.398	7168.69
423.621	7231.69
423.843	7520.69
424.066	7396.69
424.288	7348.69
424.511	7642.69
424.733	8156.69
424.956	8639.69
425.178	8075.69
425.401	8373.69
425.623	8115.69
425.846	7043.69
426.068	6802.69
426.291	6730.69
426.513	6796.69
426.735	6972.69
426.958	7383.69
427.18	8321.69
427.402	9722.69
427.625	9819.69
427.847	8181.69
428.069	6996.69
428.292	6660.69
428.514	6228.69
428.736	6148.69
428.958	6114.69
429.181	5937.69
429.403	6006.69
429.625	6182.69
429.847	6566.69
430.069	7168.69
430.292	6620.69
430.514	6044.69
430.736	5969.69
430.958	5944.69
431.18	5793.69
431.402	5793.69
431.624	5751.69
431.846	5867.69
432.068	5870.69
432.29	5998.69
432.512	5873.69
432.734	6051.69
432.956	5912.69
433.178	6055.69
433.4	5983.69
433.622	5834.69
433.844	5891.69
434.066	5861.69
434.287	6016.69
434.509	6266.69
434.731	6458.69
434.953	6621.69
435.175	6816.69
435.397	6986.69
435.618	6890.69
435.84	7335.69
436.062	8346.69
436.284	8355.69
436.505	6861.69
436.727	6497.69
436.949	6194.69
437.17	5984.69
437.392	5972.69
437.614	6266.69
437.835	6680.69
438.057	7862.69
438.278	8528.69
438.5	8371.69
438.721	9429.69
438.943	8071.69
439.165	6744.69
439.386	6459.69
439.608	6614.69
439.829	6718.69
440.05	7169.69
440.272	7687.69
440.493	6852.69
440.715	6496.69
440.936	6308.69
441.158	6305.69
441.379	6472.69
441.6	6852.69
441.822	7066.69
442.043	7592.69
442.264	8540.69
442.486	8211.69
442.707	7163.69
442.928	7063.69
443.149	7223.69
443.371	7641.69
443.592	8100.69
443.813	9364.69
444.034	9265.69
444.255	7820.69
444.476	7530.69
444.698	7716.69
444.919	7858.69
445.14	7600.69
445.361	7609.69
445.582	7859.69
445.803	8688.69
446.024	9436.69
446.245	8916.69
446.466	7936.69
446.687	6746.69
446.908	6356.69
447.129	6016.69
447.35	5852.69
447.571	5788.69
447.792	5770.69
448.013	5922.69
448.234	6121.69
448.455	6890.69
448.675	8304.69
448.896	8836.69
449.117	7107.69
449.338	7349.69
449.559	8861.69
449.779	9156.69
450	6824.69
450.221	6016.69
450.442	5780.69
450.662	5650.69
450.883	5897.69
451.104	5956.69
451.324	5717.69
451.545	5540.69
451.766	5455.69
451.986	5216.69
452.207	5255.69
452.428	5181.69
452.648	5224.69
452.869	5359.69
453.089	5420.69
453.31	5453.69
453.53	5266.69
453.751	5269.69
453.971	5325.69
454.192	5443.69
454.412	5187.69
454.633	5121.69
454.853	5008.69
455.073	5132.69
455.294	5583.69
455.514	6221.69
455.734	5586.69
455.955	4924.69
456.175	4798.69
456.395	4801.69
456.616	4730.69
456.836	4819.69
457.056	4779.69
457.276	4685.69
457.497	4876.69
457.717	4893.69
457.937	4896.69
458.157	5013.69
458.377	5138.69
458.598	5448.69
458.818	6363.69
459.038	7411.69
459.258	7134.69
459.478	6264.69
459.698	6048.69
459.918	6035.69
460.138	6204.69
460.358	6437.69
460.578	6472.69
460.798	6466.69
461.018	6464.69
461.238	6380.69
461.458	6367.69
461.678	6290.69
461.898	6434.69
462.118	6533.69
462.338	6888.69
462.558	6995.69
462.777	7187.69
462.997	7854.69
463.217	8282.69
463.437	8080.69
463.657	7454.69
463.876	7212.69
464.096	7332.69
464.316	7286.69
464.536	7400.69
464.755	7114.69
464.975	7154.69
465.195	7481.69
465.414	7685.69
465.634	6536.69
465.854	6020.69
466.073	5812.69
466.293	5663.69
466.512	5483.69
466.732	5316.69
466.951	5381.69
467.171	5356.69
467.391	5382.69
467.61	5548.69
467.829	5443.69
468.049	5345.69
468.268	5157.69
468.488	5171.69
468.707	5062.69
468.927	5146.69
469.146	5101.69
469.365	5122.69
469.585	5175.69
469.804	5400.69
470.023	5577.69
470.243	5608.69
470.462	5648.69
470.681	5856.69
470.901	5609.69
471.12	5492.69
471.339	5403.69
471.558	5428.69
471.777	5314.69
471.997	5209.69
472.216	5101.69
472.435	5120.69
472.654	5093.69
472.873	5027.69
473.092	5040.69
473.311	5081.69
473.53	5034.69
473.749	5278.69
473.968	5952.69
474.187	7183.69
474.406	6683.69
474.625	5465.69
474.844	5197.69
475.063	5137.69
475.282	5192.69
475.501	5241.69
475.72	5269.69
475.939	5344.69
476.158	5373.69
476.377	5352.69
476.596	5361.69
476.814	5469.69
477.033	5579.69
477.252	5550.69
477.471	5659.69
477.69	5782.69
477.908	5957.69
478.127	6085.69
478.346	6127.69
478.564	6146.69
478.783	6300.69
479.002	6438.69
479.22	6479.69
479.439	6625.69
479.658	6715.69
479.876	6820.69
480.095	7048.69
480.313	7465.69
480.532	7202.69
480.751	7131.69
480.969	7013.69
481.188	6969.69
481.406	6651.69
481.624	6477.69
481.843	6227.69
482.061	6201.69
482.28	6088.69
482.498	6015.69
482.717	5994.69
482.935	6063.69
483.153	6021.69
483.372	5893.69
483.59	5973.69
483.808	5967.69
484.027	6000.69
484.245	5987.69
484.463	6178.69
484.681	6232.69
484.9	6190.69
485.118	6262.69
485.336	6316.69
485.554	6444.69
485.772	6497.69
485.99	6466.69
486.209	6435.69
486.427	6468.69
486.645	6624.69
486.863	6728.69
487.081	6644.69
487.299	6554.69
487.517	6541.69
487.735	6432.69
