Data from Uncirc_2005_H10_HRD10591_00083.txt Node
Date: Wed Jan 03 10:28:41 EST 2024
User: Yrep
Spectrometer: HR+D1059
Trigger mode: 1
Integration Time (sec): 1.000000E-1
Scans to average: 1
Electric dark correction enabled: true
Nonlinearity correction enabled: false
Boxcar width: 0
XAxis mode: Wavelengths
Number of Pixels in Spectrum: 2048
>>>>>Begin Spectral Data<<<<<
223.165	-20.44
223.4	-20.44
223.635	-20.44
223.869	-18.44
224.104	-12.44
224.338	-18.44
224.573	-9.44
224.808	-9.44
225.042	-13.44
225.277	-12.44
225.511	1.56
225.746	2.56
225.98	-0.44
226.215	11.56
226.449	15.56
226.683	23.56
226.918	26.56
227.152	33.56
227.387	31.56
227.621	33.56
227.856	38.56
228.09	43.56
228.324	44.56
228.559	59.56
228.793	57.56
229.027	64.56
229.262	70.56
229.496	68.56
229.73	76.56
229.964	85.56
230.199	53.56
230.433	91.56
230.667	81.56
230.901	70.56
231.136	74.56
231.37	77.56
231.604	77.56
231.838	67.56
232.072	72.56
232.306	90.56
232.541	87.56
232.775	87.56
233.009	73.56
233.243	69.56
233.477	74.56
233.711	88.56
233.945	74.56
234.179	81.56
234.413	77.56
234.647	81.56
234.881	81.56
235.115	74.56
235.349	77.56
235.583	71.56
235.817	83.56
236.051	55.56
236.285	86.56
236.519	75.56
236.753	87.56
236.987	74.56
237.221	73.56
237.455	85.56
237.689	81.56
237.922	63.56
238.156	77.56
238.39	75.56
238.624	85.56
238.858	77.56
239.091	69.56
239.325	66.56
239.559	70.56
239.793	64.56
240.027	75.56
240.26	76.56
240.494	70.56
240.728	76.56
240.961	65.56
241.195	69.56
241.429	65.56
241.662	73.56
241.896	81.56
242.13	76.56
242.363	69.56
242.597	77.56
242.83	83.56
243.064	72.56
243.298	84.56
243.531	69.56
243.765	73.56
243.998	84.56
244.232	66.56
244.465	66.56
244.699	73.56
244.932	72.56
245.166	81.56
245.399	85.56
245.633	79.56
245.866	81.56
246.099	81.56
246.333	79.56
246.566	84.56
246.8	84.56
247.033	89.56
247.266	84.56
247.5	62.56
247.733	68.56
247.966	76.56
248.2	75.56
248.433	75.56
248.666	85.56
248.899	82.56
249.133	83.56
249.366	78.56
249.599	87.56
249.832	76.56
250.066	94.56
250.299	86.56
250.532	68.56
250.765	75.56
250.998	78.56
251.231	76.56
251.465	81.56
251.698	80.56
251.931	74.56
252.164	82.56
252.397	69.56
252.63	83.56
252.863	79.56
253.096	70.56
253.329	76.56
253.562	85.56
253.795	86.56
254.028	85.56
254.261	75.56
254.494	76.56
254.727	87.56
254.96	86.56
255.193	66.56
255.426	93.56
255.659	79.56
255.892	82.56
256.124	99.56
256.357	77.56
256.59	75.56
256.823	87.56
257.056	82.56
257.289	68.56
257.521	86.56
257.754	80.56
257.987	77.56
258.22	76.56
258.452	76.56
258.685	78.56
258.918	86.56
259.151	87.56
259.383	75.56
259.616	70.56
259.849	83.56
260.081	96.56
260.314	90.56
260.547	91.56
260.779	87.56
261.012	87.56
261.244	84.56
261.477	81.56
261.71	86.56
261.942	100.56
262.175	114.56
262.407	69.56
262.64	81.56
262.872	82.56
263.105	82.56
263.337	80.56
263.57	79.56
263.802	83.56
264.035	76.56
264.267	84.56
264.499	72.56
264.732	80.56
264.964	95.56
265.197	88.56
265.429	78.56
265.661	91.56
265.894	88.56
266.126	77.56
266.358	83.56
266.591	90.56
266.823	90.56
267.055	79.56
267.287	78.56
267.52	84.56
267.752	83.56
267.984	82.56
268.216	101.56
268.448	80.56
268.681	88.56
268.913	90.56
269.145	70.56
269.377	64.56
269.609	75.56
269.841	91.56
270.073	83.56
270.306	96.56
270.538	99.56
270.77	86.56
271.002	76.56
271.234	86.56
271.466	80.56
271.698	84.56
271.93	86.56
272.162	81.56
272.394	84.56
272.626	80.56
272.858	75.56
273.09	77.56
273.322	86.56
273.553	84.56
273.785	84.56
274.017	70.56
274.249	87.56
274.481	80.56
274.713	79.56
274.945	77.56
275.176	70.56
275.408	75.56
275.64	87.56
275.872	82.56
276.104	81.56
276.335	71.56
276.567	96.56
276.799	96.56
277.031	94.56
277.262	74.56
277.494	88.56
277.726	81.56
277.957	89.56
278.189	92.56
278.421	93.56
278.652	82.56
278.884	71.56
279.115	81.56
279.347	77.56
279.579	77.56
279.81	89.56
280.042	76.56
280.273	71.56
280.505	89.56
280.736	90.56
280.968	86.56
281.199	70.56
281.431	79.56
281.662	81.56
281.894	83.56
282.125	101.56
282.356	111.56
282.588	117.56
282.819	99.56
283.051	81.56
283.282	70.56
283.513	86.56
283.745	85.56
283.976	74.56
284.207	74.56
284.439	81.56
284.67	90.56
284.901	76.56
285.132	86.56
285.364	71.56
285.595	76.56
285.826	85.56
286.057	93.56
286.288	99.56
286.52	79.56
286.751	80.56
286.982	85.56
287.213	84.56
287.444	90.56
287.675	87.56
287.906	90.56
288.138	92.56
288.369	82.56
288.6	98.56
288.831	88.56
289.062	84.56
289.293	98.56
289.524	90.56
289.755	90.56
289.986	94.56
290.217	88.56
290.448	76.56
290.679	72.56
290.91	87.56
291.141	86.56
291.371	81.56
291.602	102.56
291.833	89.56
292.064	79.56
292.295	89.56
292.526	92.56
292.757	99.56
292.987	93.56
293.218	83.56
293.449	91.56
293.68	92.56
293.91	90.56
294.141	82.56
294.372	83.56
294.603	86.56
294.833	81.56
295.064	82.56
295.295	79.56
295.525	68.56
295.756	90.56
295.987	118.56
296.217	119.56
296.448	106.56
296.679	91.56
296.909	84.56
297.14	91.56
297.37	82.56
297.601	90.56
297.831	90.56
298.062	79.56
298.292	82.56
298.523	75.56
298.753	91.56
298.984	87.56
299.214	81.56
299.445	93.56
299.675	81.56
299.905	83.56
300.136	86.56
300.366	81.56
300.597	84.56
300.827	90.56
301.057	90.56
301.288	86.56
301.518	81.56
301.748	88.56
301.979	102.56
302.209	81.56
302.439	71.56
302.669	88.56
302.9	86.56
303.13	90.56
303.36	92.56
303.59	95.56
303.82	100.56
304.051	87.56
304.281	81.56
304.511	90.56
304.741	79.56
304.971	80.56
305.201	79.56
305.431	91.56
305.661	66.56
305.891	86.56
306.121	68.56
306.352	98.56
306.582	91.56
306.812	101.56
307.042	95.56
307.272	84.56
307.502	95.56
307.731	88.56
307.961	77.56
308.191	91.56
308.421	92.56
308.651	105.56
308.881	86.56
309.111	82.56
309.341	81.56
309.571	90.56
309.8	83.56
310.03	92.56
310.26	91.56
310.49	87.56
310.72	110.56
310.949	91.56
311.179	99.56
311.409	87.56
311.639	85.56
311.868	74.56
312.098	89.56
312.328	97.56
312.557	84.56
312.787	98.56
313.017	96.56
313.246	97.56
313.476	101.56
313.706	85.56
313.935	92.56
314.165	102.56
314.394	102.56
314.624	83.56
314.853	98.56
315.083	95.56
315.312	85.56
315.542	92.56
315.771	87.56
316.001	87.56
316.23	97.56
316.46	102.56
316.689	105.56
316.919	87.56
317.148	100.56
317.377	77.56
317.607	79.56
317.836	74.56
318.065	89.56
318.295	95.56
318.524	102.56
318.753	86.56
318.983	97.56
319.212	85.56
319.441	100.56
319.67	92.56
319.9	82.56
320.129	82.56
320.358	96.56
320.587	115.56
320.816	100.56
321.046	89.56
321.275	86.56
321.504	77.56
321.733	97.56
321.962	92.56
322.191	119.56
322.42	95.56
322.649	105.56
322.878	110.56
323.108	101.56
323.337	115.56
323.566	125.56
323.795	152.56
324.024	207.56
324.253	367.56
324.482	766.56
324.71	1651.56
324.939	2123.56
325.168	773.56
325.397	231.56
325.626	142.56
325.855	131.56
326.084	137.56
326.313	135.56
326.542	163.56
326.77	234.56
326.999	450.56
327.228	941.56
327.457	1681.56
327.686	1291.56
327.914	344.56
328.143	170.56
328.372	141.56
328.6	110.56
328.829	106.56
329.058	119.56
329.287	100.56
329.515	101.56
329.744	97.56
329.972	90.56
330.201	87.56
330.43	102.56
330.658	106.56
330.887	118.56
331.115	116.56
331.344	91.56
331.572	83.56
331.801	87.56
332.03	94.56
332.258	96.56
332.486	90.56
332.715	85.56
332.943	101.56
333.172	104.56
333.4	94.56
333.629	87.56
333.857	100.56
334.085	101.56
334.314	96.56
334.542	93.56
334.771	90.56
334.999	90.56
335.227	85.56
335.455	95.56
335.684	86.56
335.912	82.56
336.14	94.56
336.369	94.56
336.597	94.56
336.825	81.56
337.053	80.56
337.281	84.56
337.51	84.56
337.738	106.56
337.966	83.56
338.194	93.56
338.422	93.56
338.65	93.56
338.878	101.56
339.106	80.56
339.334	83.56
339.562	83.56
339.79	85.56
340.018	93.56
340.246	86.56
340.474	90.56
340.702	82.56
340.93	84.56
341.158	76.56
341.386	102.56
341.614	96.56
341.842	90.56
342.07	90.56
342.298	89.56
342.526	69.56
342.754	63.56
342.981	89.56
343.209	99.56
343.437	115.56
343.665	87.56
343.893	78.56
344.12	83.56
344.348	82.56
344.576	76.56
344.804	70.56
345.031	93.56
345.259	90.56
345.487	108.56
345.714	93.56
345.942	94.56
346.17	87.56
346.397	80.56
346.625	94.56
346.853	80.56
347.08	99.56
347.308	104.56
347.535	103.56
347.763	98.56
347.99	89.56
348.218	102.56
348.445	109.56
348.673	85.56
348.9	94.56
349.128	105.56
349.355	87.56
349.583	90.56
349.81	96.56
350.037	101.56
350.265	99.56
350.492	81.56
350.72	92.56
350.947	100.56
351.174	101.56
351.402	102.56
351.629	96.56
351.856	89.56
352.083	107.56
352.311	101.56
352.538	98.56
352.765	105.56
352.992	111.56
353.22	111.56
353.447	100.56
353.674	94.56
353.901	91.56
354.128	102.56
354.355	85.56
354.583	86.56
354.81	92.56
355.037	87.56
355.264	83.56
355.491	87.56
355.718	103.56
355.945	102.56
356.172	96.56
356.399	100.56
356.626	85.56
356.853	93.56
357.08	102.56
357.307	85.56
357.534	84.56
357.761	92.56
357.988	89.56
358.215	98.56
358.441	88.56
358.668	89.56
358.895	95.56
359.122	92.56
359.349	93.56
359.576	82.56
359.802	93.56
360.029	96.56
360.256	93.56
360.483	93.56
360.709	79.56
360.936	100.56
361.163	78.56
361.39	100.56
361.616	90.56
361.843	93.56
362.07	96.56
362.296	100.56
362.523	95.56
362.749	99.56
362.976	99.56
363.203	92.56
363.429	94.56
363.656	102.56
363.882	100.56
364.109	78.56
364.335	74.56
364.562	87.56
364.788	80.56
365.015	92.56
365.241	75.56
365.468	102.56
365.694	99.56
365.92	95.56
366.147	87.56
366.373	89.56
366.599	83.56
366.826	87.56
367.052	100.56
367.278	82.56
367.505	84.56
367.731	76.56
367.957	93.56
368.184	86.56
368.41	90.56
368.636	105.56
368.862	96.56
369.089	101.56
369.315	87.56
369.541	84.56
369.767	85.56
369.993	94.56
370.219	84.56
370.445	85.56
370.672	83.56
370.898	101.56
371.124	91.56
371.35	92.56
371.576	91.56
371.802	69.56
372.028	91.56
372.254	101.56
372.48	84.56
372.706	89.56
372.932	89.56
373.158	92.56
373.384	102.56
373.61	78.56
373.835	91.56
374.061	96.56
374.287	97.56
374.513	86.56
374.739	95.56
374.965	69.56
375.191	82.56
375.416	81.56
375.642	97.56
375.868	79.56
376.094	87.56
376.319	96.56
376.545	93.56
376.771	78.56
376.997	93.56
377.222	84.56
377.448	95.56
377.674	94.56
377.899	90.56
378.125	80.56
378.35	80.56
378.576	91.56
378.802	106.56
379.027	81.56
379.253	93.56
379.478	91.56
379.704	77.56
379.929	93.56
380.155	95.56
380.38	95.56
380.606	93.56
380.831	87.56
381.057	100.56
381.282	87.56
381.507	91.56
381.733	93.56
381.958	84.56
382.184	90.56
382.409	91.56
382.634	89.56
382.86	103.56
383.085	92.56
383.31	98.56
383.535	98.56
383.761	107.56
383.986	100.56
384.211	95.56
384.436	104.56
384.662	103.56
384.887	100.56
385.112	90.56
385.337	102.56
385.562	104.56
385.787	103.56
386.013	86.56
386.238	112.56
386.463	108.56
386.688	105.56
386.913	89.56
387.138	101.56
387.363	91.56
387.588	108.56
387.813	103.56
388.038	109.56
388.263	104.56
388.488	103.56
388.713	101.56
388.938	99.56
389.163	92.56
389.387	95.56
389.612	90.56
389.837	89.56
390.062	95.56
390.287	98.56
390.512	85.56
390.736	88.56
390.961	89.56
391.186	102.56
391.411	91.56
391.636	95.56
391.86	86.56
392.085	93.56
392.31	88.56
392.534	80.56
392.759	90.56
392.984	94.56
393.208	95.56
393.433	91.56
393.658	88.56
393.882	101.56
394.107	92.56
394.331	84.56
394.556	96.56
394.78	91.56
395.005	73.56
395.229	81.56
395.454	77.56
395.678	85.56
395.903	78.56
396.127	74.56
396.352	96.56
396.576	83.56
396.801	84.56
397.025	93.56
397.249	77.56
397.474	89.56
397.698	93.56
397.922	84.56
398.147	79.56
398.371	84.56
398.595	82.56
398.82	97.56
399.044	77.56
399.268	84.56
399.492	85.56
399.717	99.56
399.941	101.56
400.165	105.56
400.389	96.56
400.613	90.56
400.837	86.56
401.062	87.56
401.286	82.56
401.51	79.56
401.734	92.56
401.958	90.56
402.182	116.56
402.406	131.56
402.63	126.56
402.854	89.56
403.078	84.56
403.302	84.56
403.526	99.56
403.75	99.56
403.974	68.56
404.198	92.56
404.422	102.56
404.645	87.56
404.869	79.56
405.093	96.56
405.317	94.56
405.541	92.56
405.765	87.56
405.988	96.56
406.212	164.56
406.436	212.56
406.66	137.56
406.883	102.56
407.107	87.56
407.331	106.56
407.555	82.56
407.778	98.56
408.002	83.56
408.226	83.56
408.449	75.56
408.673	78.56
408.896	84.56
409.12	92.56
409.344	85.56
409.567	97.56
409.791	89.56
410.014	91.56
410.238	86.56
410.461	97.56
410.685	93.56
410.908	101.56
411.132	101.56
411.355	94.56
411.578	75.56
411.802	92.56
412.025	86.56
412.249	82.56
412.472	100.56
412.695	91.56
412.919	85.56
413.142	94.56
413.365	89.56
413.589	91.56
413.812	92.56
414.035	92.56
414.258	90.56
414.482	86.56
414.705	73.56
414.928	106.56
415.151	79.56
415.374	92.56
415.597	78.56
415.821	85.56
416.044	92.56
416.267	88.56
416.49	81.56
416.713	86.56
416.936	90.56
417.159	86.56
417.382	91.56
417.605	89.56
417.828	97.56
418.051	87.56
418.274	107.56
418.497	87.56
418.72	84.56
418.943	95.56
419.166	73.56
419.389	97.56
419.611	87.56
419.834	87.56
420.057	83.56
420.28	88.56
420.503	83.56
420.726	99.56
420.948	86.56
421.171	79.56
421.394	86.56
421.617	103.56
421.839	89.56
422.062	87.56
422.285	84.56
422.507	93.56
422.73	96.56
422.953	85.56
423.175	97.56
423.398	95.56
423.621	91.56
423.843	78.56
424.066	80.56
424.288	99.56
424.511	82.56
424.733	101.56
424.956	115.56
425.178	93.56
425.401	93.56
425.623	98.56
425.846	108.56
426.068	90.56
426.291	96.56
426.513	93.56
426.735	89.56
426.958	94.56
427.18	98.56
427.402	128.56
427.625	157.56
427.847	109.56
428.069	113.56
428.292	108.56
428.514	95.56
428.736	95.56
428.958	91.56
429.181	84.56
429.403	69.56
429.625	101.56
429.847	84.56
430.069	96.56
430.292	90.56
430.514	83.56
430.736	87.56
430.958	87.56
431.18	71.56
431.402	74.56
431.624	82.56
431.846	66.56
432.068	85.56
432.29	87.56
432.512	79.56
432.734	100.56
432.956	78.56
433.178	94.56
433.4	101.56
433.622	82.56
433.844	87.56
434.066	74.56
434.287	78.56
434.509	86.56
434.731	91.56
434.953	82.56
435.175	79.56
435.397	99.56
435.618	102.56
435.84	102.56
436.062	115.56
436.284	107.56
436.505	86.56
436.727	88.56
436.949	83.56
437.17	97.56
437.392	83.56
437.614	87.56
437.835	99.56
438.057	114.56
438.278	100.56
438.5	92.56
438.721	118.56
438.943	106.56
439.165	83.56
439.386	83.56
439.608	86.56
439.829	101.56
440.05	109.56
440.272	121.56
440.493	97.56
440.715	92.56
440.936	82.56
441.158	112.56
441.379	99.56
441.6	98.56
441.822	98.56
442.043	75.56
442.264	95.56
442.486	103.56
442.707	96.56
442.928	83.56
443.149	114.56
443.371	111.56
443.592	100.56
443.813	101.56
444.034	106.56
444.255	86.56
444.476	77.56
444.698	81.56
444.919	85.56
445.14	128.56
445.361	106.56
445.582	122.56
445.803	130.56
446.024	132.56
446.245	130.56
446.466	111.56
446.687	89.56
446.908	82.56
447.129	95.56
447.35	96.56
447.571	94.56
447.792	75.56
448.013	101.56
448.234	106.56
448.455	91.56
448.675	111.56
448.896	111.56
449.117	95.56
449.338	100.56
449.559	132.56
449.779	122.56
450	94.56
450.221	86.56
450.442	84.56
450.662	96.56
450.883	110.56
451.104	103.56
451.324	97.56
451.545	81.56
451.766	84.56
451.986	105.56
452.207	85.56
452.428	101.56
452.648	92.56
452.869	99.56
453.089	79.56
453.31	97.56
453.53	80.56
453.751	72.56
453.971	95.56
454.192	95.56
454.412	80.56
454.633	83.56
454.853	90.56
455.073	79.56
455.294	80.56
455.514	89.56
455.734	86.56
455.955	95.56
456.175	85.56
456.395	82.56
456.616	73.56
456.836	97.56
457.056	86.56
457.276	79.56
457.497	87.56
457.717	91.56
457.937	98.56
458.157	89.56
458.377	93.56
458.598	108.56
458.818	129.56
459.038	134.56
459.258	116.56
459.478	99.56
459.698	77.56
459.918	100.56
460.138	81.56
460.358	78.56
460.578	81.56
460.798	80.56
461.018	77.56
461.238	81.56
461.458	86.56
461.678	77.56
461.898	76.56
462.118	91.56
462.338	100.56
462.558	81.56
462.777	77.56
462.997	102.56
463.217	77.56
463.437	87.56
463.657	101.56
463.876	82.56
464.096	81.56
464.316	78.56
464.536	85.56
464.755	100.56
464.975	106.56
465.195	145.56
465.414	149.56
465.634	97.56
465.854	80.56
466.073	81.56
466.293	77.56
466.512	80.56
466.732	97.56
466.951	84.56
467.171	100.56
467.391	88.56
467.61	106.56
467.829	96.56
468.049	98.56
468.268	82.56
468.488	77.56
468.707	77.56
468.927	78.56
469.146	86.56
469.365	90.56
469.585	83.56
469.804	78.56
470.023	84.56
470.243	94.56
470.462	74.56
470.681	100.56
470.901	80.56
471.12	95.56
471.339	78.56
471.558	94.56
471.777	91.56
471.997	101.56
472.216	93.56
472.435	87.56
472.654	80.56
472.873	75.56
473.092	81.56
473.311	86.56
473.53	87.56
473.749	83.56
473.968	82.56
474.187	92.56
474.406	101.56
474.625	93.56
474.844	76.56
475.063	76.56
475.282	83.56
475.501	74.56
475.72	96.56
475.939	86.56
476.158	92.56
476.377	96.56
476.596	82.56
476.814	91.56
477.033	79.56
477.252	99.56
477.471	86.56
477.69	89.56
477.908	82.56
478.127	86.56
478.346	98.56
478.564	96.56
478.783	109.56
479.002	87.56
479.22	95.56
479.439	92.56
479.658	92.56
479.876	92.56
480.095	94.56
480.313	87.56
480.532	89.56
480.751	87.56
480.969	92.56
481.188	112.56
481.406	95.56
481.624	86.56
481.843	95.56
482.061	78.56
482.28	80.56
482.498	91.56
482.717	85.56
482.935	88.56
483.153	92.56
483.372	83.56
483.59	80.56
483.808	99.56
484.027	93.56
484.245	107.56
484.463	84.56
484.681	89.56
484.9	94.56
485.118	97.56
485.336	93.56
485.554	94.56
485.772	90.56
485.99	111.56
486.209	100.56
486.427	96.56
486.645	113.56
486.863	98.56
487.081	93.56
487.299	98.56
487.517	91.56
487.735	90.56
487.953	96.56
488.171	98.56
488.389	88.56
488.607	105.56
488.825	80.56
489.043	98.56
489.261	80.56
489.479	83.56
489.696	86.56
489.914	70.56
490.132	90.56
490.35	97.56
490.568	94.56
490.786	95.56
491.003	90.56
491.221	88.56
491.439	83.56
491.657	95.56
491.874	85.56
492.092	85.56
492.31	86.56
492.527	91.56
492.745	97.56
492.963	89.56
493.18	77.56
493.398	91.56
493.615	100.56
493.833	105.56
494.05	85.56
494.268	93.56
494.485	77.56
494.703	91.56
494.92	79.56
495.138	92.56
495.355	72.56
495.573	86.56
495.79	98.56
496.008	95.56
496.225	90.56
496.442	93.56
496.66	87.56
496.877	83.56
497.094	90.56
497.312	97.56
497.529	90.56
497.746	90.56
497.963	86.56
498.181	97.56
498.398	89.56
498.615	101.56
498.832	95.56
499.049	96.56
499.267	81.56
499.484	78.56
499.701	94.56
499.918	88.56
500.135	81.56
500.352	95.56
500.569	80.56
500.786	89.56
501.003	82.56
501.22	88.56
501.437	95.56
501.654	101.56
501.871	107.56
502.088	81.56
502.305	83.56
502.522	97.56
502.739	77.56
502.956	78.56
503.172	89.56
503.389	99.56
503.606	104.56
503.823	92.56
504.04	87.56
504.256	102.56
504.473	83.56
504.69	83.56
504.907	103.56
505.123	82.56
505.34	89.56
505.557	87.56
505.773	69.56
505.99	84.56
506.207	87.56
506.423	93.56
506.64	79.56
506.856	90.56
507.073	93.56
507.289	82.56
507.506	102.56
507.722	127.56
507.939	87.56
508.155	90.56
508.372	79.56
508.588	88.56
508.805	87.56
509.021	103.56
509.238	94.56
509.454	103.56
509.67	93.56
509.887	96.56
510.103	124.56
510.319	191.56
510.536	691.56
510.752	2022.56
510.968	595.56
511.184	145.56
511.401	114.56
511.617	105.56
511.833	107.56
512.049	86.56
512.265	102.56
512.481	85.56
512.698	95.56
512.914	105.56
513.13	83.56
513.346	91.56
513.562	93.56
513.778	94.56
513.994	95.56
514.21	104.56
514.426	106.56
514.642	126.56
514.858	116.56
515.074	143.56
515.29	397.56
515.506	1254.56
515.721	472.56
515.937	135.56
516.153	100.56
516.369	95.56
516.585	100.56
