Data from Uncirc_2005_H10_HRD10591_00009.txt Node
Date: Wed Jan 03 10:28:26 EST 2024
User: Yrep
Spectrometer: HR+D1059
Trigger mode: 1
Integration Time (sec): 1.000000E-1
Scans to average: 1
Electric dark correction enabled: true
Nonlinearity correction enabled: false
Boxcar width: 0
XAxis mode: Wavelengths
Number of Pixels in Spectrum: 2048
>>>>>Begin Spectral Data<<<<<
223.165	-7.69
223.4	-7.69
223.635	-7.69
223.869	-13.69
224.104	-26.69
224.338	-15.69
224.573	-14.69
224.808	-22.69
225.042	-16.69
225.277	-3.69
225.511	7.31
225.746	4.31
225.98	12.31
226.215	10.31
226.449	6.31
226.683	9.31
226.918	32.31
227.152	39.31
227.387	21.31
227.621	56.31
227.856	45.31
228.09	40.31
228.324	45.31
228.559	48.31
228.793	49.31
229.027	63.31
229.262	50.31
229.496	74.31
229.73	82.31
229.964	96.31
230.199	72.31
230.433	78.31
230.667	79.31
230.901	82.31
231.136	83.31
231.37	89.31
231.604	79.31
231.838	78.31
232.072	78.31
232.306	68.31
232.541	79.31
232.775	78.31
233.009	86.31
233.243	91.31
233.477	76.31
233.711	71.31
233.945	93.31
234.179	80.31
234.413	71.31
234.647	96.31
234.881	65.31
235.115	65.31
235.349	80.31
235.583	86.31
235.817	78.31
236.051	79.31
236.285	61.31
236.519	68.31
236.753	90.31
236.987	87.31
237.221	84.31
237.455	79.31
237.689	69.31
237.922	80.31
238.156	81.31
238.39	72.31
238.624	71.31
238.858	79.31
239.091	77.31
239.325	75.31
239.559	80.31
239.793	77.31
240.027	70.31
240.26	76.31
240.494	63.31
240.728	86.31
240.961	78.31
241.195	89.31
241.429	82.31
241.662	77.31
241.896	80.31
242.13	75.31
242.363	82.31
242.597	86.31
242.83	97.31
243.064	78.31
243.298	80.31
243.531	72.31
243.765	72.31
243.998	79.31
244.232	72.31
244.465	83.31
244.699	74.31
244.932	62.31
245.166	76.31
245.399	87.31
245.633	75.31
245.866	87.31
246.099	82.31
246.333	83.31
246.566	73.31
246.8	84.31
247.033	93.31
247.266	86.31
247.5	94.31
247.733	83.31
247.966	87.31
248.2	81.31
248.433	95.31
248.666	106.31
248.899	83.31
249.133	72.31
249.366	90.31
249.599	94.31
249.832	84.31
250.066	86.31
250.299	85.31
250.532	76.31
250.765	75.31
250.998	85.31
251.231	86.31
251.465	87.31
251.698	72.31
251.931	83.31
252.164	74.31
252.397	81.31
252.63	80.31
252.863	70.31
253.096	81.31
253.329	72.31
253.562	93.31
253.795	78.31
254.028	85.31
254.261	89.31
254.494	90.31
254.727	89.31
254.96	69.31
255.193	82.31
255.426	87.31
255.659	71.31
255.892	87.31
256.124	79.31
256.357	79.31
256.59	83.31
256.823	79.31
257.056	74.31
257.289	75.31
257.521	89.31
257.754	86.31
257.987	74.31
258.22	78.31
258.452	94.31
258.685	77.31
258.918	89.31
259.151	83.31
259.383	87.31
259.616	93.31
259.849	72.31
260.081	92.31
260.314	91.31
260.547	69.31
260.779	83.31
261.012	93.31
261.244	69.31
261.477	97.31
261.71	96.31
261.942	102.31
262.175	108.31
262.407	98.31
262.64	84.31
262.872	93.31
263.105	67.31
263.337	95.31
263.57	95.31
263.802	82.31
264.035	95.31
264.267	92.31
264.499	88.31
264.732	90.31
264.964	88.31
265.197	86.31
265.429	84.31
265.661	69.31
265.894	78.31
266.126	88.31
266.358	77.31
266.591	89.31
266.823	85.31
267.055	93.31
267.287	78.31
267.52	76.31
267.752	82.31
267.984	81.31
268.216	90.31
268.448	101.31
268.681	90.31
268.913	94.31
269.145	82.31
269.377	85.31
269.609	92.31
269.841	76.31
270.073	96.31
270.306	90.31
270.538	95.31
270.77	89.31
271.002	85.31
271.234	95.31
271.466	85.31
271.698	101.31
271.93	83.31
272.162	80.31
272.394	87.31
272.626	85.31
272.858	88.31
273.09	98.31
273.322	93.31
273.553	84.31
273.785	88.31
274.017	90.31
274.249	95.31
274.481	90.31
274.713	82.31
274.945	90.31
275.176	94.31
275.408	96.31
275.64	81.31
275.872	74.31
276.104	94.31
276.335	92.31
276.567	89.31
276.799	86.31
277.031	102.31
277.262	88.31
277.494	89.31
277.726	81.31
277.957	77.31
278.189	86.31
278.421	84.31
278.652	74.31
278.884	94.31
279.115	80.31
279.347	85.31
279.579	85.31
279.81	86.31
280.042	95.31
280.273	86.31
280.505	96.31
280.736	86.31
280.968	83.31
281.199	95.31
281.431	98.31
281.662	82.31
281.894	90.31
282.125	100.31
282.356	108.31
282.588	137.31
282.819	103.31
283.051	93.31
283.282	84.31
283.513	86.31
283.745	82.31
283.976	103.31
284.207	87.31
284.439	97.31
284.67	90.31
284.901	84.31
285.132	74.31
285.364	82.31
285.595	76.31
285.826	88.31
286.057	88.31
286.288	95.31
286.52	94.31
286.751	93.31
286.982	83.31
287.213	96.31
287.444	88.31
287.675	94.31
287.906	88.31
288.138	82.31
288.369	98.31
288.6	97.31
288.831	96.31
289.062	88.31
289.293	96.31
289.524	84.31
289.755	83.31
289.986	82.31
290.217	105.31
290.448	107.31
290.679	81.31
290.91	82.31
291.141	84.31
291.371	86.31
291.602	76.31
291.833	83.31
292.064	89.31
292.295	98.31
292.526	104.31
292.757	98.31
292.987	93.31
293.218	86.31
293.449	97.31
293.68	89.31
293.91	83.31
294.141	95.31
294.372	98.31
294.603	88.31
294.833	83.31
295.064	91.31
295.295	82.31
295.525	95.31
295.756	92.31
295.987	114.31
296.217	130.31
296.448	117.31
296.679	91.31
296.909	83.31
297.14	98.31
297.37	77.31
297.601	88.31
297.831	92.31
298.062	92.31
298.292	95.31
298.523	90.31
298.753	87.31
298.984	94.31
299.214	100.31
299.445	87.31
299.675	93.31
299.905	94.31
300.136	89.31
300.366	90.31
300.597	95.31
300.827	101.31
301.057	115.31
301.288	97.31
301.518	100.31
301.748	80.31
301.979	96.31
302.209	87.31
302.439	90.31
302.669	79.31
302.9	87.31
303.13	99.31
303.36	84.31
303.59	92.31
303.82	107.31
304.051	94.31
304.281	94.31
304.511	100.31
304.741	93.31
304.971	91.31
305.201	94.31
305.431	81.31
305.661	96.31
305.891	98.31
306.121	95.31
306.352	99.31
306.582	95.31
306.812	101.31
307.042	84.31
307.272	85.31
307.502	86.31
307.731	109.31
307.961	90.31
308.191	94.31
308.421	87.31
308.651	103.31
308.881	96.31
309.111	81.31
309.341	90.31
309.571	97.31
309.8	84.31
310.03	95.31
310.26	88.31
310.49	87.31
310.72	106.31
310.949	109.31
311.179	92.31
311.409	93.31
311.639	88.31
311.868	97.31
312.098	94.31
312.328	100.31
312.557	115.31
312.787	103.31
313.017	96.31
313.246	90.31
313.476	101.31
313.706	96.31
313.935	94.31
314.165	104.31
314.394	108.31
314.624	93.31
314.853	104.31
315.083	92.31
315.312	90.31
315.542	95.31
315.771	100.31
316.001	85.31
316.23	104.31
316.46	72.31
316.689	101.31
316.919	101.31
317.148	97.31
317.377	94.31
317.607	101.31
317.836	95.31
318.065	90.31
318.295	96.31
318.524	87.31
318.753	91.31
318.983	107.31
319.212	109.31
319.441	113.31
319.67	104.31
319.9	98.31
320.129	97.31
320.358	97.31
320.587	107.31
320.816	108.31
321.046	100.31
321.275	88.31
321.504	100.31
321.733	94.31
321.962	105.31
322.191	97.31
322.42	112.31
322.649	111.31
322.878	109.31
323.108	113.31
323.337	125.31
323.566	144.31
323.795	149.31
324.024	213.31
324.253	367.31
324.482	791.31
324.71	1694.31
324.939	2262.31
325.168	808.31
325.397	238.31
325.626	149.31
325.855	128.31
326.084	138.31
326.313	133.31
326.542	143.31
326.77	224.31
326.999	450.31
327.228	962.31
327.457	1736.31
327.686	1428.31
327.914	371.31
328.143	188.31
328.372	142.31
328.6	122.31
328.829	113.31
329.058	107.31
329.287	115.31
329.515	103.31
329.744	94.31
329.972	107.31
330.201	95.31
330.43	111.31
330.658	119.31
330.887	125.31
331.115	105.31
331.344	96.31
331.572	98.31
331.801	109.31
332.03	107.31
332.258	111.31
332.486	96.31
332.715	94.31
332.943	100.31
333.172	112.31
333.4	88.31
333.629	120.31
333.857	108.31
334.085	95.31
334.314	104.31
334.542	82.31
334.771	112.31
334.999	85.31
335.227	83.31
335.455	97.31
335.684	97.31
335.912	91.31
336.14	101.31
336.369	108.31
336.597	99.31
336.825	99.31
337.053	92.31
337.281	89.31
337.51	89.31
337.738	98.31
337.966	109.31
338.194	109.31
338.422	115.31
338.65	92.31
338.878	94.31
339.106	83.31
339.334	86.31
339.562	91.31
339.79	92.31
340.018	94.31
340.246	96.31
340.474	98.31
340.702	88.31
340.93	97.31
341.158	97.31
341.386	94.31
341.614	96.31
341.842	107.31
342.07	99.31
342.298	93.31
342.526	91.31
342.754	81.31
342.981	79.31
343.209	89.31
343.437	112.31
343.665	91.31
343.893	95.31
344.12	105.31
344.348	101.31
344.576	94.31
344.804	95.31
345.031	108.31
345.259	96.31
345.487	92.31
345.714	104.31
345.942	104.31
346.17	92.31
346.397	97.31
346.625	113.31
346.853	90.31
347.08	91.31
347.308	101.31
347.535	102.31
347.763	105.31
347.99	90.31
348.218	98.31
348.445	96.31
348.673	107.31
348.9	104.31
349.128	107.31
349.355	98.31
349.583	93.31
349.81	100.31
350.037	94.31
350.265	100.31
350.492	88.31
350.72	92.31
350.947	95.31
351.174	124.31
351.402	99.31
351.629	101.31
351.856	101.31
352.083	105.31
352.311	103.31
352.538	108.31
352.765	102.31
352.992	107.31
353.22	90.31
353.447	109.31
353.674	104.31
353.901	104.31
354.128	108.31
354.355	108.31
354.583	94.31
354.81	94.31
355.037	111.31
355.264	102.31
355.491	87.31
355.718	103.31
355.945	85.31
356.172	106.31
356.399	105.31
356.626	101.31
356.853	100.31
357.08	94.31
357.307	110.31
357.534	88.31
357.761	113.31
357.988	100.31
358.215	104.31
358.441	95.31
358.668	78.31
358.895	82.31
359.122	91.31
359.349	86.31
359.576	88.31
359.802	95.31
360.029	104.31
360.256	133.31
360.483	94.31
360.709	85.31
360.936	94.31
361.163	89.31
361.39	101.31
361.616	77.31
361.843	105.31
362.07	94.31
362.296	94.31
362.523	96.31
362.749	84.31
362.976	97.31
363.203	85.31
363.429	90.31
363.656	87.31
363.882	87.31
364.109	80.31
364.335	98.31
364.562	82.31
364.788	81.31
365.015	97.31
365.241	93.31
365.468	117.31
365.694	102.31
365.92	94.31
366.147	97.31
366.373	100.31
366.599	80.31
366.826	93.31
367.052	87.31
367.278	102.31
367.505	102.31
367.731	102.31
367.957	102.31
368.184	103.31
368.41	94.31
368.636	103.31
368.862	88.31
369.089	110.31
369.315	96.31
369.541	96.31
369.767	93.31
369.993	88.31
370.219	92.31
370.445	97.31
370.672	88.31
370.898	83.31
371.124	93.31
371.35	96.31
371.576	92.31
371.802	87.31
372.028	87.31
372.254	84.31
372.48	87.31
372.706	86.31
372.932	85.31
373.158	96.31
373.384	96.31
373.61	102.31
373.835	91.31
374.061	95.31
374.287	106.31
374.513	93.31
374.739	87.31
374.965	90.31
375.191	100.31
375.416	91.31
375.642	95.31
375.868	87.31
376.094	92.31
376.319	85.31
376.545	94.31
376.771	92.31
376.997	91.31
377.222	98.31
377.448	81.31
377.674	117.31
377.899	92.31
378.125	96.31
378.35	102.31
378.576	98.31
378.802	96.31
379.027	96.31
379.253	109.31
379.478	90.31
379.704	95.31
379.929	99.31
380.155	87.31
380.38	97.31
380.606	94.31
380.831	102.31
381.057	109.31
381.282	109.31
381.507	109.31
381.733	117.31
381.958	107.31
382.184	106.31
382.409	116.31
382.634	108.31
382.86	92.31
383.085	114.31
383.31	109.31
383.535	96.31
383.761	109.31
383.986	92.31
384.211	116.31
384.436	105.31
384.662	104.31
384.887	116.31
385.112	109.31
385.337	125.31
385.562	125.31
385.787	117.31
386.013	126.31
386.238	118.31
386.463	114.31
386.688	113.31
386.913	130.31
387.138	118.31
387.363	111.31
387.588	107.31
387.813	103.31
388.038	116.31
388.263	143.31
388.488	104.31
388.713	128.31
388.938	103.31
389.163	111.31
389.387	106.31
389.612	86.31
389.837	87.31
390.062	92.31
390.287	100.31
390.512	85.31
390.736	86.31
390.961	84.31
391.186	95.31
391.411	101.31
391.636	98.31
391.86	78.31
392.085	97.31
392.31	92.31
392.534	78.31
392.759	93.31
392.984	88.31
393.208	92.31
393.433	101.31
393.658	87.31
393.882	90.31
394.107	77.31
394.331	85.31
394.556	95.31
394.78	78.31
395.005	87.31
395.229	87.31
395.454	94.31
395.678	88.31
395.903	72.31
396.127	108.31
396.352	99.31
396.576	95.31
396.801	90.31
397.025	95.31
397.249	73.31
397.474	79.31
397.698	93.31
397.922	76.31
398.147	84.31
398.371	109.31
398.595	84.31
398.82	90.31
399.044	100.31
399.268	90.31
399.492	95.31
399.717	97.31
399.941	88.31
400.165	90.31
400.389	92.31
400.613	74.31
400.837	84.31
401.062	90.31
401.286	88.31
401.51	102.31
401.734	94.31
401.958	97.31
402.182	114.31
402.406	141.31
402.63	114.31
402.854	89.31
403.078	85.31
403.302	85.31
403.526	82.31
403.75	78.31
403.974	78.31
404.198	84.31
404.422	100.31
404.645	102.31
404.869	86.31
405.093	93.31
405.317	111.31
405.541	108.31
405.765	106.31
405.988	119.31
406.212	143.31
406.436	190.31
406.66	142.31
406.883	103.31
407.107	90.31
407.331	108.31
407.555	113.31
407.778	98.31
408.002	93.31
408.226	104.31
408.449	90.31
408.673	97.31
408.896	88.31
409.12	96.31
409.344	85.31
409.567	85.31
409.791	96.31
410.014	98.31
410.238	92.31
410.461	100.31
410.685	93.31
410.908	113.31
411.132	110.31
411.355	108.31
411.578	97.31
411.802	94.31
412.025	102.31
412.249	99.31
412.472	114.31
412.695	96.31
412.919	96.31
413.142	87.31
413.365	95.31
413.589	97.31
413.812	88.31
414.035	105.31
414.258	105.31
414.482	97.31
414.705	82.31
414.928	100.31
415.151	87.31
415.374	100.31
415.597	96.31
415.821	94.31
416.044	95.31
416.267	83.31
416.49	99.31
416.713	89.31
416.936	104.31
417.159	92.31
417.382	93.31
417.605	99.31
417.828	96.31
418.051	104.31
418.274	100.31
418.497	88.31
418.72	91.31
418.943	96.31
419.166	91.31
419.389	86.31
419.611	87.31
419.834	89.31
420.057	93.31
420.28	96.31
420.503	98.31
420.726	98.31
420.948	97.31
421.171	99.31
421.394	91.31
421.617	75.31
421.839	96.31
422.062	93.31
422.285	110.31
422.507	91.31
422.73	112.31
422.953	94.31
423.175	89.31
423.398	94.31
423.621	98.31
423.843	80.31
424.066	96.31
424.288	92.31
424.511	85.31
424.733	96.31
424.956	118.31
425.178	104.31
425.401	102.31
425.623	95.31
425.846	100.31
426.068	95.31
426.291	90.31
426.513	86.31
426.735	89.31
426.958	105.31
427.18	97.31
427.402	134.31
427.625	183.31
427.847	120.31
428.069	104.31
428.292	85.31
428.514	96.31
428.736	81.31
428.958	95.31
429.181	94.31
429.403	89.31
429.625	100.31
429.847	103.31
430.069	109.31
430.292	84.31
430.514	92.31
430.736	82.31
430.958	69.31
431.18	81.31
431.402	95.31
431.624	97.31
431.846	83.31
432.068	96.31
432.29	93.31
432.512	100.31
432.734	87.31
432.956	95.31
433.178	94.31
433.4	103.31
433.622	78.31
433.844	84.31
434.066	104.31
434.287	85.31
434.509	89.31
434.731	98.31
434.953	79.31
435.175	99.31
435.397	112.31
435.618	78.31
435.84	99.31
436.062	113.31
436.284	112.31
436.505	97.31
436.727	105.31
436.949	101.31
437.17	95.31
437.392	79.31
437.614	109.31
437.835	116.31
438.057	117.31
438.278	106.31
438.5	113.31
438.721	123.31
438.943	104.31
439.165	98.31
439.386	88.31
439.608	91.31
439.829	106.31
440.05	116.31
440.272	154.31
440.493	97.31
440.715	86.31
440.936	98.31
441.158	90.31
441.379	88.31
441.6	79.31
441.822	90.31
442.043	105.31
442.264	107.31
442.486	101.31
442.707	95.31
442.928	98.31
443.149	146.31
443.371	115.31
443.592	110.31
443.813	108.31
444.034	101.31
444.255	93.31
444.476	93.31
444.698	82.31
444.919	80.31
445.14	118.31
445.361	134.31
445.582	125.31
445.803	124.31
446.024	153.31
446.245	142.31
446.466	114.31
446.687	99.31
446.908	98.31
447.129	88.31
447.35	94.31
447.571	95.31
447.792	84.31
448.013	100.31
448.234	96.31
448.455	93.31
448.675	107.31
448.896	119.31
449.117	94.31
449.338	97.31
449.559	113.31
449.779	138.31
450	105.31
450.221	75.31
450.442	84.31
450.662	95.31
450.883	97.31
451.104	103.31
451.324	94.31
451.545	104.31
451.766	98.31
451.986	83.31
452.207	103.31
452.428	101.31
452.648	99.31
452.869	111.31
453.089	119.31
453.31	102.31
453.53	84.31
453.751	79.31
453.971	96.31
454.192	110.31
454.412	97.31
454.633	80.31
454.853	99.31
455.073	92.31
455.294	90.31
455.514	101.31
455.734	88.31
455.955	87.31
456.175	98.31
456.395	85.31
456.616	77.31
456.836	89.31
457.056	89.31
457.276	86.31
457.497	82.31
457.717	88.31
457.937	87.31
458.157	87.31
458.377	95.31
458.598	105.31
458.818	141.31
459.038	157.31
459.258	110.31
459.478	81.31
459.698	86.31
459.918	100.31
460.138	89.31
460.358	81.31
460.578	78.31
460.798	104.31
461.018	106.31
461.238	76.31
461.458	90.31
461.678	84.31
461.898	83.31
462.118	98.31
462.338	80.31
462.558	90.31
462.777	83.31
462.997	86.31
463.217	81.31
463.437	82.31
463.657	85.31
463.876	84.31
464.096	87.31
464.316	91.31
464.536	90.31
464.755	89.31
464.975	113.31
465.195	149.31
465.414	145.31
465.634	97.31
465.854	84.31
466.073	94.31
466.293	97.31
466.512	77.31
466.732	80.31
466.951	86.31
467.171	89.31
467.391	97.31
467.61	100.31
467.829	102.31
468.049	101.31
468.268	94.31
468.488	104.31
468.707	81.31
468.927	81.31
469.146	86.31
469.365	95.31
469.585	99.31
469.804	97.31
470.023	100.31
470.243	95.31
470.462	97.31
470.681	98.31
470.901	90.31
471.12	70.31
471.339	92.31
471.558	94.31
471.777	93.31
471.997	80.31
472.216	101.31
472.435	95.31
472.654	87.31
472.873	97.31
473.092	91.31
473.311	92.31
473.53	90.31
473.749	98.31
473.968	89.31
474.187	97.31
474.406	90.31
474.625	83.31
474.844	88.31
475.063	94.31
475.282	84.31
475.501	83.31
475.72	86.31
475.939	88.31
476.158	78.31
476.377	84.31
476.596	85.31
476.814	77.31
477.033	93.31
477.252	94.31
477.471	92.31
477.69	85.31
477.908	86.31
478.127	87.31
478.346	87.31
478.564	88.31
478.783	77.31
479.002	98.31
479.22	105.31
479.439	102.31
479.658	110.31
479.876	91.31
480.095	87.31
480.313	94.31
480.532	89.31
480.751	93.31
480.969	81.31
481.188	117.31
481.406	101.31
481.624	85.31
481.843	80.31
482.061	88.31
482.28	90.31
482.498	82.31
482.717	88.31
482.935	81.31
483.153	92.31
483.372	99.31
483.59	100.31
483.808	87.31
484.027	76.31
484.245	82.31
484.463	88.31
484.681	97.31
484.9	98.31
485.118	89.31
485.336	104.31
485.554	114.31
485.772	102.31
485.99	95.31
486.209	99.31
486.427	103.31
486.645	112.31
486.863	116.31
487.081	93.31
487.299	90.31
487.517	99.31
487.735	82.31
487.953	85.31
488.171	95.31
488.389	97.31
488.607	97.31
488.825	89.31
489.043	95.31
489.261	99.31
489.479	90.31
489.696	98.31
489.914	85.31
490.132	82.31
490.35	89.31
490.568	87.31
490.786	91.31
491.003	104.31
491.221	104.31
491.439	95.31
491.657	92.31
491.874	90.31
492.092	103.31
492.31	114.31
492.527	90.31
492.745	85.31
492.963	81.31
493.18	98.31
493.398	101.31
493.615	112.31
493.833	92.31
494.05	91.31
494.268	90.31
494.485	102.31
494.703	104.31
494.92	85.31
495.138	95.31
495.355	93.31
495.573	89.31
495.79	98.31
496.008	102.31
496.225	94.31
496.442	98.31
496.66	85.31
496.877	83.31
497.094	91.31
497.312	87.31
497.529	91.31
497.746	79.31
497.963	90.31
498.181	79.31
498.398	104.31
498.615	117.31
498.832	123.31
499.049	90.31
499.267	85.31
499.484	98.31
499.701	103.31
499.918	101.31
500.135	85.31
500.352	93.31
500.569	75.31
500.786	84.31
501.003	92.31
501.22	101.31
501.437	88.31
501.654	96.31
501.871	114.31
502.088	96.31
502.305	98.31
502.522	96.31
502.739	95.31
502.956	95.31
503.172	95.31
503.389	88.31
503.606	109.31
503.823	101.31
504.04	87.31
504.256	98.31
504.473	98.31
504.69	89.31
504.907	96.31
505.123	97.31
505.34	94.31
505.557	81.31
505.773	92.31
505.99	90.31
506.207	89.31
506.423	89.31
506.64	94.31
506.856	77.31
507.073	84.31
507.289	80.31
507.506	103.31
507.722	114.31
507.939	119.31
508.155	104.31
508.372	97.31
508.588	86.31
508.805	101.31
509.021	87.31
509.238	98.31
509.454	87.31
509.67	115.31
509.887	101.31
510.103	129.31
510.319	193.31
510.536	612.31
510.752	1948.31
510.968	593.31
511.184	150.31
511.401	111.31
511.617	102.31
511.833	99.31
512.049	80.31
512.265	100.31
512.481	92.31
512.698	73.31
512.914	89.31
513.13	106.31
513.346	92.31
513.562	97.31
513.778	106.31
513.994	109.31
514.21	99.31
514.426	119.31
514.642	142.31
514.858	124.31
