Data from Circ_1986_H10_HRD10591_00047.txt Node
Date: Wed Jan 03 12:15:35 EST 2024
User: Yrep
Spectrometer: HR+D1059
Trigger mode: 1
Integration Time (sec): 1.000000E-1
Scans to average: 1
Electric dark correction enabled: true
Nonlinearity correction enabled: false
Boxcar width: 0
XAxis mode: Wavelengths
Number of Pixels in Spectrum: 2048
>>>>>Begin Spectral Data<<<<<
223.165	-11
223.4	-11
223.635	-11
223.869	-12
224.104	-14
224.338	2
224.573	-13
224.808	-23
225.042	-22
225.277	-8
225.511	-10
225.746	-8
225.98	10
226.215	14
226.449	21
226.683	24
226.918	24
227.152	26
227.387	33
227.621	41
227.856	69
228.09	60
228.324	67
228.559	58
228.793	67
229.027	50
229.262	54
229.496	71
229.73	67
229.964	82
230.199	70
230.433	84
230.667	82
230.901	67
231.136	87
231.37	68
231.604	77
231.838	73
232.072	79
232.306	89
232.541	96
232.775	89
233.009	88
233.243	69
233.477	93
233.711	88
233.945	92
234.179	85
234.413	86
234.647	81
234.881	85
235.115	84
235.349	93
235.583	71
235.817	74
236.051	73
236.285	72
236.519	72
236.753	86
236.987	82
237.221	87
237.455	81
237.689	64
237.922	80
238.156	78
238.39	77
238.624	80
238.858	78
239.091	77
239.325	72
239.559	73
239.793	73
240.027	86
240.26	64
240.494	80
240.728	65
240.961	88
241.195	78
241.429	68
241.662	84
241.896	73
242.13	90
242.363	82
242.597	76
242.83	80
243.064	63
243.298	89
243.531	81
243.765	75
243.998	78
244.232	81
244.465	72
244.699	73
244.932	90
245.166	87
245.399	74
245.633	83
245.866	78
246.099	73
246.333	82
246.566	78
246.8	94
247.033	73
247.266	58
247.5	80
247.733	74
247.966	82
248.2	80
248.433	73
248.666	88
248.899	74
249.133	78
249.366	89
249.599	90
249.832	88
250.066	78
250.299	66
250.532	86
250.765	88
250.998	83
251.231	73
251.465	81
251.698	81
251.931	82
252.164	78
252.397	82
252.63	85
252.863	75
253.096	82
253.329	80
253.562	82
253.795	84
254.028	86
254.261	77
254.494	96
254.727	88
254.96	84
255.193	91
255.426	78
255.659	90
255.892	56
256.124	75
256.357	71
256.59	90
256.823	84
257.056	87
257.289	84
257.521	77
257.754	89
257.987	74
258.22	92
258.452	90
258.685	77
258.918	85
259.151	96
259.383	96
259.616	81
259.849	78
260.081	90
260.314	90
260.547	84
260.779	85
261.012	69
261.244	91
261.477	97
261.71	102
261.942	100
262.175	96
262.407	85
262.64	84
262.872	88
263.105	74
263.337	80
263.57	91
263.802	76
264.035	92
264.267	100
264.499	77
264.732	105
264.964	92
265.197	85
265.429	84
265.661	84
265.894	82
266.126	78
266.358	79
266.591	71
266.823	67
267.055	91
267.287	84
267.52	99
267.752	88
267.984	72
268.216	82
268.448	87
268.681	98
268.913	82
269.145	90
269.377	93
269.609	84
269.841	97
270.073	80
270.306	78
270.538	78
270.77	95
271.002	74
271.234	76
271.466	88
271.698	83
271.93	81
272.162	86
272.394	85
272.626	94
272.858	89
273.09	81
273.322	93
273.553	100
273.785	87
274.017	83
274.249	68
274.481	68
274.713	77
274.945	90
275.176	90
275.408	88
275.64	82
275.872	82
276.104	84
276.335	83
276.567	88
276.799	96
277.031	93
277.262	92
277.494	89
277.726	81
277.957	100
278.189	76
278.421	84
278.652	78
278.884	86
279.115	77
279.347	83
279.579	78
279.81	86
280.042	97
280.273	94
280.505	97
280.736	106
280.968	92
281.199	100
281.431	88
281.662	85
281.894	103
282.125	90
282.356	119
282.588	118
282.819	104
283.051	90
283.282	82
283.513	79
283.745	97
283.976	91
284.207	90
284.439	78
284.67	84
284.901	81
285.132	98
285.364	97
285.595	96
285.826	96
286.057	84
286.288	100
286.52	92
286.751	87
286.982	80
287.213	80
287.444	94
287.675	77
287.906	88
288.138	89
288.369	92
288.6	87
288.831	87
289.062	89
289.293	87
289.524	83
289.755	84
289.986	93
290.217	96
290.448	93
290.679	84
290.91	92
291.141	90
291.371	95
291.602	89
291.833	96
292.064	99
292.295	101
292.526	99
292.757	92
292.987	76
293.218	91
293.449	93
293.68	86
293.91	85
294.141	92
294.372	88
294.603	90
294.833	95
295.064	77
295.295	78
295.525	87
295.756	96
295.987	103
296.217	127
296.448	112
296.679	76
296.909	79
297.14	90
297.37	86
297.601	82
297.831	94
298.062	92
298.292	96
298.523	80
298.753	87
298.984	82
299.214	87
299.445	90
299.675	98
299.905	94
300.136	99
300.366	84
300.597	95
300.827	97
301.057	94
301.288	95
301.518	103
301.748	98
301.979	97
302.209	89
302.439	97
302.669	90
302.9	77
303.13	89
303.36	100
303.59	103
303.82	115
304.051	99
304.281	88
304.511	93
304.741	85
304.971	96
305.201	84
305.431	92
305.661	114
305.891	93
306.121	91
306.352	90
306.582	97
306.812	96
307.042	92
307.272	91
307.502	87
307.731	97
307.961	85
308.191	85
308.421	97
308.651	94
308.881	92
309.111	87
309.341	93
309.571	98
309.8	91
310.03	96
310.26	97
310.49	98
310.72	91
310.949	96
311.179	87
311.409	95
311.639	90
311.868	100
312.098	94
312.328	100
312.557	101
312.787	90
313.017	106
313.246	86
313.476	96
313.706	100
313.935	91
314.165	100
314.394	110
314.624	110
314.853	81
315.083	105
315.312	90
315.542	100
315.771	89
316.001	85
316.23	74
316.46	100
316.689	98
316.919	84
317.148	105
317.377	92
317.607	105
317.836	83
318.065	98
318.295	90
318.524	84
318.753	97
318.983	93
319.212	92
319.441	97
319.67	99
319.9	99
320.129	97
320.358	86
320.587	86
320.816	95
321.046	92
321.275	90
321.504	98
321.733	89
321.962	96
322.191	103
322.42	101
322.649	108
322.878	101
323.108	100
323.337	115
323.566	105
323.795	132
324.024	165
324.253	312
324.482	602
324.71	1176
324.939	1555
325.168	589
325.397	205
325.626	138
325.855	116
326.084	115
326.313	130
326.542	154
326.77	194
326.999	339
327.228	704
327.457	1240
327.686	996
327.914	294
328.143	169
328.372	150
328.6	118
328.829	110
329.058	126
329.287	102
329.515	103
329.744	114
329.972	116
330.201	135
330.43	153
330.658	120
330.887	124
331.115	119
331.344	97
331.572	114
331.801	111
332.03	93
332.258	101
332.486	93
332.715	78
332.943	92
333.172	88
333.4	110
333.629	101
333.857	119
334.085	113
334.314	125
334.542	176
334.771	164
334.999	114
335.227	100
335.455	87
335.684	87
335.912	88
336.14	106
336.369	100
336.597	98
336.825	108
337.053	80
337.281	86
337.51	88
337.738	99
337.966	91
338.194	97
338.422	101
338.65	87
338.878	89
339.106	92
339.334	88
339.562	86
339.79	97
340.018	93
340.246	110
340.474	99
340.702	108
340.93	80
341.158	94
341.386	88
341.614	92
341.842	96
342.07	97
342.298	94
342.526	95
342.754	98
342.981	93
343.209	83
343.437	107
343.665	80
343.893	82
344.12	89
344.348	89
344.576	92
344.804	86
345.031	92
345.259	102
345.487	91
345.714	105
345.942	90
346.17	103
346.397	92
346.625	92
346.853	89
347.08	84
347.308	95
347.535	99
347.763	110
347.99	73
348.218	85
348.445	94
348.673	93
348.9	101
349.128	96
349.355	100
349.583	90
349.81	107
350.037	94
350.265	104
350.492	100
350.72	96
350.947	92
351.174	122
351.402	112
351.629	82
351.856	93
352.083	118
352.311	105
352.538	103
352.765	115
352.992	102
353.22	98
353.447	99
353.674	104
353.901	98
354.128	100
354.355	102
354.583	92
354.81	80
355.037	88
355.264	92
355.491	93
355.718	103
355.945	91
356.172	84
356.399	99
356.626	99
356.853	104
357.08	105
357.307	86
357.534	106
357.761	89
357.988	108
358.215	103
358.441	92
358.668	97
358.895	91
359.122	81
359.349	84
359.576	89
359.802	82
360.029	92
360.256	103
360.483	93
360.709	93
360.936	83
361.163	96
361.39	93
361.616	89
361.843	93
362.07	97
362.296	91
362.523	97
362.749	77
362.976	98
363.203	100
363.429	88
363.656	112
363.882	75
364.109	93
364.335	89
364.562	83
364.788	94
365.015	114
365.241	102
365.468	107
365.694	105
365.92	94
366.147	90
366.373	89
366.599	93
366.826	93
367.052	97
367.278	98
367.505	97
367.731	89
367.957	98
368.184	95
368.41	102
368.636	107
368.862	100
369.089	102
369.315	104
369.541	88
369.767	100
369.993	100
370.219	91
370.445	98
370.672	85
370.898	80
371.124	86
371.35	78
371.576	95
371.802	87
372.028	85
372.254	75
372.48	91
372.706	92
372.932	69
373.158	97
373.384	80
373.61	89
373.835	93
374.061	88
374.287	80
374.513	82
374.739	87
374.965	106
375.191	89
375.416	96
375.642	84
375.868	100
376.094	90
376.319	93
376.545	87
376.771	88
376.997	76
377.222	94
377.448	99
377.674	100
377.899	97
378.125	105
378.35	110
378.576	98
378.802	100
379.027	75
379.253	81
379.478	81
379.704	99
379.929	100
380.155	102
380.38	98
380.606	107
380.831	104
381.057	93
381.282	102
381.507	101
381.733	103
381.958	117
382.184	108
382.409	92
382.634	99
382.86	92
383.085	94
383.31	101
383.535	112
383.761	97
383.986	90
384.211	101
384.436	104
384.662	113
384.887	106
385.112	118
385.337	113
385.562	100
385.787	108
386.013	128
386.238	120
386.463	100
386.688	102
386.913	99
387.138	98
387.363	112
387.588	107
387.813	100
388.038	108
388.263	109
388.488	121
388.713	96
388.938	108
389.163	81
389.387	92
389.612	99
389.837	84
390.062	106
390.287	84
390.512	93
390.736	86
390.961	93
391.186	86
391.411	98
391.636	86
391.86	95
392.085	92
392.31	97
392.534	85
392.759	96
392.984	78
393.208	92
393.433	80
393.658	92
393.882	92
394.107	95
394.331	94
394.556	80
394.78	80
395.005	94
395.229	86
395.454	88
395.678	80
395.903	94
396.127	90
396.352	98
396.576	95
396.801	90
397.025	102
397.249	75
397.474	79
397.698	73
397.922	95
398.147	83
398.371	91
398.595	93
398.82	86
399.044	77
399.268	80
399.492	93
399.717	89
399.941	85
400.165	99
400.389	102
400.613	93
400.837	80
401.062	77
401.286	82
401.51	82
401.734	87
401.958	109
402.182	128
402.406	138
402.63	98
402.854	104
403.078	109
403.302	97
403.526	76
403.75	87
403.974	97
404.198	91
404.422	72
404.645	87
404.869	98
405.093	109
405.317	109
405.541	100
405.765	86
405.988	111
406.212	160
406.436	184
406.66	125
406.883	96
407.107	92
407.331	90
407.555	94
407.778	107
408.002	90
408.226	98
408.449	91
408.673	98
408.896	80
409.12	86
409.344	77
409.567	92
409.791	94
410.014	98
410.238	97
410.461	86
410.685	100
410.908	99
411.132	128
411.355	93
411.578	94
411.802	93
412.025	92
412.249	97
412.472	92
412.695	107
412.919	90
413.142	83
413.365	82
413.589	97
413.812	85
414.035	106
414.258	91
414.482	95
414.705	87
414.928	94
415.151	89
415.374	93
415.597	101
415.821	94
416.044	98
416.267	94
416.49	75
416.713	100
416.936	102
417.159	91
417.382	87
417.605	88
417.828	98
418.051	95
418.274	88
418.497	72
418.72	88
418.943	100
419.166	95
419.389	85
419.611	94
419.834	98
420.057	92
420.28	96
420.503	90
420.726	81
420.948	89
421.171	90
421.394	96
421.617	92
421.839	104
422.062	84
422.285	88
422.507	92
422.73	94
422.953	91
423.175	100
423.398	96
423.621	93
423.843	93
424.066	89
424.288	87
424.511	96
424.733	89
424.956	105
425.178	93
425.401	84
425.623	113
425.846	102
426.068	95
426.291	84
426.513	85
426.735	97
426.958	80
427.18	122
427.402	110
427.625	131
427.847	129
428.069	105
428.292	96
428.514	84
428.736	93
428.958	96
429.181	84
429.403	80
429.625	73
429.847	94
430.069	106
430.292	76
430.514	99
430.736	87
430.958	95
431.18	83
431.402	93
431.624	90
431.846	99
432.068	101
432.29	90
432.512	104
432.734	96
432.956	91
433.178	99
433.4	86
433.622	72
433.844	74
434.066	94
434.287	74
434.509	96
434.731	93
434.953	85
435.175	94
435.397	93
435.618	86
435.84	99
436.062	113
436.284	96
436.505	94
436.727	104
436.949	85
437.17	73
437.392	93
437.614	94
437.835	108
438.057	95
438.278	84
438.5	100
438.721	108
438.943	105
439.165	86
439.386	80
439.608	84
439.829	114
440.05	111
440.272	142
440.493	98
440.715	88
440.936	77
441.158	111
441.379	83
441.6	115
441.822	88
442.043	88
442.264	88
442.486	96
442.707	88
442.928	103
443.149	123
443.371	118
443.592	96
443.813	106
444.034	97
444.255	85
444.476	84
444.698	95
444.919	85
445.14	118
445.361	125
445.582	121
445.803	123
446.024	104
446.245	107
446.466	92
446.687	97
446.908	100
447.129	92
447.35	85
447.571	90
447.792	94
448.013	97
448.234	107
448.455	93
448.675	126
448.896	109
449.117	102
449.338	113
449.559	119
449.779	113
450	85
450.221	88
450.442	88
450.662	91
450.883	96
451.104	91
451.324	91
451.545	88
451.766	97
451.986	105
452.207	93
452.428	91
452.648	99
452.869	105
453.089	109
453.31	105
453.53	90
453.751	85
453.971	104
454.192	100
454.412	94
454.633	84
454.853	89
455.073	78
455.294	94
455.514	91
455.734	85
455.955	95
456.175	91
456.395	89
456.616	85
456.836	90
457.056	77
457.276	93
457.497	72
457.717	94
457.937	83
458.157	92
458.377	87
458.598	98
458.818	130
459.038	132
459.258	98
459.478	65
459.698	74
459.918	79
460.138	89
460.358	87
460.578	98
460.798	86
461.018	95
461.238	85
461.458	88
461.678	73
461.898	83
462.118	92
462.338	91
462.558	72
462.777	96
462.997	89
463.217	83
463.437	75
463.657	84
463.876	100
464.096	98
464.316	75
464.536	81
464.755	101
464.975	104
465.195	142
465.414	136
465.634	89
465.854	85
466.073	89
466.293	82
466.512	90
466.732	96
466.951	91
467.171	94
467.391	85
467.61	94
467.829	91
468.049	138
468.268	136
468.488	88
468.707	82
468.927	89
469.146	92
469.365	93
469.585	85
469.804	92
470.023	94
470.243	101
470.462	92
470.681	98
470.901	84
471.12	96
471.339	92
471.558	100
471.777	107
471.997	106
472.216	122
472.435	213
472.654	113
472.873	90
473.092	88
473.311	75
473.53	94
473.749	92
473.968	92
474.187	88
474.406	84
474.625	92
474.844	90
475.063	88
475.282	87
475.501	88
475.72	96
475.939	89
476.158	80
476.377	91
476.596	97
476.814	82
477.033	85
477.252	107
477.471	83
477.69	77
477.908	86
478.127	89
478.346	85
478.564	75
478.783	93
479.002	96
479.22	93
479.439	93
479.658	96
479.876	90
480.095	102
480.313	96
480.532	99
480.751	103
480.969	155
481.188	327
481.406	230
481.624	93
481.843	93
482.061	85
482.28	100
482.498	86
482.717	88
482.935	85
483.153	105
483.372	97
483.59	95
483.808	82
484.027	103
484.245	99
484.463	96
484.681	97
484.9	103
485.118	94
485.336	117
485.554	106
485.772	113
485.99	106
486.209	104
486.427	112
486.645	110
486.863	120
487.081	116
487.299	88
487.517	99
487.735	86
487.953	95
488.171	94
488.389	104
488.607	96
488.825	96
489.043	88
489.261	100
489.479	107
489.696	88
489.914	90
490.132	93
490.35	95
490.568	102
490.786	107
491.003	93
491.221	84
491.439	97
491.657	101
491.874	80
492.092	85
492.31	96
492.527	92
492.745	89
492.963	98
493.18	97
493.398	86
493.615	95
493.833	97
494.05	101
494.268	88
494.485	80
494.703	93
494.92	75
495.138	98
495.355	101
495.573	88
495.79	77
496.008	86
496.225	89
496.442	101
496.66	86
496.877	102
497.094	85
497.312	88
497.529	77
497.746	92
497.963	72
498.181	102
498.398	100
498.615	98
498.832	93
499.049	94
499.267	100
499.484	84
499.701	91
499.918	81
500.135	90
500.352	87
500.569	105
500.786	100
501.003	104
501.22	86
501.437	107
501.654	105
501.871	93
502.088	101
502.305	93
502.522	98
502.739	94
502.956	88
503.172	98
503.389	88
503.606	103
503.823	94
504.04	87
504.256	85
504.473	82
504.69	82
504.907	104
505.123	105
505.34	87
505.557	91
505.773	82
505.99	89
506.207	93
506.423	93
506.64	89
506.856	95
507.073	78
507.289	97
507.506	95
507.722	106
507.939	108
508.155	85
508.372	102
508.588	97
508.805	90
509.021	89
509.238	97
509.454	96
509.67	106
509.887	112
510.103	128
510.319	169
510.536	582
510.752	1779
510.968	506
511.184	137
511.401	106
511.617	101
511.833	97
512.049	95
512.265	102
512.481	99
512.698	86
512.914	110
513.13	104
513.346	101
513.562	103
513.778	116
513.994	99
514.21	92
514.426	103
514.642	124
514.858	100
515.074	129
515.29	349
515.506	1118
515.721	397
515.937	150
516.153	105
516.369	101
516.585	102
516.801	85
517.016	98
517.232	91
517.448	88
517.664	96
517.879	84
518.095	93
518.311	99
518.527	102
518.742	103
518.958	91
519.173	89
519.389	77
519.605	93
519.82	109
520.036	99
520.251	107
520.467	113
520.682	92
520.898	106
521.113	96
521.329	130
521.544	171
521.76	421
521.975	1786
522.19	1049
522.406	242
522.621	116
522.836	93
523.052	109
523.267	99
523.482	103
523.698	99
523.913	114
524.128	100
524.343	98
524.559	98
524.774	95
524.989	101
525.204	94
525.419	87
525.634	90
525.849	100
526.064	93
526.28	90
526.495	98
526.71	103
526.925	82
527.14	93
527.355	96
527.57	98
527.785	84
527.999	92
528.214	92
528.429	90
528.644	89
528.859	88
529.074	95
529.289	113
529.503	135
529.718	104
529.933	108
530.148	93
530.363	89
530.577	83
530.792	85
531.007	93
531.221	93
531.436	92
531.651	92
531.865	97
532.08	90
532.295	98
532.509	97
532.724	96
532.938	98
533.153	94
533.367	97
533.582	92
533.796	88
534.011	99
534.225	100
534.44	85
534.654	100
534.868	87
535.083	89
535.297	108
535.511	105
535.726	109
535.94	85
536.154	85
536.369	94
536.583	86
536.797	100
537.011	105
537.225	86
537.44	92
537.654	97
537.868	82
538.082	91
538.296	97
538.51	83
538.724	97
538.938	92
539.153	100
539.367	104
539.581	104
539.795	88
540.009	94
540.222	92
540.436	91
540.65	86
540.864	91
541.078	103
541.292	82
541.506	101
541.72	92
541.934	101
542.147	103
542.361	101
542.575	83
542.789	106
543.002	93
543.216	85
543.43	89
543.644	75
543.857	88
544.071	82
544.285	97
544.498	92
544.712	93
544.925	93
545.139	93
545.352	94
545.566	90
545.779	84
545.993	90
546.206	98
546.42	84
546.633	92
546.847	95
547.06	91
547.274	91
547.487	75
547.7	88
547.914	86
548.127	82
548.34	92
548.554	92
548.767	88
548.98	81
549.193	96
549.407	99
549.62	92
549.833	84
550.046	98
550.259	85
550.473	90
550.686	97
550.899	87
551.112	94
551.325	93
551.538	98
551.751	86
551.964	84
552.177	99
552.39	102
552.603	88
552.816	93
553.029	82
553.242	101
553.455	85
553.667	92
553.88	84
554.093	90
554.306	97
554.519	92
554.732	100
554.944	100
555.157	81
555.37	106
555.583	91
555.795	81
556.008	92
556.221	96
556.433	106
556.646	96
556.859	97
557.071	70
557.284	100
557.496	88
557.709	100
557.921	91
558.134	102
558.346	102
558.559	83
558.771	89
558.984	96
559.196	84
559.409	86
559.621	101
559.833	97
560.046	81
560.258	86
560.47	96
560.683	81
560.895	109
561.107	100
561.32	105
561.532	92
561.744	79
561.956	96
562.168	80
562.381	101
562.593	101
562.805	105
563.017	86
563.229	100
563.441	81
563.653	88
563.865	93
564.077	104
564.289	97
564.501	89
564.713	92
564.925	90
565.137	99
565.349	93
565.561	83
565.773	93
565.985	92
566.197	85
566.408	90
566.62	101
566.832	104
567.044	87
567.255	99
567.467	93
567.679	83
567.891	76
568.102	95
568.314	101
568.526	100
568.737	93
568.949	98
569.161	93
569.372	98
569.584	87
569.795	94
570.007	101
570.218	213
570.43	132
570.641	100
570.853	70
571.064	107
571.276	95
571.487	93
571.698	80
571.91	97
572.121	87
572.333	92
572.544	76
572.755	91
572.966	104
573.178	89
573.389	72
573.6	83
573.811	95
574.023	88
574.234	90
574.445	103
574.656	99
574.867	92
575.078	82
575.289	88
575.501	97
575.712	95
575.923	93
576.134	105
576.345	96
576.556	102
576.767	103
576.978	100
577.188	96
577.399	97
577.61	100
577.821	83
578.032	105
578.243	220
578.454	583
578.665	180
578.875	101
579.086	100
579.297	94
579.508	104
579.718	89
579.929	92
580.14	87
580.35	89
580.561	89
580.772	85
580.982	89
581.193	89
581.403	99
581.614	84
581.825	88
582.035	83
582.246	86
582.456	80
582.667	94
582.877	102
583.087	87
583.298	94
583.508	93
