Data from Circ_1986_H10_HRD10591_00038.txt Node
Date: Wed Jan 03 12:15:33 EST 2024
User: Yrep
Spectrometer: HR+D1059
Trigger mode: 1
Integration Time (sec): 1.000000E-1
Scans to average: 1
Electric dark correction enabled: true
Nonlinearity correction enabled: false
Boxcar width: 0
XAxis mode: Wavelengths
Number of Pixels in Spectrum: 2048
>>>>>Begin Spectral Data<<<<<
223.165	-20.56
223.4	-20.56
223.635	-20.56
223.869	-18.56
224.104	-17.56
224.338	-19.56
224.573	-7.56
224.808	-17.56
225.042	-12.56
225.277	1.44
225.511	-4.56
225.746	15.44
225.98	7.44
226.215	1.44
226.449	13.44
226.683	25.44
226.918	13.44
227.152	40.44
227.387	34.44
227.621	30.44
227.856	34.44
228.09	43.44
228.324	35.44
228.559	72.44
228.793	51.44
229.027	54.44
229.262	60.44
229.496	73.44
229.73	66.44
229.964	77.44
230.199	71.44
230.433	63.44
230.667	77.44
230.901	78.44
231.136	69.44
231.37	79.44
231.604	87.44
231.838	71.44
232.072	80.44
232.306	89.44
232.541	84.44
232.775	71.44
233.009	73.44
233.243	72.44
233.477	79.44
233.711	72.44
233.945	86.44
234.179	64.44
234.413	73.44
234.647	69.44
234.881	76.44
235.115	92.44
235.349	70.44
235.583	68.44
235.817	89.44
236.051	77.44
236.285	72.44
236.519	72.44
236.753	77.44
236.987	67.44
237.221	72.44
237.455	79.44
237.689	76.44
237.922	76.44
238.156	73.44
238.39	73.44
238.624	67.44
238.858	77.44
239.091	71.44
239.325	81.44
239.559	70.44
239.793	76.44
240.027	81.44
240.26	73.44
240.494	80.44
240.728	63.44
240.961	63.44
241.195	62.44
241.429	79.44
241.662	67.44
241.896	77.44
242.13	76.44
242.363	69.44
242.597	75.44
242.83	73.44
243.064	86.44
243.298	71.44
243.531	89.44
243.765	70.44
243.998	61.44
244.232	64.44
244.465	88.44
244.699	91.44
244.932	77.44
245.166	66.44
245.399	57.44
245.633	64.44
245.866	75.44
246.099	76.44
246.333	79.44
246.566	71.44
246.8	71.44
247.033	84.44
247.266	89.44
247.5	76.44
247.733	77.44
247.966	72.44
248.2	79.44
248.433	74.44
248.666	70.44
248.899	78.44
249.133	79.44
249.366	87.44
249.599	90.44
249.832	82.44
250.066	80.44
250.299	80.44
250.532	80.44
250.765	92.44
250.998	71.44
251.231	88.44
251.465	73.44
251.698	88.44
251.931	66.44
252.164	77.44
252.397	80.44
252.63	75.44
252.863	69.44
253.096	62.44
253.329	75.44
253.562	76.44
253.795	76.44
254.028	75.44
254.261	80.44
254.494	66.44
254.727	75.44
254.96	87.44
255.193	94.44
255.426	87.44
255.659	71.44
255.892	79.44
256.124	77.44
256.357	80.44
256.59	76.44
256.823	55.44
257.056	80.44
257.289	87.44
257.521	83.44
257.754	81.44
257.987	72.44
258.22	76.44
258.452	90.44
258.685	83.44
258.918	68.44
259.151	77.44
259.383	73.44
259.616	70.44
259.849	60.44
260.081	64.44
260.314	87.44
260.547	72.44
260.779	75.44
261.012	87.44
261.244	81.44
261.477	71.44
261.71	92.44
261.942	106.44
262.175	103.44
262.407	71.44
262.64	84.44
262.872	75.44
263.105	89.44
263.337	95.44
263.57	91.44
263.802	60.44
264.035	81.44
264.267	76.44
264.499	78.44
264.732	75.44
264.964	78.44
265.197	82.44
265.429	86.44
265.661	80.44
265.894	76.44
266.126	85.44
266.358	88.44
266.591	76.44
266.823	89.44
267.055	73.44
267.287	79.44
267.52	79.44
267.752	95.44
267.984	62.44
268.216	87.44
268.448	65.44
268.681	87.44
268.913	85.44
269.145	73.44
269.377	86.44
269.609	77.44
269.841	81.44
270.073	83.44
270.306	83.44
270.538	79.44
270.77	63.44
271.002	92.44
271.234	86.44
271.466	66.44
271.698	77.44
271.93	84.44
272.162	79.44
272.394	81.44
272.626	83.44
272.858	79.44
273.09	93.44
273.322	86.44
273.553	71.44
273.785	75.44
274.017	84.44
274.249	72.44
274.481	79.44
274.713	84.44
274.945	80.44
275.176	75.44
275.408	80.44
275.64	93.44
275.872	84.44
276.104	82.44
276.335	71.44
276.567	90.44
276.799	89.44
277.031	95.44
277.262	78.44
277.494	85.44
277.726	83.44
277.957	75.44
278.189	73.44
278.421	84.44
278.652	77.44
278.884	88.44
279.115	79.44
279.347	80.44
279.579	84.44
279.81	84.44
280.042	79.44
280.273	97.44
280.505	77.44
280.736	87.44
280.968	80.44
281.199	78.44
281.431	84.44
281.662	71.44
281.894	97.44
282.125	73.44
282.356	92.44
282.588	106.44
282.819	103.44
283.051	83.44
283.282	89.44
283.513	87.44
283.745	92.44
283.976	83.44
284.207	79.44
284.439	94.44
284.67	83.44
284.901	81.44
285.132	95.44
285.364	68.44
285.595	77.44
285.826	80.44
286.057	83.44
286.288	86.44
286.52	82.44
286.751	92.44
286.982	81.44
287.213	81.44
287.444	82.44
287.675	72.44
287.906	89.44
288.138	87.44
288.369	78.44
288.6	77.44
288.831	84.44
289.062	75.44
289.293	80.44
289.524	75.44
289.755	83.44
289.986	81.44
290.217	68.44
290.448	80.44
290.679	91.44
290.91	95.44
291.141	85.44
291.371	90.44
291.602	75.44
291.833	79.44
292.064	81.44
292.295	95.44
292.526	74.44
292.757	83.44
292.987	77.44
293.218	66.44
293.449	76.44
293.68	96.44
293.91	92.44
294.141	85.44
294.372	92.44
294.603	74.44
294.833	95.44
295.064	85.44
295.295	83.44
295.525	87.44
295.756	90.44
295.987	102.44
296.217	112.44
296.448	105.44
296.679	91.44
296.909	85.44
297.14	79.44
297.37	91.44
297.601	91.44
297.831	72.44
298.062	103.44
298.292	79.44
298.523	91.44
298.753	72.44
298.984	86.44
299.214	84.44
299.445	94.44
299.675	85.44
299.905	96.44
300.136	100.44
300.366	70.44
300.597	75.44
300.827	78.44
301.057	105.44
301.288	111.44
301.518	82.44
301.748	84.44
301.979	92.44
302.209	85.44
302.439	81.44
302.669	75.44
302.9	83.44
303.13	82.44
303.36	98.44
303.59	96.44
303.82	96.44
304.051	83.44
304.281	80.44
304.511	85.44
304.741	97.44
304.971	84.44
305.201	79.44
305.431	96.44
305.661	84.44
305.891	70.44
306.121	84.44
306.352	96.44
306.582	92.44
306.812	85.44
307.042	81.44
307.272	91.44
307.502	81.44
307.731	93.44
307.961	80.44
308.191	78.44
308.421	82.44
308.651	93.44
308.881	85.44
309.111	87.44
309.341	82.44
309.571	88.44
309.8	98.44
310.03	78.44
310.26	83.44
310.49	89.44
310.72	95.44
310.949	89.44
311.179	74.44
311.409	92.44
311.639	86.44
311.868	91.44
312.098	91.44
312.328	85.44
312.557	99.44
312.787	81.44
313.017	100.44
313.246	90.44
313.476	98.44
313.706	87.44
313.935	90.44
314.165	101.44
314.394	86.44
314.624	91.44
314.853	89.44
315.083	92.44
315.312	86.44
315.542	88.44
315.771	90.44
316.001	95.44
316.23	87.44
316.46	78.44
316.689	96.44
316.919	94.44
317.148	95.44
317.377	84.44
317.607	85.44
317.836	85.44
318.065	98.44
318.295	84.44
318.524	78.44
318.753	96.44
318.983	83.44
319.212	91.44
319.441	92.44
319.67	83.44
319.9	83.44
320.129	91.44
320.358	83.44
320.587	80.44
320.816	98.44
321.046	103.44
321.275	90.44
321.504	89.44
321.733	94.44
321.962	95.44
322.191	90.44
322.42	98.44
322.649	101.44
322.878	97.44
323.108	103.44
323.337	119.44
323.566	111.44
323.795	132.44
324.024	163.44
324.253	324.44
324.482	667.44
324.71	1329.44
324.939	1767.44
325.168	658.44
325.397	195.44
325.626	118.44
325.855	112.44
326.084	100.44
326.313	116.44
326.542	132.44
326.77	193.44
326.999	384.44
327.228	765.44
327.457	1359.44
327.686	1088.44
327.914	320.44
328.143	181.44
328.372	143.44
328.6	107.44
328.829	109.44
329.058	111.44
329.287	100.44
329.515	115.44
329.744	110.44
329.972	117.44
330.201	132.44
330.43	146.44
330.658	129.44
330.887	111.44
331.115	106.44
331.344	86.44
331.572	113.44
331.801	89.44
332.03	100.44
332.258	96.44
332.486	71.44
332.715	90.44
332.943	90.44
333.172	92.44
333.4	84.44
333.629	89.44
333.857	89.44
334.085	76.44
334.314	131.44
334.542	150.44
334.771	156.44
334.999	100.44
335.227	93.44
335.455	92.44
335.684	91.44
335.912	106.44
336.14	95.44
336.369	107.44
336.597	82.44
336.825	88.44
337.053	95.44
337.281	93.44
337.51	94.44
337.738	97.44
337.966	74.44
338.194	91.44
338.422	86.44
338.65	87.44
338.878	84.44
339.106	97.44
339.334	98.44
339.562	94.44
339.79	94.44
340.018	85.44
340.246	78.44
340.474	84.44
340.702	96.44
340.93	81.44
341.158	99.44
341.386	87.44
341.614	88.44
341.842	90.44
342.07	87.44
342.298	77.44
342.526	72.44
342.754	80.44
342.981	90.44
343.209	84.44
343.437	94.44
343.665	95.44
343.893	83.44
344.12	103.44
344.348	98.44
344.576	98.44
344.804	83.44
345.031	96.44
345.259	82.44
345.487	84.44
345.714	92.44
345.942	94.44
346.17	84.44
346.397	85.44
346.625	78.44
346.853	77.44
347.08	94.44
347.308	93.44
347.535	88.44
347.763	100.44
347.99	87.44
348.218	89.44
348.445	88.44
348.673	106.44
348.9	96.44
349.128	83.44
349.355	92.44
349.583	79.44
349.81	99.44
350.037	89.44
350.265	87.44
350.492	95.44
350.72	96.44
350.947	86.44
351.174	79.44
351.402	108.44
351.629	98.44
351.856	95.44
352.083	98.44
352.311	100.44
352.538	97.44
352.765	98.44
352.992	95.44
353.22	103.44
353.447	98.44
353.674	96.44
353.901	95.44
354.128	92.44
354.355	96.44
354.583	95.44
354.81	92.44
355.037	100.44
355.264	94.44
355.491	88.44
355.718	85.44
355.945	99.44
356.172	107.44
356.399	106.44
356.626	100.44
356.853	92.44
357.08	95.44
357.307	91.44
357.534	100.44
357.761	103.44
357.988	86.44
358.215	93.44
358.441	92.44
358.668	95.44
358.895	95.44
359.122	87.44
359.349	80.44
359.576	96.44
359.802	93.44
360.029	95.44
360.256	92.44
360.483	98.44
360.709	78.44
360.936	96.44
361.163	103.44
361.39	79.44
361.616	67.44
361.843	89.44
362.07	82.44
362.296	96.44
362.523	85.44
362.749	66.44
362.976	96.44
363.203	87.44
363.429	99.44
363.656	91.44
363.882	80.44
364.109	89.44
364.335	85.44
364.562	81.44
364.788	76.44
365.015	97.44
365.241	92.44
365.468	95.44
365.694	88.44
365.92	96.44
366.147	96.44
366.373	78.44
366.599	97.44
366.826	80.44
367.052	85.44
367.278	76.44
367.505	60.44
367.731	88.44
367.957	84.44
368.184	79.44
368.41	87.44
368.636	95.44
368.862	82.44
369.089	88.44
369.315	89.44
369.541	77.44
369.767	83.44
369.993	91.44
370.219	84.44
370.445	90.44
370.672	75.44
370.898	77.44
371.124	96.44
371.35	83.44
371.576	83.44
371.802	99.44
372.028	95.44
372.254	93.44
372.48	90.44
372.706	95.44
372.932	75.44
373.158	85.44
373.384	92.44
373.61	79.44
373.835	88.44
374.061	97.44
374.287	83.44
374.513	66.44
374.739	84.44
374.965	67.44
375.191	77.44
375.416	86.44
375.642	80.44
375.868	96.44
376.094	86.44
376.319	81.44
376.545	91.44
376.771	93.44
376.997	99.44
377.222	76.44
377.448	78.44
377.674	96.44
377.899	90.44
378.125	87.44
378.35	95.44
378.576	85.44
378.802	92.44
379.027	94.44
379.253	102.44
379.478	92.44
379.704	89.44
379.929	83.44
380.155	94.44
380.38	96.44
380.606	84.44
380.831	103.44
381.057	91.44
381.282	89.44
381.507	93.44
381.733	95.44
381.958	100.44
382.184	93.44
382.409	93.44
382.634	102.44
382.86	95.44
383.085	95.44
383.31	95.44
383.535	96.44
383.761	91.44
383.986	104.44
384.211	81.44
384.436	95.44
384.662	85.44
384.887	91.44
385.112	108.44
385.337	95.44
385.562	92.44
385.787	108.44
386.013	112.44
386.238	108.44
386.463	97.44
386.688	100.44
386.913	111.44
387.138	105.44
387.363	101.44
387.588	81.44
387.813	109.44
388.038	116.44
388.263	117.44
388.488	107.44
388.713	103.44
388.938	100.44
389.163	86.44
389.387	93.44
389.612	89.44
389.837	86.44
390.062	83.44
390.287	95.44
390.512	93.44
390.736	92.44
390.961	95.44
391.186	99.44
391.411	88.44
391.636	104.44
391.86	84.44
392.085	93.44
392.31	88.44
392.534	81.44
392.759	79.44
392.984	72.44
393.208	85.44
393.433	71.44
393.658	81.44
393.882	89.44
394.107	98.44
394.331	98.44
394.556	77.44
394.78	79.44
395.005	93.44
395.229	79.44
395.454	87.44
395.678	93.44
395.903	92.44
396.127	85.44
396.352	79.44
396.576	78.44
396.801	100.44
397.025	96.44
397.249	98.44
397.474	86.44
397.698	70.44
397.922	85.44
398.147	88.44
398.371	66.44
398.595	78.44
398.82	78.44
399.044	88.44
399.268	68.44
399.492	81.44
399.717	92.44
399.941	70.44
400.165	82.44
400.389	86.44
400.613	92.44
400.837	85.44
401.062	84.44
401.286	80.44
401.51	90.44
401.734	93.44
401.958	89.44
402.182	115.44
402.406	115.44
402.63	94.44
402.854	67.44
403.078	87.44
403.302	77.44
403.526	92.44
403.75	83.44
403.974	93.44
404.198	99.44
404.422	70.44
404.645	77.44
404.869	94.44
405.093	100.44
405.317	85.44
405.541	96.44
405.765	95.44
405.988	102.44
406.212	124.44
406.436	177.44
406.66	127.44
406.883	86.44
407.107	85.44
407.331	92.44
407.555	92.44
407.778	96.44
408.002	91.44
408.226	82.44
408.449	89.44
408.673	84.44
408.896	84.44
409.12	93.44
409.344	87.44
409.567	86.44
409.791	73.44
410.014	87.44
410.238	96.44
410.461	79.44
410.685	80.44
410.908	102.44
411.132	98.44
411.355	97.44
411.578	92.44
411.802	87.44
412.025	81.44
412.249	88.44
412.472	87.44
412.695	92.44
412.919	91.44
413.142	80.44
413.365	73.44
413.589	95.44
413.812	80.44
414.035	91.44
414.258	93.44
414.482	80.44
414.705	91.44
414.928	86.44
415.151	87.44
415.374	104.44
415.597	94.44
415.821	79.44
416.044	73.44
416.267	95.44
416.49	75.44
416.713	92.44
416.936	87.44
417.159	92.44
417.382	91.44
417.605	84.44
417.828	92.44
418.051	92.44
418.274	87.44
418.497	82.44
418.72	91.44
418.943	82.44
419.166	88.44
419.389	91.44
419.611	77.44
419.834	85.44
420.057	91.44
420.28	77.44
420.503	83.44
420.726	79.44
420.948	77.44
421.171	88.44
421.394	87.44
421.617	78.44
421.839	77.44
422.062	84.44
422.285	92.44
422.507	104.44
422.73	89.44
422.953	80.44
423.175	72.44
423.398	88.44
423.621	87.44
423.843	69.44
424.066	66.44
424.288	84.44
424.511	94.44
424.733	93.44
424.956	96.44
425.178	85.44
425.401	91.44
425.623	108.44
425.846	91.44
426.068	88.44
426.291	91.44
426.513	71.44
426.735	91.44
426.958	76.44
427.18	88.44
427.402	113.44
427.625	145.44
427.847	116.44
428.069	121.44
428.292	93.44
428.514	92.44
428.736	62.44
428.958	93.44
429.181	79.44
429.403	78.44
429.625	74.44
429.847	83.44
430.069	87.44
430.292	80.44
430.514	69.44
430.736	88.44
430.958	72.44
431.18	89.44
431.402	77.44
431.624	79.44
431.846	95.44
432.068	87.44
432.29	77.44
432.512	79.44
432.734	95.44
432.956	98.44
433.178	95.44
433.4	89.44
433.622	82.44
433.844	81.44
434.066	75.44
434.287	82.44
434.509	84.44
434.731	81.44
434.953	85.44
435.175	78.44
435.397	102.44
435.618	76.44
435.84	103.44
436.062	104.44
436.284	95.44
436.505	96.44
436.727	82.44
436.949	85.44
437.17	95.44
437.392	78.44
437.614	84.44
437.835	89.44
438.057	100.44
438.278	88.44
438.5	87.44
438.721	124.44
438.943	112.44
439.165	95.44
439.386	81.44
439.608	92.44
439.829	68.44
440.05	100.44
440.272	111.44
440.493	85.44
440.715	77.44
440.936	84.44
441.158	90.44
441.379	81.44
441.6	65.44
441.822	80.44
442.043	76.44
442.264	95.44
442.486	98.44
442.707	71.44
442.928	102.44
443.149	123.44
443.371	106.44
443.592	96.44
443.813	97.44
444.034	100.44
444.255	81.44
444.476	93.44
444.698	86.44
444.919	88.44
445.14	131.44
445.361	113.44
445.582	105.44
445.803	101.44
446.024	103.44
446.245	105.44
446.466	100.44
446.687	79.44
446.908	72.44
447.129	87.44
447.35	89.44
447.571	93.44
447.792	95.44
448.013	86.44
448.234	87.44
448.455	84.44
448.675	93.44
448.896	116.44
449.117	79.44
449.338	87.44
449.559	104.44
449.779	135.44
450	91.44
450.221	90.44
450.442	79.44
450.662	79.44
450.883	89.44
451.104	89.44
451.324	78.44
451.545	83.44
451.766	92.44
451.986	87.44
452.207	77.44
452.428	89.44
452.648	94.44
452.869	91.44
453.089	101.44
453.31	111.44
453.53	71.44
453.751	86.44
453.971	88.44
454.192	91.44
454.412	81.44
454.633	83.44
454.853	85.44
455.073	88.44
455.294	84.44
455.514	91.44
455.734	93.44
455.955	81.44
456.175	84.44
456.395	78.44
456.616	79.44
456.836	83.44
457.056	77.44
457.276	73.44
457.497	78.44
457.717	70.44
457.937	86.44
458.157	71.44
458.377	83.44
458.598	98.44
458.818	129.44
459.038	131.44
459.258	104.44
459.478	87.44
459.698	86.44
459.918	96.44
460.138	83.44
460.358	87.44
460.578	93.44
460.798	94.44
461.018	85.44
461.238	79.44
461.458	83.44
461.678	93.44
461.898	78.44
462.118	86.44
462.338	69.44
462.558	79.44
462.777	79.44
462.997	71.44
463.217	76.44
463.437	95.44
463.657	75.44
463.876	97.44
464.096	100.44
464.316	70.44
464.536	90.44
464.755	87.44
464.975	106.44
465.195	134.44
465.414	131.44
465.634	86.44
465.854	99.44
466.073	72.44
466.293	102.44
466.512	77.44
466.732	96.44
466.951	83.44
467.171	88.44
467.391	89.44
467.61	80.44
467.829	88.44
468.049	104.44
468.268	107.44
468.488	71.44
468.707	94.44
468.927	91.44
469.146	86.44
469.365	75.44
469.585	85.44
469.804	76.44
470.023	88.44
470.243	83.44
470.462	93.44
470.681	96.44
470.901	90.44
471.12	73.44
471.339	102.44
471.558	94.44
471.777	86.44
471.997	95.44
472.216	146.44
472.435	194.44
472.654	107.44
472.873	84.44
473.092	71.44
473.311	81.44
473.53	76.44
473.749	83.44
473.968	98.44
474.187	86.44
474.406	79.44
474.625	81.44
474.844	82.44
475.063	94.44
475.282	88.44
475.501	79.44
475.72	88.44
475.939	89.44
476.158	85.44
476.377	69.44
476.596	73.44
476.814	85.44
477.033	73.44
477.252	87.44
477.471	91.44
477.69	70.44
477.908	92.44
478.127	75.44
478.346	70.44
478.564	96.44
478.783	94.44
479.002	85.44
479.22	87.44
479.439	110.44
479.658	84.44
479.876	87.44
480.095	96.44
480.313	87.44
480.532	100.44
480.751	103.44
480.969	127.44
481.188	287.44
481.406	204.44
481.624	85.44
481.843	101.44
482.061	88.44
482.28	86.44
482.498	88.44
482.717	82.44
482.935	87.44
483.153	73.44
483.372	92.44
483.59	98.44
483.808	82.44
484.027	75.44
484.245	83.44
484.463	102.44
484.681	94.44
484.9	82.44
485.118	89.44
485.336	85.44
485.554	98.44
485.772	87.44
485.99	99.44
486.209	91.44
486.427	104.44
486.645	95.44
486.863	102.44
487.081	97.44
487.299	87.44
487.517	93.44
487.735	101.44
487.953	91.44
488.171	83.44
488.389	97.44
488.607	81.44
488.825	83.44
489.043	85.44
489.261	96.44
489.479	96.44
489.696	83.44
489.914	78.44
490.132	85.44
490.35	77.44
490.568	77.44
490.786	67.44
491.003	87.44
491.221	75.44
491.439	75.44
491.657	82.44
491.874	89.44
492.092	79.44
492.31	78.44
492.527	92.44
492.745	84.44
492.963	95.44
493.18	78.44
493.398	93.44
493.615	83.44
493.833	94.44
494.05	80.44
494.268	81.44
494.485	79.44
494.703	90.44
494.92	92.44
495.138	97.44
495.355	93.44
495.573	89.44
495.79	85.44
496.008	89.44
496.225	87.44
496.442	87.44
496.66	86.44
496.877	83.44
497.094	101.44
497.312	96.44
497.529	77.44
497.746	75.44
497.963	76.44
498.181	87.44
498.398	87.44
498.615	85.44
498.832	83.44
499.049	87.44
499.267	97.44
499.484	86.44
499.701	101.44
499.918	101.44
500.135	86.44
500.352	76.44
500.569	88.44
500.786	81.44
501.003	88.44
501.22	86.44
501.437	87.44
501.654	78.44
501.871	88.44
502.088	84.44
502.305	82.44
502.522	90.44
502.739	72.44
502.956	103.44
503.172	87.44
503.389	91.44
503.606	95.44
503.823	90.44
504.04	85.44
504.256	84.44
504.473	85.44
504.69	70.44
504.907	93.44
505.123	75.44
505.34	84.44
505.557	72.44
505.773	86.44
505.99	79.44
506.207	100.44
506.423	99.44
506.64	95.44
506.856	81.44
507.073	95.44
507.289	72.44
507.506	82.44
507.722	93.44
507.939	104.44
508.155	113.44
508.372	94.44
508.588	85.44
508.805	94.44
509.021	111.44
509.238	92.44
509.454	76.44
509.67	97.44
509.887	113.44
510.103	121.44
510.319	194.44
510.536	611.44
510.752	1812.44
510.968	493.44
511.184	141.44
511.401	100.44
511.617	96.44
511.833	91.44
512.049	83.44
512.265	81.44
512.481	87.44
512.698	83.44
512.914	85.44
513.13	72.44
513.346	79.44
513.562	71.44
513.778	91.44
513.994	93.44
514.21	108.44
514.426	112.44
514.642	97.44
514.858	111.44
515.074	147.44
515.29	335.44
515.506	1022.44
515.721	370.44
515.937	120.44
516.153	96.44
516.369	82.44
516.585	88.44
516.801	88.44
517.016	81.44
517.232	94.44
517.448	77.44
