Data from Circ_1986_H10_HRD10591_00058.txt Node
Date: Wed Jan 03 12:15:37 EST 2024
User: Yrep
Spectrometer: HR+D1059
Trigger mode: 1
Integration Time (sec): 1.000000E-1
Scans to average: 1
Electric dark correction enabled: true
Nonlinearity correction enabled: false
Boxcar width: 0
XAxis mode: Wavelengths
Number of Pixels in Spectrum: 2048
>>>>>Begin Spectral Data<<<<<
223.165	-12.38
223.4	-12.38
223.635	-12.38
223.869	-5.38
224.104	-19.38
224.338	-20.38
224.573	-23.38
224.808	-15.38
225.042	-7.38
225.277	-0.38
225.511	-10.38
225.746	1.62
225.98	-3.38
226.215	10.62
226.449	24.62
226.683	12.62
226.918	36.62
227.152	31.62
227.387	48.62
227.621	44.62
227.856	41.62
228.09	52.62
228.324	58.62
228.559	45.62
228.793	51.62
229.027	62.62
229.262	61.62
229.496	83.62
229.73	75.62
229.964	75.62
230.199	70.62
230.433	74.62
230.667	66.62
230.901	77.62
231.136	72.62
231.37	92.62
231.604	94.62
231.838	89.62
232.072	88.62
232.306	67.62
232.541	83.62
232.775	95.62
233.009	65.62
233.243	63.62
233.477	71.62
233.711	83.62
233.945	86.62
234.179	76.62
234.413	61.62
234.647	86.62
234.881	81.62
235.115	80.62
235.349	68.62
235.583	84.62
235.817	76.62
236.051	95.62
236.285	83.62
236.519	82.62
236.753	65.62
236.987	80.62
237.221	73.62
237.455	93.62
237.689	83.62
237.922	81.62
238.156	89.62
238.39	83.62
238.624	68.62
238.858	80.62
239.091	69.62
239.325	74.62
239.559	79.62
239.793	82.62
240.027	62.62
240.26	76.62
240.494	77.62
240.728	78.62
240.961	82.62
241.195	67.62
241.429	57.62
241.662	73.62
241.896	69.62
242.13	84.62
242.363	74.62
242.597	69.62
242.83	71.62
243.064	78.62
243.298	76.62
243.531	72.62
243.765	75.62
243.998	75.62
244.232	70.62
244.465	73.62
244.699	78.62
244.932	78.62
245.166	79.62
245.399	79.62
245.633	88.62
245.866	70.62
246.099	95.62
246.333	82.62
246.566	68.62
246.8	90.62
247.033	70.62
247.266	76.62
247.5	72.62
247.733	70.62
247.966	81.62
248.2	88.62
248.433	80.62
248.666	73.62
248.899	71.62
249.133	72.62
249.366	91.62
249.599	96.62
249.832	87.62
250.066	84.62
250.299	73.62
250.532	70.62
250.765	78.62
250.998	60.62
251.231	82.62
251.465	69.62
251.698	80.62
251.931	84.62
252.164	81.62
252.397	74.62
252.63	85.62
252.863	84.62
253.096	86.62
253.329	79.62
253.562	88.62
253.795	80.62
254.028	85.62
254.261	72.62
254.494	72.62
254.727	95.62
254.96	84.62
255.193	78.62
255.426	75.62
255.659	75.62
255.892	78.62
256.124	72.62
256.357	80.62
256.59	89.62
256.823	90.62
257.056	80.62
257.289	90.62
257.521	74.62
257.754	81.62
257.987	83.62
258.22	75.62
258.452	78.62
258.685	102.62
258.918	74.62
259.151	73.62
259.383	82.62
259.616	92.62
259.849	76.62
260.081	82.62
260.314	74.62
260.547	88.62
260.779	82.62
261.012	94.62
261.244	83.62
261.477	91.62
261.71	78.62
261.942	90.62
262.175	99.62
262.407	96.62
262.64	75.62
262.872	89.62
263.105	74.62
263.337	74.62
263.57	75.62
263.802	87.62
264.035	88.62
264.267	86.62
264.499	79.62
264.732	84.62
264.964	79.62
265.197	91.62
265.429	83.62
265.661	78.62
265.894	78.62
266.126	86.62
266.358	69.62
266.591	80.62
266.823	101.62
267.055	80.62
267.287	85.62
267.52	78.62
267.752	80.62
267.984	83.62
268.216	78.62
268.448	92.62
268.681	87.62
268.913	76.62
269.145	87.62
269.377	75.62
269.609	86.62
269.841	82.62
270.073	76.62
270.306	92.62
270.538	86.62
270.77	85.62
271.002	82.62
271.234	86.62
271.466	89.62
271.698	79.62
271.93	71.62
272.162	79.62
272.394	88.62
272.626	78.62
272.858	91.62
273.09	91.62
273.322	78.62
273.553	96.62
273.785	83.62
274.017	71.62
274.249	91.62
274.481	80.62
274.713	89.62
274.945	102.62
275.176	79.62
275.408	87.62
275.64	89.62
275.872	85.62
276.104	82.62
276.335	82.62
276.567	81.62
276.799	99.62
277.031	99.62
277.262	98.62
277.494	75.62
277.726	95.62
277.957	75.62
278.189	89.62
278.421	92.62
278.652	86.62
278.884	75.62
279.115	90.62
279.347	107.62
279.579	91.62
279.81	77.62
280.042	88.62
280.273	99.62
280.505	87.62
280.736	88.62
280.968	85.62
281.199	84.62
281.431	78.62
281.662	86.62
281.894	95.62
282.125	104.62
282.356	103.62
282.588	130.62
282.819	114.62
283.051	86.62
283.282	88.62
283.513	73.62
283.745	78.62
283.976	86.62
284.207	93.62
284.439	96.62
284.67	96.62
284.901	87.62
285.132	78.62
285.364	108.62
285.595	102.62
285.826	100.62
286.057	87.62
286.288	62.62
286.52	65.62
286.751	86.62
286.982	78.62
287.213	86.62
287.444	75.62
287.675	87.62
287.906	91.62
288.138	90.62
288.369	92.62
288.6	99.62
288.831	97.62
289.062	80.62
289.293	76.62
289.524	92.62
289.755	86.62
289.986	95.62
290.217	84.62
290.448	83.62
290.679	83.62
290.91	94.62
291.141	73.62
291.371	70.62
291.602	79.62
291.833	89.62
292.064	96.62
292.295	80.62
292.526	87.62
292.757	79.62
292.987	86.62
293.218	85.62
293.449	78.62
293.68	86.62
293.91	84.62
294.141	94.62
294.372	95.62
294.603	100.62
294.833	102.62
295.064	79.62
295.295	87.62
295.525	108.62
295.756	99.62
295.987	98.62
296.217	122.62
296.448	118.62
296.679	96.62
296.909	87.62
297.14	91.62
297.37	95.62
297.601	88.62
297.831	76.62
298.062	94.62
298.292	78.62
298.523	86.62
298.753	107.62
298.984	69.62
299.214	82.62
299.445	95.62
299.675	95.62
299.905	98.62
300.136	81.62
300.366	88.62
300.597	86.62
300.827	75.62
301.057	99.62
301.288	92.62
301.518	86.62
301.748	84.62
301.979	106.62
302.209	91.62
302.439	71.62
302.669	85.62
302.9	93.62
303.13	90.62
303.36	98.62
303.59	100.62
303.82	100.62
304.051	100.62
304.281	87.62
304.511	98.62
304.741	100.62
304.971	89.62
305.201	90.62
305.431	100.62
305.661	92.62
305.891	97.62
306.121	75.62
306.352	99.62
306.582	90.62
306.812	97.62
307.042	84.62
307.272	107.62
307.502	94.62
307.731	86.62
307.961	111.62
308.191	87.62
308.421	94.62
308.651	97.62
308.881	89.62
309.111	99.62
309.341	91.62
309.571	104.62
309.8	89.62
310.03	103.62
310.26	99.62
310.49	90.62
310.72	88.62
310.949	96.62
311.179	111.62
311.409	92.62
311.639	89.62
311.868	111.62
312.098	98.62
312.328	108.62
312.557	95.62
312.787	86.62
313.017	97.62
313.246	103.62
313.476	82.62
313.706	93.62
313.935	97.62
314.165	87.62
314.394	96.62
314.624	90.62
314.853	90.62
315.083	94.62
315.312	90.62
315.542	88.62
315.771	95.62
316.001	87.62
316.23	94.62
316.46	73.62
316.689	82.62
316.919	90.62
317.148	92.62
317.377	93.62
317.607	92.62
317.836	102.62
318.065	78.62
318.295	92.62
318.524	84.62
318.753	95.62
318.983	82.62
319.212	91.62
319.441	99.62
319.67	95.62
319.9	85.62
320.129	89.62
320.358	107.62
320.587	98.62
320.816	98.62
321.046	91.62
321.275	96.62
321.504	94.62
321.733	99.62
321.962	106.62
322.191	95.62
322.42	103.62
322.649	100.62
322.878	106.62
323.108	110.62
323.337	111.62
323.566	114.62
323.795	136.62
324.024	171.62
324.253	327.62
324.482	640.62
324.71	1275.62
324.939	1614.62
325.168	613.62
325.397	198.62
325.626	147.62
325.855	106.62
326.084	112.62
326.313	116.62
326.542	121.62
326.77	199.62
326.999	336.62
327.228	725.62
327.457	1319.62
327.686	1031.62
327.914	309.62
328.143	168.62
328.372	133.62
328.6	140.62
328.829	99.62
329.058	120.62
329.287	119.62
329.515	95.62
329.744	121.62
329.972	100.62
330.201	141.62
330.43	172.62
330.658	127.62
330.887	126.62
331.115	108.62
331.344	95.62
331.572	105.62
331.801	104.62
332.03	102.62
332.258	100.62
332.486	86.62
332.715	93.62
332.943	97.62
333.172	84.62
333.4	95.62
333.629	94.62
333.857	120.62
334.085	106.62
334.314	144.62
334.542	198.62
334.771	189.62
334.999	130.62
335.227	112.62
335.455	99.62
335.684	108.62
335.912	110.62
336.14	107.62
336.369	89.62
336.597	101.62
336.825	94.62
337.053	87.62
337.281	101.62
337.51	92.62
337.738	100.62
337.966	93.62
338.194	98.62
338.422	83.62
338.65	85.62
338.878	84.62
339.106	96.62
339.334	93.62
339.562	80.62
339.79	104.62
340.018	84.62
340.246	104.62
340.474	88.62
340.702	96.62
340.93	87.62
341.158	86.62
341.386	98.62
341.614	102.62
341.842	88.62
342.07	92.62
342.298	93.62
342.526	98.62
342.754	89.62
342.981	90.62
343.209	97.62
343.437	108.62
343.665	92.62
343.893	84.62
344.12	90.62
344.348	93.62
344.576	86.62
344.804	96.62
345.031	89.62
345.259	98.62
345.487	91.62
345.714	83.62
345.942	97.62
346.17	96.62
346.397	90.62
346.625	94.62
346.853	97.62
347.08	78.62
347.308	90.62
347.535	90.62
347.763	95.62
347.99	88.62
348.218	103.62
348.445	82.62
348.673	92.62
348.9	84.62
349.128	99.62
349.355	76.62
349.583	88.62
349.81	85.62
350.037	82.62
350.265	94.62
350.492	86.62
350.72	86.62
350.947	100.62
351.174	104.62
351.402	102.62
351.629	104.62
351.856	95.62
352.083	98.62
352.311	98.62
352.538	99.62
352.765	102.62
352.992	116.62
353.22	105.62
353.447	99.62
353.674	99.62
353.901	96.62
354.128	88.62
354.355	106.62
354.583	91.62
354.81	92.62
355.037	100.62
355.264	88.62
355.491	91.62
355.718	87.62
355.945	88.62
356.172	90.62
356.399	86.62
356.626	101.62
356.853	92.62
357.08	111.62
357.307	105.62
357.534	97.62
357.761	101.62
357.988	80.62
358.215	84.62
358.441	104.62
358.668	80.62
358.895	99.62
359.122	100.62
359.349	80.62
359.576	95.62
359.802	105.62
360.029	102.62
360.256	95.62
360.483	82.62
360.709	87.62
360.936	92.62
361.163	91.62
361.39	91.62
361.616	79.62
361.843	103.62
362.07	107.62
362.296	87.62
362.523	85.62
362.749	98.62
362.976	82.62
363.203	99.62
363.429	86.62
363.656	96.62
363.882	102.62
364.109	96.62
364.335	95.62
364.562	95.62
364.788	106.62
365.015	98.62
365.241	87.62
365.468	95.62
365.694	99.62
365.92	99.62
366.147	90.62
366.373	92.62
366.599	87.62
366.826	78.62
367.052	82.62
367.278	99.62
367.505	93.62
367.731	95.62
367.957	96.62
368.184	93.62
368.41	95.62
368.636	103.62
368.862	111.62
369.089	111.62
369.315	123.62
369.541	86.62
369.767	93.62
369.993	83.62
370.219	84.62
370.445	91.62
370.672	85.62
370.898	88.62
371.124	77.62
371.35	96.62
371.576	92.62
371.802	85.62
372.028	98.62
372.254	88.62
372.48	84.62
372.706	92.62
372.932	100.62
373.158	89.62
373.384	82.62
373.61	99.62
373.835	88.62
374.061	93.62
374.287	79.62
374.513	89.62
374.739	84.62
374.965	94.62
375.191	87.62
375.416	81.62
375.642	97.62
375.868	102.62
376.094	74.62
376.319	76.62
376.545	94.62
376.771	102.62
376.997	94.62
377.222	99.62
377.448	93.62
377.674	83.62
377.899	94.62
378.125	97.62
378.35	91.62
378.576	96.62
378.802	77.62
379.027	76.62
379.253	93.62
379.478	98.62
379.704	90.62
379.929	83.62
380.155	87.62
380.38	89.62
380.606	93.62
380.831	96.62
381.057	87.62
381.282	98.62
381.507	95.62
381.733	88.62
381.958	107.62
382.184	106.62
382.409	99.62
382.634	96.62
382.86	95.62
383.085	89.62
383.31	96.62
383.535	109.62
383.761	110.62
383.986	116.62
384.211	91.62
384.436	100.62
384.662	88.62
384.887	94.62
385.112	112.62
385.337	105.62
385.562	106.62
385.787	93.62
386.013	102.62
386.238	109.62
386.463	99.62
386.688	127.62
386.913	101.62
387.138	110.62
387.363	105.62
387.588	84.62
387.813	112.62
388.038	91.62
388.263	102.62
388.488	114.62
388.713	88.62
388.938	92.62
389.163	102.62
389.387	92.62
389.612	96.62
389.837	92.62
390.062	102.62
390.287	68.62
390.512	95.62
390.736	94.62
390.961	90.62
391.186	103.62
391.411	83.62
391.636	94.62
391.86	92.62
392.085	90.62
392.31	81.62
392.534	83.62
392.759	82.62
392.984	81.62
393.208	99.62
393.433	81.62
393.658	89.62
393.882	83.62
394.107	97.62
394.331	83.62
394.556	78.62
394.78	100.62
395.005	84.62
395.229	90.62
395.454	80.62
395.678	90.62
395.903	71.62
396.127	94.62
396.352	91.62
396.576	87.62
396.801	90.62
397.025	81.62
397.249	85.62
397.474	97.62
397.698	75.62
397.922	84.62
398.147	87.62
398.371	97.62
398.595	103.62
398.82	83.62
399.044	75.62
399.268	87.62
399.492	82.62
399.717	84.62
399.941	103.62
400.165	98.62
400.389	87.62
400.613	84.62
400.837	73.62
401.062	90.62
401.286	83.62
401.51	85.62
401.734	100.62
401.958	94.62
402.182	113.62
402.406	143.62
402.63	98.62
402.854	86.62
403.078	81.62
403.302	72.62
403.526	94.62
403.75	94.62
403.974	70.62
404.198	95.62
404.422	91.62
404.645	91.62
404.869	85.62
405.093	82.62
405.317	90.62
405.541	99.62
405.765	89.62
405.988	105.62
406.212	163.62
406.436	189.62
406.66	119.62
406.883	106.62
407.107	98.62
407.331	79.62
407.555	86.62
407.778	94.62
408.002	88.62
408.226	80.62
408.449	76.62
408.673	90.62
408.896	97.62
409.12	90.62
409.344	83.62
409.567	96.62
409.791	84.62
410.014	92.62
410.238	86.62
410.461	85.62
410.685	93.62
410.908	91.62
411.132	112.62
411.355	98.62
411.578	96.62
411.802	97.62
412.025	84.62
412.249	89.62
412.472	93.62
412.695	98.62
412.919	87.62
413.142	104.62
413.365	87.62
413.589	89.62
413.812	87.62
414.035	94.62
414.258	73.62
414.482	91.62
414.705	89.62
414.928	86.62
415.151	88.62
415.374	96.62
415.597	67.62
415.821	95.62
416.044	93.62
416.267	86.62
416.49	89.62
416.713	91.62
416.936	81.62
417.159	80.62
417.382	92.62
417.605	102.62
417.828	85.62
418.051	87.62
418.274	84.62
418.497	83.62
418.72	85.62
418.943	88.62
419.166	83.62
419.389	86.62
419.611	86.62
419.834	83.62
420.057	86.62
420.28	90.62
420.503	87.62
420.726	92.62
420.948	83.62
421.171	76.62
421.394	87.62
421.617	81.62
421.839	86.62
422.062	81.62
422.285	85.62
422.507	75.62
422.73	101.62
422.953	84.62
423.175	88.62
423.398	101.62
423.621	90.62
423.843	91.62
424.066	88.62
424.288	85.62
424.511	93.62
424.733	93.62
424.956	103.62
425.178	89.62
425.401	103.62
425.623	87.62
425.846	81.62
426.068	85.62
426.291	88.62
426.513	100.62
426.735	98.62
426.958	75.62
427.18	102.62
427.402	122.62
427.625	138.62
427.847	118.62
428.069	114.62
428.292	83.62
428.514	82.62
428.736	94.62
428.958	82.62
429.181	94.62
429.403	99.62
429.625	92.62
429.847	93.62
430.069	94.62
430.292	85.62
430.514	86.62
430.736	81.62
430.958	82.62
431.18	72.62
431.402	81.62
431.624	89.62
431.846	73.62
432.068	92.62
432.29	80.62
432.512	79.62
432.734	83.62
432.956	70.62
433.178	98.62
433.4	88.62
433.622	95.62
433.844	96.62
434.066	86.62
434.287	97.62
434.509	84.62
434.731	93.62
434.953	95.62
435.175	89.62
435.397	80.62
435.618	87.62
435.84	92.62
436.062	111.62
436.284	92.62
436.505	90.62
436.727	102.62
436.949	89.62
437.17	90.62
437.392	87.62
437.614	89.62
437.835	81.62
438.057	90.62
438.278	93.62
438.5	98.62
438.721	105.62
438.943	82.62
439.165	88.62
439.386	96.62
439.608	94.62
439.829	87.62
440.05	112.62
440.272	112.62
440.493	99.62
440.715	89.62
440.936	72.62
441.158	74.62
441.379	79.62
441.6	84.62
441.822	78.62
442.043	80.62
442.264	95.62
442.486	78.62
442.707	84.62
442.928	91.62
443.149	118.62
443.371	108.62
443.592	101.62
443.813	115.62
444.034	96.62
444.255	94.62
444.476	97.62
444.698	73.62
444.919	87.62
445.14	122.62
445.361	116.62
445.582	106.62
445.803	107.62
446.024	110.62
446.245	110.62
446.466	95.62
446.687	90.62
446.908	91.62
447.129	81.62
447.35	88.62
447.571	82.62
447.792	76.62
448.013	94.62
448.234	102.62
448.455	89.62
448.675	100.62
448.896	100.62
449.117	87.62
449.338	99.62
449.559	129.62
449.779	108.62
450	89.62
450.221	95.62
450.442	84.62
450.662	82.62
450.883	101.62
451.104	75.62
451.324	104.62
451.545	85.62
451.766	90.62
451.986	80.62
452.207	88.62
452.428	71.62
452.648	90.62
452.869	95.62
453.089	109.62
453.31	108.62
453.53	104.62
453.751	91.62
453.971	105.62
454.192	105.62
454.412	99.62
454.633	83.62
454.853	76.62
455.073	84.62
455.294	81.62
455.514	91.62
455.734	96.62
455.955	86.62
456.175	79.62
456.395	72.62
456.616	94.62
456.836	86.62
457.056	81.62
457.276	78.62
457.497	74.62
457.717	84.62
457.937	91.62
458.157	97.62
458.377	78.62
458.598	102.62
458.818	136.62
459.038	131.62
459.258	96.62
459.478	83.62
459.698	89.62
459.918	80.62
460.138	94.62
460.358	88.62
460.578	75.62
460.798	82.62
461.018	96.62
461.238	86.62
461.458	85.62
461.678	84.62
461.898	89.62
462.118	96.62
462.338	86.62
462.558	85.62
462.777	80.62
462.997	98.62
463.217	80.62
463.437	106.62
463.657	84.62
463.876	89.62
464.096	79.62
464.316	84.62
464.536	107.62
464.755	96.62
464.975	93.62
465.195	135.62
465.414	118.62
465.634	89.62
465.854	99.62
466.073	84.62
466.293	82.62
466.512	85.62
466.732	85.62
466.951	76.62
467.171	85.62
467.391	94.62
467.61	109.62
467.829	99.62
468.049	117.62
468.268	137.62
468.488	99.62
468.707	92.62
468.927	93.62
469.146	85.62
469.365	68.62
469.585	93.62
469.804	96.62
470.023	96.62
470.243	104.62
470.462	97.62
470.681	103.62
470.901	95.62
471.12	82.62
471.339	107.62
471.558	68.62
471.777	85.62
471.997	99.62
472.216	159.62
472.435	234.62
472.654	118.62
472.873	104.62
473.092	80.62
473.311	80.62
473.53	85.62
473.749	67.62
473.968	90.62
474.187	90.62
474.406	93.62
474.625	91.62
474.844	96.62
475.063	90.62
475.282	95.62
475.501	96.62
475.72	76.62
475.939	80.62
476.158	86.62
476.377	84.62
476.596	91.62
476.814	110.62
477.033	105.62
477.252	88.62
477.471	97.62
477.69	88.62
477.908	80.62
478.127	83.62
478.346	96.62
478.564	78.62
478.783	95.62
479.002	97.62
479.22	81.62
479.439	101.62
479.658	92.62
479.876	82.62
480.095	100.62
480.313	106.62
480.532	89.62
480.751	108.62
480.969	163.62
481.188	376.62
481.406	235.62
481.624	104.62
481.843	84.62
482.061	96.62
482.28	84.62
482.498	73.62
482.717	87.62
482.935	96.62
483.153	82.62
483.372	89.62
483.59	90.62
483.808	88.62
484.027	81.62
484.245	106.62
484.463	86.62
484.681	111.62
484.9	92.62
485.118	98.62
485.336	88.62
485.554	91.62
485.772	93.62
485.99	102.62
486.209	103.62
486.427	99.62
486.645	97.62
486.863	101.62
487.081	98.62
487.299	94.62
487.517	102.62
487.735	96.62
487.953	95.62
488.171	90.62
488.389	95.62
488.607	91.62
488.825	96.62
489.043	102.62
489.261	72.62
489.479	87.62
489.696	75.62
489.914	80.62
490.132	86.62
490.35	102.62
490.568	90.62
490.786	100.62
491.003	90.62
491.221	91.62
491.439	89.62
491.657	92.62
491.874	84.62
492.092	75.62
492.31	88.62
492.527	79.62
492.745	100.62
492.963	80.62
493.18	100.62
493.398	71.62
493.615	84.62
493.833	95.62
494.05	95.62
494.268	89.62
494.485	75.62
494.703	74.62
494.92	77.62
495.138	80.62
495.355	85.62
495.573	90.62
495.79	89.62
496.008	98.62
496.225	91.62
496.442	80.62
496.66	96.62
496.877	97.62
497.094	100.62
497.312	95.62
497.529	88.62
497.746	98.62
497.963	82.62
498.181	98.62
498.398	91.62
498.615	102.62
498.832	92.62
499.049	72.62
499.267	97.62
499.484	78.62
499.701	78.62
499.918	93.62
500.135	90.62
500.352	88.62
500.569	102.62
500.786	86.62
501.003	90.62
501.22	90.62
501.437	95.62
501.654	87.62
501.871	100.62
502.088	98.62
502.305	95.62
502.522	85.62
502.739	97.62
502.956	100.62
503.172	93.62
503.389	99.62
503.606	104.62
503.823	85.62
504.04	89.62
504.256	90.62
504.473	94.62
504.69	95.62
504.907	92.62
505.123	92.62
505.34	104.62
505.557	100.62
505.773	96.62
505.99	92.62
506.207	80.62
506.423	75.62
506.64	93.62
506.856	99.62
507.073	94.62
507.289	86.62
507.506	102.62
507.722	98.62
507.939	99.62
508.155	107.62
508.372	103.62
508.588	89.62
508.805	104.62
509.021	111.62
509.238	76.62
509.454	91.62
509.67	86.62
509.887	108.62
510.103	117.62
510.319	191.62
510.536	592.62
510.752	1750.62
510.968	492.62
511.184	138.62
511.401	105.62
511.617	88.62
511.833	98.62
512.049	89.62
512.265	78.62
512.481	92.62
512.698	96.62
512.914	101.62
513.13	85.62
513.346	87.62
513.562	95.62
513.778	84.62
513.994	91.62
514.21	99.62
514.426	105.62
514.642	127.62
514.858	109.62
515.074	154.62
515.29	334.62
515.506	1052.62
515.721	386.62
515.937	124.62
516.153	98.62
516.369	96.62
