Data from Circ_1986_H10_HRD10591_00023.txt Node
Date: Wed Jan 03 12:15:30 EST 2024
User: Yrep
Spectrometer: HR+D1059
Trigger mode: 1
Integration Time (sec): 1.000000E-1
Scans to average: 1
Electric dark correction enabled: true
Nonlinearity correction enabled: false
Boxcar width: 0
XAxis mode: Wavelengths
Number of Pixels in Spectrum: 2048
>>>>>Begin Spectral Data<<<<<
223.165	-22.56
223.4	-22.56
223.635	-22.56
223.869	-18.56
224.104	-19.56
224.338	-7.56
224.573	-2.56
224.808	-19.56
225.042	-13.56
225.277	-6.56
225.511	-2.56
225.746	2.44
225.98	13.44
226.215	6.44
226.449	10.44
226.683	25.44
226.918	21.44
227.152	33.44
227.387	40.44
227.621	34.44
227.856	60.44
228.09	37.44
228.324	44.44
228.559	60.44
228.793	54.44
229.027	71.44
229.262	69.44
229.496	71.44
229.73	76.44
229.964	72.44
230.199	78.44
230.433	81.44
230.667	80.44
230.901	86.44
231.136	74.44
231.37	74.44
231.604	91.44
231.838	75.44
232.072	84.44
232.306	84.44
232.541	90.44
232.775	96.44
233.009	106.44
233.243	82.44
233.477	81.44
233.711	82.44
233.945	85.44
234.179	77.44
234.413	72.44
234.647	88.44
234.881	84.44
235.115	83.44
235.349	84.44
235.583	82.44
235.817	89.44
236.051	90.44
236.285	85.44
236.519	87.44
236.753	71.44
236.987	73.44
237.221	81.44
237.455	78.44
237.689	74.44
237.922	83.44
238.156	88.44
238.39	82.44
238.624	81.44
238.858	90.44
239.091	91.44
239.325	87.44
239.559	80.44
239.793	80.44
240.027	87.44
240.26	88.44
240.494	68.44
240.728	64.44
240.961	76.44
241.195	98.44
241.429	93.44
241.662	69.44
241.896	66.44
242.13	92.44
242.363	82.44
242.597	67.44
242.83	77.44
243.064	76.44
243.298	86.44
243.531	80.44
243.765	82.44
243.998	84.44
244.232	76.44
244.465	78.44
244.699	61.44
244.932	68.44
245.166	71.44
245.399	86.44
245.633	70.44
245.866	85.44
246.099	75.44
246.333	80.44
246.566	75.44
246.8	73.44
247.033	87.44
247.266	82.44
247.5	68.44
247.733	87.44
247.966	70.44
248.2	79.44
248.433	79.44
248.666	82.44
248.899	72.44
249.133	86.44
249.366	94.44
249.599	97.44
249.832	87.44
250.066	88.44
250.299	85.44
250.532	82.44
250.765	84.44
250.998	72.44
251.231	93.44
251.465	86.44
251.698	88.44
251.931	78.44
252.164	67.44
252.397	81.44
252.63	85.44
252.863	93.44
253.096	89.44
253.329	89.44
253.562	77.44
253.795	100.44
254.028	92.44
254.261	80.44
254.494	87.44
254.727	81.44
254.96	74.44
255.193	86.44
255.426	90.44
255.659	80.44
255.892	77.44
256.124	86.44
256.357	83.44
256.59	82.44
256.823	85.44
257.056	91.44
257.289	92.44
257.521	72.44
257.754	90.44
257.987	97.44
258.22	89.44
258.452	89.44
258.685	73.44
258.918	73.44
259.151	69.44
259.383	77.44
259.616	77.44
259.849	92.44
260.081	96.44
260.314	83.44
260.547	86.44
260.779	70.44
261.012	86.44
261.244	80.44
261.477	90.44
261.71	83.44
261.942	92.44
262.175	116.44
262.407	97.44
262.64	90.44
262.872	92.44
263.105	80.44
263.337	89.44
263.57	88.44
263.802	89.44
264.035	93.44
264.267	90.44
264.499	98.44
264.732	91.44
264.964	87.44
265.197	77.44
265.429	91.44
265.661	83.44
265.894	81.44
266.126	78.44
266.358	78.44
266.591	89.44
266.823	98.44
267.055	73.44
267.287	94.44
267.52	73.44
267.752	90.44
267.984	81.44
268.216	82.44
268.448	83.44
268.681	85.44
268.913	78.44
269.145	91.44
269.377	76.44
269.609	85.44
269.841	80.44
270.073	87.44
270.306	88.44
270.538	81.44
270.77	80.44
271.002	88.44
271.234	89.44
271.466	89.44
271.698	93.44
271.93	92.44
272.162	88.44
272.394	96.44
272.626	87.44
272.858	72.44
273.09	88.44
273.322	91.44
273.553	89.44
273.785	68.44
274.017	82.44
274.249	87.44
274.481	100.44
274.713	85.44
274.945	92.44
275.176	84.44
275.408	90.44
275.64	89.44
275.872	84.44
276.104	78.44
276.335	92.44
276.567	96.44
276.799	102.44
277.031	99.44
277.262	88.44
277.494	80.44
277.726	78.44
277.957	80.44
278.189	88.44
278.421	96.44
278.652	93.44
278.884	77.44
279.115	84.44
279.347	82.44
279.579	90.44
279.81	92.44
280.042	91.44
280.273	101.44
280.505	86.44
280.736	93.44
280.968	78.44
281.199	88.44
281.431	81.44
281.662	89.44
281.894	78.44
282.125	100.44
282.356	109.44
282.588	124.44
282.819	105.44
283.051	86.44
283.282	82.44
283.513	94.44
283.745	88.44
283.976	96.44
284.207	84.44
284.439	88.44
284.67	99.44
284.901	98.44
285.132	91.44
285.364	96.44
285.595	85.44
285.826	82.44
286.057	86.44
286.288	75.44
286.52	96.44
286.751	86.44
286.982	80.44
287.213	86.44
287.444	98.44
287.675	88.44
287.906	86.44
288.138	86.44
288.369	86.44
288.6	70.44
288.831	89.44
289.062	80.44
289.293	78.44
289.524	82.44
289.755	71.44
289.986	90.44
290.217	88.44
290.448	84.44
290.679	92.44
290.91	99.44
291.141	97.44
291.371	93.44
291.602	91.44
291.833	86.44
292.064	88.44
292.295	81.44
292.526	97.44
292.757	93.44
292.987	100.44
293.218	101.44
293.449	99.44
293.68	82.44
293.91	91.44
294.141	87.44
294.372	74.44
294.603	87.44
294.833	102.44
295.064	96.44
295.295	96.44
295.525	98.44
295.756	105.44
295.987	105.44
296.217	109.44
296.448	109.44
296.679	95.44
296.909	96.44
297.14	93.44
297.37	80.44
297.601	82.44
297.831	93.44
298.062	93.44
298.292	89.44
298.523	90.44
298.753	93.44
298.984	83.44
299.214	92.44
299.445	92.44
299.675	87.44
299.905	96.44
300.136	85.44
300.366	82.44
300.597	82.44
300.827	88.44
301.057	77.44
301.288	96.44
301.518	91.44
301.748	80.44
301.979	110.44
302.209	96.44
302.439	97.44
302.669	85.44
302.9	85.44
303.13	73.44
303.36	72.44
303.59	90.44
303.82	92.44
304.051	87.44
304.281	97.44
304.511	93.44
304.741	103.44
304.971	86.44
305.201	88.44
305.431	88.44
305.661	93.44
305.891	92.44
306.121	96.44
306.352	107.44
306.582	90.44
306.812	90.44
307.042	96.44
307.272	104.44
307.502	84.44
307.731	88.44
307.961	90.44
308.191	84.44
308.421	112.44
308.651	90.44
308.881	95.44
309.111	89.44
309.341	83.44
309.571	89.44
309.8	76.44
310.03	91.44
310.26	86.44
310.49	89.44
310.72	94.44
310.949	96.44
311.179	96.44
311.409	92.44
311.639	92.44
311.868	94.44
312.098	97.44
312.328	95.44
312.557	91.44
312.787	96.44
313.017	108.44
313.246	91.44
313.476	90.44
313.706	91.44
313.935	95.44
314.165	94.44
314.394	100.44
314.624	112.44
314.853	89.44
315.083	83.44
315.312	92.44
315.542	78.44
315.771	106.44
316.001	92.44
316.23	100.44
316.46	88.44
316.689	89.44
316.919	94.44
317.148	82.44
317.377	89.44
317.607	101.44
317.836	84.44
318.065	81.44
318.295	85.44
318.524	85.44
318.753	93.44
318.983	102.44
319.212	96.44
319.441	97.44
319.67	100.44
319.9	76.44
320.129	73.44
320.358	88.44
320.587	88.44
320.816	94.44
321.046	109.44
321.275	104.44
321.504	97.44
321.733	99.44
321.962	92.44
322.191	110.44
322.42	99.44
322.649	115.44
322.878	109.44
323.108	108.44
323.337	109.44
323.566	129.44
323.795	150.44
324.024	164.44
324.253	291.44
324.482	556.44
324.71	1195.44
324.939	1526.44
325.168	573.44
325.397	199.44
325.626	126.44
325.855	114.44
326.084	100.44
326.313	119.44
326.542	132.44
326.77	186.44
326.999	343.44
327.228	693.44
327.457	1232.44
327.686	980.44
327.914	292.44
328.143	174.44
328.372	135.44
328.6	113.44
328.829	124.44
329.058	120.44
329.287	106.44
329.515	106.44
329.744	101.44
329.972	111.44
330.201	100.44
330.43	134.44
330.658	132.44
330.887	131.44
331.115	111.44
331.344	98.44
331.572	94.44
331.801	81.44
332.03	104.44
332.258	90.44
332.486	101.44
332.715	90.44
332.943	91.44
333.172	92.44
333.4	94.44
333.629	108.44
333.857	111.44
334.085	86.44
334.314	108.44
334.542	136.44
334.771	129.44
334.999	100.44
335.227	92.44
335.455	106.44
335.684	93.44
335.912	117.44
336.14	94.44
336.369	82.44
336.597	99.44
336.825	85.44
337.053	92.44
337.281	99.44
337.51	88.44
337.738	83.44
337.966	93.44
338.194	102.44
338.422	100.44
338.65	91.44
338.878	94.44
339.106	100.44
339.334	90.44
339.562	100.44
339.79	100.44
340.018	81.44
340.246	115.44
340.474	103.44
340.702	94.44
340.93	100.44
341.158	98.44
341.386	98.44
341.614	92.44
341.842	88.44
342.07	97.44
342.298	93.44
342.526	96.44
342.754	89.44
342.981	81.44
343.209	93.44
343.437	105.44
343.665	76.44
343.893	106.44
344.12	102.44
344.348	99.44
344.576	93.44
344.804	100.44
345.031	98.44
345.259	80.44
345.487	80.44
345.714	88.44
345.942	104.44
346.17	99.44
346.397	84.44
346.625	90.44
346.853	91.44
347.08	93.44
347.308	97.44
347.535	97.44
347.763	101.44
347.99	89.44
348.218	91.44
348.445	106.44
348.673	84.44
348.9	97.44
349.128	98.44
349.355	98.44
349.583	101.44
349.81	100.44
350.037	94.44
350.265	80.44
350.492	90.44
350.72	98.44
350.947	102.44
351.174	105.44
351.402	110.44
351.629	98.44
351.856	101.44
352.083	98.44
352.311	109.44
352.538	111.44
352.765	112.44
352.992	92.44
353.22	118.44
353.447	118.44
353.674	104.44
353.901	99.44
354.128	94.44
354.355	105.44
354.583	101.44
354.81	102.44
355.037	101.44
355.264	87.44
355.491	95.44
355.718	86.44
355.945	88.44
356.172	94.44
356.399	87.44
356.626	111.44
356.853	93.44
357.08	96.44
357.307	93.44
357.534	109.44
357.761	110.44
357.988	93.44
358.215	106.44
358.441	98.44
358.668	128.44
358.895	88.44
359.122	102.44
359.349	100.44
359.576	97.44
359.802	112.44
360.029	103.44
360.256	108.44
360.483	87.44
360.709	83.44
360.936	100.44
361.163	89.44
361.39	96.44
361.616	97.44
361.843	93.44
362.07	90.44
362.296	83.44
362.523	88.44
362.749	99.44
362.976	91.44
363.203	99.44
363.429	83.44
363.656	81.44
363.882	100.44
364.109	96.44
364.335	91.44
364.562	99.44
364.788	98.44
365.015	103.44
365.241	97.44
365.468	92.44
365.694	101.44
365.92	96.44
366.147	67.44
366.373	98.44
366.599	94.44
366.826	74.44
367.052	100.44
367.278	88.44
367.505	91.44
367.731	96.44
367.957	89.44
368.184	92.44
368.41	100.44
368.636	108.44
368.862	120.44
369.089	110.44
369.315	86.44
369.541	99.44
369.767	93.44
369.993	91.44
370.219	87.44
370.445	89.44
370.672	87.44
370.898	92.44
371.124	97.44
371.35	96.44
371.576	95.44
371.802	84.44
372.028	82.44
372.254	89.44
372.48	81.44
372.706	88.44
372.932	106.44
373.158	90.44
373.384	101.44
373.61	90.44
373.835	96.44
374.061	80.44
374.287	82.44
374.513	103.44
374.739	99.44
374.965	78.44
375.191	95.44
375.416	96.44
375.642	93.44
375.868	93.44
376.094	100.44
376.319	93.44
376.545	99.44
376.771	106.44
376.997	82.44
377.222	86.44
377.448	91.44
377.674	94.44
377.899	93.44
378.125	100.44
378.35	107.44
378.576	105.44
378.802	107.44
379.027	82.44
379.253	92.44
379.478	98.44
379.704	97.44
379.929	109.44
380.155	104.44
380.38	97.44
380.606	101.44
380.831	106.44
381.057	99.44
381.282	97.44
381.507	108.44
381.733	103.44
381.958	104.44
382.184	94.44
382.409	94.44
382.634	103.44
382.86	100.44
383.085	115.44
383.31	107.44
383.535	111.44
383.761	109.44
383.986	98.44
384.211	105.44
384.436	106.44
384.662	102.44
384.887	121.44
385.112	116.44
385.337	113.44
385.562	117.44
385.787	111.44
386.013	128.44
386.238	128.44
386.463	119.44
386.688	108.44
386.913	124.44
387.138	107.44
387.363	121.44
387.588	120.44
387.813	121.44
388.038	113.44
388.263	115.44
388.488	115.44
388.713	108.44
388.938	92.44
389.163	87.44
389.387	83.44
389.612	86.44
389.837	83.44
390.062	95.44
390.287	100.44
390.512	100.44
390.736	90.44
390.961	86.44
391.186	108.44
391.411	89.44
391.636	91.44
391.86	83.44
392.085	77.44
392.31	75.44
392.534	90.44
392.759	107.44
392.984	96.44
393.208	99.44
393.433	84.44
393.658	90.44
393.882	74.44
394.107	91.44
394.331	92.44
394.556	79.44
394.78	78.44
395.005	80.44
395.229	92.44
395.454	89.44
395.678	78.44
395.903	89.44
396.127	90.44
396.352	80.44
396.576	81.44
396.801	86.44
397.025	96.44
397.249	93.44
397.474	85.44
397.698	87.44
397.922	87.44
398.147	98.44
398.371	87.44
398.595	92.44
398.82	89.44
399.044	83.44
399.268	93.44
399.492	100.44
399.717	87.44
399.941	88.44
400.165	112.44
400.389	88.44
400.613	102.44
400.837	96.44
401.062	87.44
401.286	92.44
401.51	95.44
401.734	85.44
401.958	113.44
402.182	126.44
402.406	124.44
402.63	105.44
402.854	96.44
403.078	84.44
403.302	92.44
403.526	90.44
403.75	91.44
403.974	89.44
404.198	99.44
404.422	78.44
404.645	84.44
404.869	84.44
405.093	91.44
405.317	100.44
405.541	88.44
405.765	77.44
405.988	105.44
406.212	141.44
406.436	169.44
406.66	103.44
406.883	96.44
407.107	105.44
407.331	105.44
407.555	79.44
407.778	92.44
408.002	96.44
408.226	80.44
408.449	86.44
408.673	88.44
408.896	106.44
409.12	101.44
409.344	94.44
409.567	92.44
409.791	106.44
410.014	99.44
410.238	85.44
410.461	99.44
410.685	88.44
410.908	119.44
411.132	105.44
411.355	96.44
411.578	103.44
411.802	81.44
412.025	87.44
412.249	81.44
412.472	81.44
412.695	92.44
412.919	114.44
413.142	100.44
413.365	94.44
413.589	99.44
413.812	92.44
414.035	92.44
414.258	99.44
414.482	96.44
414.705	85.44
414.928	96.44
415.151	93.44
415.374	91.44
415.597	92.44
415.821	93.44
416.044	95.44
416.267	92.44
416.49	89.44
416.713	105.44
416.936	96.44
417.159	90.44
417.382	82.44
417.605	91.44
417.828	110.44
418.051	99.44
418.274	87.44
418.497	84.44
418.72	95.44
418.943	78.44
419.166	98.44
419.389	110.44
419.611	100.44
419.834	102.44
420.057	93.44
420.28	97.44
420.503	86.44
420.726	91.44
420.948	90.44
421.171	90.44
421.394	93.44
421.617	94.44
421.839	104.44
422.062	92.44
422.285	108.44
422.507	102.44
422.73	113.44
422.953	107.44
423.175	96.44
423.398	71.44
423.621	94.44
423.843	85.44
424.066	83.44
424.288	86.44
424.511	89.44
424.733	94.44
424.956	103.44
425.178	97.44
425.401	93.44
425.623	73.44
425.846	104.44
426.068	92.44
426.291	77.44
426.513	97.44
426.735	104.44
426.958	80.44
427.18	95.44
427.402	111.44
427.625	131.44
427.847	117.44
428.069	105.44
428.292	81.44
428.514	103.44
428.736	99.44
428.958	85.44
429.181	89.44
429.403	77.44
429.625	84.44
429.847	92.44
430.069	86.44
430.292	86.44
430.514	86.44
430.736	88.44
430.958	98.44
431.18	93.44
431.402	88.44
431.624	91.44
431.846	90.44
432.068	96.44
432.29	80.44
432.512	75.44
432.734	79.44
432.956	96.44
433.178	96.44
433.4	94.44
433.622	100.44
433.844	90.44
434.066	95.44
434.287	98.44
434.509	94.44
434.731	88.44
434.953	75.44
435.175	104.44
435.397	100.44
435.618	101.44
435.84	108.44
436.062	110.44
436.284	107.44
436.505	98.44
436.727	96.44
436.949	91.44
437.17	94.44
437.392	79.44
437.614	82.44
437.835	94.44
438.057	93.44
438.278	108.44
438.5	94.44
438.721	116.44
438.943	92.44
439.165	79.44
439.386	92.44
439.608	91.44
439.829	93.44
440.05	101.44
440.272	121.44
440.493	93.44
440.715	97.44
440.936	81.44
441.158	86.44
441.379	83.44
441.6	94.44
441.822	102.44
442.043	93.44
442.264	93.44
442.486	104.44
442.707	100.44
442.928	95.44
443.149	118.44
443.371	113.44
443.592	94.44
443.813	90.44
444.034	93.44
444.255	92.44
444.476	85.44
444.698	89.44
444.919	76.44
445.14	109.44
445.361	119.44
445.582	117.44
445.803	124.44
446.024	114.44
446.245	124.44
446.466	114.44
446.687	83.44
446.908	94.44
447.129	69.44
447.35	104.44
447.571	96.44
447.792	90.44
448.013	91.44
448.234	114.44
448.455	96.44
448.675	119.44
448.896	104.44
449.117	93.44
449.338	104.44
449.559	110.44
449.779	112.44
450	105.44
450.221	104.44
450.442	95.44
450.662	85.44
450.883	94.44
451.104	99.44
451.324	86.44
451.545	102.44
451.766	98.44
451.986	92.44
452.207	83.44
452.428	92.44
452.648	87.44
452.869	105.44
453.089	105.44
453.31	106.44
453.53	115.44
453.751	96.44
453.971	113.44
454.192	99.44
454.412	92.44
454.633	89.44
454.853	76.44
455.073	55.44
455.294	84.44
455.514	101.44
455.734	84.44
455.955	89.44
456.175	77.44
456.395	73.44
456.616	78.44
456.836	84.44
457.056	91.44
457.276	94.44
457.497	89.44
457.717	96.44
457.937	94.44
458.157	76.44
458.377	104.44
458.598	89.44
458.818	112.44
459.038	128.44
459.258	97.44
459.478	89.44
459.698	76.44
459.918	102.44
460.138	82.44
460.358	91.44
460.578	89.44
460.798	90.44
461.018	71.44
461.238	93.44
461.458	89.44
461.678	93.44
461.898	86.44
462.118	82.44
462.338	85.44
462.558	88.44
462.777	86.44
462.997	85.44
463.217	93.44
463.437	83.44
463.657	88.44
463.876	76.44
464.096	90.44
464.316	86.44
464.536	92.44
464.755	95.44
464.975	97.44
465.195	136.44
465.414	124.44
465.634	91.44
465.854	92.44
466.073	83.44
466.293	98.44
466.512	89.44
466.732	88.44
466.951	89.44
467.171	100.44
467.391	104.44
467.61	97.44
467.829	100.44
468.049	113.44
468.268	105.44
468.488	89.44
468.707	90.44
468.927	71.44
469.146	84.44
469.365	93.44
469.585	78.44
469.804	81.44
470.023	88.44
470.243	80.44
470.462	85.44
470.681	96.44
470.901	100.44
471.12	99.44
471.339	93.44
471.558	85.44
471.777	89.44
471.997	84.44
472.216	112.44
472.435	141.44
472.654	87.44
472.873	89.44
473.092	99.44
473.311	99.44
473.53	91.44
473.749	93.44
473.968	83.44
474.187	102.44
474.406	99.44
474.625	93.44
474.844	96.44
475.063	93.44
475.282	83.44
475.501	90.44
475.72	76.44
475.939	88.44
476.158	82.44
476.377	90.44
476.596	97.44
476.814	92.44
477.033	90.44
477.252	95.44
477.471	84.44
477.69	101.44
477.908	86.44
478.127	96.44
478.346	89.44
478.564	92.44
478.783	98.44
479.002	98.44
479.22	93.44
479.439	95.44
479.658	102.44
479.876	97.44
480.095	96.44
480.313	97.44
480.532	83.44
480.751	101.44
480.969	104.44
481.188	194.44
481.406	148.44
481.624	99.44
481.843	92.44
482.061	86.44
482.28	88.44
482.498	90.44
482.717	90.44
482.935	92.44
483.153	91.44
483.372	87.44
483.59	77.44
483.808	87.44
484.027	103.44
484.245	95.44
484.463	94.44
484.681	113.44
484.9	94.44
485.118	92.44
485.336	100.44
485.554	102.44
485.772	88.44
485.99	110.44
486.209	106.44
486.427	93.44
486.645	115.44
486.863	96.44
487.081	111.44
487.299	102.44
487.517	108.44
487.735	87.44
487.953	106.44
488.171	103.44
488.389	105.44
488.607	93.44
488.825	85.44
489.043	94.44
489.261	88.44
489.479	89.44
489.696	94.44
489.914	84.44
490.132	84.44
490.35	82.44
490.568	81.44
490.786	89.44
491.003	84.44
491.221	103.44
491.439	94.44
491.657	110.44
491.874	102.44
492.092	92.44
492.31	96.44
492.527	82.44
492.745	96.44
492.963	93.44
493.18	88.44
493.398	64.44
493.615	89.44
493.833	99.44
494.05	92.44
494.268	98.44
494.485	95.44
494.703	93.44
494.92	84.44
495.138	96.44
495.355	98.44
495.573	91.44
495.79	98.44
496.008	94.44
496.225	86.44
496.442	92.44
496.66	100.44
496.877	106.44
497.094	96.44
497.312	91.44
497.529	90.44
497.746	102.44
497.963	100.44
498.181	102.44
498.398	84.44
498.615	103.44
498.832	114.44
499.049	112.44
499.267	88.44
499.484	92.44
499.701	94.44
499.918	81.44
500.135	90.44
500.352	85.44
500.569	83.44
500.786	91.44
501.003	94.44
501.22	74.44
501.437	80.44
501.654	95.44
501.871	100.44
502.088	84.44
502.305	96.44
502.522	88.44
502.739	87.44
502.956	96.44
503.172	66.44
503.389	104.44
503.606	108.44
503.823	100.44
504.04	91.44
504.256	99.44
504.473	97.44
504.69	66.44
504.907	107.44
505.123	84.44
505.34	91.44
505.557	90.44
505.773	85.44
505.99	91.44
506.207	72.44
506.423	89.44
506.64	82.44
506.856	95.44
507.073	85.44
507.289	90.44
507.506	94.44
507.722	95.44
507.939	89.44
508.155	85.44
508.372	87.44
508.588	77.44
508.805	92.44
509.021	90.44
509.238	106.44
509.454	91.44
509.67	89.44
509.887	115.44
510.103	118.44
510.319	172.44
510.536	534.44
510.752	1501.44
510.968	454.44
511.184	131.44
511.401	103.44
511.617	89.44
511.833	87.44
512.049	103.44
512.265	86.44
512.481	84.44
512.698	89.44
512.914	99.44
513.13	108.44
513.346	96.44
513.562	99.44
513.778	87.44
513.994	96.44
514.21	90.44
514.426	116.44
514.642	118.44
514.858	113.44
515.074	139.44
515.29	312.44
515.506	872.44
