Data from Circ_1986_H10_HRD10591_00028.txt Node
Date: Wed Jan 03 12:15:31 EST 2024
User: Yrep
Spectrometer: HR+D1059
Trigger mode: 1
Integration Time (sec): 1.000000E-1
Scans to average: 1
Electric dark correction enabled: true
Nonlinearity correction enabled: false
Boxcar width: 0
XAxis mode: Wavelengths
Number of Pixels in Spectrum: 2048
>>>>>Begin Spectral Data<<<<<
223.165	-4.75
223.4	-4.75
223.635	-4.75
223.869	-33.75
224.104	-20.75
224.338	-17.75
224.573	-14.75
224.808	-11.75
225.042	-3.75
225.277	-6.75
225.511	5.25
225.746	6.25
225.98	14.25
226.215	4.25
226.449	9.25
226.683	6.25
226.918	33.25
227.152	35.25
227.387	24.25
227.621	28.25
227.856	41.25
228.09	46.25
228.324	36.25
228.559	62.25
228.793	63.25
229.027	66.25
229.262	55.25
229.496	77.25
229.73	76.25
229.964	71.25
230.199	63.25
230.433	66.25
230.667	70.25
230.901	81.25
231.136	69.25
231.37	73.25
231.604	83.25
231.838	80.25
232.072	80.25
232.306	65.25
232.541	88.25
232.775	73.25
233.009	74.25
233.243	94.25
233.477	74.25
233.711	81.25
233.945	78.25
234.179	80.25
234.413	66.25
234.647	82.25
234.881	78.25
235.115	86.25
235.349	68.25
235.583	72.25
235.817	87.25
236.051	86.25
236.285	67.25
236.519	76.25
236.753	73.25
236.987	84.25
237.221	72.25
237.455	77.25
237.689	81.25
237.922	84.25
238.156	79.25
238.39	71.25
238.624	86.25
238.858	72.25
239.091	81.25
239.325	78.25
239.559	76.25
239.793	71.25
240.027	93.25
240.26	73.25
240.494	64.25
240.728	70.25
240.961	80.25
241.195	77.25
241.429	73.25
241.662	80.25
241.896	69.25
242.13	84.25
242.363	89.25
242.597	71.25
242.83	74.25
243.064	66.25
243.298	74.25
243.531	76.25
243.765	80.25
243.998	78.25
244.232	69.25
244.465	73.25
244.699	68.25
244.932	80.25
245.166	74.25
245.399	84.25
245.633	81.25
245.866	81.25
246.099	74.25
246.333	84.25
246.566	66.25
246.8	76.25
247.033	78.25
247.266	89.25
247.5	85.25
247.733	93.25
247.966	79.25
248.2	86.25
248.433	79.25
248.666	91.25
248.899	67.25
249.133	73.25
249.366	85.25
249.599	79.25
249.832	79.25
250.066	78.25
250.299	76.25
250.532	71.25
250.765	77.25
250.998	73.25
251.231	87.25
251.465	86.25
251.698	76.25
251.931	71.25
252.164	67.25
252.397	73.25
252.63	72.25
252.863	78.25
253.096	76.25
253.329	93.25
253.562	87.25
253.795	87.25
254.028	83.25
254.261	82.25
254.494	84.25
254.727	86.25
254.96	86.25
255.193	72.25
255.426	73.25
255.659	82.25
255.892	82.25
256.124	76.25
256.357	73.25
256.59	78.25
256.823	66.25
257.056	76.25
257.289	73.25
257.521	67.25
257.754	96.25
257.987	84.25
258.22	80.25
258.452	77.25
258.685	70.25
258.918	77.25
259.151	73.25
259.383	73.25
259.616	68.25
259.849	98.25
260.081	96.25
260.314	71.25
260.547	80.25
260.779	80.25
261.012	80.25
261.244	85.25
261.477	95.25
261.71	86.25
261.942	91.25
262.175	107.25
262.407	93.25
262.64	69.25
262.872	72.25
263.105	83.25
263.337	89.25
263.57	72.25
263.802	80.25
264.035	87.25
264.267	93.25
264.499	95.25
264.732	101.25
264.964	97.25
265.197	71.25
265.429	88.25
265.661	81.25
265.894	72.25
266.126	68.25
266.358	80.25
266.591	76.25
266.823	93.25
267.055	86.25
267.287	94.25
267.52	78.25
267.752	86.25
267.984	62.25
268.216	96.25
268.448	78.25
268.681	81.25
268.913	87.25
269.145	82.25
269.377	72.25
269.609	91.25
269.841	72.25
270.073	71.25
270.306	72.25
270.538	94.25
270.77	76.25
271.002	70.25
271.234	86.25
271.466	77.25
271.698	91.25
271.93	89.25
272.162	85.25
272.394	78.25
272.626	69.25
272.858	92.25
273.09	82.25
273.322	82.25
273.553	72.25
273.785	84.25
274.017	68.25
274.249	79.25
274.481	74.25
274.713	84.25
274.945	86.25
275.176	81.25
275.408	82.25
275.64	68.25
275.872	90.25
276.104	98.25
276.335	88.25
276.567	80.25
276.799	94.25
277.031	95.25
277.262	72.25
277.494	88.25
277.726	82.25
277.957	94.25
278.189	86.25
278.421	93.25
278.652	96.25
278.884	90.25
279.115	92.25
279.347	76.25
279.579	93.25
279.81	95.25
280.042	79.25
280.273	73.25
280.505	92.25
280.736	83.25
280.968	82.25
281.199	86.25
281.431	84.25
281.662	88.25
281.894	95.25
282.125	90.25
282.356	96.25
282.588	119.25
282.819	99.25
283.051	92.25
283.282	83.25
283.513	93.25
283.745	75.25
283.976	77.25
284.207	73.25
284.439	87.25
284.67	92.25
284.901	79.25
285.132	76.25
285.364	67.25
285.595	87.25
285.826	77.25
286.057	87.25
286.288	84.25
286.52	91.25
286.751	88.25
286.982	79.25
287.213	98.25
287.444	92.25
287.675	89.25
287.906	84.25
288.138	88.25
288.369	84.25
288.6	65.25
288.831	82.25
289.062	90.25
289.293	78.25
289.524	83.25
289.755	90.25
289.986	95.25
290.217	69.25
290.448	84.25
290.679	80.25
290.91	103.25
291.141	94.25
291.371	117.25
291.602	80.25
291.833	65.25
292.064	78.25
292.295	93.25
292.526	80.25
292.757	106.25
292.987	86.25
293.218	80.25
293.449	84.25
293.68	82.25
293.91	91.25
294.141	85.25
294.372	86.25
294.603	80.25
294.833	76.25
295.064	82.25
295.295	84.25
295.525	71.25
295.756	101.25
295.987	100.25
296.217	105.25
296.448	98.25
296.679	85.25
296.909	92.25
297.14	95.25
297.37	94.25
297.601	94.25
297.831	94.25
298.062	87.25
298.292	89.25
298.523	78.25
298.753	83.25
298.984	78.25
299.214	79.25
299.445	84.25
299.675	77.25
299.905	98.25
300.136	89.25
300.366	98.25
300.597	92.25
300.827	95.25
301.057	84.25
301.288	97.25
301.518	97.25
301.748	86.25
301.979	105.25
302.209	89.25
302.439	92.25
302.669	92.25
302.9	95.25
303.13	95.25
303.36	91.25
303.59	86.25
303.82	94.25
304.051	87.25
304.281	88.25
304.511	96.25
304.741	94.25
304.971	104.25
305.201	100.25
305.431	88.25
305.661	88.25
305.891	86.25
306.121	86.25
306.352	103.25
306.582	90.25
306.812	104.25
307.042	96.25
307.272	92.25
307.502	94.25
307.731	94.25
307.961	76.25
308.191	88.25
308.421	74.25
308.651	92.25
308.881	98.25
309.111	96.25
309.341	93.25
309.571	101.25
309.8	94.25
310.03	84.25
310.26	87.25
310.49	94.25
310.72	82.25
310.949	93.25
311.179	89.25
311.409	91.25
311.639	96.25
311.868	87.25
312.098	83.25
312.328	89.25
312.557	93.25
312.787	84.25
313.017	79.25
313.246	76.25
313.476	83.25
313.706	82.25
313.935	87.25
314.165	89.25
314.394	86.25
314.624	101.25
314.853	97.25
315.083	104.25
315.312	97.25
315.542	76.25
315.771	92.25
316.001	81.25
316.23	86.25
316.46	76.25
316.689	81.25
316.919	109.25
317.148	88.25
317.377	82.25
317.607	87.25
317.836	89.25
318.065	76.25
318.295	92.25
318.524	86.25
318.753	81.25
318.983	86.25
319.212	96.25
319.441	111.25
319.67	98.25
319.9	90.25
320.129	94.25
320.358	97.25
320.587	101.25
320.816	81.25
321.046	85.25
321.275	115.25
321.504	96.25
321.733	99.25
321.962	76.25
322.191	96.25
322.42	95.25
322.649	103.25
322.878	105.25
323.108	115.25
323.337	112.25
323.566	141.25
323.795	145.25
324.024	170.25
324.253	296.25
324.482	593.25
324.71	1214.25
324.939	1558.25
325.168	594.25
325.397	208.25
325.626	119.25
325.855	116.25
326.084	119.25
326.313	102.25
326.542	127.25
326.77	170.25
326.999	350.25
327.228	700.25
327.457	1240.25
327.686	995.25
327.914	283.25
328.143	151.25
328.372	127.25
328.6	106.25
328.829	105.25
329.058	114.25
329.287	112.25
329.515	95.25
329.744	109.25
329.972	103.25
330.201	110.25
330.43	128.25
330.658	123.25
330.887	98.25
331.115	111.25
331.344	89.25
331.572	94.25
331.801	94.25
332.03	81.25
332.258	88.25
332.486	98.25
332.715	97.25
332.943	89.25
333.172	98.25
333.4	99.25
333.629	110.25
333.857	99.25
334.085	124.25
334.314	114.25
334.542	136.25
334.771	132.25
334.999	106.25
335.227	87.25
335.455	89.25
335.684	116.25
335.912	93.25
336.14	87.25
336.369	83.25
336.597	96.25
336.825	84.25
337.053	96.25
337.281	84.25
337.51	93.25
337.738	104.25
337.966	84.25
338.194	99.25
338.422	87.25
338.65	90.25
338.878	97.25
339.106	100.25
339.334	80.25
339.562	95.25
339.79	81.25
340.018	88.25
340.246	100.25
340.474	93.25
340.702	81.25
340.93	81.25
341.158	73.25
341.386	84.25
341.614	92.25
341.842	98.25
342.07	87.25
342.298	87.25
342.526	81.25
342.754	94.25
342.981	91.25
343.209	78.25
343.437	94.25
343.665	84.25
343.893	98.25
344.12	101.25
344.348	80.25
344.576	93.25
344.804	84.25
345.031	92.25
345.259	88.25
345.487	88.25
345.714	92.25
345.942	94.25
346.17	77.25
346.397	89.25
346.625	88.25
346.853	95.25
347.08	87.25
347.308	106.25
347.535	94.25
347.763	110.25
347.99	96.25
348.218	108.25
348.445	80.25
348.673	77.25
348.9	83.25
349.128	101.25
349.355	78.25
349.583	88.25
349.81	83.25
350.037	91.25
350.265	78.25
350.492	95.25
350.72	88.25
350.947	99.25
351.174	95.25
351.402	102.25
351.629	86.25
351.856	103.25
352.083	111.25
352.311	93.25
352.538	98.25
352.765	113.25
352.992	121.25
353.22	108.25
353.447	108.25
353.674	101.25
353.901	108.25
354.128	97.25
354.355	95.25
354.583	81.25
354.81	89.25
355.037	94.25
355.264	90.25
355.491	100.25
355.718	92.25
355.945	87.25
356.172	94.25
356.399	94.25
356.626	92.25
356.853	87.25
357.08	94.25
357.307	94.25
357.534	84.25
357.761	104.25
357.988	97.25
358.215	93.25
358.441	90.25
358.668	95.25
358.895	92.25
359.122	83.25
359.349	86.25
359.576	102.25
359.802	77.25
360.029	106.25
360.256	98.25
360.483	96.25
360.709	80.25
360.936	79.25
361.163	99.25
361.39	96.25
361.616	103.25
361.843	91.25
362.07	85.25
362.296	104.25
362.523	90.25
362.749	98.25
362.976	95.25
363.203	97.25
363.429	87.25
363.656	90.25
363.882	88.25
364.109	84.25
364.335	87.25
364.562	94.25
364.788	98.25
365.015	93.25
365.241	92.25
365.468	87.25
365.694	99.25
365.92	76.25
366.147	84.25
366.373	82.25
366.599	78.25
366.826	77.25
367.052	98.25
367.278	96.25
367.505	91.25
367.731	106.25
367.957	92.25
368.184	76.25
368.41	86.25
368.636	108.25
368.862	97.25
369.089	93.25
369.315	85.25
369.541	89.25
369.767	102.25
369.993	82.25
370.219	84.25
370.445	101.25
370.672	82.25
370.898	79.25
371.124	96.25
371.35	93.25
371.576	83.25
371.802	84.25
372.028	78.25
372.254	79.25
372.48	89.25
372.706	82.25
372.932	74.25
373.158	78.25
373.384	86.25
373.61	68.25
373.835	76.25
374.061	84.25
374.287	96.25
374.513	80.25
374.739	87.25
374.965	96.25
375.191	71.25
375.416	89.25
375.642	65.25
375.868	87.25
376.094	89.25
376.319	83.25
376.545	86.25
376.771	76.25
376.997	79.25
377.222	85.25
377.448	88.25
377.674	85.25
377.899	82.25
378.125	88.25
378.35	97.25
378.576	92.25
378.802	81.25
379.027	79.25
379.253	83.25
379.478	100.25
379.704	100.25
379.929	94.25
380.155	82.25
380.38	93.25
380.606	105.25
380.831	93.25
381.057	108.25
381.282	100.25
381.507	82.25
381.733	103.25
381.958	93.25
382.184	90.25
382.409	99.25
382.634	105.25
382.86	124.25
383.085	98.25
383.31	101.25
383.535	98.25
383.761	104.25
383.986	110.25
384.211	106.25
384.436	112.25
384.662	89.25
384.887	100.25
385.112	118.25
385.337	114.25
385.562	97.25
385.787	108.25
386.013	108.25
386.238	112.25
386.463	96.25
386.688	122.25
386.913	102.25
387.138	112.25
387.363	116.25
387.588	102.25
387.813	120.25
388.038	122.25
388.263	116.25
388.488	110.25
388.713	86.25
388.938	99.25
389.163	94.25
389.387	91.25
389.612	100.25
389.837	91.25
390.062	89.25
390.287	86.25
390.512	104.25
390.736	86.25
390.961	88.25
391.186	105.25
391.411	89.25
391.636	92.25
391.86	91.25
392.085	88.25
392.31	92.25
392.534	79.25
392.759	74.25
392.984	84.25
393.208	85.25
393.433	94.25
393.658	87.25
393.882	81.25
394.107	83.25
394.331	87.25
394.556	80.25
394.78	81.25
395.005	97.25
395.229	97.25
395.454	87.25
395.678	91.25
395.903	88.25
396.127	90.25
396.352	83.25
396.576	82.25
396.801	94.25
397.025	92.25
397.249	87.25
397.474	89.25
397.698	87.25
397.922	85.25
398.147	84.25
398.371	82.25
398.595	66.25
398.82	92.25
399.044	98.25
399.268	81.25
399.492	77.25
399.717	80.25
399.941	85.25
400.165	80.25
400.389	95.25
400.613	86.25
400.837	79.25
401.062	86.25
401.286	105.25
401.51	85.25
401.734	80.25
401.958	96.25
402.182	92.25
402.406	128.25
402.63	99.25
402.854	100.25
403.078	83.25
403.302	82.25
403.526	94.25
403.75	80.25
403.974	86.25
404.198	91.25
404.422	83.25
404.645	82.25
404.869	83.25
405.093	91.25
405.317	97.25
405.541	95.25
405.765	97.25
405.988	105.25
406.212	146.25
406.436	160.25
406.66	102.25
406.883	103.25
407.107	102.25
407.331	105.25
407.555	87.25
407.778	94.25
408.002	83.25
408.226	80.25
408.449	73.25
408.673	97.25
408.896	83.25
409.12	87.25
409.344	95.25
409.567	91.25
409.791	89.25
410.014	93.25
410.238	91.25
410.461	83.25
410.685	95.25
410.908	85.25
411.132	87.25
411.355	77.25
411.578	94.25
411.802	72.25
412.025	95.25
412.249	80.25
412.472	94.25
412.695	102.25
412.919	90.25
413.142	78.25
413.365	88.25
413.589	79.25
413.812	85.25
414.035	102.25
414.258	94.25
414.482	85.25
414.705	93.25
414.928	76.25
415.151	85.25
415.374	93.25
415.597	81.25
415.821	93.25
416.044	94.25
416.267	81.25
416.49	87.25
416.713	85.25
416.936	93.25
417.159	86.25
417.382	72.25
417.605	72.25
417.828	90.25
418.051	88.25
418.274	84.25
418.497	85.25
418.72	82.25
418.943	77.25
419.166	86.25
419.389	93.25
419.611	78.25
419.834	90.25
420.057	80.25
420.28	82.25
420.503	80.25
420.726	90.25
420.948	92.25
421.171	92.25
421.394	92.25
421.617	84.25
421.839	87.25
422.062	89.25
422.285	100.25
422.507	85.25
422.73	98.25
422.953	99.25
423.175	97.25
423.398	85.25
423.621	101.25
423.843	68.25
424.066	82.25
424.288	87.25
424.511	74.25
424.733	95.25
424.956	97.25
425.178	85.25
425.401	95.25
425.623	92.25
425.846	84.25
426.068	90.25
426.291	89.25
426.513	78.25
426.735	98.25
426.958	90.25
427.18	105.25
427.402	125.25
427.625	127.25
427.847	118.25
428.069	93.25
428.292	84.25
428.514	84.25
428.736	87.25
428.958	84.25
429.181	84.25
429.403	80.25
429.625	83.25
429.847	78.25
430.069	90.25
430.292	94.25
430.514	70.25
430.736	72.25
430.958	84.25
431.18	71.25
431.402	78.25
431.624	82.25
431.846	82.25
432.068	96.25
432.29	82.25
432.512	90.25
432.734	87.25
432.956	83.25
433.178	84.25
433.4	84.25
433.622	88.25
433.844	85.25
434.066	95.25
434.287	87.25
434.509	79.25
434.731	93.25
434.953	80.25
435.175	69.25
435.397	87.25
435.618	80.25
435.84	90.25
436.062	114.25
436.284	100.25
436.505	94.25
436.727	93.25
436.949	96.25
437.17	69.25
437.392	72.25
437.614	76.25
437.835	80.25
438.057	94.25
438.278	100.25
438.5	89.25
438.721	111.25
438.943	96.25
439.165	79.25
439.386	81.25
439.608	79.25
439.829	85.25
440.05	110.25
440.272	108.25
440.493	95.25
440.715	94.25
440.936	87.25
441.158	84.25
441.379	86.25
441.6	89.25
441.822	81.25
442.043	97.25
442.264	92.25
442.486	102.25
442.707	87.25
442.928	93.25
443.149	104.25
443.371	107.25
443.592	101.25
443.813	88.25
444.034	96.25
444.255	92.25
444.476	96.25
444.698	88.25
444.919	89.25
445.14	122.25
445.361	108.25
445.582	106.25
445.803	114.25
446.024	120.25
446.245	114.25
446.466	87.25
446.687	86.25
446.908	96.25
447.129	87.25
447.35	85.25
447.571	80.25
447.792	94.25
448.013	91.25
448.234	100.25
448.455	83.25
448.675	110.25
448.896	92.25
449.117	93.25
449.338	88.25
449.559	107.25
449.779	124.25
450	98.25
450.221	91.25
450.442	74.25
450.662	92.25
450.883	82.25
451.104	95.25
451.324	85.25
451.545	77.25
451.766	78.25
451.986	68.25
452.207	92.25
452.428	98.25
452.648	90.25
452.869	97.25
453.089	97.25
453.31	109.25
453.53	85.25
453.751	91.25
453.971	96.25
454.192	99.25
454.412	87.25
454.633	82.25
454.853	88.25
455.073	77.25
455.294	90.25
455.514	95.25
455.734	90.25
455.955	80.25
456.175	81.25
456.395	80.25
456.616	79.25
456.836	80.25
457.056	91.25
457.276	78.25
457.497	83.25
457.717	84.25
457.937	74.25
458.157	82.25
458.377	94.25
458.598	92.25
458.818	111.25
459.038	119.25
459.258	101.25
459.478	85.25
459.698	81.25
459.918	82.25
460.138	65.25
460.358	78.25
460.578	94.25
460.798	81.25
461.018	92.25
461.238	100.25
461.458	77.25
461.678	87.25
461.898	95.25
462.118	97.25
462.338	87.25
462.558	78.25
462.777	79.25
462.997	89.25
463.217	86.25
463.437	83.25
463.657	82.25
463.876	77.25
464.096	82.25
464.316	88.25
464.536	96.25
464.755	78.25
464.975	95.25
465.195	124.25
465.414	111.25
465.634	88.25
465.854	96.25
466.073	92.25
466.293	84.25
466.512	90.25
466.732	88.25
466.951	78.25
467.171	85.25
467.391	97.25
467.61	98.25
467.829	103.25
468.049	93.25
468.268	108.25
468.488	89.25
468.707	86.25
468.927	82.25
469.146	72.25
469.365	80.25
469.585	90.25
469.804	89.25
470.023	88.25
470.243	88.25
470.462	91.25
470.681	95.25
470.901	89.25
471.12	79.25
471.339	82.25
471.558	73.25
471.777	90.25
471.997	79.25
472.216	110.25
472.435	168.25
472.654	88.25
472.873	74.25
473.092	86.25
473.311	90.25
473.53	84.25
473.749	82.25
473.968	98.25
474.187	95.25
474.406	89.25
474.625	84.25
474.844	81.25
475.063	79.25
475.282	71.25
475.501	89.25
475.72	79.25
475.939	72.25
476.158	54.25
476.377	90.25
476.596	75.25
476.814	103.25
477.033	87.25
477.252	94.25
477.471	73.25
477.69	93.25
477.908	82.25
478.127	71.25
478.346	84.25
478.564	85.25
478.783	100.25
479.002	75.25
479.22	86.25
479.439	77.25
479.658	80.25
479.876	86.25
480.095	80.25
480.313	84.25
480.532	73.25
480.751	87.25
480.969	121.25
481.188	227.25
481.406	148.25
481.624	103.25
481.843	96.25
482.061	71.25
482.28	82.25
482.498	78.25
482.717	95.25
482.935	79.25
483.153	86.25
483.372	81.25
483.59	81.25
483.808	96.25
484.027	84.25
484.245	80.25
484.463	94.25
484.681	77.25
484.9	91.25
485.118	100.25
485.336	95.25
485.554	88.25
485.772	89.25
485.99	97.25
486.209	88.25
486.427	110.25
486.645	114.25
486.863	95.25
487.081	87.25
487.299	108.25
487.517	106.25
487.735	84.25
487.953	85.25
488.171	86.25
488.389	95.25
488.607	84.25
488.825	98.25
489.043	90.25
489.261	74.25
489.479	81.25
489.696	94.25
489.914	82.25
490.132	83.25
490.35	101.25
490.568	89.25
490.786	73.25
491.003	90.25
491.221	87.25
491.439	82.25
491.657	92.25
491.874	82.25
492.092	83.25
492.31	84.25
492.527	89.25
492.745	92.25
492.963	76.25
493.18	87.25
493.398	94.25
493.615	103.25
493.833	78.25
494.05	82.25
494.268	98.25
494.485	76.25
494.703	79.25
494.92	97.25
495.138	85.25
495.355	77.25
495.573	82.25
495.79	82.25
496.008	80.25
496.225	88.25
496.442	97.25
496.66	102.25
496.877	106.25
497.094	98.25
497.312	94.25
497.529	83.25
497.746	83.25
497.963	97.25
498.181	100.25
498.398	84.25
498.615	98.25
498.832	84.25
499.049	61.25
499.267	80.25
499.484	86.25
499.701	81.25
499.918	73.25
500.135	97.25
500.352	86.25
500.569	78.25
500.786	82.25
501.003	88.25
501.22	93.25
501.437	85.25
501.654	80.25
501.871	76.25
502.088	96.25
502.305	85.25
502.522	78.25
502.739	89.25
502.956	80.25
503.172	94.25
503.389	87.25
503.606	86.25
503.823	80.25
504.04	83.25
504.256	96.25
504.473	84.25
504.69	86.25
504.907	93.25
505.123	89.25
505.34	87.25
505.557	77.25
505.773	81.25
505.99	80.25
506.207	105.25
506.423	94.25
506.64	92.25
506.856	91.25
507.073	95.25
507.289	87.25
507.506	94.25
507.722	96.25
507.939	91.25
508.155	89.25
508.372	90.25
508.588	96.25
508.805	80.25
509.021	88.25
509.238	94.25
509.454	96.25
509.67	92.25
509.887	90.25
510.103	109.25
510.319	180.25
510.536	557.25
510.752	1626.25
510.968	455.25
511.184	128.25
511.401	105.25
511.617	76.25
511.833	88.25
512.049	73.25
512.265	81.25
512.481	81.25
512.698	94.25
512.914	70.25
513.13	98.25
513.346	100.25
513.562	87.25
513.778	91.25
513.994	92.25
514.21	92.25
514.426	107.25
514.642	116.25
514.858	105.25
515.074	126.25
515.29	308.25
515.506	936.25
515.721	367.25
515.937	131.25
516.153	95.25
516.369	92.25
516.585	98.25
516.801	92.25
517.016	95.25
517.232	87.25
