Data from Circ_1986_H10_HRD10591_00004.txt Node
Date: Wed Jan 03 12:15:26 EST 2024
User: Yrep
Spectrometer: HR+D1059
Trigger mode: 1
Integration Time (sec): 1.000000E-1
Scans to average: 1
Electric dark correction enabled: true
Nonlinearity correction enabled: false
Boxcar width: 0
XAxis mode: Wavelengths
Number of Pixels in Spectrum: 2048
>>>>>Begin Spectral Data<<<<<
223.165	-15.44
223.4	-15.44
223.635	-15.44
223.869	-24.44
224.104	-10.44
224.338	-10.44
224.573	-26.44
224.808	-11.44
225.042	-3.44
225.277	-12.44
225.511	-3.44
225.746	1.56
225.98	-2.44
226.215	24.56
226.449	10.56
226.683	20.56
226.918	25.56
227.152	37.56
227.387	29.56
227.621	31.56
227.856	38.56
228.09	45.56
228.324	39.56
228.559	61.56
228.793	48.56
229.027	49.56
229.262	53.56
229.496	59.56
229.73	59.56
229.964	61.56
230.199	81.56
230.433	73.56
230.667	67.56
230.901	64.56
231.136	74.56
231.37	80.56
231.604	71.56
231.838	70.56
232.072	87.56
232.306	94.56
232.541	69.56
232.775	74.56
233.009	77.56
233.243	75.56
233.477	78.56
233.711	95.56
233.945	81.56
234.179	77.56
234.413	67.56
234.647	75.56
234.881	58.56
235.115	73.56
235.349	78.56
235.583	63.56
235.817	79.56
236.051	76.56
236.285	72.56
236.519	77.56
236.753	89.56
236.987	78.56
237.221	61.56
237.455	65.56
237.689	72.56
237.922	61.56
238.156	73.56
238.39	69.56
238.624	69.56
238.858	66.56
239.091	73.56
239.325	70.56
239.559	57.56
239.793	77.56
240.027	78.56
240.26	70.56
240.494	70.56
240.728	67.56
240.961	61.56
241.195	71.56
241.429	69.56
241.662	82.56
241.896	69.56
242.13	64.56
242.363	80.56
242.597	70.56
242.83	73.56
243.064	85.56
243.298	85.56
243.531	71.56
243.765	60.56
243.998	66.56
244.232	87.56
244.465	85.56
244.699	78.56
244.932	69.56
245.166	79.56
245.399	84.56
245.633	75.56
245.866	77.56
246.099	73.56
246.333	90.56
246.566	83.56
246.8	89.56
247.033	66.56
247.266	69.56
247.5	76.56
247.733	85.56
247.966	73.56
248.2	79.56
248.433	66.56
248.666	72.56
248.899	81.56
249.133	70.56
249.366	81.56
249.599	83.56
249.832	79.56
250.066	84.56
250.299	75.56
250.532	81.56
250.765	86.56
250.998	62.56
251.231	66.56
251.465	60.56
251.698	82.56
251.931	86.56
252.164	64.56
252.397	73.56
252.63	75.56
252.863	73.56
253.096	78.56
253.329	87.56
253.562	88.56
253.795	83.56
254.028	73.56
254.261	73.56
254.494	62.56
254.727	81.56
254.96	76.56
255.193	62.56
255.426	86.56
255.659	79.56
255.892	69.56
256.124	66.56
256.357	69.56
256.59	77.56
256.823	84.56
257.056	74.56
257.289	86.56
257.521	69.56
257.754	73.56
257.987	89.56
258.22	89.56
258.452	77.56
258.685	77.56
258.918	75.56
259.151	78.56
259.383	53.56
259.616	83.56
259.849	74.56
260.081	80.56
260.314	78.56
260.547	77.56
260.779	84.56
261.012	73.56
261.244	79.56
261.477	77.56
261.71	71.56
261.942	78.56
262.175	109.56
262.407	82.56
262.64	75.56
262.872	85.56
263.105	83.56
263.337	92.56
263.57	86.56
263.802	82.56
264.035	70.56
264.267	61.56
264.499	81.56
264.732	93.56
264.964	93.56
265.197	82.56
265.429	73.56
265.661	83.56
265.894	86.56
266.126	66.56
266.358	90.56
266.591	82.56
266.823	93.56
267.055	92.56
267.287	75.56
267.52	91.56
267.752	76.56
267.984	82.56
268.216	78.56
268.448	81.56
268.681	87.56
268.913	78.56
269.145	90.56
269.377	75.56
269.609	71.56
269.841	94.56
270.073	67.56
270.306	77.56
270.538	59.56
270.77	73.56
271.002	93.56
271.234	78.56
271.466	73.56
271.698	80.56
271.93	81.56
272.162	76.56
272.394	77.56
272.626	80.56
272.858	78.56
273.09	80.56
273.322	74.56
273.553	68.56
273.785	82.56
274.017	79.56
274.249	70.56
274.481	82.56
274.713	73.56
274.945	81.56
275.176	76.56
275.408	76.56
275.64	78.56
275.872	76.56
276.104	86.56
276.335	85.56
276.567	90.56
276.799	93.56
277.031	61.56
277.262	95.56
277.494	79.56
277.726	98.56
277.957	83.56
278.189	82.56
278.421	59.56
278.652	74.56
278.884	98.56
279.115	80.56
279.347	73.56
279.579	73.56
279.81	82.56
280.042	81.56
280.273	78.56
280.505	86.56
280.736	84.56
280.968	85.56
281.199	80.56
281.431	77.56
281.662	90.56
281.894	90.56
282.125	93.56
282.356	100.56
282.588	87.56
282.819	91.56
283.051	88.56
283.282	66.56
283.513	90.56
283.745	86.56
283.976	75.56
284.207	94.56
284.439	90.56
284.67	94.56
284.901	81.56
285.132	99.56
285.364	83.56
285.595	80.56
285.826	89.56
286.057	83.56
286.288	79.56
286.52	65.56
286.751	85.56
286.982	75.56
287.213	84.56
287.444	96.56
287.675	82.56
287.906	85.56
288.138	76.56
288.369	95.56
288.6	80.56
288.831	78.56
289.062	93.56
289.293	73.56
289.524	80.56
289.755	81.56
289.986	82.56
290.217	82.56
290.448	90.56
290.679	91.56
290.91	91.56
291.141	82.56
291.371	78.56
291.602	79.56
291.833	81.56
292.064	76.56
292.295	68.56
292.526	70.56
292.757	87.56
292.987	98.56
293.218	73.56
293.449	82.56
293.68	80.56
293.91	95.56
294.141	82.56
294.372	86.56
294.603	80.56
294.833	74.56
295.064	89.56
295.295	90.56
295.525	93.56
295.756	98.56
295.987	99.56
296.217	112.56
296.448	101.56
296.679	78.56
296.909	95.56
297.14	75.56
297.37	84.56
297.601	68.56
297.831	75.56
298.062	81.56
298.292	74.56
298.523	83.56
298.753	86.56
298.984	92.56
299.214	85.56
299.445	89.56
299.675	92.56
299.905	85.56
300.136	94.56
300.366	87.56
300.597	85.56
300.827	79.56
301.057	78.56
301.288	106.56
301.518	86.56
301.748	86.56
301.979	85.56
302.209	82.56
302.439	96.56
302.669	89.56
302.9	77.56
303.13	65.56
303.36	86.56
303.59	107.56
303.82	101.56
304.051	95.56
304.281	73.56
304.511	85.56
304.741	79.56
304.971	78.56
305.201	98.56
305.431	88.56
305.661	80.56
305.891	85.56
306.121	83.56
306.352	94.56
306.582	85.56
306.812	90.56
307.042	88.56
307.272	103.56
307.502	99.56
307.731	85.56
307.961	74.56
308.191	84.56
308.421	99.56
308.651	77.56
308.881	95.56
309.111	95.56
309.341	90.56
309.571	87.56
309.8	82.56
310.03	94.56
310.26	91.56
310.49	90.56
310.72	84.56
310.949	84.56
311.179	80.56
311.409	84.56
311.639	83.56
311.868	90.56
312.098	82.56
312.328	86.56
312.557	95.56
312.787	99.56
313.017	98.56
313.246	96.56
313.476	99.56
313.706	96.56
313.935	88.56
314.165	91.56
314.394	94.56
314.624	96.56
314.853	90.56
315.083	99.56
315.312	101.56
315.542	90.56
315.771	98.56
316.001	69.56
316.23	81.56
316.46	74.56
316.689	83.56
316.919	77.56
317.148	76.56
317.377	87.56
317.607	82.56
317.836	97.56
318.065	89.56
318.295	81.56
318.524	91.56
318.753	93.56
318.983	87.56
319.212	76.56
319.441	84.56
319.67	94.56
319.9	99.56
320.129	81.56
320.358	82.56
320.587	89.56
320.816	84.56
321.046	85.56
321.275	81.56
321.504	89.56
321.733	91.56
321.962	92.56
322.191	86.56
322.42	89.56
322.649	103.56
322.878	87.56
323.108	96.56
323.337	113.56
323.566	107.56
323.795	118.56
324.024	159.56
324.253	258.56
324.482	533.56
324.71	1061.56
324.939	1386.56
325.168	532.56
325.397	168.56
325.626	130.56
325.855	96.56
326.084	108.56
326.313	96.56
326.542	122.56
326.77	168.56
326.999	303.56
327.228	628.56
327.457	1098.56
327.686	890.56
327.914	276.56
328.143	147.56
328.372	111.56
328.6	103.56
328.829	92.56
329.058	117.56
329.287	100.56
329.515	80.56
329.744	86.56
329.972	106.56
330.201	110.56
330.43	95.56
330.658	109.56
330.887	110.56
331.115	98.56
331.344	75.56
331.572	99.56
331.801	97.56
332.03	78.56
332.258	79.56
332.486	82.56
332.715	91.56
332.943	93.56
333.172	97.56
333.4	83.56
333.629	94.56
333.857	86.56
334.085	85.56
334.314	116.56
334.542	116.56
334.771	111.56
334.999	101.56
335.227	81.56
335.455	98.56
335.684	84.56
335.912	95.56
336.14	89.56
336.369	85.56
336.597	90.56
336.825	93.56
337.053	94.56
337.281	88.56
337.51	80.56
337.738	86.56
337.966	86.56
338.194	90.56
338.422	87.56
338.65	94.56
338.878	83.56
339.106	81.56
339.334	89.56
339.562	104.56
339.79	77.56
340.018	75.56
340.246	92.56
340.474	93.56
340.702	81.56
340.93	65.56
341.158	96.56
341.386	95.56
341.614	95.56
341.842	99.56
342.07	92.56
342.298	87.56
342.526	79.56
342.754	78.56
342.981	84.56
343.209	100.56
343.437	93.56
343.665	82.56
343.893	88.56
344.12	81.56
344.348	75.56
344.576	81.56
344.804	81.56
345.031	93.56
345.259	66.56
345.487	84.56
345.714	101.56
345.942	87.56
346.17	87.56
346.397	84.56
346.625	75.56
346.853	96.56
347.08	90.56
347.308	88.56
347.535	84.56
347.763	93.56
347.99	86.56
348.218	100.56
348.445	93.56
348.673	74.56
348.9	83.56
349.128	95.56
349.355	97.56
349.583	91.56
349.81	94.56
350.037	92.56
350.265	87.56
350.492	97.56
350.72	93.56
350.947	87.56
351.174	106.56
351.402	113.56
351.629	98.56
351.856	92.56
352.083	97.56
352.311	102.56
352.538	91.56
352.765	96.56
352.992	103.56
353.22	104.56
353.447	93.56
353.674	92.56
353.901	90.56
354.128	90.56
354.355	103.56
354.583	76.56
354.81	84.56
355.037	108.56
355.264	93.56
355.491	88.56
355.718	103.56
355.945	91.56
356.172	99.56
356.399	86.56
356.626	90.56
356.853	90.56
357.08	85.56
357.307	88.56
357.534	93.56
357.761	86.56
357.988	91.56
358.215	89.56
358.441	102.56
358.668	103.56
358.895	85.56
359.122	100.56
359.349	79.56
359.576	74.56
359.802	92.56
360.029	103.56
360.256	89.56
360.483	85.56
360.709	78.56
360.936	93.56
361.163	77.56
361.39	89.56
361.616	93.56
361.843	89.56
362.07	81.56
362.296	84.56
362.523	83.56
362.749	86.56
362.976	82.56
363.203	82.56
363.429	93.56
363.656	93.56
363.882	80.56
364.109	85.56
364.335	98.56
364.562	99.56
364.788	93.56
365.015	81.56
365.241	91.56
365.468	89.56
365.694	85.56
365.92	82.56
366.147	92.56
366.373	84.56
366.599	94.56
366.826	80.56
367.052	69.56
367.278	68.56
367.505	83.56
367.731	95.56
367.957	82.56
368.184	92.56
368.41	91.56
368.636	97.56
368.862	104.56
369.089	88.56
369.315	79.56
369.541	86.56
369.767	78.56
369.993	85.56
370.219	79.56
370.445	87.56
370.672	105.56
370.898	94.56
371.124	80.56
371.35	75.56
371.576	97.56
371.802	86.56
372.028	71.56
372.254	92.56
372.48	79.56
372.706	69.56
372.932	92.56
373.158	82.56
373.384	99.56
373.61	79.56
373.835	80.56
374.061	78.56
374.287	82.56
374.513	83.56
374.739	81.56
374.965	84.56
375.191	87.56
375.416	87.56
375.642	87.56
375.868	86.56
376.094	102.56
376.319	96.56
376.545	83.56
376.771	81.56
376.997	86.56
377.222	86.56
377.448	96.56
377.674	81.56
377.899	105.56
378.125	88.56
378.35	106.56
378.576	104.56
378.802	88.56
379.027	95.56
379.253	99.56
379.478	95.56
379.704	98.56
379.929	97.56
380.155	95.56
380.38	98.56
380.606	97.56
380.831	106.56
381.057	107.56
381.282	107.56
381.507	98.56
381.733	107.56
381.958	93.56
382.184	106.56
382.409	98.56
382.634	114.56
382.86	95.56
383.085	121.56
383.31	117.56
383.535	121.56
383.761	103.56
383.986	107.56
384.211	105.56
384.436	120.56
384.662	112.56
384.887	114.56
385.112	121.56
385.337	140.56
385.562	129.56
385.787	115.56
386.013	136.56
386.238	137.56
386.463	127.56
386.688	123.56
386.913	130.56
387.138	131.56
387.363	121.56
387.588	126.56
387.813	121.56
388.038	130.56
388.263	136.56
388.488	137.56
388.713	92.56
388.938	89.56
389.163	89.56
389.387	96.56
389.612	98.56
389.837	97.56
390.062	98.56
390.287	70.56
390.512	94.56
390.736	90.56
390.961	79.56
391.186	83.56
391.411	78.56
391.636	95.56
391.86	75.56
392.085	88.56
392.31	106.56
392.534	85.56
392.759	67.56
392.984	89.56
393.208	78.56
393.433	93.56
393.658	90.56
393.882	75.56
394.107	82.56
394.331	95.56
394.556	73.56
394.78	84.56
395.005	80.56
395.229	82.56
395.454	95.56
395.678	83.56
395.903	83.56
396.127	83.56
396.352	70.56
396.576	84.56
396.801	85.56
397.025	82.56
397.249	75.56
397.474	86.56
397.698	77.56
397.922	85.56
398.147	73.56
398.371	83.56
398.595	73.56
398.82	77.56
399.044	80.56
399.268	84.56
399.492	87.56
399.717	75.56
399.941	78.56
400.165	95.56
400.389	76.56
400.613	84.56
400.837	69.56
401.062	78.56
401.286	79.56
401.51	68.56
401.734	97.56
401.958	75.56
402.182	103.56
402.406	126.56
402.63	106.56
402.854	98.56
403.078	84.56
403.302	92.56
403.526	82.56
403.75	78.56
403.974	74.56
404.198	66.56
404.422	87.56
404.645	84.56
404.869	74.56
405.093	86.56
405.317	85.56
405.541	86.56
405.765	84.56
405.988	97.56
406.212	125.56
406.436	153.56
406.66	110.56
406.883	87.56
407.107	69.56
407.331	81.56
407.555	91.56
407.778	105.56
408.002	73.56
408.226	78.56
408.449	82.56
408.673	89.56
408.896	88.56
409.12	85.56
409.344	76.56
409.567	88.56
409.791	101.56
410.014	83.56
410.238	91.56
410.461	92.56
410.685	87.56
410.908	93.56
411.132	102.56
411.355	93.56
411.578	87.56
411.802	84.56
412.025	83.56
412.249	82.56
412.472	89.56
412.695	83.56
412.919	86.56
413.142	87.56
413.365	80.56
413.589	93.56
413.812	96.56
414.035	77.56
414.258	70.56
414.482	94.56
414.705	84.56
414.928	98.56
415.151	95.56
415.374	100.56
415.597	98.56
415.821	84.56
416.044	107.56
416.267	84.56
416.49	90.56
416.713	97.56
416.936	96.56
417.159	92.56
417.382	91.56
417.605	75.56
417.828	92.56
418.051	85.56
418.274	97.56
418.497	100.56
418.72	83.56
418.943	77.56
419.166	90.56
419.389	92.56
419.611	85.56
419.834	91.56
420.057	86.56
420.28	86.56
420.503	84.56
420.726	82.56
420.948	91.56
421.171	93.56
421.394	82.56
421.617	90.56
421.839	89.56
422.062	83.56
422.285	79.56
422.507	89.56
422.73	96.56
422.953	89.56
423.175	73.56
423.398	93.56
423.621	84.56
423.843	62.56
424.066	78.56
424.288	75.56
424.511	76.56
424.733	101.56
424.956	90.56
425.178	99.56
425.401	84.56
425.623	98.56
425.846	86.56
426.068	83.56
426.291	70.56
426.513	97.56
426.735	82.56
426.958	89.56
427.18	88.56
427.402	112.56
427.625	122.56
427.847	91.56
428.069	93.56
428.292	73.56
428.514	84.56
428.736	84.56
428.958	93.56
429.181	83.56
429.403	79.56
429.625	79.56
429.847	78.56
430.069	90.56
430.292	79.56
430.514	99.56
430.736	90.56
430.958	83.56
431.18	91.56
431.402	80.56
431.624	91.56
431.846	74.56
432.068	80.56
432.29	83.56
432.512	75.56
432.734	85.56
432.956	95.56
433.178	95.56
433.4	78.56
433.622	87.56
433.844	76.56
434.066	90.56
434.287	84.56
434.509	77.56
434.731	85.56
434.953	86.56
435.175	82.56
435.397	89.56
435.618	92.56
435.84	89.56
436.062	95.56
436.284	94.56
436.505	73.56
436.727	87.56
436.949	81.56
437.17	86.56
437.392	65.56
437.614	76.56
437.835	83.56
438.057	77.56
438.278	92.56
438.5	82.56
438.721	99.56
438.943	105.56
439.165	90.56
439.386	89.56
439.608	89.56
439.829	77.56
440.05	97.56
440.272	101.56
440.493	90.56
440.715	77.56
440.936	92.56
441.158	90.56
441.379	81.56
441.6	89.56
441.822	97.56
442.043	90.56
442.264	90.56
442.486	69.56
442.707	87.56
442.928	78.56
443.149	91.56
443.371	97.56
443.592	94.56
443.813	94.56
444.034	85.56
444.255	67.56
444.476	86.56
444.698	88.56
444.919	81.56
445.14	124.56
445.361	102.56
445.582	92.56
445.803	94.56
446.024	98.56
446.245	103.56
446.466	93.56
446.687	82.56
446.908	77.56
447.129	78.56
447.35	79.56
447.571	86.56
447.792	78.56
448.013	82.56
448.234	100.56
448.455	79.56
448.675	80.56
448.896	98.56
449.117	78.56
449.338	86.56
449.559	110.56
449.779	109.56
450	82.56
450.221	100.56
450.442	97.56
450.662	77.56
450.883	76.56
451.104	88.56
451.324	82.56
451.545	74.56
451.766	75.56
451.986	83.56
452.207	77.56
452.428	78.56
452.648	86.56
452.869	83.56
453.089	89.56
453.31	105.56
453.53	92.56
453.751	82.56
453.971	92.56
454.192	86.56
454.412	84.56
454.633	89.56
454.853	80.56
455.073	81.56
455.294	71.56
455.514	85.56
455.734	89.56
455.955	92.56
456.175	71.56
456.395	91.56
456.616	86.56
456.836	81.56
457.056	81.56
457.276	80.56
457.497	80.56
457.717	67.56
457.937	79.56
458.157	86.56
458.377	94.56
458.598	81.56
458.818	108.56
459.038	103.56
459.258	93.56
459.478	73.56
459.698	86.56
459.918	73.56
460.138	97.56
460.358	85.56
460.578	79.56
460.798	90.56
461.018	83.56
461.238	86.56
461.458	85.56
461.678	80.56
461.898	84.56
462.118	77.56
462.338	77.56
462.558	76.56
462.777	77.56
462.997	80.56
463.217	74.56
463.437	80.56
463.657	76.56
463.876	67.56
464.096	63.56
464.316	84.56
464.536	91.56
464.755	81.56
464.975	94.56
465.195	129.56
465.414	122.56
465.634	86.56
465.854	78.56
466.073	88.56
466.293	87.56
466.512	88.56
466.732	86.56
466.951	89.56
467.171	81.56
467.391	91.56
467.61	92.56
467.829	86.56
468.049	92.56
468.268	77.56
468.488	83.56
468.707	72.56
468.927	89.56
469.146	78.56
469.365	75.56
469.585	80.56
469.804	87.56
470.023	88.56
470.243	88.56
470.462	84.56
470.681	79.56
470.901	85.56
471.12	81.56
471.339	73.56
471.558	85.56
471.777	85.56
471.997	76.56
472.216	87.56
472.435	101.56
472.654	76.56
472.873	79.56
473.092	65.56
473.311	81.56
473.53	70.56
473.749	93.56
473.968	79.56
474.187	86.56
474.406	81.56
474.625	81.56
474.844	90.56
475.063	77.56
475.282	68.56
475.501	81.56
475.72	95.56
475.939	80.56
476.158	88.56
476.377	70.56
476.596	73.56
476.814	93.56
477.033	82.56
477.252	84.56
477.471	83.56
477.69	83.56
477.908	94.56
478.127	73.56
478.346	80.56
478.564	95.56
478.783	82.56
479.002	79.56
479.22	85.56
479.439	96.56
479.658	85.56
479.876	81.56
480.095	78.56
480.313	88.56
480.532	63.56
480.751	86.56
480.969	100.56
481.188	114.56
481.406	98.56
481.624	87.56
481.843	80.56
482.061	81.56
482.28	78.56
482.498	80.56
482.717	75.56
482.935	82.56
483.153	90.56
483.372	91.56
483.59	77.56
483.808	93.56
484.027	80.56
484.245	93.56
484.463	85.56
484.681	99.56
484.9	95.56
485.118	90.56
485.336	87.56
485.554	80.56
485.772	93.56
485.99	100.56
486.209	97.56
486.427	90.56
486.645	100.56
486.863	96.56
487.081	93.56
487.299	106.56
487.517	95.56
487.735	74.56
487.953	79.56
488.171	84.56
488.389	97.56
488.607	88.56
488.825	83.56
489.043	83.56
489.261	81.56
489.479	91.56
489.696	79.56
489.914	77.56
490.132	89.56
490.35	82.56
490.568	83.56
490.786	85.56
491.003	84.56
491.221	79.56
491.439	89.56
491.657	82.56
491.874	79.56
492.092	89.56
492.31	91.56
492.527	84.56
492.745	63.56
492.963	73.56
493.18	87.56
493.398	84.56
493.615	94.56
493.833	57.56
494.05	80.56
494.268	89.56
494.485	91.56
494.703	87.56
494.92	96.56
495.138	79.56
495.355	85.56
495.573	79.56
495.79	81.56
496.008	85.56
496.225	85.56
496.442	83.56
496.66	93.56
496.877	78.56
497.094	91.56
497.312	84.56
497.529	74.56
497.746	69.56
497.963	75.56
498.181	86.56
498.398	94.56
498.615	93.56
498.832	99.56
499.049	89.56
499.267	75.56
499.484	70.56
499.701	88.56
499.918	96.56
500.135	90.56
500.352	96.56
500.569	85.56
500.786	80.56
501.003	87.56
501.22	86.56
501.437	90.56
501.654	100.56
501.871	90.56
502.088	90.56
502.305	88.56
502.522	91.56
502.739	91.56
502.956	85.56
503.172	86.56
503.389	86.56
503.606	104.56
503.823	94.56
504.04	96.56
504.256	79.56
504.473	91.56
504.69	79.56
504.907	94.56
505.123	75.56
505.34	89.56
505.557	72.56
505.773	90.56
505.99	84.56
506.207	83.56
506.423	93.56
506.64	81.56
506.856	104.56
507.073	85.56
507.289	86.56
507.506	92.56
507.722	99.56
507.939	98.56
508.155	85.56
508.372	85.56
508.588	82.56
508.805	95.56
509.021	84.56
509.238	92.56
509.454	70.56
509.67	93.56
509.887	114.56
510.103	105.56
510.319	163.56
510.536	481.56
510.752	1355.56
510.968	376.56
511.184	126.56
511.401	97.56
511.617	83.56
511.833	91.56
512.049	86.56
512.265	92.56
512.481	85.56
512.698	81.56
512.914	89.56
513.13	93.56
513.346	84.56
513.562	81.56
513.778	103.56
513.994	79.56
514.21	92.56
514.426	87.56
514.642	90.56
514.858	97.56
515.074	129.56
515.29	287.56
515.506	797.56
515.721	308.56
515.937	108.56
516.153	85.56
516.369	91.56
516.585	87.56
516.801	77.56
517.016	87.56
517.232	93.56
517.448	77.56
517.664	79.56
517.879	94.56
518.095	85.56
