Data from Circ_1986_H10_HRD10591_00008.txt Node
Date: Wed Jan 03 12:15:27 EST 2024
User: Yrep
Spectrometer: HR+D1059
Trigger mode: 1
Integration Time (sec): 1.000000E-1
Scans to average: 1
Electric dark correction enabled: true
Nonlinearity correction enabled: false
Boxcar width: 0
XAxis mode: Wavelengths
Number of Pixels in Spectrum: 2048
>>>>>Begin Spectral Data<<<<<
223.165	-15.88
223.4	-15.88
223.635	-15.88
223.869	-20.88
224.104	-24.88
224.338	-19.88
224.573	-22.88
224.808	-21.88
225.042	-12.88
225.277	-10.88
225.511	2.12
225.746	7.12
225.98	23.12
226.215	13.12
226.449	26.12
226.683	22.12
226.918	26.12
227.152	30.12
227.387	39.12
227.621	36.12
227.856	29.12
228.09	51.12
228.324	55.12
228.559	64.12
228.793	73.12
229.027	62.12
229.262	70.12
229.496	72.12
229.73	70.12
229.964	69.12
230.199	66.12
230.433	63.12
230.667	71.12
230.901	73.12
231.136	87.12
231.37	85.12
231.604	66.12
231.838	78.12
232.072	83.12
232.306	79.12
232.541	78.12
232.775	72.12
233.009	81.12
233.243	77.12
233.477	64.12
233.711	84.12
233.945	82.12
234.179	87.12
234.413	79.12
234.647	74.12
234.881	87.12
235.115	82.12
235.349	74.12
235.583	73.12
235.817	72.12
236.051	70.12
236.285	87.12
236.519	77.12
236.753	71.12
236.987	77.12
237.221	69.12
237.455	79.12
237.689	81.12
237.922	73.12
238.156	79.12
238.39	57.12
238.624	75.12
238.858	92.12
239.091	81.12
239.325	77.12
239.559	72.12
239.793	81.12
240.027	81.12
240.26	77.12
240.494	65.12
240.728	75.12
240.961	74.12
241.195	81.12
241.429	80.12
241.662	69.12
241.896	78.12
242.13	65.12
242.363	73.12
242.597	61.12
242.83	82.12
243.064	72.12
243.298	75.12
243.531	75.12
243.765	88.12
243.998	74.12
244.232	92.12
244.465	95.12
244.699	87.12
244.932	80.12
245.166	61.12
245.399	84.12
245.633	93.12
245.866	79.12
246.099	71.12
246.333	83.12
246.566	81.12
246.8	74.12
247.033	83.12
247.266	78.12
247.5	82.12
247.733	84.12
247.966	72.12
248.2	89.12
248.433	91.12
248.666	91.12
248.899	80.12
249.133	87.12
249.366	96.12
249.599	95.12
249.832	87.12
250.066	74.12
250.299	71.12
250.532	82.12
250.765	81.12
250.998	79.12
251.231	84.12
251.465	77.12
251.698	81.12
251.931	75.12
252.164	71.12
252.397	78.12
252.63	92.12
252.863	79.12
253.096	67.12
253.329	74.12
253.562	87.12
253.795	89.12
254.028	85.12
254.261	82.12
254.494	70.12
254.727	81.12
254.96	79.12
255.193	74.12
255.426	67.12
255.659	77.12
255.892	73.12
256.124	85.12
256.357	80.12
256.59	80.12
256.823	65.12
257.056	83.12
257.289	104.12
257.521	90.12
257.754	74.12
257.987	91.12
258.22	91.12
258.452	84.12
258.685	71.12
258.918	77.12
259.151	90.12
259.383	85.12
259.616	78.12
259.849	89.12
260.081	86.12
260.314	75.12
260.547	86.12
260.779	77.12
261.012	89.12
261.244	83.12
261.477	77.12
261.71	91.12
261.942	79.12
262.175	96.12
262.407	82.12
262.64	79.12
262.872	72.12
263.105	86.12
263.337	85.12
263.57	86.12
263.802	84.12
264.035	85.12
264.267	75.12
264.499	80.12
264.732	83.12
264.964	88.12
265.197	74.12
265.429	85.12
265.661	77.12
265.894	91.12
266.126	102.12
266.358	85.12
266.591	85.12
266.823	83.12
267.055	71.12
267.287	74.12
267.52	84.12
267.752	89.12
267.984	85.12
268.216	85.12
268.448	90.12
268.681	70.12
268.913	81.12
269.145	85.12
269.377	94.12
269.609	82.12
269.841	79.12
270.073	93.12
270.306	101.12
270.538	83.12
270.77	79.12
271.002	91.12
271.234	89.12
271.466	77.12
271.698	85.12
271.93	84.12
272.162	83.12
272.394	85.12
272.626	80.12
272.858	78.12
273.09	93.12
273.322	82.12
273.553	96.12
273.785	82.12
274.017	95.12
274.249	77.12
274.481	77.12
274.713	86.12
274.945	85.12
275.176	75.12
275.408	83.12
275.64	83.12
275.872	72.12
276.104	85.12
276.335	100.12
276.567	95.12
276.799	98.12
277.031	89.12
277.262	83.12
277.494	83.12
277.726	95.12
277.957	86.12
278.189	78.12
278.421	87.12
278.652	95.12
278.884	95.12
279.115	88.12
279.347	92.12
279.579	98.12
279.81	80.12
280.042	75.12
280.273	66.12
280.505	75.12
280.736	90.12
280.968	85.12
281.199	89.12
281.431	95.12
281.662	93.12
281.894	99.12
282.125	97.12
282.356	114.12
282.588	105.12
282.819	93.12
283.051	89.12
283.282	69.12
283.513	80.12
283.745	77.12
283.976	81.12
284.207	82.12
284.439	72.12
284.67	83.12
284.901	87.12
285.132	84.12
285.364	83.12
285.595	89.12
285.826	89.12
286.057	93.12
286.288	88.12
286.52	85.12
286.751	93.12
286.982	91.12
287.213	79.12
287.444	84.12
287.675	81.12
287.906	90.12
288.138	72.12
288.369	95.12
288.6	90.12
288.831	98.12
289.062	114.12
289.293	96.12
289.524	81.12
289.755	92.12
289.986	78.12
290.217	83.12
290.448	99.12
290.679	85.12
290.91	103.12
291.141	69.12
291.371	89.12
291.602	97.12
291.833	82.12
292.064	80.12
292.295	87.12
292.526	93.12
292.757	76.12
292.987	85.12
293.218	79.12
293.449	102.12
293.68	94.12
293.91	93.12
294.141	89.12
294.372	98.12
294.603	82.12
294.833	83.12
295.064	86.12
295.295	96.12
295.525	83.12
295.756	101.12
295.987	100.12
296.217	120.12
296.448	123.12
296.679	94.12
296.909	88.12
297.14	81.12
297.37	94.12
297.601	91.12
297.831	86.12
298.062	69.12
298.292	81.12
298.523	98.12
298.753	100.12
298.984	81.12
299.214	70.12
299.445	86.12
299.675	83.12
299.905	87.12
300.136	90.12
300.366	97.12
300.597	100.12
300.827	87.12
301.057	82.12
301.288	84.12
301.518	98.12
301.748	101.12
301.979	97.12
302.209	86.12
302.439	84.12
302.669	93.12
302.9	79.12
303.13	88.12
303.36	104.12
303.59	97.12
303.82	91.12
304.051	79.12
304.281	92.12
304.511	97.12
304.741	82.12
304.971	97.12
305.201	79.12
305.431	84.12
305.661	85.12
305.891	76.12
306.121	79.12
306.352	84.12
306.582	97.12
306.812	80.12
307.042	82.12
307.272	90.12
307.502	96.12
307.731	87.12
307.961	89.12
308.191	97.12
308.421	103.12
308.651	99.12
308.881	81.12
309.111	89.12
309.341	96.12
309.571	94.12
309.8	81.12
310.03	86.12
310.26	87.12
310.49	95.12
310.72	107.12
310.949	97.12
311.179	91.12
311.409	102.12
311.639	83.12
311.868	96.12
312.098	88.12
312.328	91.12
312.557	91.12
312.787	96.12
313.017	118.12
313.246	106.12
313.476	91.12
313.706	96.12
313.935	74.12
314.165	88.12
314.394	90.12
314.624	80.12
314.853	99.12
315.083	93.12
315.312	87.12
315.542	97.12
315.771	100.12
316.001	92.12
316.23	79.12
316.46	77.12
316.689	91.12
316.919	75.12
317.148	102.12
317.377	95.12
317.607	85.12
317.836	86.12
318.065	91.12
318.295	98.12
318.524	84.12
318.753	79.12
318.983	98.12
319.212	88.12
319.441	102.12
319.67	106.12
319.9	104.12
320.129	92.12
320.358	106.12
320.587	96.12
320.816	94.12
321.046	91.12
321.275	93.12
321.504	100.12
321.733	86.12
321.962	93.12
322.191	109.12
322.42	89.12
322.649	94.12
322.878	91.12
323.108	107.12
323.337	108.12
323.566	102.12
323.795	123.12
324.024	172.12
324.253	281.12
324.482	569.12
324.71	1097.12
324.939	1414.12
325.168	543.12
325.397	194.12
325.626	136.12
325.855	125.12
326.084	111.12
326.313	114.12
326.542	130.12
326.77	184.12
326.999	323.12
327.228	629.12
327.457	1166.12
327.686	906.12
327.914	274.12
328.143	154.12
328.372	103.12
328.6	103.12
328.829	102.12
329.058	109.12
329.287	118.12
329.515	103.12
329.744	83.12
329.972	89.12
330.201	96.12
330.43	108.12
330.658	115.12
330.887	107.12
331.115	101.12
331.344	97.12
331.572	83.12
331.801	97.12
332.03	90.12
332.258	103.12
332.486	74.12
332.715	103.12
332.943	98.12
333.172	97.12
333.4	91.12
333.629	109.12
333.857	90.12
334.085	110.12
334.314	99.12
334.542	96.12
334.771	99.12
334.999	91.12
335.227	91.12
335.455	95.12
335.684	99.12
335.912	89.12
336.14	111.12
336.369	101.12
336.597	87.12
336.825	94.12
337.053	102.12
337.281	88.12
337.51	74.12
337.738	89.12
337.966	84.12
338.194	94.12
338.422	90.12
338.65	81.12
338.878	95.12
339.106	77.12
339.334	90.12
339.562	95.12
339.79	91.12
340.018	81.12
340.246	86.12
340.474	90.12
340.702	97.12
340.93	93.12
341.158	95.12
341.386	101.12
341.614	92.12
341.842	95.12
342.07	81.12
342.298	92.12
342.526	90.12
342.754	78.12
342.981	80.12
343.209	88.12
343.437	102.12
343.665	88.12
343.893	95.12
344.12	74.12
344.348	96.12
344.576	67.12
344.804	95.12
345.031	103.12
345.259	94.12
345.487	101.12
345.714	101.12
345.942	91.12
346.17	97.12
346.397	87.12
346.625	94.12
346.853	104.12
347.08	97.12
347.308	79.12
347.535	94.12
347.763	88.12
347.99	92.12
348.218	98.12
348.445	104.12
348.673	83.12
348.9	93.12
349.128	88.12
349.355	103.12
349.583	93.12
349.81	95.12
350.037	101.12
350.265	110.12
350.492	112.12
350.72	97.12
350.947	85.12
351.174	103.12
351.402	104.12
351.629	91.12
351.856	105.12
352.083	96.12
352.311	74.12
352.538	101.12
352.765	95.12
352.992	111.12
353.22	109.12
353.447	99.12
353.674	103.12
353.901	101.12
354.128	95.12
354.355	103.12
354.583	107.12
354.81	91.12
355.037	101.12
355.264	91.12
355.491	104.12
355.718	104.12
355.945	74.12
356.172	102.12
356.399	89.12
356.626	82.12
356.853	87.12
357.08	95.12
357.307	105.12
357.534	77.12
357.761	94.12
357.988	102.12
358.215	104.12
358.441	98.12
358.668	106.12
358.895	111.12
359.122	111.12
359.349	97.12
359.576	98.12
359.802	94.12
360.029	107.12
360.256	98.12
360.483	95.12
360.709	90.12
360.936	91.12
361.163	97.12
361.39	98.12
361.616	107.12
361.843	77.12
362.07	89.12
362.296	109.12
362.523	75.12
362.749	78.12
362.976	93.12
363.203	102.12
363.429	86.12
363.656	77.12
363.882	101.12
364.109	96.12
364.335	88.12
364.562	79.12
364.788	90.12
365.015	80.12
365.241	91.12
365.468	98.12
365.694	97.12
365.92	67.12
366.147	112.12
366.373	73.12
366.599	83.12
366.826	97.12
367.052	96.12
367.278	90.12
367.505	83.12
367.731	85.12
367.957	86.12
368.184	84.12
368.41	85.12
368.636	113.12
368.862	117.12
369.089	93.12
369.315	88.12
369.541	91.12
369.767	88.12
369.993	91.12
370.219	89.12
370.445	74.12
370.672	99.12
370.898	92.12
371.124	98.12
371.35	97.12
371.576	85.12
371.802	75.12
372.028	90.12
372.254	82.12
372.48	87.12
372.706	81.12
372.932	80.12
373.158	98.12
373.384	86.12
373.61	91.12
373.835	103.12
374.061	85.12
374.287	81.12
374.513	83.12
374.739	96.12
374.965	99.12
375.191	99.12
375.416	104.12
375.642	91.12
375.868	103.12
376.094	98.12
376.319	103.12
376.545	90.12
376.771	93.12
376.997	82.12
377.222	91.12
377.448	107.12
377.674	91.12
377.899	82.12
378.125	106.12
378.35	98.12
378.576	89.12
378.802	98.12
379.027	90.12
379.253	99.12
379.478	97.12
379.704	89.12
379.929	81.12
380.155	87.12
380.38	92.12
380.606	102.12
380.831	111.12
381.057	97.12
381.282	101.12
381.507	110.12
381.733	107.12
381.958	101.12
382.184	113.12
382.409	104.12
382.634	114.12
382.86	115.12
383.085	113.12
383.31	114.12
383.535	118.12
383.761	118.12
383.986	114.12
384.211	98.12
384.436	118.12
384.662	120.12
384.887	125.12
385.112	132.12
385.337	127.12
385.562	137.12
385.787	122.12
386.013	125.12
386.238	135.12
386.463	138.12
386.688	129.12
386.913	126.12
387.138	142.12
387.363	118.12
387.588	114.12
387.813	110.12
388.038	118.12
388.263	133.12
388.488	147.12
388.713	103.12
388.938	94.12
389.163	95.12
389.387	98.12
389.612	97.12
389.837	106.12
390.062	109.12
390.287	99.12
390.512	89.12
390.736	82.12
390.961	84.12
391.186	87.12
391.411	100.12
391.636	117.12
391.86	92.12
392.085	74.12
392.31	77.12
392.534	91.12
392.759	93.12
392.984	89.12
393.208	93.12
393.433	96.12
393.658	86.12
393.882	94.12
394.107	95.12
394.331	86.12
394.556	81.12
394.78	83.12
395.005	74.12
395.229	75.12
395.454	77.12
395.678	81.12
395.903	92.12
396.127	94.12
396.352	91.12
396.576	95.12
396.801	75.12
397.025	80.12
397.249	81.12
397.474	90.12
397.698	86.12
397.922	81.12
398.147	86.12
398.371	96.12
398.595	79.12
398.82	86.12
399.044	96.12
399.268	82.12
399.492	85.12
399.717	89.12
399.941	102.12
400.165	87.12
400.389	101.12
400.613	79.12
400.837	85.12
401.062	95.12
401.286	90.12
401.51	84.12
401.734	79.12
401.958	81.12
402.182	116.12
402.406	123.12
402.63	105.12
402.854	88.12
403.078	80.12
403.302	91.12
403.526	99.12
403.75	95.12
403.974	81.12
404.198	80.12
404.422	72.12
404.645	74.12
404.869	83.12
405.093	83.12
405.317	84.12
405.541	101.12
405.765	89.12
405.988	102.12
406.212	134.12
406.436	166.12
406.66	108.12
406.883	98.12
407.107	89.12
407.331	96.12
407.555	89.12
407.778	82.12
408.002	93.12
408.226	75.12
408.449	88.12
408.673	101.12
408.896	96.12
409.12	90.12
409.344	88.12
409.567	92.12
409.791	90.12
410.014	93.12
410.238	83.12
410.461	106.12
410.685	79.12
410.908	93.12
411.132	92.12
411.355	93.12
411.578	99.12
411.802	83.12
412.025	86.12
412.249	83.12
412.472	86.12
412.695	91.12
412.919	88.12
413.142	82.12
413.365	93.12
413.589	97.12
413.812	94.12
414.035	95.12
414.258	95.12
414.482	89.12
414.705	85.12
414.928	98.12
415.151	81.12
415.374	83.12
415.597	95.12
415.821	77.12
416.044	95.12
416.267	95.12
416.49	93.12
416.713	86.12
416.936	96.12
417.159	93.12
417.382	90.12
417.605	85.12
417.828	74.12
418.051	87.12
418.274	84.12
418.497	102.12
418.72	90.12
418.943	107.12
419.166	82.12
419.389	90.12
419.611	95.12
419.834	101.12
420.057	83.12
420.28	85.12
420.503	83.12
420.726	85.12
420.948	91.12
421.171	86.12
421.394	99.12
421.617	94.12
421.839	77.12
422.062	75.12
422.285	86.12
422.507	95.12
422.73	88.12
422.953	93.12
423.175	87.12
423.398	95.12
423.621	71.12
423.843	91.12
424.066	92.12
424.288	88.12
424.511	79.12
424.733	103.12
424.956	101.12
425.178	89.12
425.401	94.12
425.623	93.12
425.846	71.12
426.068	88.12
426.291	79.12
426.513	106.12
426.735	92.12
426.958	99.12
427.18	102.12
427.402	107.12
427.625	118.12
427.847	86.12
428.069	105.12
428.292	99.12
428.514	97.12
428.736	83.12
428.958	89.12
429.181	99.12
429.403	92.12
429.625	96.12
429.847	81.12
430.069	94.12
430.292	88.12
430.514	95.12
430.736	77.12
430.958	81.12
431.18	77.12
431.402	87.12
431.624	94.12
431.846	97.12
432.068	90.12
432.29	85.12
432.512	84.12
432.734	93.12
432.956	89.12
433.178	86.12
433.4	98.12
433.622	89.12
433.844	98.12
434.066	100.12
434.287	105.12
434.509	91.12
434.731	78.12
434.953	89.12
435.175	91.12
435.397	79.12
435.618	89.12
435.84	113.12
436.062	118.12
436.284	101.12
436.505	94.12
436.727	77.12
436.949	96.12
437.17	97.12
437.392	82.12
437.614	101.12
437.835	105.12
438.057	93.12
438.278	98.12
438.5	102.12
438.721	108.12
438.943	84.12
439.165	88.12
439.386	87.12
439.608	92.12
439.829	91.12
440.05	101.12
440.272	116.12
440.493	96.12
440.715	90.12
440.936	91.12
441.158	76.12
441.379	94.12
441.6	106.12
441.822	87.12
442.043	86.12
442.264	91.12
442.486	90.12
442.707	94.12
442.928	89.12
443.149	107.12
443.371	104.12
443.592	81.12
443.813	101.12
444.034	87.12
444.255	102.12
444.476	81.12
444.698	74.12
444.919	93.12
445.14	111.12
445.361	98.12
445.582	96.12
445.803	123.12
446.024	101.12
446.245	118.12
446.466	103.12
446.687	82.12
446.908	83.12
447.129	84.12
447.35	98.12
447.571	86.12
447.792	106.12
448.013	86.12
448.234	85.12
448.455	102.12
448.675	92.12
448.896	103.12
449.117	96.12
449.338	98.12
449.559	104.12
449.779	99.12
450	94.12
450.221	74.12
450.442	86.12
450.662	89.12
450.883	78.12
451.104	90.12
451.324	99.12
451.545	91.12
451.766	92.12
451.986	91.12
452.207	93.12
452.428	89.12
452.648	89.12
452.869	82.12
453.089	73.12
453.31	113.12
453.53	98.12
453.751	92.12
453.971	98.12
454.192	84.12
454.412	95.12
454.633	95.12
454.853	75.12
455.073	85.12
455.294	85.12
455.514	92.12
455.734	87.12
455.955	95.12
456.175	81.12
456.395	94.12
456.616	79.12
456.836	73.12
457.056	90.12
457.276	70.12
457.497	75.12
457.717	98.12
457.937	81.12
458.157	101.12
458.377	93.12
458.598	92.12
458.818	116.12
459.038	128.12
459.258	98.12
459.478	90.12
459.698	86.12
459.918	86.12
460.138	86.12
460.358	81.12
460.578	103.12
460.798	82.12
461.018	84.12
461.238	89.12
461.458	87.12
461.678	90.12
461.898	69.12
462.118	95.12
462.338	79.12
462.558	95.12
462.777	74.12
462.997	96.12
463.217	72.12
463.437	85.12
463.657	95.12
463.876	83.12
464.096	78.12
464.316	87.12
464.536	86.12
464.755	87.12
464.975	98.12
465.195	125.12
465.414	103.12
465.634	100.12
465.854	93.12
466.073	74.12
466.293	87.12
466.512	86.12
466.732	86.12
466.951	87.12
467.171	88.12
467.391	95.12
467.61	87.12
467.829	78.12
468.049	105.12
468.268	91.12
468.488	91.12
468.707	92.12
468.927	75.12
469.146	89.12
469.365	97.12
469.585	80.12
469.804	99.12
470.023	89.12
470.243	73.12
470.462	99.12
470.681	85.12
470.901	98.12
471.12	97.12
471.339	97.12
471.558	78.12
471.777	98.12
471.997	80.12
472.216	89.12
472.435	119.12
472.654	85.12
472.873	98.12
473.092	80.12
473.311	94.12
473.53	96.12
473.749	87.12
473.968	93.12
474.187	81.12
474.406	90.12
474.625	89.12
474.844	96.12
475.063	92.12
475.282	98.12
475.501	82.12
475.72	99.12
475.939	92.12
476.158	79.12
476.377	79.12
476.596	89.12
476.814	93.12
477.033	83.12
477.252	85.12
477.471	97.12
477.69	94.12
477.908	80.12
478.127	98.12
478.346	89.12
478.564	85.12
478.783	87.12
479.002	107.12
479.22	99.12
479.439	90.12
479.658	87.12
479.876	92.12
480.095	89.12
480.313	88.12
480.532	77.12
480.751	84.12
480.969	104.12
481.188	125.12
481.406	100.12
481.624	80.12
481.843	96.12
482.061	85.12
482.28	89.12
482.498	100.12
482.717	86.12
482.935	82.12
483.153	93.12
483.372	93.12
483.59	82.12
483.808	81.12
484.027	88.12
484.245	83.12
484.463	93.12
484.681	89.12
484.9	85.12
485.118	96.12
485.336	105.12
485.554	101.12
485.772	113.12
485.99	99.12
486.209	101.12
486.427	108.12
486.645	111.12
486.863	111.12
487.081	97.12
487.299	105.12
487.517	72.12
487.735	102.12
487.953	84.12
488.171	95.12
488.389	85.12
488.607	96.12
488.825	81.12
489.043	89.12
489.261	94.12
489.479	96.12
489.696	87.12
489.914	89.12
490.132	72.12
490.35	90.12
490.568	102.12
490.786	77.12
491.003	85.12
491.221	91.12
491.439	84.12
491.657	96.12
491.874	89.12
492.092	88.12
492.31	93.12
492.527	87.12
492.745	73.12
492.963	87.12
493.18	90.12
493.398	97.12
493.615	102.12
493.833	102.12
494.05	94.12
494.268	94.12
494.485	95.12
494.703	93.12
494.92	93.12
495.138	91.12
495.355	82.12
495.573	102.12
495.79	87.12
496.008	100.12
496.225	91.12
496.442	87.12
496.66	84.12
496.877	90.12
497.094	97.12
497.312	77.12
497.529	94.12
497.746	94.12
497.963	93.12
498.181	96.12
498.398	78.12
498.615	95.12
498.832	99.12
499.049	91.12
499.267	90.12
499.484	81.12
499.701	76.12
499.918	86.12
500.135	93.12
500.352	94.12
500.569	97.12
500.786	89.12
501.003	83.12
501.22	81.12
501.437	81.12
501.654	86.12
501.871	98.12
502.088	84.12
502.305	85.12
502.522	100.12
502.739	95.12
502.956	93.12
503.172	88.12
503.389	92.12
503.606	81.12
503.823	95.12
504.04	101.12
504.256	87.12
504.473	84.12
504.69	97.12
504.907	99.12
505.123	90.12
505.34	85.12
505.557	77.12
505.773	86.12
505.99	81.12
506.207	75.12
506.423	82.12
506.64	94.12
506.856	96.12
507.073	92.12
507.289	82.12
507.506	95.12
507.722	104.12
507.939	106.12
508.155	83.12
508.372	82.12
508.588	85.12
508.805	83.12
509.021	91.12
509.238	89.12
509.454	101.12
509.67	95.12
509.887	97.12
510.103	121.12
510.319	171.12
510.536	507.12
510.752	1444.12
510.968	393.12
511.184	124.12
511.401	91.12
511.617	92.12
511.833	97.12
512.049	83.12
512.265	80.12
512.481	85.12
512.698	99.12
512.914	87.12
513.13	97.12
513.346	98.12
513.562	79.12
513.778	95.12
513.994	85.12
514.21	111.12
514.426	94.12
514.642	123.12
514.858	113.12
515.074	130.12
515.29	305.12
515.506	837.12
515.721	322.12
515.937	125.12
516.153	89.12
516.369	83.12
516.585	83.12
