Data from Circ_1986_H10_HRD10591_00099.txt Node
Date: Wed Jan 03 12:15:45 EST 2024
User: Yrep
Spectrometer: HR+D1059
Trigger mode: 1
Integration Time (sec): 1.000000E-1
Scans to average: 1
Electric dark correction enabled: true
Nonlinearity correction enabled: false
Boxcar width: 0
XAxis mode: Wavelengths
Number of Pixels in Spectrum: 2048
>>>>>Begin Spectral Data<<<<<
223.165	-11.06
223.4	-11.06
223.635	-11.06
223.869	-13.06
224.104	-9.06
224.338	1.94
224.573	-25.06
224.808	-21.06
225.042	-13.06
225.277	-3.06
225.511	-3.06
225.746	10.94
225.98	17.94
226.215	7.94
226.449	0.94
226.683	15.94
226.918	22.94
227.152	19.94
227.387	41.94
227.621	41.94
227.856	42.94
228.09	38.94
228.324	55.94
228.559	74.94
228.793	70.94
229.027	72.94
229.262	74.94
229.496	79.94
229.73	78.94
229.964	80.94
230.199	71.94
230.433	72.94
230.667	90.94
230.901	78.94
231.136	83.94
231.37	68.94
231.604	89.94
231.838	82.94
232.072	82.94
232.306	83.94
232.541	85.94
232.775	69.94
233.009	74.94
233.243	85.94
233.477	90.94
233.711	86.94
233.945	85.94
234.179	75.94
234.413	84.94
234.647	83.94
234.881	72.94
235.115	84.94
235.349	90.94
235.583	84.94
235.817	74.94
236.051	72.94
236.285	71.94
236.519	81.94
236.753	82.94
236.987	81.94
237.221	99.94
237.455	90.94
237.689	71.94
237.922	84.94
238.156	69.94
238.39	72.94
238.624	102.94
238.858	69.94
239.091	67.94
239.325	74.94
239.559	71.94
239.793	74.94
240.027	78.94
240.26	59.94
240.494	68.94
240.728	82.94
240.961	88.94
241.195	80.94
241.429	78.94
241.662	73.94
241.896	80.94
242.13	78.94
242.363	73.94
242.597	71.94
242.83	74.94
243.064	63.94
243.298	70.94
243.531	88.94
243.765	90.94
243.998	82.94
244.232	89.94
244.465	79.94
244.699	77.94
244.932	58.94
245.166	74.94
245.399	75.94
245.633	78.94
245.866	63.94
246.099	71.94
246.333	76.94
246.566	75.94
246.8	79.94
247.033	80.94
247.266	83.94
247.5	79.94
247.733	78.94
247.966	71.94
248.2	78.94
248.433	80.94
248.666	72.94
248.899	73.94
249.133	83.94
249.366	110.94
249.599	99.94
249.832	77.94
250.066	78.94
250.299	78.94
250.532	74.94
250.765	70.94
250.998	83.94
251.231	78.94
251.465	75.94
251.698	84.94
251.931	94.94
252.164	80.94
252.397	79.94
252.63	91.94
252.863	76.94
253.096	86.94
253.329	77.94
253.562	96.94
253.795	80.94
254.028	73.94
254.261	82.94
254.494	68.94
254.727	90.94
254.96	78.94
255.193	84.94
255.426	85.94
255.659	86.94
255.892	95.94
256.124	73.94
256.357	80.94
256.59	86.94
256.823	79.94
257.056	79.94
257.289	85.94
257.521	80.94
257.754	92.94
257.987	94.94
258.22	86.94
258.452	79.94
258.685	78.94
258.918	90.94
259.151	96.94
259.383	84.94
259.616	83.94
259.849	78.94
260.081	87.94
260.314	79.94
260.547	82.94
260.779	73.94
261.012	84.94
261.244	82.94
261.477	85.94
261.71	103.94
261.942	102.94
262.175	105.94
262.407	91.94
262.64	89.94
262.872	94.94
263.105	72.94
263.337	81.94
263.57	80.94
263.802	79.94
264.035	80.94
264.267	105.94
264.499	74.94
264.732	81.94
264.964	88.94
265.197	69.94
265.429	82.94
265.661	84.94
265.894	88.94
266.126	88.94
266.358	74.94
266.591	86.94
266.823	90.94
267.055	90.94
267.287	88.94
267.52	91.94
267.752	80.94
267.984	97.94
268.216	88.94
268.448	84.94
268.681	89.94
268.913	78.94
269.145	97.94
269.377	96.94
269.609	86.94
269.841	97.94
270.073	84.94
270.306	89.94
270.538	85.94
270.77	83.94
271.002	71.94
271.234	98.94
271.466	75.94
271.698	78.94
271.93	83.94
272.162	82.94
272.394	96.94
272.626	92.94
272.858	91.94
273.09	92.94
273.322	88.94
273.553	90.94
273.785	75.94
274.017	91.94
274.249	80.94
274.481	84.94
274.713	75.94
274.945	103.94
275.176	88.94
275.408	91.94
275.64	91.94
275.872	89.94
276.104	81.94
276.335	88.94
276.567	95.94
276.799	101.94
277.031	99.94
277.262	103.94
277.494	93.94
277.726	91.94
277.957	98.94
278.189	82.94
278.421	85.94
278.652	89.94
278.884	97.94
279.115	91.94
279.347	80.94
279.579	95.94
279.81	94.94
280.042	91.94
280.273	90.94
280.505	94.94
280.736	82.94
280.968	94.94
281.199	74.94
281.431	82.94
281.662	96.94
281.894	85.94
282.125	97.94
282.356	116.94
282.588	112.94
282.819	114.94
283.051	89.94
283.282	86.94
283.513	81.94
283.745	80.94
283.976	88.94
284.207	82.94
284.439	94.94
284.67	75.94
284.901	69.94
285.132	75.94
285.364	76.94
285.595	94.94
285.826	98.94
286.057	78.94
286.288	99.94
286.52	81.94
286.751	82.94
286.982	81.94
287.213	83.94
287.444	85.94
287.675	87.94
287.906	97.94
288.138	87.94
288.369	83.94
288.6	81.94
288.831	85.94
289.062	89.94
289.293	86.94
289.524	90.94
289.755	82.94
289.986	70.94
290.217	94.94
290.448	79.94
290.679	92.94
290.91	93.94
291.141	84.94
291.371	93.94
291.602	81.94
291.833	82.94
292.064	83.94
292.295	82.94
292.526	93.94
292.757	72.94
292.987	87.94
293.218	94.94
293.449	83.94
293.68	99.94
293.91	79.94
294.141	104.94
294.372	92.94
294.603	80.94
294.833	82.94
295.064	88.94
295.295	99.94
295.525	88.94
295.756	97.94
295.987	110.94
296.217	138.94
296.448	118.94
296.679	98.94
296.909	87.94
297.14	94.94
297.37	94.94
297.601	99.94
297.831	89.94
298.062	94.94
298.292	93.94
298.523	84.94
298.753	81.94
298.984	70.94
299.214	75.94
299.445	89.94
299.675	88.94
299.905	103.94
300.136	80.94
300.366	81.94
300.597	84.94
300.827	78.94
301.057	87.94
301.288	107.94
301.518	79.94
301.748	82.94
301.979	102.94
302.209	105.94
302.439	98.94
302.669	90.94
302.9	86.94
303.13	101.94
303.36	81.94
303.59	95.94
303.82	102.94
304.051	92.94
304.281	90.94
304.511	90.94
304.741	88.94
304.971	86.94
305.201	83.94
305.431	88.94
305.661	89.94
305.891	88.94
306.121	99.94
306.352	90.94
306.582	105.94
306.812	103.94
307.042	99.94
307.272	84.94
307.502	91.94
307.731	96.94
307.961	94.94
308.191	87.94
308.421	90.94
308.651	87.94
308.881	92.94
309.111	86.94
309.341	87.94
309.571	103.94
309.8	79.94
310.03	89.94
310.26	84.94
310.49	102.94
310.72	86.94
310.949	98.94
311.179	100.94
311.409	99.94
311.639	80.94
311.868	102.94
312.098	101.94
312.328	91.94
312.557	96.94
312.787	107.94
313.017	85.94
313.246	96.94
313.476	76.94
313.706	94.94
313.935	96.94
314.165	100.94
314.394	110.94
314.624	96.94
314.853	98.94
315.083	93.94
315.312	96.94
315.542	93.94
315.771	90.94
316.001	87.94
316.23	105.94
316.46	93.94
316.689	91.94
316.919	98.94
317.148	87.94
317.377	96.94
317.607	90.94
317.836	97.94
318.065	90.94
318.295	87.94
318.524	100.94
318.753	98.94
318.983	91.94
319.212	95.94
319.441	101.94
319.67	100.94
319.9	104.94
320.129	91.94
320.358	89.94
320.587	91.94
320.816	109.94
321.046	102.94
321.275	84.94
321.504	106.94
321.733	88.94
321.962	88.94
322.191	105.94
322.42	95.94
322.649	103.94
322.878	96.94
323.108	104.94
323.337	99.94
323.566	114.94
323.795	146.94
324.024	197.94
324.253	324.94
324.482	688.94
324.71	1417.94
324.939	1958.94
325.168	732.94
325.397	226.94
325.626	138.94
325.855	112.94
326.084	113.94
326.313	125.94
326.542	136.94
326.77	206.94
326.999	414.94
327.228	834.94
327.457	1520.94
327.686	1207.94
327.914	359.94
328.143	207.94
328.372	188.94
328.6	139.94
328.829	117.94
329.058	133.94
329.287	118.94
329.515	109.94
329.744	99.94
329.972	127.94
330.201	182.94
330.43	227.94
330.658	166.94
330.887	142.94
331.115	116.94
331.344	96.94
331.572	99.94
331.801	98.94
332.03	101.94
332.258	88.94
332.486	104.94
332.715	100.94
332.943	99.94
333.172	97.94
333.4	110.94
333.629	113.94
333.857	113.94
334.085	130.94
334.314	172.94
334.542	259.94
334.771	223.94
334.999	133.94
335.227	108.94
335.455	97.94
335.684	95.94
335.912	101.94
336.14	97.94
336.369	92.94
336.597	104.94
336.825	91.94
337.053	87.94
337.281	93.94
337.51	99.94
337.738	96.94
337.966	86.94
338.194	99.94
338.422	92.94
338.65	100.94
338.878	99.94
339.106	90.94
339.334	91.94
339.562	100.94
339.79	93.94
340.018	91.94
340.246	95.94
340.474	97.94
340.702	89.94
340.93	101.94
341.158	90.94
341.386	98.94
341.614	84.94
341.842	92.94
342.07	80.94
342.298	93.94
342.526	88.94
342.754	87.94
342.981	98.94
343.209	90.94
343.437	102.94
343.665	91.94
343.893	98.94
344.12	88.94
344.348	81.94
344.576	81.94
344.804	81.94
345.031	95.94
345.259	82.94
345.487	97.94
345.714	84.94
345.942	93.94
346.17	90.94
346.397	96.94
346.625	95.94
346.853	84.94
347.08	85.94
347.308	89.94
347.535	90.94
347.763	107.94
347.99	106.94
348.218	76.94
348.445	113.94
348.673	96.94
348.9	91.94
349.128	97.94
349.355	88.94
349.583	100.94
349.81	99.94
350.037	88.94
350.265	107.94
350.492	88.94
350.72	95.94
350.947	105.94
351.174	98.94
351.402	98.94
351.629	87.94
351.856	99.94
352.083	92.94
352.311	105.94
352.538	108.94
352.765	113.94
352.992	116.94
353.22	112.94
353.447	103.94
353.674	94.94
353.901	99.94
354.128	83.94
354.355	84.94
354.583	89.94
354.81	95.94
355.037	96.94
355.264	88.94
355.491	98.94
355.718	83.94
355.945	91.94
356.172	104.94
356.399	90.94
356.626	86.94
356.853	90.94
357.08	88.94
357.307	98.94
357.534	95.94
357.761	96.94
357.988	89.94
358.215	90.94
358.441	92.94
358.668	98.94
358.895	95.94
359.122	86.94
359.349	93.94
359.576	96.94
359.802	100.94
360.029	123.94
360.256	100.94
360.483	83.94
360.709	88.94
360.936	94.94
361.163	83.94
361.39	96.94
361.616	99.94
361.843	85.94
362.07	72.94
362.296	87.94
362.523	87.94
362.749	103.94
362.976	88.94
363.203	63.94
363.429	90.94
363.656	79.94
363.882	90.94
364.109	93.94
364.335	107.94
364.562	102.94
364.788	98.94
365.015	102.94
365.241	107.94
365.468	108.94
365.694	105.94
365.92	89.94
366.147	92.94
366.373	92.94
366.599	95.94
366.826	101.94
367.052	96.94
367.278	104.94
367.505	75.94
367.731	92.94
367.957	73.94
368.184	90.94
368.41	101.94
368.636	94.94
368.862	104.94
369.089	104.94
369.315	83.94
369.541	93.94
369.767	80.94
369.993	85.94
370.219	96.94
370.445	89.94
370.672	91.94
370.898	94.94
371.124	82.94
371.35	95.94
371.576	94.94
371.802	81.94
372.028	94.94
372.254	97.94
372.48	84.94
372.706	91.94
372.932	73.94
373.158	92.94
373.384	94.94
373.61	93.94
373.835	89.94
374.061	84.94
374.287	90.94
374.513	92.94
374.739	85.94
374.965	92.94
375.191	96.94
375.416	99.94
375.642	94.94
375.868	83.94
376.094	82.94
376.319	104.94
376.545	108.94
376.771	87.94
376.997	99.94
377.222	95.94
377.448	71.94
377.674	85.94
377.899	93.94
378.125	91.94
378.35	94.94
378.576	94.94
378.802	95.94
379.027	74.94
379.253	87.94
379.478	86.94
379.704	75.94
379.929	96.94
380.155	88.94
380.38	78.94
380.606	86.94
380.831	82.94
381.057	95.94
381.282	95.94
381.507	92.94
381.733	94.94
381.958	86.94
382.184	87.94
382.409	97.94
382.634	88.94
382.86	92.94
383.085	98.94
383.31	98.94
383.535	85.94
383.761	103.94
383.986	102.94
384.211	99.94
384.436	107.94
384.662	111.94
384.887	94.94
385.112	92.94
385.337	98.94
385.562	95.94
385.787	90.94
386.013	115.94
386.238	107.94
386.463	103.94
386.688	104.94
386.913	101.94
387.138	114.94
387.363	109.94
387.588	106.94
387.813	78.94
388.038	97.94
388.263	103.94
388.488	103.94
388.713	108.94
388.938	94.94
389.163	95.94
389.387	88.94
389.612	83.94
389.837	88.94
390.062	87.94
390.287	98.94
390.512	82.94
390.736	89.94
390.961	97.94
391.186	94.94
391.411	76.94
391.636	86.94
391.86	102.94
392.085	90.94
392.31	94.94
392.534	93.94
392.759	85.94
392.984	97.94
393.208	86.94
393.433	87.94
393.658	99.94
393.882	76.94
394.107	98.94
394.331	82.94
394.556	99.94
394.78	88.94
395.005	99.94
395.229	80.94
395.454	80.94
395.678	71.94
395.903	86.94
396.127	94.94
396.352	85.94
396.576	105.94
396.801	97.94
397.025	101.94
397.249	94.94
397.474	73.94
397.698	94.94
397.922	98.94
398.147	79.94
398.371	89.94
398.595	93.94
398.82	78.94
399.044	76.94
399.268	88.94
399.492	87.94
399.717	89.94
399.941	98.94
400.165	99.94
400.389	95.94
400.613	85.94
400.837	72.94
401.062	90.94
401.286	104.94
401.51	81.94
401.734	94.94
401.958	97.94
402.182	107.94
402.406	133.94
402.63	110.94
402.854	102.94
403.078	97.94
403.302	94.94
403.526	87.94
403.75	99.94
403.974	90.94
404.198	87.94
404.422	93.94
404.645	91.94
404.869	82.94
405.093	88.94
405.317	96.94
405.541	111.94
405.765	86.94
405.988	97.94
406.212	158.94
406.436	201.94
406.66	122.94
406.883	90.94
407.107	85.94
407.331	105.94
407.555	92.94
407.778	96.94
408.002	98.94
408.226	95.94
408.449	85.94
408.673	70.94
408.896	75.94
409.12	88.94
409.344	90.94
409.567	89.94
409.791	90.94
410.014	102.94
410.238	88.94
410.461	88.94
410.685	90.94
410.908	94.94
411.132	102.94
411.355	75.94
411.578	94.94
411.802	91.94
412.025	82.94
412.249	83.94
412.472	91.94
412.695	116.94
412.919	94.94
413.142	70.94
413.365	80.94
413.589	94.94
413.812	97.94
414.035	109.94
414.258	85.94
414.482	97.94
414.705	109.94
414.928	90.94
415.151	92.94
415.374	92.94
415.597	73.94
415.821	88.94
416.044	78.94
416.267	92.94
416.49	65.94
416.713	94.94
416.936	100.94
417.159	90.94
417.382	82.94
417.605	104.94
417.828	81.94
418.051	108.94
418.274	86.94
418.497	99.94
418.72	89.94
418.943	103.94
419.166	78.94
419.389	84.94
419.611	78.94
419.834	93.94
420.057	89.94
420.28	92.94
420.503	74.94
420.726	89.94
420.948	83.94
421.171	84.94
421.394	99.94
421.617	74.94
421.839	90.94
422.062	81.94
422.285	95.94
422.507	94.94
422.73	85.94
422.953	100.94
423.175	92.94
423.398	82.94
423.621	85.94
423.843	94.94
424.066	100.94
424.288	89.94
424.511	86.94
424.733	92.94
424.956	105.94
425.178	93.94
425.401	99.94
425.623	99.94
425.846	87.94
426.068	82.94
426.291	75.94
426.513	90.94
426.735	99.94
426.958	89.94
427.18	99.94
427.402	122.94
427.625	134.94
427.847	130.94
428.069	126.94
428.292	98.94
428.514	96.94
428.736	88.94
428.958	84.94
429.181	96.94
429.403	85.94
429.625	82.94
429.847	105.94
430.069	92.94
430.292	104.94
430.514	95.94
430.736	79.94
430.958	83.94
431.18	78.94
431.402	87.94
431.624	85.94
431.846	86.94
432.068	79.94
432.29	90.94
432.512	99.94
432.734	92.94
432.956	91.94
433.178	106.94
433.4	107.94
433.622	95.94
433.844	98.94
434.066	90.94
434.287	73.94
434.509	99.94
434.731	80.94
434.953	90.94
435.175	82.94
435.397	90.94
435.618	92.94
435.84	90.94
436.062	108.94
436.284	105.94
436.505	96.94
436.727	88.94
436.949	95.94
437.17	78.94
437.392	97.94
437.614	99.94
437.835	105.94
438.057	103.94
438.278	104.94
438.5	111.94
438.721	107.94
438.943	102.94
439.165	80.94
439.386	86.94
439.608	96.94
439.829	94.94
440.05	112.94
440.272	119.94
440.493	101.94
440.715	81.94
440.936	92.94
441.158	79.94
441.379	90.94
441.6	106.94
441.822	97.94
442.043	91.94
442.264	103.94
442.486	87.94
442.707	95.94
442.928	94.94
443.149	112.94
443.371	110.94
443.592	106.94
443.813	90.94
444.034	103.94
444.255	103.94
444.476	85.94
444.698	83.94
444.919	89.94
445.14	118.94
445.361	134.94
445.582	116.94
445.803	120.94
446.024	128.94
446.245	131.94
446.466	107.94
446.687	94.94
446.908	81.94
447.129	98.94
447.35	87.94
447.571	90.94
447.792	104.94
448.013	98.94
448.234	95.94
448.455	92.94
448.675	99.94
448.896	110.94
449.117	98.94
449.338	109.94
449.559	124.94
449.779	137.94
450	89.94
450.221	92.94
450.442	96.94
450.662	85.94
450.883	89.94
451.104	94.94
451.324	85.94
451.545	68.94
451.766	88.94
451.986	87.94
452.207	79.94
452.428	111.94
452.648	95.94
452.869	105.94
453.089	112.94
453.31	102.94
453.53	82.94
453.751	90.94
453.971	103.94
454.192	89.94
454.412	88.94
454.633	86.94
454.853	102.94
455.073	74.94
455.294	100.94
455.514	92.94
455.734	86.94
455.955	80.94
456.175	80.94
456.395	82.94
456.616	83.94
456.836	87.94
457.056	95.94
457.276	91.94
457.497	78.94
457.717	78.94
457.937	84.94
458.157	94.94
458.377	93.94
458.598	107.94
458.818	132.94
459.038	137.94
459.258	112.94
459.478	90.94
459.698	79.94
459.918	92.94
460.138	82.94
460.358	83.94
460.578	82.94
460.798	94.94
461.018	85.94
461.238	82.94
461.458	90.94
461.678	81.94
461.898	97.94
462.118	91.94
462.338	72.94
462.558	80.94
462.777	85.94
462.997	97.94
463.217	81.94
463.437	84.94
463.657	87.94
463.876	86.94
464.096	86.94
464.316	81.94
464.536	81.94
464.755	88.94
464.975	115.94
465.195	156.94
465.414	151.94
465.634	91.94
465.854	82.94
466.073	96.94
466.293	87.94
466.512	92.94
466.732	91.94
466.951	88.94
467.171	112.94
467.391	93.94
467.61	102.94
467.829	101.94
468.049	127.94
468.268	157.94
468.488	105.94
468.707	95.94
468.927	96.94
469.146	99.94
469.365	84.94
469.585	91.94
469.804	86.94
470.023	99.94
470.243	111.94
470.462	88.94
470.681	95.94
470.901	87.94
471.12	81.94
471.339	77.94
471.558	89.94
471.777	105.94
471.997	109.94
472.216	204.94
472.435	321.94
472.654	138.94
472.873	82.94
473.092	98.94
473.311	91.94
473.53	88.94
473.749	96.94
473.968	83.94
474.187	96.94
474.406	100.94
474.625	115.94
474.844	105.94
475.063	88.94
475.282	85.94
475.501	79.94
475.72	91.94
475.939	91.94
476.158	100.94
476.377	93.94
476.596	91.94
476.814	95.94
477.033	109.94
477.252	94.94
477.471	91.94
477.69	83.94
477.908	96.94
478.127	86.94
478.346	90.94
478.564	79.94
478.783	97.94
479.002	98.94
479.22	97.94
479.439	96.94
479.658	94.94
479.876	100.94
480.095	83.94
480.313	86.94
480.532	97.94
480.751	111.94
480.969	213.94
481.188	522.94
481.406	336.94
481.624	99.94
481.843	88.94
482.061	84.94
482.28	91.94
482.498	95.94
482.717	92.94
482.935	86.94
483.153	90.94
483.372	73.94
483.59	94.94
483.808	93.94
484.027	88.94
484.245	94.94
484.463	93.94
484.681	98.94
484.9	94.94
485.118	81.94
485.336	88.94
485.554	89.94
485.772	112.94
485.99	97.94
486.209	116.94
486.427	90.94
486.645	99.94
486.863	101.94
487.081	102.94
487.299	93.94
487.517	105.94
487.735	90.94
487.953	78.94
488.171	92.94
488.389	94.94
488.607	90.94
488.825	95.94
489.043	79.94
489.261	74.94
489.479	92.94
489.696	97.94
489.914	95.94
490.132	91.94
490.35	91.94
490.568	94.94
490.786	82.94
491.003	99.94
491.221	91.94
491.439	102.94
491.657	98.94
491.874	105.94
492.092	84.94
492.31	94.94
492.527	83.94
492.745	92.94
492.963	83.94
493.18	87.94
493.398	91.94
493.615	100.94
493.833	107.94
494.05	90.94
494.268	72.94
494.485	81.94
494.703	96.94
494.92	84.94
495.138	90.94
495.355	89.94
495.573	99.94
495.79	99.94
496.008	85.94
496.225	90.94
496.442	100.94
496.66	94.94
496.877	94.94
497.094	89.94
497.312	89.94
497.529	95.94
497.746	92.94
497.963	75.94
498.181	98.94
498.398	104.94
498.615	98.94
498.832	111.94
499.049	90.94
499.267	91.94
499.484	85.94
499.701	98.94
499.918	92.94
500.135	84.94
500.352	92.94
500.569	90.94
500.786	85.94
501.003	86.94
501.22	97.94
501.437	83.94
501.654	86.94
501.871	103.94
502.088	89.94
502.305	102.94
502.522	89.94
502.739	83.94
502.956	106.94
503.172	86.94
503.389	85.94
503.606	99.94
503.823	102.94
504.04	94.94
504.256	82.94
504.473	87.94
504.69	84.94
504.907	90.94
505.123	84.94
505.34	88.94
505.557	83.94
505.773	95.94
505.99	89.94
506.207	84.94
506.423	88.94
506.64	89.94
506.856	85.94
507.073	99.94
507.289	83.94
507.506	102.94
507.722	99.94
507.939	117.94
508.155	80.94
508.372	83.94
508.588	82.94
508.805	103.94
509.021	94.94
509.238	104.94
509.454	107.94
509.67	99.94
509.887	106.94
510.103	131.94
510.319	185.94
510.536	628.94
510.752	1890.94
510.968	518.94
511.184	130.94
511.401	106.94
511.617	99.94
511.833	98.94
512.049	91.94
512.265	94.94
512.481	105.94
512.698	112.94
512.914	86.94
513.13	107.94
513.346	101.94
513.562	86.94
513.778	112.94
513.994	105.94
514.21	101.94
514.426	101.94
514.642	111.94
514.858	120.94
515.074	154.94
515.29	364.94
515.506	1140.94
515.721	418.94
515.937	138.94
516.153	93.94
