Data from Circ_1986_H10_HRD10591_00087.txt Node
Date: Wed Jan 03 12:15:43 EST 2024
User: Yrep
Spectrometer: HR+D1059
Trigger mode: 1
Integration Time (sec): 1.000000E-1
Scans to average: 1
Electric dark correction enabled: true
Nonlinearity correction enabled: false
Boxcar width: 0
XAxis mode: Wavelengths
Number of Pixels in Spectrum: 2048
>>>>>Begin Spectral Data<<<<<
223.165	-23.38
223.4	-23.38
223.635	-23.38
223.869	-12.38
224.104	-29.38
224.338	-16.38
224.573	-22.38
224.808	-16.38
225.042	-10.38
225.277	-8.38
225.511	4.62
225.746	7.62
225.98	3.62
226.215	2.62
226.449	17.62
226.683	23.62
226.918	35.62
227.152	43.62
227.387	34.62
227.621	33.62
227.856	49.62
228.09	38.62
228.324	52.62
228.559	54.62
228.793	77.62
229.027	74.62
229.262	69.62
229.496	68.62
229.73	76.62
229.964	87.62
230.199	83.62
230.433	86.62
230.667	74.62
230.901	83.62
231.136	88.62
231.37	85.62
231.604	71.62
231.838	86.62
232.072	72.62
232.306	77.62
232.541	79.62
232.775	68.62
233.009	75.62
233.243	83.62
233.477	86.62
233.711	73.62
233.945	79.62
234.179	83.62
234.413	75.62
234.647	68.62
234.881	82.62
235.115	82.62
235.349	84.62
235.583	88.62
235.817	92.62
236.051	73.62
236.285	66.62
236.519	86.62
236.753	77.62
236.987	78.62
237.221	91.62
237.455	74.62
237.689	86.62
237.922	71.62
238.156	84.62
238.39	65.62
238.624	74.62
238.858	65.62
239.091	81.62
239.325	68.62
239.559	86.62
239.793	85.62
240.027	69.62
240.26	73.62
240.494	68.62
240.728	71.62
240.961	73.62
241.195	81.62
241.429	91.62
241.662	79.62
241.896	68.62
242.13	79.62
242.363	74.62
242.597	63.62
242.83	70.62
243.064	67.62
243.298	71.62
243.531	64.62
243.765	89.62
243.998	79.62
244.232	79.62
244.465	82.62
244.699	70.62
244.932	84.62
245.166	67.62
245.399	72.62
245.633	74.62
245.866	70.62
246.099	70.62
246.333	54.62
246.566	84.62
246.8	63.62
247.033	82.62
247.266	69.62
247.5	80.62
247.733	77.62
247.966	81.62
248.2	77.62
248.433	82.62
248.666	69.62
248.899	77.62
249.133	78.62
249.366	74.62
249.599	95.62
249.832	79.62
250.066	91.62
250.299	77.62
250.532	80.62
250.765	84.62
250.998	76.62
251.231	68.62
251.465	72.62
251.698	81.62
251.931	91.62
252.164	91.62
252.397	81.62
252.63	75.62
252.863	73.62
253.096	72.62
253.329	77.62
253.562	84.62
253.795	77.62
254.028	89.62
254.261	63.62
254.494	80.62
254.727	80.62
254.96	89.62
255.193	72.62
255.426	91.62
255.659	85.62
255.892	83.62
256.124	83.62
256.357	91.62
256.59	79.62
256.823	81.62
257.056	87.62
257.289	73.62
257.521	83.62
257.754	74.62
257.987	75.62
258.22	92.62
258.452	81.62
258.685	85.62
258.918	82.62
259.151	84.62
259.383	76.62
259.616	93.62
259.849	64.62
260.081	75.62
260.314	94.62
260.547	89.62
260.779	84.62
261.012	94.62
261.244	86.62
261.477	81.62
261.71	91.62
261.942	97.62
262.175	96.62
262.407	75.62
262.64	75.62
262.872	89.62
263.105	71.62
263.337	64.62
263.57	77.62
263.802	100.62
264.035	95.62
264.267	87.62
264.499	73.62
264.732	76.62
264.964	83.62
265.197	61.62
265.429	79.62
265.661	82.62
265.894	88.62
266.126	85.62
266.358	94.62
266.591	68.62
266.823	78.62
267.055	83.62
267.287	84.62
267.52	71.62
267.752	79.62
267.984	80.62
268.216	94.62
268.448	93.62
268.681	85.62
268.913	80.62
269.145	93.62
269.377	75.62
269.609	82.62
269.841	72.62
270.073	81.62
270.306	85.62
270.538	93.62
270.77	74.62
271.002	88.62
271.234	73.62
271.466	85.62
271.698	74.62
271.93	86.62
272.162	86.62
272.394	89.62
272.626	87.62
272.858	82.62
273.09	81.62
273.322	87.62
273.553	80.62
273.785	85.62
274.017	97.62
274.249	88.62
274.481	92.62
274.713	93.62
274.945	85.62
275.176	90.62
275.408	91.62
275.64	85.62
275.872	85.62
276.104	90.62
276.335	90.62
276.567	87.62
276.799	115.62
277.031	92.62
277.262	89.62
277.494	97.62
277.726	82.62
277.957	79.62
278.189	88.62
278.421	93.62
278.652	86.62
278.884	95.62
279.115	77.62
279.347	87.62
279.579	85.62
279.81	90.62
280.042	78.62
280.273	91.62
280.505	90.62
280.736	90.62
280.968	93.62
281.199	84.62
281.431	98.62
281.662	85.62
281.894	92.62
282.125	85.62
282.356	106.62
282.588	113.62
282.819	102.62
283.051	93.62
283.282	78.62
283.513	86.62
283.745	88.62
283.976	86.62
284.207	84.62
284.439	90.62
284.67	79.62
284.901	87.62
285.132	96.62
285.364	81.62
285.595	72.62
285.826	88.62
286.057	84.62
286.288	81.62
286.52	88.62
286.751	94.62
286.982	94.62
287.213	82.62
287.444	82.62
287.675	87.62
287.906	101.62
288.138	80.62
288.369	82.62
288.6	105.62
288.831	93.62
289.062	80.62
289.293	83.62
289.524	88.62
289.755	96.62
289.986	82.62
290.217	94.62
290.448	81.62
290.679	87.62
290.91	86.62
291.141	86.62
291.371	81.62
291.602	72.62
291.833	86.62
292.064	86.62
292.295	84.62
292.526	85.62
292.757	91.62
292.987	90.62
293.218	86.62
293.449	92.62
293.68	83.62
293.91	92.62
294.141	81.62
294.372	90.62
294.603	93.62
294.833	94.62
295.064	93.62
295.295	94.62
295.525	94.62
295.756	103.62
295.987	113.62
296.217	114.62
296.448	112.62
296.679	99.62
296.909	94.62
297.14	91.62
297.37	93.62
297.601	82.62
297.831	81.62
298.062	89.62
298.292	86.62
298.523	87.62
298.753	77.62
298.984	94.62
299.214	91.62
299.445	82.62
299.675	93.62
299.905	104.62
300.136	91.62
300.366	97.62
300.597	90.62
300.827	94.62
301.057	95.62
301.288	106.62
301.518	86.62
301.748	88.62
301.979	108.62
302.209	90.62
302.439	87.62
302.669	85.62
302.9	93.62
303.13	93.62
303.36	102.62
303.59	97.62
303.82	96.62
304.051	90.62
304.281	79.62
304.511	89.62
304.741	90.62
304.971	89.62
305.201	85.62
305.431	89.62
305.661	86.62
305.891	86.62
306.121	99.62
306.352	105.62
306.582	102.62
306.812	101.62
307.042	91.62
307.272	84.62
307.502	98.62
307.731	83.62
307.961	95.62
308.191	89.62
308.421	98.62
308.651	79.62
308.881	84.62
309.111	89.62
309.341	91.62
309.571	93.62
309.8	93.62
310.03	79.62
310.26	82.62
310.49	87.62
310.72	94.62
310.949	102.62
311.179	95.62
311.409	91.62
311.639	107.62
311.868	95.62
312.098	90.62
312.328	95.62
312.557	91.62
312.787	90.62
313.017	99.62
313.246	85.62
313.476	103.62
313.706	99.62
313.935	87.62
314.165	79.62
314.394	89.62
314.624	101.62
314.853	93.62
315.083	104.62
315.312	88.62
315.542	86.62
315.771	86.62
316.001	85.62
316.23	75.62
316.46	88.62
316.689	80.62
316.919	97.62
317.148	98.62
317.377	88.62
317.607	101.62
317.836	74.62
318.065	85.62
318.295	93.62
318.524	90.62
318.753	90.62
318.983	102.62
319.212	99.62
319.441	105.62
319.67	90.62
319.9	80.62
320.129	99.62
320.358	81.62
320.587	83.62
320.816	87.62
321.046	102.62
321.275	105.62
321.504	90.62
321.733	96.62
321.962	88.62
322.191	95.62
322.42	99.62
322.649	95.62
322.878	106.62
323.108	106.62
323.337	121.62
323.566	126.62
323.795	140.62
324.024	181.62
324.253	340.62
324.482	698.62
324.71	1474.62
324.939	1954.62
325.168	720.62
325.397	201.62
325.626	145.62
325.855	108.62
326.084	111.62
326.313	125.62
326.542	149.62
326.77	217.62
326.999	385.62
327.228	819.62
327.457	1530.62
327.686	1225.62
327.914	331.62
328.143	192.62
328.372	164.62
328.6	130.62
328.829	109.62
329.058	117.62
329.287	124.62
329.515	117.62
329.744	109.62
329.972	117.62
330.201	158.62
330.43	197.62
330.658	147.62
330.887	129.62
331.115	119.62
331.344	93.62
331.572	104.62
331.801	75.62
332.03	92.62
332.258	95.62
332.486	99.62
332.715	86.62
332.943	99.62
333.172	97.62
333.4	111.62
333.629	80.62
333.857	116.62
334.085	128.62
334.314	164.62
334.542	241.62
334.771	207.62
334.999	118.62
335.227	98.62
335.455	109.62
335.684	93.62
335.912	89.62
336.14	91.62
336.369	93.62
336.597	89.62
336.825	102.62
337.053	97.62
337.281	89.62
337.51	78.62
337.738	82.62
337.966	88.62
338.194	98.62
338.422	79.62
338.65	97.62
338.878	87.62
339.106	89.62
339.334	85.62
339.562	101.62
339.79	94.62
340.018	78.62
340.246	88.62
340.474	94.62
340.702	99.62
340.93	89.62
341.158	87.62
341.386	96.62
341.614	111.62
341.842	83.62
342.07	74.62
342.298	89.62
342.526	96.62
342.754	85.62
342.981	90.62
343.209	85.62
343.437	104.62
343.665	99.62
343.893	81.62
344.12	97.62
344.348	85.62
344.576	89.62
344.804	97.62
345.031	104.62
345.259	79.62
345.487	98.62
345.714	82.62
345.942	89.62
346.17	79.62
346.397	89.62
346.625	72.62
346.853	88.62
347.08	95.62
347.308	90.62
347.535	89.62
347.763	103.62
347.99	98.62
348.218	104.62
348.445	93.62
348.673	90.62
348.9	100.62
349.128	96.62
349.355	103.62
349.583	103.62
349.81	104.62
350.037	106.62
350.265	76.62
350.492	83.62
350.72	82.62
350.947	90.62
351.174	86.62
351.402	105.62
351.629	87.62
351.856	95.62
352.083	101.62
352.311	95.62
352.538	95.62
352.765	87.62
352.992	115.62
353.22	109.62
353.447	102.62
353.674	100.62
353.901	91.62
354.128	80.62
354.355	79.62
354.583	82.62
354.81	81.62
355.037	94.62
355.264	85.62
355.491	88.62
355.718	97.62
355.945	94.62
356.172	103.62
356.399	87.62
356.626	97.62
356.853	93.62
357.08	79.62
357.307	88.62
357.534	89.62
357.761	79.62
357.988	91.62
358.215	84.62
358.441	90.62
358.668	106.62
358.895	91.62
359.122	92.62
359.349	90.62
359.576	80.62
359.802	91.62
360.029	91.62
360.256	88.62
360.483	85.62
360.709	80.62
360.936	78.62
361.163	87.62
361.39	89.62
361.616	104.62
361.843	105.62
362.07	85.62
362.296	92.62
362.523	81.62
362.749	98.62
362.976	93.62
363.203	93.62
363.429	90.62
363.656	95.62
363.882	75.62
364.109	71.62
364.335	88.62
364.562	87.62
364.788	81.62
365.015	97.62
365.241	96.62
365.468	103.62
365.694	101.62
365.92	93.62
366.147	73.62
366.373	86.62
366.599	81.62
366.826	83.62
367.052	89.62
367.278	88.62
367.505	85.62
367.731	101.62
367.957	89.62
368.184	79.62
368.41	89.62
368.636	106.62
368.862	111.62
369.089	98.62
369.315	97.62
369.541	89.62
369.767	90.62
369.993	97.62
370.219	97.62
370.445	89.62
370.672	105.62
370.898	88.62
371.124	93.62
371.35	91.62
371.576	79.62
371.802	85.62
372.028	73.62
372.254	89.62
372.48	78.62
372.706	91.62
372.932	104.62
373.158	93.62
373.384	93.62
373.61	72.62
373.835	77.62
374.061	74.62
374.287	81.62
374.513	92.62
374.739	84.62
374.965	89.62
375.191	77.62
375.416	94.62
375.642	84.62
375.868	89.62
376.094	93.62
376.319	82.62
376.545	86.62
376.771	75.62
376.997	89.62
377.222	82.62
377.448	86.62
377.674	85.62
377.899	86.62
378.125	95.62
378.35	98.62
378.576	88.62
378.802	78.62
379.027	89.62
379.253	87.62
379.478	93.62
379.704	87.62
379.929	90.62
380.155	91.62
380.38	90.62
380.606	90.62
380.831	96.62
381.057	99.62
381.282	90.62
381.507	88.62
381.733	91.62
381.958	86.62
382.184	97.62
382.409	82.62
382.634	99.62
382.86	100.62
383.085	105.62
383.31	95.62
383.535	94.62
383.761	92.62
383.986	90.62
384.211	98.62
384.436	97.62
384.662	86.62
384.887	99.62
385.112	117.62
385.337	101.62
385.562	109.62
385.787	103.62
386.013	77.62
386.238	95.62
386.463	96.62
386.688	109.62
386.913	98.62
387.138	95.62
387.363	98.62
387.588	92.62
387.813	105.62
388.038	83.62
388.263	106.62
388.488	106.62
388.713	100.62
388.938	89.62
389.163	92.62
389.387	109.62
389.612	90.62
389.837	94.62
390.062	87.62
390.287	91.62
390.512	98.62
390.736	76.62
390.961	88.62
391.186	91.62
391.411	105.62
391.636	98.62
391.86	88.62
392.085	79.62
392.31	81.62
392.534	102.62
392.759	88.62
392.984	92.62
393.208	81.62
393.433	84.62
393.658	87.62
393.882	85.62
394.107	80.62
394.331	67.62
394.556	89.62
394.78	91.62
395.005	77.62
395.229	74.62
395.454	74.62
395.678	80.62
395.903	72.62
396.127	81.62
396.352	84.62
396.576	84.62
396.801	91.62
397.025	99.62
397.249	98.62
397.474	89.62
397.698	83.62
397.922	77.62
398.147	70.62
398.371	77.62
398.595	83.62
398.82	79.62
399.044	87.62
399.268	89.62
399.492	92.62
399.717	88.62
399.941	78.62
400.165	72.62
400.389	90.62
400.613	93.62
400.837	98.62
401.062	83.62
401.286	96.62
401.51	88.62
401.734	96.62
401.958	93.62
402.182	115.62
402.406	159.62
402.63	102.62
402.854	92.62
403.078	94.62
403.302	101.62
403.526	85.62
403.75	74.62
403.974	78.62
404.198	89.62
404.422	88.62
404.645	91.62
404.869	100.62
405.093	87.62
405.317	82.62
405.541	94.62
405.765	95.62
405.988	109.62
406.212	155.62
406.436	195.62
406.66	133.62
406.883	93.62
407.107	86.62
407.331	81.62
407.555	87.62
407.778	71.62
408.002	94.62
408.226	81.62
408.449	87.62
408.673	95.62
408.896	86.62
409.12	90.62
409.344	73.62
409.567	85.62
409.791	85.62
410.014	91.62
410.238	98.62
410.461	82.62
410.685	103.62
410.908	107.62
411.132	103.62
411.355	96.62
411.578	86.62
411.802	88.62
412.025	87.62
412.249	100.62
412.472	94.62
412.695	109.62
412.919	98.62
413.142	87.62
413.365	90.62
413.589	90.62
413.812	75.62
414.035	84.62
414.258	91.62
414.482	101.62
414.705	101.62
414.928	93.62
415.151	90.62
415.374	95.62
415.597	79.62
415.821	93.62
416.044	87.62
416.267	87.62
416.49	80.62
416.713	82.62
416.936	85.62
417.159	90.62
417.382	94.62
417.605	96.62
417.828	85.62
418.051	83.62
418.274	88.62
418.497	73.62
418.72	90.62
418.943	93.62
419.166	80.62
419.389	101.62
419.611	84.62
419.834	84.62
420.057	93.62
420.28	89.62
420.503	87.62
420.726	94.62
420.948	87.62
421.171	83.62
421.394	81.62
421.617	90.62
421.839	94.62
422.062	96.62
422.285	92.62
422.507	94.62
422.73	96.62
422.953	97.62
423.175	82.62
423.398	77.62
423.621	83.62
423.843	87.62
424.066	85.62
424.288	88.62
424.511	89.62
424.733	90.62
424.956	97.62
425.178	106.62
425.401	91.62
425.623	91.62
425.846	88.62
426.068	82.62
426.291	94.62
426.513	94.62
426.735	80.62
426.958	102.62
427.18	75.62
427.402	128.62
427.625	156.62
427.847	127.62
428.069	116.62
428.292	109.62
428.514	83.62
428.736	69.62
428.958	74.62
429.181	91.62
429.403	80.62
429.625	85.62
429.847	71.62
430.069	94.62
430.292	90.62
430.514	87.62
430.736	89.62
430.958	89.62
431.18	85.62
431.402	84.62
431.624	88.62
431.846	87.62
432.068	89.62
432.29	70.62
432.512	89.62
432.734	73.62
432.956	80.62
433.178	89.62
433.4	84.62
433.622	79.62
433.844	100.62
434.066	88.62
434.287	87.62
434.509	101.62
434.731	90.62
434.953	91.62
435.175	84.62
435.397	85.62
435.618	85.62
435.84	102.62
436.062	114.62
436.284	109.62
436.505	81.62
436.727	89.62
436.949	83.62
437.17	80.62
437.392	82.62
437.614	84.62
437.835	105.62
438.057	108.62
438.278	102.62
438.5	86.62
438.721	106.62
438.943	97.62
439.165	88.62
439.386	79.62
439.608	82.62
439.829	104.62
440.05	107.62
440.272	125.62
440.493	102.62
440.715	91.62
440.936	82.62
441.158	82.62
441.379	82.62
441.6	80.62
441.822	97.62
442.043	83.62
442.264	107.62
442.486	100.62
442.707	90.62
442.928	90.62
443.149	110.62
443.371	102.62
443.592	96.62
443.813	114.62
444.034	110.62
444.255	98.62
444.476	88.62
444.698	84.62
444.919	74.62
445.14	132.62
445.361	123.62
445.582	97.62
445.803	133.62
446.024	115.62
446.245	116.62
446.466	111.62
446.687	88.62
446.908	68.62
447.129	85.62
447.35	90.62
447.571	90.62
447.792	78.62
448.013	90.62
448.234	104.62
448.455	97.62
448.675	85.62
448.896	106.62
449.117	111.62
449.338	104.62
449.559	121.62
449.779	123.62
450	102.62
450.221	77.62
450.442	99.62
450.662	89.62
450.883	102.62
451.104	114.62
451.324	103.62
451.545	82.62
451.766	69.62
451.986	77.62
452.207	85.62
452.428	81.62
452.648	99.62
452.869	90.62
453.089	86.62
453.31	91.62
453.53	88.62
453.751	82.62
453.971	102.62
454.192	104.62
454.412	79.62
454.633	95.62
454.853	80.62
455.073	88.62
455.294	88.62
455.514	102.62
455.734	105.62
455.955	87.62
456.175	80.62
456.395	79.62
456.616	85.62
456.836	85.62
457.056	73.62
457.276	75.62
457.497	93.62
457.717	86.62
457.937	96.62
458.157	85.62
458.377	78.62
458.598	97.62
458.818	154.62
459.038	139.62
459.258	96.62
459.478	95.62
459.698	71.62
459.918	86.62
460.138	81.62
460.358	85.62
460.578	94.62
460.798	86.62
461.018	84.62
461.238	89.62
461.458	101.62
461.678	82.62
461.898	87.62
462.118	85.62
462.338	85.62
462.558	96.62
462.777	63.62
462.997	82.62
463.217	76.62
463.437	84.62
463.657	96.62
463.876	97.62
464.096	96.62
464.316	82.62
464.536	103.62
464.755	90.62
464.975	106.62
465.195	141.62
465.414	123.62
465.634	102.62
465.854	99.62
466.073	91.62
466.293	93.62
466.512	85.62
466.732	88.62
466.951	85.62
467.171	78.62
467.391	89.62
467.61	99.62
467.829	100.62
468.049	136.62
468.268	135.62
468.488	105.62
468.707	104.62
468.927	97.62
469.146	93.62
469.365	98.62
469.585	90.62
469.804	102.62
470.023	95.62
470.243	110.62
470.462	107.62
470.681	107.62
470.901	90.62
471.12	98.62
471.339	93.62
471.558	99.62
471.777	96.62
471.997	106.62
472.216	179.62
472.435	281.62
472.654	127.62
472.873	87.62
473.092	93.62
473.311	91.62
473.53	74.62
473.749	86.62
473.968	95.62
474.187	90.62
474.406	91.62
474.625	104.62
474.844	83.62
475.063	85.62
475.282	82.62
475.501	85.62
475.72	91.62
475.939	78.62
476.158	87.62
476.377	84.62
476.596	89.62
476.814	92.62
477.033	85.62
477.252	86.62
477.471	80.62
477.69	86.62
477.908	85.62
478.127	93.62
478.346	79.62
478.564	94.62
478.783	94.62
479.002	96.62
479.22	93.62
479.439	86.62
479.658	105.62
479.876	91.62
480.095	96.62
480.313	85.62
480.532	88.62
480.751	102.62
480.969	181.62
481.188	486.62
481.406	281.62
481.624	96.62
481.843	85.62
482.061	81.62
482.28	89.62
482.498	79.62
482.717	91.62
482.935	81.62
483.153	72.62
483.372	102.62
483.59	97.62
483.808	95.62
484.027	95.62
484.245	91.62
484.463	96.62
484.681	101.62
484.9	94.62
485.118	97.62
485.336	89.62
485.554	102.62
485.772	98.62
485.99	86.62
486.209	83.62
486.427	96.62
486.645	112.62
486.863	101.62
487.081	101.62
487.299	97.62
487.517	102.62
487.735	101.62
487.953	111.62
488.171	106.62
488.389	94.62
488.607	101.62
488.825	86.62
489.043	95.62
489.261	87.62
489.479	99.62
489.696	70.62
489.914	81.62
490.132	83.62
490.35	88.62
490.568	87.62
490.786	92.62
491.003	92.62
491.221	72.62
491.439	94.62
491.657	97.62
491.874	101.62
492.092	102.62
492.31	95.62
492.527	86.62
492.745	100.62
492.963	84.62
493.18	92.62
493.398	69.62
493.615	91.62
493.833	96.62
494.05	89.62
494.268	95.62
494.485	98.62
494.703	88.62
494.92	87.62
495.138	82.62
495.355	87.62
495.573	94.62
495.79	81.62
496.008	91.62
496.225	75.62
496.442	97.62
496.66	85.62
496.877	84.62
497.094	77.62
497.312	80.62
497.529	80.62
497.746	86.62
497.963	109.62
498.181	103.62
498.398	95.62
498.615	96.62
498.832	108.62
499.049	94.62
499.267	98.62
499.484	106.62
499.701	85.62
499.918	95.62
500.135	99.62
500.352	71.62
500.569	79.62
500.786	98.62
501.003	94.62
501.22	85.62
501.437	89.62
501.654	100.62
501.871	111.62
502.088	102.62
502.305	87.62
502.522	85.62
502.739	101.62
502.956	98.62
503.172	100.62
503.389	92.62
503.606	90.62
503.823	90.62
504.04	84.62
504.256	104.62
504.473	88.62
504.69	74.62
504.907	94.62
505.123	99.62
505.34	91.62
505.557	98.62
505.773	92.62
505.99	85.62
506.207	94.62
506.423	97.62
506.64	89.62
506.856	77.62
507.073	93.62
507.289	92.62
507.506	105.62
507.722	110.62
507.939	89.62
508.155	96.62
508.372	91.62
508.588	82.62
508.805	93.62
509.021	100.62
509.238	106.62
509.454	94.62
509.67	90.62
509.887	103.62
510.103	133.62
510.319	203.62
510.536	624.62
510.752	1925.62
510.968	530.62
511.184	137.62
511.401	95.62
511.617	100.62
511.833	95.62
512.049	87.62
512.265	89.62
512.481	102.62
512.698	85.62
512.914	80.62
513.13	93.62
513.346	93.62
513.562	98.62
513.778	102.62
513.994	104.62
514.21	91.62
514.426	87.62
514.642	116.62
514.858	119.62
515.074	143.62
515.29	378.62
515.506	1150.62
515.721	432.62
515.937	126.62
516.153	111.62
516.369	94.62
516.585	98.62
