Data from Circ_1986_H10_HRD10591_00100.txt Node
Date: Wed Jan 03 12:15:46 EST 2024
User: Yrep
Spectrometer: HR+D1059
Trigger mode: 1
Integration Time (sec): 1.000000E-1
Scans to average: 1
Electric dark correction enabled: true
Nonlinearity correction enabled: false
Boxcar width: 0
XAxis mode: Wavelengths
Number of Pixels in Spectrum: 2048
>>>>>Begin Spectral Data<<<<<
223.165	-17
223.4	-17
223.635	-17
223.869	-21
224.104	-17
224.338	-18
224.573	-25
224.808	-13
225.042	-13
225.277	-1
225.511	-2
225.746	11
225.98	14
226.215	15
226.449	22
226.683	23
226.918	21
227.152	21
227.387	25
227.621	35
227.856	45
228.09	57
228.324	49
228.559	55
228.793	53
229.027	61
229.262	55
229.496	58
229.73	85
229.964	70
230.199	63
230.433	78
230.667	80
230.901	71
231.136	89
231.37	80
231.604	82
231.838	77
232.072	71
232.306	77
232.541	67
232.775	83
233.009	85
233.243	73
233.477	77
233.711	77
233.945	74
234.179	93
234.413	69
234.647	90
234.881	70
235.115	81
235.349	88
235.583	78
235.817	84
236.051	61
236.285	77
236.519	78
236.753	80
236.987	78
237.221	77
237.455	71
237.689	61
237.922	70
238.156	74
238.39	78
238.624	88
238.858	80
239.091	73
239.325	79
239.559	67
239.793	84
240.027	83
240.26	66
240.494	82
240.728	68
240.961	68
241.195	65
241.429	77
241.662	73
241.896	64
242.13	70
242.363	84
242.597	74
242.83	69
243.064	65
243.298	75
243.531	88
243.765	67
243.998	69
244.232	86
244.465	84
244.699	93
244.932	74
245.166	89
245.399	87
245.633	93
245.866	80
246.099	78
246.333	75
246.566	79
246.8	87
247.033	73
247.266	71
247.5	84
247.733	67
247.966	96
248.2	68
248.433	89
248.666	75
248.899	75
249.133	88
249.366	89
249.599	84
249.832	90
250.066	83
250.299	77
250.532	85
250.765	96
250.998	93
251.231	91
251.465	81
251.698	74
251.931	87
252.164	70
252.397	77
252.63	90
252.863	68
253.096	77
253.329	84
253.562	85
253.795	85
254.028	71
254.261	82
254.494	79
254.727	84
254.96	70
255.193	89
255.426	79
255.659	97
255.892	87
256.124	71
256.357	91
256.59	89
256.823	72
257.056	74
257.289	72
257.521	84
257.754	87
257.987	67
258.22	85
258.452	83
258.685	72
258.918	84
259.151	85
259.383	93
259.616	80
259.849	82
260.081	79
260.314	85
260.547	82
260.779	78
261.012	80
261.244	81
261.477	76
261.71	82
261.942	101
262.175	107
262.407	89
262.64	80
262.872	87
263.105	77
263.337	95
263.57	74
263.802	82
264.035	79
264.267	90
264.499	77
264.732	65
264.964	81
265.197	72
265.429	74
265.661	82
265.894	72
266.126	87
266.358	98
266.591	92
266.823	69
267.055	75
267.287	78
267.52	77
267.752	76
267.984	70
268.216	72
268.448	67
268.681	79
268.913	83
269.145	85
269.377	84
269.609	71
269.841	79
270.073	78
270.306	94
270.538	89
270.77	84
271.002	88
271.234	85
271.466	89
271.698	96
271.93	85
272.162	69
272.394	90
272.626	71
272.858	76
273.09	80
273.322	90
273.553	97
273.785	83
274.017	89
274.249	91
274.481	92
274.713	83
274.945	82
275.176	89
275.408	95
275.64	63
275.872	77
276.104	90
276.335	85
276.567	102
276.799	97
277.031	93
277.262	103
277.494	103
277.726	90
277.957	100
278.189	78
278.421	93
278.652	94
278.884	91
279.115	104
279.347	87
279.579	79
279.81	93
280.042	113
280.273	85
280.505	86
280.736	89
280.968	103
281.199	89
281.431	84
281.662	81
281.894	93
282.125	101
282.356	102
282.588	115
282.819	110
283.051	96
283.282	89
283.513	67
283.745	92
283.976	73
284.207	96
284.439	98
284.67	93
284.901	102
285.132	83
285.364	90
285.595	81
285.826	79
286.057	93
286.288	84
286.52	76
286.751	91
286.982	81
287.213	77
287.444	81
287.675	79
287.906	95
288.138	104
288.369	98
288.6	88
288.831	82
289.062	91
289.293	95
289.524	72
289.755	83
289.986	93
290.217	75
290.448	93
290.679	80
290.91	81
291.141	79
291.371	88
291.602	75
291.833	83
292.064	105
292.295	89
292.526	91
292.757	81
292.987	87
293.218	82
293.449	79
293.68	81
293.91	91
294.141	83
294.372	86
294.603	93
294.833	82
295.064	84
295.295	82
295.525	79
295.756	99
295.987	99
296.217	130
296.448	111
296.679	95
296.909	87
297.14	85
297.37	93
297.601	87
297.831	81
298.062	72
298.292	75
298.523	75
298.753	100
298.984	97
299.214	96
299.445	89
299.675	98
299.905	97
300.136	93
300.366	85
300.597	99
300.827	84
301.057	89
301.288	93
301.518	92
301.748	99
301.979	89
302.209	97
302.439	87
302.669	77
302.9	74
303.13	81
303.36	93
303.59	105
303.82	99
304.051	81
304.281	85
304.511	91
304.741	77
304.971	86
305.201	86
305.431	88
305.661	94
305.891	92
306.121	86
306.352	105
306.582	112
306.812	87
307.042	97
307.272	103
307.502	94
307.731	100
307.961	97
308.191	91
308.421	90
308.651	105
308.881	89
309.111	101
309.341	103
309.571	92
309.8	96
310.03	83
310.26	102
310.49	87
310.72	101
310.949	86
311.179	95
311.409	93
311.639	93
311.868	94
312.098	95
312.328	86
312.557	89
312.787	94
313.017	95
313.246	82
313.476	81
313.706	84
313.935	96
314.165	105
314.394	86
314.624	91
314.853	85
315.083	101
315.312	90
315.542	76
315.771	94
316.001	93
316.23	105
316.46	90
316.689	87
316.919	92
317.148	101
317.377	83
317.607	67
317.836	86
318.065	82
318.295	107
318.524	100
318.753	91
318.983	91
319.212	90
319.441	112
319.67	99
319.9	87
320.129	86
320.358	100
320.587	82
320.816	82
321.046	97
321.275	100
321.504	84
321.733	91
321.962	83
322.191	87
322.42	90
322.649	110
322.878	113
323.108	100
323.337	118
323.566	103
323.795	127
324.024	175
324.253	317
324.482	666
324.71	1416
324.939	1880
325.168	726
325.397	199
325.626	128
325.855	109
326.084	126
326.313	115
326.542	121
326.77	189
326.999	398
327.228	820
327.457	1503
327.686	1196
327.914	346
328.143	209
328.372	180
328.6	130
328.829	126
329.058	117
329.287	107
329.515	106
329.744	111
329.972	135
330.201	186
330.43	207
330.658	137
330.887	121
331.115	117
331.344	98
331.572	100
331.801	99
332.03	103
332.258	84
332.486	87
332.715	80
332.943	92
333.172	94
333.4	95
333.629	113
333.857	121
334.085	118
334.314	178
334.542	246
334.771	238
334.999	117
335.227	112
335.455	81
335.684	96
335.912	89
336.14	101
336.369	102
336.597	88
336.825	96
337.053	91
337.281	101
337.51	93
337.738	100
337.966	93
338.194	87
338.422	85
338.65	80
338.878	90
339.106	95
339.334	81
339.562	89
339.79	98
340.018	81
340.246	99
340.474	79
340.702	101
340.93	94
341.158	77
341.386	97
341.614	100
341.842	95
342.07	95
342.298	84
342.526	83
342.754	91
342.981	80
343.209	93
343.437	100
343.665	87
343.893	89
344.12	102
344.348	97
344.576	89
344.804	90
345.031	106
345.259	98
345.487	85
345.714	94
345.942	90
346.17	83
346.397	88
346.625	85
346.853	90
347.08	85
347.308	88
347.535	93
347.763	79
347.99	79
348.218	98
348.445	96
348.673	88
348.9	82
349.128	98
349.355	83
349.583	85
349.81	92
350.037	103
350.265	84
350.492	89
350.72	96
350.947	89
351.174	98
351.402	95
351.629	107
351.856	86
352.083	94
352.311	96
352.538	110
352.765	104
352.992	110
353.22	94
353.447	94
353.674	96
353.901	97
354.128	97
354.355	96
354.583	100
354.81	83
355.037	106
355.264	86
355.491	90
355.718	91
355.945	85
356.172	93
356.399	91
356.626	93
356.853	72
357.08	88
357.307	102
357.534	72
357.761	84
357.988	91
358.215	92
358.441	94
358.668	64
358.895	80
359.122	90
359.349	99
359.576	79
359.802	86
360.029	86
360.256	101
360.483	91
360.709	94
360.936	95
361.163	87
361.39	88
361.616	69
361.843	98
362.07	85
362.296	79
362.523	81
362.749	83
362.976	104
363.203	77
363.429	93
363.656	93
363.882	85
364.109	91
364.335	91
364.562	83
364.788	92
365.015	95
365.241	91
365.468	104
365.694	86
365.92	98
366.147	101
366.373	106
366.599	88
366.826	95
367.052	79
367.278	90
367.505	85
367.731	91
367.957	88
368.184	96
368.41	98
368.636	88
368.862	95
369.089	95
369.315	89
369.541	95
369.767	90
369.993	89
370.219	78
370.445	75
370.672	94
370.898	90
371.124	67
371.35	73
371.576	94
371.802	94
372.028	69
372.254	98
372.48	84
372.706	77
372.932	74
373.158	87
373.384	85
373.61	72
373.835	91
374.061	93
374.287	81
374.513	82
374.739	84
374.965	80
375.191	81
375.416	98
375.642	95
375.868	94
376.094	88
376.319	83
376.545	88
376.771	79
376.997	78
377.222	73
377.448	92
377.674	92
377.899	81
378.125	93
378.35	88
378.576	95
378.802	93
379.027	102
379.253	82
379.478	67
379.704	88
379.929	80
380.155	96
380.38	99
380.606	90
380.831	78
381.057	102
381.282	95
381.507	79
381.733	90
381.958	93
382.184	97
382.409	93
382.634	98
382.86	93
383.085	100
383.31	102
383.535	87
383.761	93
383.986	104
384.211	92
384.436	110
384.662	87
384.887	89
385.112	101
385.337	92
385.562	98
385.787	81
386.013	104
386.238	115
386.463	97
386.688	103
386.913	99
387.138	90
387.363	101
387.588	107
387.813	96
388.038	96
388.263	114
388.488	86
388.713	95
388.938	102
389.163	101
389.387	89
389.612	94
389.837	93
390.062	94
390.287	85
390.512	87
390.736	87
390.961	95
391.186	95
391.411	94
391.636	77
391.86	87
392.085	97
392.31	89
392.534	74
392.759	77
392.984	74
393.208	81
393.433	90
393.658	79
393.882	89
394.107	71
394.331	83
394.556	89
394.78	98
395.005	85
395.229	84
395.454	83
395.678	81
395.903	87
396.127	88
396.352	86
396.576	73
396.801	69
397.025	70
397.249	82
397.474	82
397.698	76
397.922	73
398.147	83
398.371	84
398.595	82
398.82	90
399.044	76
399.268	97
399.492	92
399.717	90
399.941	81
400.165	98
400.389	82
400.613	88
400.837	78
401.062	98
401.286	82
401.51	90
401.734	91
401.958	94
402.182	111
402.406	120
402.63	102
402.854	88
403.078	98
403.302	81
403.526	82
403.75	84
403.974	97
404.198	90
404.422	96
404.645	96
404.869	81
405.093	94
405.317	102
405.541	94
405.765	100
405.988	108
406.212	146
406.436	190
406.66	127
406.883	99
407.107	96
407.331	87
407.555	93
407.778	93
408.002	77
408.226	101
408.449	88
408.673	87
408.896	97
409.12	93
409.344	86
409.567	78
409.791	91
410.014	86
410.238	99
410.461	85
410.685	83
410.908	86
411.132	97
411.355	90
411.578	95
411.802	85
412.025	84
412.249	93
412.472	95
412.695	96
412.919	89
413.142	88
413.365	84
413.589	88
413.812	101
414.035	86
414.258	90
414.482	80
414.705	85
414.928	86
415.151	90
415.374	88
415.597	87
415.821	88
416.044	80
416.267	93
416.49	94
416.713	81
416.936	74
417.159	81
417.382	87
417.605	86
417.828	94
418.051	82
418.274	91
418.497	84
418.72	99
418.943	88
419.166	97
419.389	85
419.611	79
419.834	91
420.057	83
420.28	79
420.503	100
420.726	86
420.948	98
421.171	90
421.394	105
421.617	85
421.839	78
422.062	89
422.285	96
422.507	98
422.73	107
422.953	101
423.175	87
423.398	92
423.621	87
423.843	91
424.066	89
424.288	98
424.511	91
424.733	95
424.956	98
425.178	85
425.401	101
425.623	82
425.846	86
426.068	85
426.291	84
426.513	84
426.735	94
426.958	92
427.18	84
427.402	105
427.625	152
427.847	135
428.069	138
428.292	79
428.514	82
428.736	88
428.958	70
429.181	84
429.403	84
429.625	84
429.847	79
430.069	90
430.292	87
430.514	83
430.736	81
430.958	90
431.18	88
431.402	81
431.624	81
431.846	78
432.068	89
432.29	74
432.512	77
432.734	82
432.956	91
433.178	106
433.4	90
433.622	90
433.844	78
434.066	87
434.287	93
434.509	84
434.731	85
434.953	99
435.175	84
435.397	98
435.618	97
435.84	102
436.062	111
436.284	114
436.505	99
436.727	100
436.949	95
437.17	89
437.392	82
437.614	95
437.835	94
438.057	102
438.278	108
438.5	95
438.721	103
438.943	101
439.165	86
439.386	93
439.608	95
439.829	103
440.05	119
440.272	121
440.493	90
440.715	92
440.936	84
441.158	79
441.379	93
441.6	89
441.822	82
442.043	93
442.264	106
442.486	93
442.707	89
442.928	89
443.149	88
443.371	110
443.592	103
443.813	113
444.034	93
444.255	69
444.476	80
444.698	79
444.919	87
445.14	133
445.361	121
445.582	89
445.803	107
446.024	105
446.245	110
446.466	103
446.687	98
446.908	79
447.129	88
447.35	92
447.571	91
447.792	97
448.013	93
448.234	98
448.455	95
448.675	101
448.896	104
449.117	102
449.338	96
449.559	112
449.779	112
450	103
450.221	81
450.442	74
450.662	93
450.883	110
451.104	92
451.324	102
451.545	80
451.766	85
451.986	96
452.207	84
452.428	98
452.648	93
452.869	93
453.089	101
453.31	97
453.53	87
453.751	73
453.971	100
454.192	95
454.412	97
454.633	84
454.853	67
455.073	72
455.294	84
455.514	76
455.734	88
455.955	75
456.175	74
456.395	73
456.616	78
456.836	91
457.056	88
457.276	91
457.497	86
457.717	79
457.937	78
458.157	96
458.377	95
458.598	103
458.818	130
459.038	123
459.258	111
459.478	93
459.698	83
459.918	77
460.138	79
460.358	85
460.578	84
460.798	90
461.018	81
461.238	88
461.458	77
461.678	97
461.898	75
462.118	98
462.338	90
462.558	73
462.777	82
462.997	79
463.217	84
463.437	87
463.657	94
463.876	85
464.096	83
464.316	87
464.536	99
464.755	97
464.975	94
465.195	138
465.414	117
465.634	79
465.854	74
466.073	84
466.293	88
466.512	89
466.732	86
466.951	94
467.171	81
467.391	91
467.61	100
467.829	109
468.049	122
468.268	154
468.488	95
468.707	81
468.927	81
469.146	97
469.365	85
469.585	86
469.804	86
470.023	79
470.243	93
470.462	89
470.681	97
470.901	89
471.12	87
471.339	94
471.558	89
471.777	81
471.997	110
472.216	203
472.435	314
472.654	131
472.873	100
473.092	85
473.311	68
473.53	84
473.749	82
473.968	87
474.187	100
474.406	93
474.625	88
474.844	94
475.063	77
475.282	65
475.501	78
475.72	88
475.939	83
476.158	99
476.377	95
476.596	77
476.814	83
477.033	81
477.252	78
477.471	82
477.69	82
477.908	93
478.127	93
478.346	94
478.564	90
478.783	97
479.002	97
479.22	97
479.439	88
479.658	108
479.876	90
480.095	117
480.313	101
480.532	98
480.751	116
480.969	190
481.188	510
481.406	328
481.624	106
481.843	83
482.061	89
482.28	67
482.498	75
482.717	86
482.935	91
483.153	78
483.372	88
483.59	78
483.808	93
484.027	86
484.245	87
484.463	86
484.681	100
484.9	70
485.118	90
485.336	78
485.554	102
485.772	94
485.99	99
486.209	105
486.427	89
486.645	96
486.863	105
487.081	96
487.299	110
487.517	95
487.735	93
487.953	93
488.171	88
488.389	91
488.607	96
488.825	87
489.043	88
489.261	91
489.479	94
489.696	97
489.914	103
490.132	83
490.35	93
490.568	84
490.786	90
491.003	90
491.221	90
491.439	90
491.657	73
491.874	94
492.092	85
492.31	97
492.527	97
492.745	88
492.963	83
493.18	93
493.398	87
493.615	89
493.833	96
494.05	99
494.268	93
494.485	86
494.703	97
494.92	79
495.138	96
495.355	91
495.573	92
495.79	88
496.008	97
496.225	101
496.442	86
496.66	79
496.877	93
497.094	99
497.312	79
497.529	73
497.746	95
497.963	91
498.181	95
498.398	86
498.615	94
498.832	105
499.049	95
499.267	101
499.484	94
499.701	85
499.918	85
500.135	101
500.352	93
500.569	77
500.786	103
501.003	78
501.22	93
501.437	94
501.654	96
501.871	101
502.088	98
502.305	74
502.522	83
502.739	90
502.956	100
503.172	90
503.389	71
503.606	96
503.823	92
504.04	94
504.256	94
504.473	72
504.69	93
504.907	77
505.123	98
505.34	80
505.557	93
505.773	94
505.99	94
506.207	85
506.423	94
506.64	98
506.856	89
507.073	90
507.289	86
507.506	87
507.722	94
507.939	110
508.155	85
508.372	105
508.588	98
508.805	86
509.021	103
509.238	99
509.454	99
509.67	97
509.887	93
510.103	122
510.319	191
510.536	621
510.752	1791
510.968	518
511.184	134
511.401	100
511.617	107
511.833	97
512.049	99
512.265	102
512.481	92
512.698	89
512.914	88
513.13	84
513.346	82
513.562	94
513.778	87
513.994	88
514.21	104
514.426	129
514.642	121
514.858	103
515.074	143
515.29	362
515.506	1079
515.721	409
515.937	126
516.153	109
516.369	97
516.585	96
516.801	97
517.016	94
517.232	84
517.448	81
517.664	93
517.879	89
518.095	89
518.311	73
518.527	89
518.742	101
518.958	93
519.173	94
519.389	97
519.605	105
519.82	93
520.036	108
520.251	119
520.467	88
520.682	105
520.898	95
521.113	118
521.329	123
521.544	186
521.76	453
521.975	1747
522.19	1071
522.406	249
522.621	111
522.836	96
523.052	99
523.267	89
523.482	92
523.698	109
523.913	115
524.128	105
524.343	94
524.559	97
524.774	86
524.989	81
525.204	91
525.419	90
525.634	95
525.849	97
526.064	95
526.28	84
526.495	83
526.71	87
526.925	102
527.14	72
527.355	94
527.57	105
527.785	77
527.999	89
528.214	97
528.429	93
528.644	87
528.859	87
529.074	94
529.289	119
529.503	153
529.718	111
529.933	91
530.148	84
530.363	89
530.577	91
530.792	96
531.007	94
531.221	90
531.436	97
531.651	83
531.865	86
532.08	98
532.295	83
532.509	80
532.724	101
532.938	79
533.153	88
533.367	85
533.582	85
533.796	107
534.011	83
534.225	86
534.44	99
534.654	93
534.868	83
535.083	89
535.297	90
535.511	113
535.726	106
535.94	85
536.154	101
536.369	80
536.583	83
536.797	68
537.011	85
537.225	84
537.44	89
537.654	97
537.868	88
538.082	78
538.296	93
538.51	86
538.724	86
538.938	80
539.153	91
539.367	103
539.581	86
539.795	87
540.009	87
540.222	91
540.436	92
540.65	93
540.864	80
541.078	81
541.292	99
541.506	101
541.72	79
541.934	89
542.147	77
542.361	90
542.575	73
542.789	89
543.002	90
543.216	102
543.43	91
543.644	86
543.857	92
544.071	102
544.285	71
544.498	85
544.712	74
544.925	77
545.139	81
545.352	100
545.566	82
545.779	99
545.993	77
546.206	89
546.42	80
546.633	85
546.847	88
547.06	92
547.274	83
547.487	86
547.7	91
547.914	93
548.127	81
548.34	93
548.554	68
548.767	94
548.98	85
549.193	100
549.407	87
549.62	88
549.833	90
550.046	85
550.259	85
550.473	100
550.686	87
550.899	88
551.112	97
551.325	91
551.538	73
551.751	78
551.964	105
552.177	82
552.39	99
552.603	94
552.816	89
553.029	84
553.242	95
553.455	90
553.667	116
553.88	84
554.093	82
554.306	88
554.519	98
554.732	95
554.944	91
555.157	104
555.37	94
555.583	90
555.795	85
556.008	83
556.221	83
556.433	96
556.646	89
556.859	68
557.071	99
557.284	90
557.496	103
557.709	92
557.921	101
558.134	82
558.346	100
558.559	100
558.771	73
558.984	70
559.196	90
559.409	77
559.621	89
559.833	87
560.046	79
560.258	89
560.47	86
560.683	79
560.895	97
561.107	90
561.32	89
561.532	80
561.744	96
561.956	96
562.168	78
562.381	78
562.593	99
562.805	82
563.017	96
563.229	91
563.441	89
563.653	84
563.865	83
564.077	93
564.289	98
564.501	97
564.713	81
564.925	84
565.137	100
565.349	85
565.561	95
565.773	87
565.985	80
566.197	90
566.408	84
566.62	84
566.832	93
567.044	83
567.255	97
567.467	93
567.679	86
567.891	86
568.102	93
568.314	93
568.526	94
568.737	94
568.949	82
569.161	105
569.372	88
569.584	84
569.795	90
570.007	102
570.218	199
570.43	120
570.641	74
570.853	88
571.064	86
571.276	92
571.487	79
571.698	80
571.91	80
572.121	83
572.333	74
572.544	86
572.755	98
572.966	79
573.178	83
573.389	89
573.6	96
573.811	85
574.023	98
574.234	80
574.445	94
574.656	93
574.867	78
575.078	82
575.289	88
575.501	95
575.712	94
575.923	89
576.134	78
576.345	90
576.556	79
576.767	93
576.978	66
577.188	91
577.399	88
577.61	82
577.821	86
578.032	112
578.243	231
578.454	543
578.665	160
578.875	87
579.086	87
579.297	87
579.508	94
579.718	80
579.929	88
580.14	92
580.35	84
580.561	75
580.772	85
580.982	74
581.193	77
581.403	79
581.614	94
581.825	78
582.035	82
582.246	73
582.456	87
582.667	85
582.877	84
583.087	75
583.298	87
583.508	89
583.719	79
583.929	83
584.139	85
584.35	98
584.56	77
584.77	87
584.981	95
585.191	75
585.401	100
585.611	82
585.821	85
