Data from Circ_1986_H10_HRD10591_00081.txt Node
Date: Wed Jan 03 12:15:42 EST 2024
User: Yrep
Spectrometer: HR+D1059
Trigger mode: 1
Integration Time (sec): 1.000000E-1
Scans to average: 1
Electric dark correction enabled: true
Nonlinearity correction enabled: false
Boxcar width: 0
XAxis mode: Wavelengths
Number of Pixels in Spectrum: 2048
>>>>>Begin Spectral Data<<<<<
223.165	-4.38
223.4	-4.38
223.635	-4.38
223.869	-12.38
224.104	-29.38
224.338	-14.38
224.573	-5.38
224.808	-5.38
225.042	6.62
225.277	-3.38
225.511	6.62
225.746	-3.38
225.98	8.62
226.215	-0.38
226.449	10.62
226.683	24.62
226.918	11.62
227.152	9.62
227.387	48.62
227.621	41.62
227.856	49.62
228.09	52.62
228.324	53.62
228.559	53.62
228.793	66.62
229.027	42.62
229.262	58.62
229.496	71.62
229.73	82.62
229.964	90.62
230.199	84.62
230.433	67.62
230.667	80.62
230.901	95.62
231.136	91.62
231.37	90.62
231.604	79.62
231.838	81.62
232.072	76.62
232.306	84.62
232.541	76.62
232.775	86.62
233.009	81.62
233.243	73.62
233.477	87.62
233.711	76.62
233.945	74.62
234.179	87.62
234.413	83.62
234.647	61.62
234.881	66.62
235.115	85.62
235.349	66.62
235.583	79.62
235.817	87.62
236.051	74.62
236.285	93.62
236.519	80.62
236.753	81.62
236.987	89.62
237.221	83.62
237.455	89.62
237.689	83.62
237.922	89.62
238.156	63.62
238.39	69.62
238.624	65.62
238.858	78.62
239.091	79.62
239.325	76.62
239.559	71.62
239.793	76.62
240.027	72.62
240.26	76.62
240.494	79.62
240.728	71.62
240.961	84.62
241.195	68.62
241.429	51.62
241.662	80.62
241.896	84.62
242.13	76.62
242.363	71.62
242.597	82.62
242.83	93.62
243.064	71.62
243.298	68.62
243.531	76.62
243.765	70.62
243.998	71.62
244.232	71.62
244.465	83.62
244.699	83.62
244.932	74.62
245.166	81.62
245.399	96.62
245.633	80.62
245.866	76.62
246.099	75.62
246.333	84.62
246.566	81.62
246.8	88.62
247.033	87.62
247.266	76.62
247.5	63.62
247.733	66.62
247.966	77.62
248.2	75.62
248.433	84.62
248.666	74.62
248.899	82.62
249.133	76.62
249.366	90.62
249.599	98.62
249.832	70.62
250.066	78.62
250.299	74.62
250.532	81.62
250.765	91.62
250.998	85.62
251.231	83.62
251.465	81.62
251.698	79.62
251.931	97.62
252.164	101.62
252.397	91.62
252.63	85.62
252.863	99.62
253.096	83.62
253.329	83.62
253.562	85.62
253.795	79.62
254.028	88.62
254.261	89.62
254.494	74.62
254.727	77.62
254.96	72.62
255.193	82.62
255.426	83.62
255.659	83.62
255.892	72.62
256.124	70.62
256.357	84.62
256.59	74.62
256.823	81.62
257.056	79.62
257.289	75.62
257.521	74.62
257.754	72.62
257.987	68.62
258.22	102.62
258.452	83.62
258.685	79.62
258.918	88.62
259.151	90.62
259.383	81.62
259.616	76.62
259.849	72.62
260.081	92.62
260.314	85.62
260.547	83.62
260.779	87.62
261.012	80.62
261.244	84.62
261.477	82.62
261.71	88.62
261.942	109.62
262.175	104.62
262.407	91.62
262.64	97.62
262.872	83.62
263.105	82.62
263.337	86.62
263.57	83.62
263.802	86.62
264.035	78.62
264.267	82.62
264.499	83.62
264.732	83.62
264.964	80.62
265.197	82.62
265.429	81.62
265.661	95.62
265.894	92.62
266.126	89.62
266.358	81.62
266.591	93.62
266.823	87.62
267.055	79.62
267.287	92.62
267.52	92.62
267.752	94.62
267.984	82.62
268.216	81.62
268.448	88.62
268.681	84.62
268.913	68.62
269.145	93.62
269.377	69.62
269.609	67.62
269.841	90.62
270.073	87.62
270.306	85.62
270.538	92.62
270.77	95.62
271.002	91.62
271.234	73.62
271.466	78.62
271.698	57.62
271.93	84.62
272.162	85.62
272.394	93.62
272.626	88.62
272.858	85.62
273.09	79.62
273.322	79.62
273.553	93.62
273.785	100.62
274.017	73.62
274.249	89.62
274.481	77.62
274.713	83.62
274.945	90.62
275.176	82.62
275.408	85.62
275.64	90.62
275.872	75.62
276.104	75.62
276.335	100.62
276.567	84.62
276.799	100.62
277.031	89.62
277.262	96.62
277.494	95.62
277.726	82.62
277.957	75.62
278.189	87.62
278.421	83.62
278.652	86.62
278.884	78.62
279.115	75.62
279.347	97.62
279.579	88.62
279.81	92.62
280.042	89.62
280.273	96.62
280.505	91.62
280.736	89.62
280.968	76.62
281.199	93.62
281.431	81.62
281.662	89.62
281.894	107.62
282.125	91.62
282.356	119.62
282.588	120.62
282.819	83.62
283.051	91.62
283.282	71.62
283.513	83.62
283.745	65.62
283.976	89.62
284.207	81.62
284.439	92.62
284.67	92.62
284.901	88.62
285.132	87.62
285.364	96.62
285.595	84.62
285.826	89.62
286.057	84.62
286.288	88.62
286.52	82.62
286.751	85.62
286.982	82.62
287.213	79.62
287.444	100.62
287.675	91.62
287.906	83.62
288.138	93.62
288.369	99.62
288.6	79.62
288.831	93.62
289.062	99.62
289.293	87.62
289.524	95.62
289.755	82.62
289.986	89.62
290.217	83.62
290.448	104.62
290.679	83.62
290.91	91.62
291.141	83.62
291.371	85.62
291.602	81.62
291.833	84.62
292.064	72.62
292.295	93.62
292.526	96.62
292.757	108.62
292.987	80.62
293.218	88.62
293.449	90.62
293.68	80.62
293.91	67.62
294.141	72.62
294.372	85.62
294.603	83.62
294.833	98.62
295.064	84.62
295.295	71.62
295.525	88.62
295.756	91.62
295.987	103.62
296.217	117.62
296.448	101.62
296.679	100.62
296.909	90.62
297.14	87.62
297.37	83.62
297.601	86.62
297.831	87.62
298.062	86.62
298.292	86.62
298.523	84.62
298.753	76.62
298.984	80.62
299.214	82.62
299.445	87.62
299.675	91.62
299.905	88.62
300.136	88.62
300.366	87.62
300.597	82.62
300.827	88.62
301.057	101.62
301.288	98.62
301.518	109.62
301.748	108.62
301.979	103.62
302.209	83.62
302.439	89.62
302.669	91.62
302.9	87.62
303.13	89.62
303.36	94.62
303.59	109.62
303.82	86.62
304.051	87.62
304.281	90.62
304.511	93.62
304.741	92.62
304.971	87.62
305.201	92.62
305.431	93.62
305.661	99.62
305.891	87.62
306.121	87.62
306.352	96.62
306.582	100.62
306.812	92.62
307.042	83.62
307.272	110.62
307.502	125.62
307.731	101.62
307.961	95.62
308.191	77.62
308.421	88.62
308.651	106.62
308.881	83.62
309.111	109.62
309.341	105.62
309.571	103.62
309.8	88.62
310.03	91.62
310.26	96.62
310.49	99.62
310.72	93.62
310.949	110.62
311.179	107.62
311.409	101.62
311.639	99.62
311.868	96.62
312.098	110.62
312.328	86.62
312.557	88.62
312.787	88.62
313.017	106.62
313.246	98.62
313.476	102.62
313.706	76.62
313.935	83.62
314.165	97.62
314.394	95.62
314.624	101.62
314.853	103.62
315.083	99.62
315.312	88.62
315.542	97.62
315.771	103.62
316.001	81.62
316.23	87.62
316.46	83.62
316.689	91.62
316.919	96.62
317.148	101.62
317.377	87.62
317.607	85.62
317.836	100.62
318.065	93.62
318.295	103.62
318.524	92.62
318.753	92.62
318.983	93.62
319.212	99.62
319.441	108.62
319.67	102.62
319.9	104.62
320.129	88.62
320.358	91.62
320.587	83.62
320.816	108.62
321.046	95.62
321.275	105.62
321.504	101.62
321.733	101.62
321.962	92.62
322.191	100.62
322.42	108.62
322.649	108.62
322.878	104.62
323.108	102.62
323.337	118.62
323.566	121.62
323.795	140.62
324.024	178.62
324.253	344.62
324.482	717.62
324.71	1465.62
324.939	2009.62
325.168	732.62
325.397	219.62
325.626	138.62
325.855	132.62
326.084	120.62
326.313	120.62
326.542	144.62
326.77	208.62
326.999	408.62
327.228	823.62
327.457	1523.62
327.686	1227.62
327.914	335.62
328.143	199.62
328.372	163.62
328.6	124.62
328.829	117.62
329.058	122.62
329.287	109.62
329.515	112.62
329.744	118.62
329.972	129.62
330.201	168.62
330.43	165.62
330.658	150.62
330.887	128.62
331.115	121.62
331.344	93.62
331.572	102.62
331.801	81.62
332.03	104.62
332.258	92.62
332.486	96.62
332.715	90.62
332.943	95.62
333.172	85.62
333.4	113.62
333.629	110.62
333.857	114.62
334.085	124.62
334.314	184.62
334.542	238.62
334.771	230.62
334.999	125.62
335.227	85.62
335.455	106.62
335.684	97.62
335.912	111.62
336.14	105.62
336.369	98.62
336.597	93.62
336.825	93.62
337.053	93.62
337.281	104.62
337.51	94.62
337.738	104.62
337.966	96.62
338.194	94.62
338.422	103.62
338.65	89.62
338.878	88.62
339.106	81.62
339.334	96.62
339.562	105.62
339.79	96.62
340.018	81.62
340.246	93.62
340.474	80.62
340.702	89.62
340.93	83.62
341.158	93.62
341.386	94.62
341.614	86.62
341.842	87.62
342.07	92.62
342.298	85.62
342.526	91.62
342.754	88.62
342.981	87.62
343.209	98.62
343.437	95.62
343.665	75.62
343.893	86.62
344.12	93.62
344.348	95.62
344.576	91.62
344.804	90.62
345.031	93.62
345.259	82.62
345.487	91.62
345.714	93.62
345.942	96.62
346.17	86.62
346.397	91.62
346.625	88.62
346.853	91.62
347.08	91.62
347.308	88.62
347.535	95.62
347.763	103.62
347.99	109.62
348.218	96.62
348.445	91.62
348.673	101.62
348.9	97.62
349.128	90.62
349.355	101.62
349.583	88.62
349.81	84.62
350.037	85.62
350.265	104.62
350.492	99.62
350.72	96.62
350.947	92.62
351.174	112.62
351.402	120.62
351.629	100.62
351.856	115.62
352.083	105.62
352.311	100.62
352.538	102.62
352.765	111.62
352.992	103.62
353.22	113.62
353.447	88.62
353.674	104.62
353.901	89.62
354.128	92.62
354.355	89.62
354.583	97.62
354.81	104.62
355.037	89.62
355.264	91.62
355.491	102.62
355.718	91.62
355.945	103.62
356.172	100.62
356.399	111.62
356.626	101.62
356.853	102.62
357.08	102.62
357.307	90.62
357.534	91.62
357.761	93.62
357.988	92.62
358.215	93.62
358.441	96.62
358.668	85.62
358.895	100.62
359.122	84.62
359.349	92.62
359.576	92.62
359.802	92.62
360.029	112.62
360.256	101.62
360.483	100.62
360.709	74.62
360.936	104.62
361.163	99.62
361.39	86.62
361.616	92.62
361.843	88.62
362.07	100.62
362.296	100.62
362.523	98.62
362.749	80.62
362.976	90.62
363.203	98.62
363.429	78.62
363.656	74.62
363.882	85.62
364.109	102.62
364.335	85.62
364.562	89.62
364.788	76.62
365.015	98.62
365.241	105.62
365.468	98.62
365.694	107.62
365.92	105.62
366.147	90.62
366.373	97.62
366.599	79.62
366.826	87.62
367.052	78.62
367.278	98.62
367.505	94.62
367.731	84.62
367.957	87.62
368.184	91.62
368.41	76.62
368.636	100.62
368.862	101.62
369.089	91.62
369.315	108.62
369.541	109.62
369.767	95.62
369.993	86.62
370.219	81.62
370.445	72.62
370.672	88.62
370.898	89.62
371.124	92.62
371.35	98.62
371.576	89.62
371.802	91.62
372.028	98.62
372.254	93.62
372.48	83.62
372.706	83.62
372.932	93.62
373.158	91.62
373.384	96.62
373.61	97.62
373.835	90.62
374.061	99.62
374.287	99.62
374.513	85.62
374.739	75.62
374.965	89.62
375.191	82.62
375.416	82.62
375.642	92.62
375.868	82.62
376.094	106.62
376.319	82.62
376.545	76.62
376.771	83.62
376.997	85.62
377.222	90.62
377.448	95.62
377.674	87.62
377.899	86.62
378.125	83.62
378.35	83.62
378.576	96.62
378.802	89.62
379.027	92.62
379.253	93.62
379.478	90.62
379.704	83.62
379.929	109.62
380.155	95.62
380.38	110.62
380.606	85.62
380.831	84.62
381.057	104.62
381.282	101.62
381.507	95.62
381.733	87.62
381.958	87.62
382.184	91.62
382.409	102.62
382.634	87.62
382.86	102.62
383.085	91.62
383.31	93.62
383.535	104.62
383.761	99.62
383.986	120.62
384.211	103.62
384.436	103.62
384.662	93.62
384.887	103.62
385.112	109.62
385.337	101.62
385.562	115.62
385.787	96.62
386.013	121.62
386.238	108.62
386.463	103.62
386.688	107.62
386.913	97.62
387.138	94.62
387.363	99.62
387.588	102.62
387.813	103.62
388.038	96.62
388.263	113.62
388.488	104.62
388.713	103.62
388.938	90.62
389.163	105.62
389.387	84.62
389.612	94.62
389.837	97.62
390.062	96.62
390.287	96.62
390.512	86.62
390.736	107.62
390.961	88.62
391.186	96.62
391.411	95.62
391.636	86.62
391.86	99.62
392.085	96.62
392.31	89.62
392.534	80.62
392.759	97.62
392.984	93.62
393.208	82.62
393.433	97.62
393.658	87.62
393.882	91.62
394.107	92.62
394.331	92.62
394.556	69.62
394.78	95.62
395.005	86.62
395.229	79.62
395.454	89.62
395.678	95.62
395.903	102.62
396.127	84.62
396.352	91.62
396.576	83.62
396.801	93.62
397.025	98.62
397.249	91.62
397.474	92.62
397.698	86.62
397.922	94.62
398.147	87.62
398.371	96.62
398.595	99.62
398.82	108.62
399.044	93.62
399.268	94.62
399.492	91.62
399.717	98.62
399.941	96.62
400.165	94.62
400.389	89.62
400.613	101.62
400.837	92.62
401.062	94.62
401.286	97.62
401.51	81.62
401.734	82.62
401.958	97.62
402.182	118.62
402.406	137.62
402.63	110.62
402.854	93.62
403.078	98.62
403.302	84.62
403.526	101.62
403.75	92.62
403.974	93.62
404.198	92.62
404.422	86.62
404.645	98.62
404.869	98.62
405.093	88.62
405.317	104.62
405.541	96.62
405.765	100.62
405.988	96.62
406.212	152.62
406.436	197.62
406.66	136.62
406.883	101.62
407.107	95.62
407.331	90.62
407.555	111.62
407.778	91.62
408.002	79.62
408.226	99.62
408.449	78.62
408.673	97.62
408.896	99.62
409.12	93.62
409.344	89.62
409.567	91.62
409.791	98.62
410.014	95.62
410.238	104.62
410.461	94.62
410.685	91.62
410.908	97.62
411.132	104.62
411.355	81.62
411.578	86.62
411.802	102.62
412.025	84.62
412.249	107.62
412.472	111.62
412.695	104.62
412.919	98.62
413.142	89.62
413.365	108.62
413.589	83.62
413.812	91.62
414.035	95.62
414.258	92.62
414.482	77.62
414.705	97.62
414.928	89.62
415.151	81.62
415.374	86.62
415.597	93.62
415.821	80.62
416.044	93.62
416.267	88.62
416.49	92.62
416.713	83.62
416.936	97.62
417.159	87.62
417.382	89.62
417.605	87.62
417.828	83.62
418.051	81.62
418.274	87.62
418.497	91.62
418.72	90.62
418.943	81.62
419.166	86.62
419.389	75.62
419.611	86.62
419.834	101.62
420.057	92.62
420.28	96.62
420.503	100.62
420.726	92.62
420.948	79.62
421.171	97.62
421.394	104.62
421.617	70.62
421.839	85.62
422.062	76.62
422.285	90.62
422.507	100.62
422.73	107.62
422.953	94.62
423.175	92.62
423.398	89.62
423.621	98.62
423.843	88.62
424.066	105.62
424.288	91.62
424.511	103.62
424.733	96.62
424.956	97.62
425.178	108.62
425.401	113.62
425.623	106.62
425.846	88.62
426.068	89.62
426.291	98.62
426.513	95.62
426.735	100.62
426.958	106.62
427.18	86.62
427.402	138.62
427.625	172.62
427.847	135.62
428.069	115.62
428.292	99.62
428.514	88.62
428.736	95.62
428.958	72.62
429.181	100.62
429.403	90.62
429.625	73.62
429.847	88.62
430.069	97.62
430.292	82.62
430.514	85.62
430.736	87.62
430.958	91.62
431.18	92.62
431.402	81.62
431.624	71.62
431.846	77.62
432.068	70.62
432.29	97.62
432.512	95.62
432.734	81.62
432.956	107.62
433.178	103.62
433.4	103.62
433.622	96.62
433.844	83.62
434.066	95.62
434.287	92.62
434.509	86.62
434.731	99.62
434.953	91.62
435.175	86.62
435.397	98.62
435.618	79.62
435.84	113.62
436.062	122.62
436.284	97.62
436.505	91.62
436.727	93.62
436.949	87.62
437.17	82.62
437.392	78.62
437.614	79.62
437.835	101.62
438.057	97.62
438.278	109.62
438.5	100.62
438.721	115.62
438.943	107.62
439.165	93.62
439.386	77.62
439.608	83.62
439.829	95.62
440.05	92.62
440.272	121.62
440.493	85.62
440.715	83.62
440.936	86.62
441.158	95.62
441.379	80.62
441.6	84.62
441.822	100.62
442.043	82.62
442.264	99.62
442.486	99.62
442.707	100.62
442.928	104.62
443.149	112.62
443.371	117.62
443.592	106.62
443.813	99.62
444.034	93.62
444.255	93.62
444.476	101.62
444.698	74.62
444.919	94.62
445.14	137.62
445.361	130.62
445.582	98.62
445.803	125.62
446.024	123.62
446.245	136.62
446.466	106.62
446.687	100.62
446.908	91.62
447.129	81.62
447.35	88.62
447.571	93.62
447.792	89.62
448.013	101.62
448.234	103.62
448.455	93.62
448.675	111.62
448.896	106.62
449.117	92.62
449.338	101.62
449.559	109.62
449.779	114.62
450	96.62
450.221	87.62
450.442	109.62
450.662	93.62
450.883	101.62
451.104	99.62
451.324	85.62
451.545	91.62
451.766	73.62
451.986	94.62
452.207	84.62
452.428	91.62
452.648	81.62
452.869	103.62
453.089	102.62
453.31	96.62
453.53	85.62
453.751	88.62
453.971	89.62
454.192	92.62
454.412	87.62
454.633	87.62
454.853	93.62
455.073	89.62
455.294	85.62
455.514	77.62
455.734	83.62
455.955	83.62
456.175	78.62
456.395	83.62
456.616	76.62
456.836	84.62
457.056	83.62
457.276	97.62
457.497	81.62
457.717	98.62
457.937	89.62
458.157	79.62
458.377	74.62
458.598	103.62
458.818	129.62
459.038	139.62
459.258	101.62
459.478	87.62
459.698	84.62
459.918	84.62
460.138	75.62
460.358	83.62
460.578	83.62
460.798	92.62
461.018	71.62
461.238	85.62
461.458	85.62
461.678	90.62
461.898	88.62
462.118	82.62
462.338	87.62
462.558	93.62
462.777	98.62
462.997	82.62
463.217	85.62
463.437	90.62
463.657	87.62
463.876	80.62
464.096	93.62
464.316	89.62
464.536	91.62
464.755	92.62
464.975	106.62
465.195	144.62
465.414	130.62
465.634	99.62
465.854	91.62
466.073	102.62
466.293	97.62
466.512	87.62
466.732	68.62
466.951	81.62
467.171	85.62
467.391	91.62
467.61	95.62
467.829	102.62
468.049	127.62
468.268	135.62
468.488	95.62
468.707	87.62
468.927	83.62
469.146	91.62
469.365	85.62
469.585	90.62
469.804	91.62
470.023	98.62
470.243	87.62
470.462	92.62
470.681	113.62
470.901	83.62
471.12	96.62
471.339	93.62
471.558	76.62
471.777	81.62
471.997	104.62
472.216	188.62
472.435	276.62
472.654	120.62
472.873	84.62
473.092	80.62
473.311	82.62
473.53	85.62
473.749	86.62
473.968	93.62
474.187	113.62
474.406	85.62
474.625	80.62
474.844	83.62
475.063	92.62
475.282	87.62
475.501	81.62
475.72	102.62
475.939	82.62
476.158	87.62
476.377	94.62
476.596	99.62
476.814	103.62
477.033	73.62
477.252	100.62
477.471	93.62
477.69	91.62
477.908	104.62
478.127	96.62
478.346	85.62
478.564	105.62
478.783	88.62
479.002	73.62
479.22	96.62
479.439	97.62
479.658	111.62
479.876	107.62
480.095	93.62
480.313	89.62
480.532	108.62
480.751	105.62
480.969	173.62
481.188	467.62
481.406	277.62
481.624	127.62
481.843	94.62
482.061	85.62
482.28	78.62
482.498	85.62
482.717	88.62
482.935	99.62
483.153	92.62
483.372	101.62
483.59	84.62
483.808	85.62
484.027	97.62
484.245	83.62
484.463	76.62
484.681	85.62
484.9	84.62
485.118	91.62
485.336	73.62
485.554	99.62
485.772	90.62
485.99	97.62
486.209	100.62
486.427	83.62
486.645	101.62
486.863	96.62
487.081	112.62
487.299	88.62
487.517	104.62
487.735	88.62
487.953	76.62
488.171	101.62
488.389	113.62
488.607	108.62
488.825	88.62
489.043	95.62
489.261	81.62
489.479	87.62
489.696	91.62
489.914	82.62
490.132	98.62
490.35	83.62
490.568	82.62
490.786	84.62
491.003	82.62
491.221	97.62
491.439	82.62
491.657	103.62
491.874	96.62
492.092	74.62
492.31	91.62
492.527	80.62
492.745	86.62
492.963	88.62
493.18	91.62
493.398	90.62
493.615	85.62
493.833	74.62
494.05	74.62
494.268	75.62
494.485	86.62
494.703	93.62
494.92	91.62
495.138	106.62
495.355	82.62
495.573	100.62
495.79	93.62
496.008	83.62
496.225	87.62
496.442	101.62
496.66	83.62
496.877	92.62
497.094	102.62
497.312	87.62
497.529	101.62
497.746	88.62
497.963	101.62
498.181	88.62
498.398	95.62
498.615	102.62
498.832	98.62
499.049	81.62
499.267	94.62
499.484	104.62
499.701	77.62
499.918	92.62
500.135	67.62
500.352	99.62
500.569	87.62
500.786	86.62
501.003	90.62
501.22	89.62
501.437	97.62
501.654	78.62
501.871	99.62
502.088	85.62
502.305	88.62
502.522	87.62
502.739	93.62
502.956	86.62
503.172	97.62
503.389	85.62
503.606	88.62
503.823	101.62
504.04	84.62
504.256	92.62
504.473	73.62
504.69	95.62
504.907	81.62
505.123	82.62
505.34	81.62
505.557	95.62
505.773	104.62
505.99	90.62
506.207	82.62
506.423	76.62
506.64	77.62
506.856	94.62
507.073	88.62
507.289	92.62
507.506	93.62
507.722	96.62
507.939	95.62
508.155	85.62
508.372	95.62
508.588	86.62
508.805	96.62
509.021	95.62
509.238	84.62
509.454	102.62
509.67	98.62
509.887	99.62
510.103	130.62
510.319	196.62
510.536	609.62
510.752	1867.62
510.968	521.62
511.184	142.62
511.401	105.62
511.617	93.62
511.833	73.62
512.049	88.62
512.265	85.62
512.481	69.62
512.698	92.62
512.914	80.62
513.13	93.62
513.346	106.62
513.562	95.62
513.778	83.62
513.994	91.62
514.21	95.62
514.426	121.62
514.642	112.62
514.858	102.62
515.074	132.62
515.29	376.62
515.506	1143.62
515.721	430.62
