Data from Circ_1986_H10_HRD10591_00056.txt Node
Date: Wed Jan 03 12:15:37 EST 2024
User: Yrep
Spectrometer: HR+D1059
Trigger mode: 1
Integration Time (sec): 1.000000E-1
Scans to average: 1
Electric dark correction enabled: true
Nonlinearity correction enabled: false
Boxcar width: 0
XAxis mode: Wavelengths
Number of Pixels in Spectrum: 2048
>>>>>Begin Spectral Data<<<<<
223.165	-20.69
223.4	-20.69
223.635	-20.69
223.869	-18.69
224.104	-20.69
224.338	-4.69
224.573	-21.69
224.808	-5.69
225.042	-0.69
225.277	5.31
225.511	3.31
225.746	8.31
225.98	4.31
226.215	7.31
226.449	-0.69
226.683	12.31
226.918	27.31
227.152	25.31
227.387	27.31
227.621	46.31
227.856	53.31
228.09	33.31
228.324	65.31
228.559	70.31
228.793	57.31
229.027	66.31
229.262	64.31
229.496	65.31
229.73	95.31
229.964	89.31
230.199	83.31
230.433	76.31
230.667	83.31
230.901	71.31
231.136	71.31
231.37	75.31
231.604	72.31
231.838	73.31
232.072	93.31
232.306	81.31
232.541	89.31
232.775	90.31
233.009	76.31
233.243	97.31
233.477	85.31
233.711	68.31
233.945	81.31
234.179	79.31
234.413	85.31
234.647	87.31
234.881	86.31
235.115	86.31
235.349	82.31
235.583	83.31
235.817	85.31
236.051	73.31
236.285	91.31
236.519	75.31
236.753	54.31
236.987	76.31
237.221	81.31
237.455	75.31
237.689	75.31
237.922	75.31
238.156	81.31
238.39	58.31
238.624	75.31
238.858	75.31
239.091	77.31
239.325	79.31
239.559	75.31
239.793	78.31
240.027	75.31
240.26	77.31
240.494	74.31
240.728	72.31
240.961	82.31
241.195	90.31
241.429	97.31
241.662	62.31
241.896	76.31
242.13	77.31
242.363	85.31
242.597	70.31
242.83	81.31
243.064	87.31
243.298	84.31
243.531	85.31
243.765	81.31
243.998	70.31
244.232	87.31
244.465	91.31
244.699	89.31
244.932	78.31
245.166	76.31
245.399	69.31
245.633	82.31
245.866	83.31
246.099	88.31
246.333	82.31
246.566	86.31
246.8	74.31
247.033	95.31
247.266	77.31
247.5	84.31
247.733	71.31
247.966	90.31
248.2	91.31
248.433	79.31
248.666	86.31
248.899	77.31
249.133	85.31
249.366	88.31
249.599	106.31
249.832	71.31
250.066	90.31
250.299	85.31
250.532	88.31
250.765	85.31
250.998	83.31
251.231	77.31
251.465	79.31
251.698	100.31
251.931	88.31
252.164	72.31
252.397	83.31
252.63	78.31
252.863	79.31
253.096	70.31
253.329	87.31
253.562	74.31
253.795	100.31
254.028	91.31
254.261	72.31
254.494	90.31
254.727	92.31
254.96	82.31
255.193	86.31
255.426	82.31
255.659	94.31
255.892	97.31
256.124	93.31
256.357	84.31
256.59	85.31
256.823	76.31
257.056	74.31
257.289	86.31
257.521	97.31
257.754	77.31
257.987	78.31
258.22	87.31
258.452	73.31
258.685	85.31
258.918	94.31
259.151	78.31
259.383	84.31
259.616	85.31
259.849	89.31
260.081	88.31
260.314	92.31
260.547	88.31
260.779	101.31
261.012	85.31
261.244	83.31
261.477	97.31
261.71	94.31
261.942	113.31
262.175	114.31
262.407	87.31
262.64	91.31
262.872	82.31
263.105	83.31
263.337	94.31
263.57	85.31
263.802	94.31
264.035	89.31
264.267	78.31
264.499	86.31
264.732	87.31
264.964	81.31
265.197	93.31
265.429	86.31
265.661	81.31
265.894	84.31
266.126	93.31
266.358	89.31
266.591	87.31
266.823	90.31
267.055	95.31
267.287	94.31
267.52	61.31
267.752	93.31
267.984	85.31
268.216	92.31
268.448	101.31
268.681	73.31
268.913	77.31
269.145	90.31
269.377	87.31
269.609	93.31
269.841	75.31
270.073	89.31
270.306	84.31
270.538	76.31
270.77	91.31
271.002	82.31
271.234	84.31
271.466	78.31
271.698	63.31
271.93	82.31
272.162	91.31
272.394	93.31
272.626	84.31
272.858	82.31
273.09	76.31
273.322	92.31
273.553	89.31
273.785	91.31
274.017	93.31
274.249	87.31
274.481	87.31
274.713	66.31
274.945	88.31
275.176	92.31
275.408	87.31
275.64	81.31
275.872	89.31
276.104	87.31
276.335	99.31
276.567	102.31
276.799	97.31
277.031	95.31
277.262	97.31
277.494	74.31
277.726	91.31
277.957	84.31
278.189	85.31
278.421	81.31
278.652	73.31
278.884	86.31
279.115	74.31
279.347	85.31
279.579	100.31
279.81	97.31
280.042	101.31
280.273	98.31
280.505	86.31
280.736	92.31
280.968	88.31
281.199	93.31
281.431	82.31
281.662	81.31
281.894	92.31
282.125	99.31
282.356	115.31
282.588	131.31
282.819	124.31
283.051	96.31
283.282	90.31
283.513	104.31
283.745	100.31
283.976	102.31
284.207	83.31
284.439	83.31
284.67	93.31
284.901	89.31
285.132	86.31
285.364	102.31
285.595	81.31
285.826	96.31
286.057	83.31
286.288	97.31
286.52	90.31
286.751	91.31
286.982	82.31
287.213	89.31
287.444	103.31
287.675	93.31
287.906	98.31
288.138	95.31
288.369	87.31
288.6	97.31
288.831	85.31
289.062	101.31
289.293	91.31
289.524	78.31
289.755	85.31
289.986	93.31
290.217	92.31
290.448	96.31
290.679	84.31
290.91	90.31
291.141	83.31
291.371	84.31
291.602	97.31
291.833	91.31
292.064	90.31
292.295	93.31
292.526	89.31
292.757	76.31
292.987	84.31
293.218	97.31
293.449	98.31
293.68	85.31
293.91	96.31
294.141	95.31
294.372	78.31
294.603	96.31
294.833	86.31
295.064	82.31
295.295	83.31
295.525	107.31
295.756	106.31
295.987	101.31
296.217	128.31
296.448	118.31
296.679	106.31
296.909	97.31
297.14	74.31
297.37	94.31
297.601	83.31
297.831	98.31
298.062	107.31
298.292	90.31
298.523	94.31
298.753	91.31
298.984	88.31
299.214	90.31
299.445	96.31
299.675	91.31
299.905	91.31
300.136	85.31
300.366	86.31
300.597	106.31
300.827	101.31
301.057	100.31
301.288	102.31
301.518	87.31
301.748	95.31
301.979	94.31
302.209	91.31
302.439	96.31
302.669	92.31
302.9	90.31
303.13	80.31
303.36	101.31
303.59	94.31
303.82	105.31
304.051	97.31
304.281	77.31
304.511	89.31
304.741	99.31
304.971	97.31
305.201	108.31
305.431	93.31
305.661	90.31
305.891	91.31
306.121	101.31
306.352	89.31
306.582	106.31
306.812	94.31
307.042	101.31
307.272	96.31
307.502	98.31
307.731	88.31
307.961	96.31
308.191	83.31
308.421	89.31
308.651	88.31
308.881	105.31
309.111	102.31
309.341	85.31
309.571	86.31
309.8	84.31
310.03	87.31
310.26	111.31
310.49	91.31
310.72	96.31
310.949	107.31
311.179	88.31
311.409	111.31
311.639	91.31
311.868	98.31
312.098	98.31
312.328	101.31
312.557	105.31
312.787	106.31
313.017	94.31
313.246	95.31
313.476	95.31
313.706	78.31
313.935	97.31
314.165	103.31
314.394	93.31
314.624	99.31
314.853	81.31
315.083	101.31
315.312	84.31
315.542	101.31
315.771	102.31
316.001	106.31
316.23	87.31
316.46	87.31
316.689	99.31
316.919	94.31
317.148	91.31
317.377	87.31
317.607	78.31
317.836	93.31
318.065	96.31
318.295	89.31
318.524	90.31
318.753	106.31
318.983	101.31
319.212	102.31
319.441	96.31
319.67	104.31
319.9	94.31
320.129	103.31
320.358	103.31
320.587	114.31
320.816	106.31
321.046	106.31
321.275	115.31
321.504	81.31
321.733	104.31
321.962	88.31
322.191	93.31
322.42	98.31
322.649	111.31
322.878	123.31
323.108	110.31
323.337	126.31
323.566	110.31
323.795	140.31
324.024	179.31
324.253	349.31
324.482	677.31
324.71	1383.31
324.939	1823.31
325.168	692.31
325.397	207.31
325.626	141.31
325.855	129.31
326.084	138.31
326.313	137.31
326.542	143.31
326.77	206.31
326.999	389.31
327.228	751.31
327.457	1391.31
327.686	1126.31
327.914	330.31
328.143	197.31
328.372	155.31
328.6	136.31
328.829	123.31
329.058	122.31
329.287	133.31
329.515	115.31
329.744	106.31
329.972	106.31
330.201	147.31
330.43	164.31
330.658	133.31
330.887	142.31
331.115	125.31
331.344	90.31
331.572	96.31
331.801	102.31
332.03	93.31
332.258	95.31
332.486	98.31
332.715	87.31
332.943	112.31
333.172	110.31
333.4	99.31
333.629	110.31
333.857	130.31
334.085	117.31
334.314	148.31
334.542	199.31
334.771	178.31
334.999	125.31
335.227	93.31
335.455	94.31
335.684	102.31
335.912	106.31
336.14	98.31
336.369	101.31
336.597	97.31
336.825	102.31
337.053	109.31
337.281	91.31
337.51	83.31
337.738	101.31
337.966	97.31
338.194	97.31
338.422	89.31
338.65	91.31
338.878	92.31
339.106	107.31
339.334	107.31
339.562	100.31
339.79	90.31
340.018	106.31
340.246	89.31
340.474	95.31
340.702	90.31
340.93	81.31
341.158	96.31
341.386	93.31
341.614	88.31
341.842	85.31
342.07	90.31
342.298	92.31
342.526	97.31
342.754	98.31
342.981	90.31
343.209	106.31
343.437	89.31
343.665	84.31
343.893	83.31
344.12	93.31
344.348	90.31
344.576	93.31
344.804	95.31
345.031	109.31
345.259	96.31
345.487	91.31
345.714	92.31
345.942	82.31
346.17	101.31
346.397	90.31
346.625	87.31
346.853	96.31
347.08	87.31
347.308	95.31
347.535	97.31
347.763	99.31
347.99	94.31
348.218	114.31
348.445	108.31
348.673	87.31
348.9	94.31
349.128	114.31
349.355	100.31
349.583	89.31
349.81	94.31
350.037	108.31
350.265	99.31
350.492	92.31
350.72	110.31
350.947	106.31
351.174	105.31
351.402	117.31
351.629	101.31
351.856	114.31
352.083	105.31
352.311	108.31
352.538	108.31
352.765	102.31
352.992	114.31
353.22	103.31
353.447	95.31
353.674	100.31
353.901	105.31
354.128	101.31
354.355	98.31
354.583	113.31
354.81	106.31
355.037	102.31
355.264	92.31
355.491	105.31
355.718	93.31
355.945	109.31
356.172	108.31
356.399	99.31
356.626	98.31
356.853	98.31
357.08	104.31
357.307	93.31
357.534	97.31
357.761	97.31
357.988	96.31
358.215	104.31
358.441	101.31
358.668	84.31
358.895	93.31
359.122	92.31
359.349	104.31
359.576	87.31
359.802	101.31
360.029	102.31
360.256	98.31
360.483	85.31
360.709	94.31
360.936	101.31
361.163	106.31
361.39	102.31
361.616	94.31
361.843	103.31
362.07	101.31
362.296	107.31
362.523	89.31
362.749	94.31
362.976	86.31
363.203	85.31
363.429	95.31
363.656	95.31
363.882	93.31
364.109	97.31
364.335	102.31
364.562	86.31
364.788	90.31
365.015	97.31
365.241	105.31
365.468	107.31
365.694	99.31
365.92	105.31
366.147	84.31
366.373	98.31
366.599	105.31
366.826	92.31
367.052	90.31
367.278	91.31
367.505	106.31
367.731	89.31
367.957	86.31
368.184	92.31
368.41	110.31
368.636	124.31
368.862	117.31
369.089	104.31
369.315	94.31
369.541	94.31
369.767	96.31
369.993	99.31
370.219	94.31
370.445	89.31
370.672	85.31
370.898	92.31
371.124	82.31
371.35	83.31
371.576	88.31
371.802	97.31
372.028	83.31
372.254	99.31
372.48	87.31
372.706	85.31
372.932	94.31
373.158	99.31
373.384	91.31
373.61	77.31
373.835	85.31
374.061	97.31
374.287	84.31
374.513	88.31
374.739	94.31
374.965	89.31
375.191	87.31
375.416	99.31
375.642	100.31
375.868	102.31
376.094	100.31
376.319	81.31
376.545	78.31
376.771	109.31
376.997	89.31
377.222	85.31
377.448	93.31
377.674	84.31
377.899	83.31
378.125	108.31
378.35	100.31
378.576	100.31
378.802	85.31
379.027	94.31
379.253	97.31
379.478	92.31
379.704	91.31
379.929	99.31
380.155	99.31
380.38	100.31
380.606	96.31
380.831	100.31
381.057	114.31
381.282	87.31
381.507	90.31
381.733	86.31
381.958	79.31
382.184	113.31
382.409	106.31
382.634	93.31
382.86	83.31
383.085	92.31
383.31	83.31
383.535	92.31
383.761	100.31
383.986	106.31
384.211	108.31
384.436	106.31
384.662	89.31
384.887	101.31
385.112	101.31
385.337	106.31
385.562	100.31
385.787	102.31
386.013	115.31
386.238	108.31
386.463	106.31
386.688	104.31
386.913	108.31
387.138	105.31
387.363	98.31
387.588	114.31
387.813	77.31
388.038	115.31
388.263	117.31
388.488	111.31
388.713	106.31
388.938	103.31
389.163	98.31
389.387	95.31
389.612	102.31
389.837	89.31
390.062	101.31
390.287	92.31
390.512	101.31
390.736	93.31
390.961	83.31
391.186	89.31
391.411	94.31
391.636	87.31
391.86	97.31
392.085	83.31
392.31	85.31
392.534	86.31
392.759	91.31
392.984	83.31
393.208	90.31
393.433	94.31
393.658	86.31
393.882	94.31
394.107	83.31
394.331	94.31
394.556	84.31
394.78	93.31
395.005	98.31
395.229	85.31
395.454	82.31
395.678	90.31
395.903	98.31
396.127	97.31
396.352	89.31
396.576	89.31
396.801	81.31
397.025	85.31
397.249	87.31
397.474	89.31
397.698	87.31
397.922	73.31
398.147	99.31
398.371	90.31
398.595	75.31
398.82	102.31
399.044	97.31
399.268	89.31
399.492	84.31
399.717	90.31
399.941	92.31
400.165	88.31
400.389	89.31
400.613	83.31
400.837	89.31
401.062	92.31
401.286	84.31
401.51	92.31
401.734	81.31
401.958	98.31
402.182	125.31
402.406	152.31
402.63	137.31
402.854	104.31
403.078	90.31
403.302	69.31
403.526	102.31
403.75	91.31
403.974	91.31
404.198	103.31
404.422	88.31
404.645	78.31
404.869	97.31
405.093	98.31
405.317	96.31
405.541	104.31
405.765	110.31
405.988	93.31
406.212	172.31
406.436	222.31
406.66	132.31
406.883	108.31
407.107	79.31
407.331	89.31
407.555	94.31
407.778	93.31
408.002	103.31
408.226	96.31
408.449	94.31
408.673	97.31
408.896	88.31
409.12	97.31
409.344	103.31
409.567	80.31
409.791	97.31
410.014	99.31
410.238	100.31
410.461	107.31
410.685	102.31
410.908	99.31
411.132	116.31
411.355	107.31
411.578	103.31
411.802	84.31
412.025	100.31
412.249	101.31
412.472	95.31
412.695	96.31
412.919	81.31
413.142	79.31
413.365	113.31
413.589	93.31
413.812	101.31
414.035	93.31
414.258	92.31
414.482	71.31
414.705	98.31
414.928	83.31
415.151	92.31
415.374	103.31
415.597	92.31
415.821	97.31
416.044	89.31
416.267	88.31
416.49	94.31
416.713	90.31
416.936	90.31
417.159	92.31
417.382	90.31
417.605	89.31
417.828	92.31
418.051	82.31
418.274	85.31
418.497	79.31
418.72	90.31
418.943	88.31
419.166	95.31
419.389	91.31
419.611	99.31
419.834	106.31
420.057	103.31
420.28	97.31
420.503	91.31
420.726	86.31
420.948	83.31
421.171	91.31
421.394	106.31
421.617	93.31
421.839	85.31
422.062	82.31
422.285	100.31
422.507	85.31
422.73	103.31
422.953	93.31
423.175	93.31
423.398	101.31
423.621	95.31
423.843	90.31
424.066	85.31
424.288	82.31
424.511	101.31
424.733	89.31
424.956	89.31
425.178	105.31
425.401	105.31
425.623	108.31
425.846	107.31
426.068	99.31
426.291	88.31
426.513	93.31
426.735	103.31
426.958	100.31
427.18	105.31
427.402	118.31
427.625	149.31
427.847	135.31
428.069	124.31
428.292	97.31
428.514	72.31
428.736	85.31
428.958	90.31
429.181	93.31
429.403	88.31
429.625	74.31
429.847	102.31
430.069	116.31
430.292	93.31
430.514	91.31
430.736	88.31
430.958	99.31
431.18	90.31
431.402	85.31
431.624	92.31
431.846	81.31
432.068	86.31
432.29	89.31
432.512	89.31
432.734	76.31
432.956	88.31
433.178	98.31
433.4	105.31
433.622	95.31
433.844	89.31
434.066	101.31
434.287	87.31
434.509	75.31
434.731	84.31
434.953	100.31
435.175	92.31
435.397	102.31
435.618	91.31
435.84	101.31
436.062	121.31
436.284	101.31
436.505	87.31
436.727	102.31
436.949	99.31
437.17	91.31
437.392	105.31
437.614	112.31
437.835	105.31
438.057	108.31
438.278	102.31
438.5	100.31
438.721	115.31
438.943	97.31
439.165	94.31
439.386	90.31
439.608	93.31
439.829	78.31
440.05	97.31
440.272	131.31
440.493	105.31
440.715	90.31
440.936	84.31
441.158	95.31
441.379	105.31
441.6	91.31
441.822	100.31
442.043	87.31
442.264	95.31
442.486	77.31
442.707	84.31
442.928	94.31
443.149	111.31
443.371	128.31
443.592	101.31
443.813	100.31
444.034	108.31
444.255	103.31
444.476	96.31
444.698	97.31
444.919	84.31
445.14	113.31
445.361	109.31
445.582	114.31
445.803	107.31
446.024	110.31
446.245	119.31
446.466	101.31
446.687	83.31
446.908	93.31
447.129	90.31
447.35	84.31
447.571	87.31
447.792	97.31
448.013	105.31
448.234	99.31
448.455	111.31
448.675	108.31
448.896	104.31
449.117	93.31
449.338	100.31
449.559	115.31
449.779	92.31
450	97.31
450.221	84.31
450.442	94.31
450.662	103.31
450.883	109.31
451.104	111.31
451.324	102.31
451.545	100.31
451.766	99.31
451.986	85.31
452.207	90.31
452.428	105.31
452.648	98.31
452.869	121.31
453.089	122.31
453.31	106.31
453.53	95.31
453.751	94.31
453.971	105.31
454.192	98.31
454.412	90.31
454.633	86.31
454.853	97.31
455.073	90.31
455.294	91.31
455.514	82.31
455.734	96.31
455.955	86.31
456.175	78.31
456.395	101.31
456.616	78.31
456.836	86.31
457.056	97.31
457.276	94.31
457.497	82.31
457.717	94.31
457.937	92.31
458.157	88.31
458.377	86.31
458.598	101.31
458.818	133.31
459.038	143.31
459.258	122.31
459.478	101.31
459.698	100.31
459.918	111.31
460.138	83.31
460.358	89.31
460.578	93.31
460.798	89.31
461.018	95.31
461.238	85.31
461.458	88.31
461.678	97.31
461.898	97.31
462.118	92.31
462.338	88.31
462.558	100.31
462.777	84.31
462.997	95.31
463.217	96.31
463.437	74.31
463.657	91.31
463.876	83.31
464.096	89.31
464.316	111.31
464.536	79.31
464.755	99.31
464.975	110.31
465.195	159.31
465.414	166.31
465.634	89.31
465.854	89.31
466.073	90.31
466.293	90.31
466.512	88.31
466.732	86.31
466.951	91.31
467.171	104.31
467.391	94.31
467.61	99.31
467.829	89.31
468.049	121.31
468.268	134.31
468.488	93.31
468.707	99.31
468.927	88.31
469.146	90.31
469.365	97.31
469.585	87.31
469.804	93.31
470.023	83.31
470.243	102.31
470.462	106.31
470.681	131.31
470.901	84.31
471.12	80.31
471.339	88.31
471.558	85.31
471.777	85.31
471.997	104.31
472.216	143.31
472.435	226.31
472.654	115.31
472.873	92.31
473.092	96.31
473.311	97.31
473.53	101.31
473.749	106.31
473.968	86.31
474.187	109.31
474.406	88.31
474.625	98.31
474.844	92.31
475.063	91.31
475.282	91.31
475.501	91.31
475.72	96.31
475.939	89.31
476.158	88.31
476.377	99.31
476.596	93.31
476.814	89.31
477.033	91.31
477.252	89.31
477.471	94.31
477.69	96.31
477.908	89.31
478.127	99.31
478.346	97.31
478.564	108.31
478.783	85.31
479.002	98.31
479.22	86.31
479.439	85.31
479.658	98.31
479.876	90.31
480.095	93.31
480.313	90.31
480.532	92.31
480.751	107.31
480.969	171.31
481.188	380.31
481.406	266.31
481.624	117.31
481.843	92.31
482.061	91.31
482.28	98.31
482.498	91.31
482.717	86.31
482.935	79.31
483.153	84.31
483.372	85.31
483.59	87.31
483.808	91.31
484.027	90.31
484.245	84.31
484.463	98.31
484.681	91.31
484.9	99.31
485.118	89.31
485.336	98.31
485.554	100.31
485.772	100.31
485.99	101.31
486.209	110.31
486.427	104.31
486.645	110.31
486.863	110.31
487.081	91.31
487.299	95.31
487.517	99.31
487.735	92.31
487.953	89.31
488.171	92.31
488.389	96.31
488.607	95.31
488.825	94.31
489.043	93.31
489.261	92.31
489.479	87.31
489.696	95.31
489.914	98.31
490.132	99.31
490.35	86.31
490.568	95.31
490.786	86.31
491.003	87.31
491.221	114.31
491.439	87.31
491.657	104.31
491.874	89.31
492.092	98.31
492.31	99.31
492.527	94.31
492.745	117.31
492.963	112.31
493.18	87.31
493.398	98.31
493.615	93.31
493.833	98.31
494.05	104.31
494.268	90.31
494.485	83.31
494.703	84.31
494.92	97.31
495.138	96.31
495.355	93.31
495.573	105.31
495.79	108.31
496.008	105.31
496.225	85.31
496.442	100.31
496.66	107.31
496.877	104.31
497.094	95.31
497.312	96.31
497.529	98.31
497.746	77.31
497.963	84.31
498.181	93.31
498.398	90.31
498.615	105.31
498.832	101.31
499.049	82.31
499.267	102.31
499.484	93.31
499.701	87.31
499.918	92.31
500.135	86.31
500.352	81.31
500.569	92.31
500.786	84.31
501.003	98.31
501.22	94.31
501.437	102.31
501.654	95.31
501.871	111.31
502.088	87.31
502.305	87.31
502.522	102.31
502.739	93.31
502.956	94.31
503.172	76.31
503.389	98.31
503.606	103.31
503.823	97.31
504.04	90.31
504.256	90.31
504.473	99.31
504.69	83.31
504.907	101.31
505.123	80.31
505.34	91.31
505.557	86.31
505.773	105.31
505.99	75.31
506.207	85.31
506.423	78.31
506.64	102.31
506.856	84.31
507.073	94.31
507.289	99.31
507.506	84.31
507.722	114.31
507.939	106.31
508.155	102.31
508.372	89.31
508.588	110.31
508.805	102.31
509.021	100.31
509.238	98.31
509.454	87.31
509.67	102.31
509.887	110.31
510.103	131.31
510.319	197.31
510.536	687.31
510.752	2178.31
510.968	611.31
511.184	146.31
511.401	109.31
511.617	99.31
511.833	93.31
512.049	89.31
512.265	97.31
512.481	105.31
512.698	94.31
512.914	100.31
513.13	92.31
513.346	84.31
513.562	86.31
513.778	94.31
513.994	95.31
514.21	92.31
514.426	129.31
514.642	131.31
