Data from Circ_1986_H10_HRD10591_00089.txt Node
Date: Wed Jan 03 12:15:43 EST 2024
User: Yrep
Spectrometer: HR+D1059
Trigger mode: 1
Integration Time (sec): 1.000000E-1
Scans to average: 1
Electric dark correction enabled: true
Nonlinearity correction enabled: false
Boxcar width: 0
XAxis mode: Wavelengths
Number of Pixels in Spectrum: 2048
>>>>>Begin Spectral Data<<<<<
223.165	-20.94
223.4	-20.94
223.635	-20.94
223.869	-23.94
224.104	-3.94
224.338	-21.94
224.573	-4.94
224.808	-14.94
225.042	-1.94
225.277	-13.94
225.511	-8.94
225.746	5.06
225.98	1.06
226.215	17.06
226.449	16.06
226.683	21.06
226.918	25.06
227.152	30.06
227.387	36.06
227.621	50.06
227.856	50.06
228.09	65.06
228.324	61.06
228.559	57.06
228.793	65.06
229.027	56.06
229.262	68.06
229.496	62.06
229.73	81.06
229.964	80.06
230.199	86.06
230.433	77.06
230.667	83.06
230.901	83.06
231.136	62.06
231.37	87.06
231.604	77.06
231.838	86.06
232.072	62.06
232.306	68.06
232.541	88.06
232.775	74.06
233.009	68.06
233.243	81.06
233.477	87.06
233.711	104.06
233.945	90.06
234.179	78.06
234.413	65.06
234.647	89.06
234.881	73.06
235.115	72.06
235.349	84.06
235.583	88.06
235.817	68.06
236.051	89.06
236.285	93.06
236.519	82.06
236.753	66.06
236.987	74.06
237.221	87.06
237.455	87.06
237.689	85.06
237.922	85.06
238.156	71.06
238.39	67.06
238.624	83.06
238.858	84.06
239.091	61.06
239.325	67.06
239.559	97.06
239.793	72.06
240.027	76.06
240.26	86.06
240.494	80.06
240.728	64.06
240.961	78.06
241.195	87.06
241.429	77.06
241.662	82.06
241.896	96.06
242.13	70.06
242.363	76.06
242.597	69.06
242.83	84.06
243.064	76.06
243.298	81.06
243.531	64.06
243.765	75.06
243.998	81.06
244.232	77.06
244.465	72.06
244.699	82.06
244.932	74.06
245.166	76.06
245.399	70.06
245.633	84.06
245.866	81.06
246.099	85.06
246.333	78.06
246.566	84.06
246.8	80.06
247.033	73.06
247.266	85.06
247.5	71.06
247.733	96.06
247.966	72.06
248.2	61.06
248.433	81.06
248.666	78.06
248.899	82.06
249.133	80.06
249.366	76.06
249.599	86.06
249.832	76.06
250.066	72.06
250.299	83.06
250.532	82.06
250.765	70.06
250.998	82.06
251.231	68.06
251.465	83.06
251.698	93.06
251.931	83.06
252.164	88.06
252.397	72.06
252.63	90.06
252.863	73.06
253.096	87.06
253.329	69.06
253.562	71.06
253.795	72.06
254.028	81.06
254.261	80.06
254.494	83.06
254.727	81.06
254.96	81.06
255.193	82.06
255.426	72.06
255.659	66.06
255.892	85.06
256.124	76.06
256.357	70.06
256.59	85.06
256.823	76.06
257.056	81.06
257.289	64.06
257.521	81.06
257.754	82.06
257.987	72.06
258.22	82.06
258.452	80.06
258.685	81.06
258.918	69.06
259.151	80.06
259.383	84.06
259.616	77.06
259.849	85.06
260.081	87.06
260.314	73.06
260.547	73.06
260.779	78.06
261.012	73.06
261.244	80.06
261.477	85.06
261.71	100.06
261.942	110.06
262.175	93.06
262.407	84.06
262.64	89.06
262.872	85.06
263.105	71.06
263.337	76.06
263.57	79.06
263.802	89.06
264.035	88.06
264.267	87.06
264.499	92.06
264.732	74.06
264.964	80.06
265.197	87.06
265.429	82.06
265.661	86.06
265.894	82.06
266.126	82.06
266.358	89.06
266.591	80.06
266.823	78.06
267.055	89.06
267.287	77.06
267.52	68.06
267.752	80.06
267.984	74.06
268.216	90.06
268.448	85.06
268.681	79.06
268.913	80.06
269.145	84.06
269.377	89.06
269.609	71.06
269.841	84.06
270.073	99.06
270.306	84.06
270.538	73.06
270.77	82.06
271.002	86.06
271.234	80.06
271.466	84.06
271.698	78.06
271.93	81.06
272.162	79.06
272.394	94.06
272.626	78.06
272.858	98.06
273.09	78.06
273.322	71.06
273.553	78.06
273.785	76.06
274.017	81.06
274.249	97.06
274.481	87.06
274.713	77.06
274.945	84.06
275.176	92.06
275.408	90.06
275.64	88.06
275.872	85.06
276.104	84.06
276.335	88.06
276.567	91.06
276.799	102.06
277.031	109.06
277.262	85.06
277.494	73.06
277.726	84.06
277.957	82.06
278.189	94.06
278.421	84.06
278.652	87.06
278.884	86.06
279.115	83.06
279.347	72.06
279.579	96.06
279.81	80.06
280.042	91.06
280.273	97.06
280.505	89.06
280.736	87.06
280.968	88.06
281.199	97.06
281.431	89.06
281.662	79.06
281.894	95.06
282.125	89.06
282.356	113.06
282.588	124.06
282.819	107.06
283.051	101.06
283.282	88.06
283.513	65.06
283.745	72.06
283.976	81.06
284.207	88.06
284.439	74.06
284.67	78.06
284.901	88.06
285.132	85.06
285.364	84.06
285.595	80.06
285.826	85.06
286.057	89.06
286.288	77.06
286.52	86.06
286.751	84.06
286.982	89.06
287.213	77.06
287.444	84.06
287.675	88.06
287.906	77.06
288.138	95.06
288.369	84.06
288.6	103.06
288.831	83.06
289.062	89.06
289.293	98.06
289.524	84.06
289.755	80.06
289.986	85.06
290.217	82.06
290.448	86.06
290.679	88.06
290.91	85.06
291.141	84.06
291.371	88.06
291.602	97.06
291.833	86.06
292.064	73.06
292.295	88.06
292.526	90.06
292.757	89.06
292.987	92.06
293.218	88.06
293.449	90.06
293.68	84.06
293.91	85.06
294.141	82.06
294.372	85.06
294.603	81.06
294.833	101.06
295.064	95.06
295.295	87.06
295.525	76.06
295.756	95.06
295.987	98.06
296.217	123.06
296.448	111.06
296.679	96.06
296.909	85.06
297.14	82.06
297.37	73.06
297.601	83.06
297.831	83.06
298.062	82.06
298.292	78.06
298.523	81.06
298.753	74.06
298.984	84.06
299.214	84.06
299.445	98.06
299.675	96.06
299.905	74.06
300.136	81.06
300.366	74.06
300.597	92.06
300.827	80.06
301.057	86.06
301.288	80.06
301.518	89.06
301.748	90.06
301.979	80.06
302.209	86.06
302.439	84.06
302.669	81.06
302.9	99.06
303.13	81.06
303.36	90.06
303.59	100.06
303.82	101.06
304.051	92.06
304.281	91.06
304.511	74.06
304.741	94.06
304.971	72.06
305.201	78.06
305.431	84.06
305.661	81.06
305.891	89.06
306.121	79.06
306.352	100.06
306.582	101.06
306.812	85.06
307.042	101.06
307.272	87.06
307.502	94.06
307.731	95.06
307.961	93.06
308.191	94.06
308.421	92.06
308.651	93.06
308.881	85.06
309.111	84.06
309.341	80.06
309.571	92.06
309.8	107.06
310.03	93.06
310.26	84.06
310.49	80.06
310.72	90.06
310.949	85.06
311.179	98.06
311.409	82.06
311.639	92.06
311.868	97.06
312.098	86.06
312.328	96.06
312.557	83.06
312.787	98.06
313.017	97.06
313.246	87.06
313.476	97.06
313.706	94.06
313.935	104.06
314.165	90.06
314.394	95.06
314.624	84.06
314.853	92.06
315.083	90.06
315.312	91.06
315.542	95.06
315.771	81.06
316.001	82.06
316.23	82.06
316.46	85.06
316.689	74.06
316.919	94.06
317.148	94.06
317.377	93.06
317.607	102.06
317.836	91.06
318.065	89.06
318.295	83.06
318.524	94.06
318.753	88.06
318.983	86.06
319.212	99.06
319.441	111.06
319.67	89.06
319.9	96.06
320.129	86.06
320.358	87.06
320.587	99.06
320.816	105.06
321.046	92.06
321.275	102.06
321.504	90.06
321.733	96.06
321.962	82.06
322.191	98.06
322.42	106.06
322.649	103.06
322.878	103.06
323.108	111.06
323.337	110.06
323.566	129.06
323.795	134.06
324.024	192.06
324.253	328.06
324.482	678.06
324.71	1422.06
324.939	1916.06
325.168	713.06
325.397	226.06
325.626	124.06
325.855	106.06
326.084	131.06
326.313	123.06
326.542	134.06
326.77	207.06
326.999	393.06
327.228	824.06
327.457	1529.06
327.686	1188.06
327.914	342.06
328.143	171.06
328.372	146.06
328.6	141.06
328.829	104.06
329.058	120.06
329.287	111.06
329.515	116.06
329.744	95.06
329.972	116.06
330.201	169.06
330.43	189.06
330.658	135.06
330.887	128.06
331.115	103.06
331.344	92.06
331.572	95.06
331.801	88.06
332.03	109.06
332.258	93.06
332.486	93.06
332.715	90.06
332.943	94.06
333.172	88.06
333.4	95.06
333.629	110.06
333.857	107.06
334.085	103.06
334.314	171.06
334.542	216.06
334.771	198.06
334.999	121.06
335.227	99.06
335.455	89.06
335.684	97.06
335.912	95.06
336.14	93.06
336.369	111.06
336.597	98.06
336.825	91.06
337.053	90.06
337.281	103.06
337.51	89.06
337.738	81.06
337.966	78.06
338.194	101.06
338.422	86.06
338.65	84.06
338.878	90.06
339.106	97.06
339.334	78.06
339.562	81.06
339.79	104.06
340.018	91.06
340.246	90.06
340.474	92.06
340.702	79.06
340.93	90.06
341.158	72.06
341.386	94.06
341.614	82.06
341.842	105.06
342.07	82.06
342.298	92.06
342.526	89.06
342.754	80.06
342.981	77.06
343.209	86.06
343.437	104.06
343.665	92.06
343.893	88.06
344.12	94.06
344.348	85.06
344.576	80.06
344.804	92.06
345.031	85.06
345.259	82.06
345.487	97.06
345.714	89.06
345.942	90.06
346.17	94.06
346.397	90.06
346.625	90.06
346.853	79.06
347.08	86.06
347.308	101.06
347.535	93.06
347.763	86.06
347.99	106.06
348.218	97.06
348.445	86.06
348.673	91.06
348.9	96.06
349.128	96.06
349.355	92.06
349.583	85.06
349.81	95.06
350.037	104.06
350.265	99.06
350.492	73.06
350.72	97.06
350.947	90.06
351.174	113.06
351.402	90.06
351.629	100.06
351.856	94.06
352.083	102.06
352.311	98.06
352.538	88.06
352.765	100.06
352.992	103.06
353.22	101.06
353.447	104.06
353.674	96.06
353.901	86.06
354.128	92.06
354.355	83.06
354.583	109.06
354.81	96.06
355.037	96.06
355.264	101.06
355.491	98.06
355.718	96.06
355.945	108.06
356.172	98.06
356.399	93.06
356.626	95.06
356.853	87.06
357.08	104.06
357.307	82.06
357.534	80.06
357.761	85.06
357.988	92.06
358.215	91.06
358.441	97.06
358.668	82.06
358.895	77.06
359.122	92.06
359.349	94.06
359.576	93.06
359.802	107.06
360.029	104.06
360.256	100.06
360.483	85.06
360.709	88.06
360.936	80.06
361.163	85.06
361.39	96.06
361.616	81.06
361.843	88.06
362.07	82.06
362.296	95.06
362.523	88.06
362.749	88.06
362.976	89.06
363.203	92.06
363.429	78.06
363.656	96.06
363.882	86.06
364.109	88.06
364.335	84.06
364.562	94.06
364.788	90.06
365.015	77.06
365.241	92.06
365.468	97.06
365.694	95.06
365.92	92.06
366.147	82.06
366.373	76.06
366.599	83.06
366.826	89.06
367.052	91.06
367.278	89.06
367.505	84.06
367.731	76.06
367.957	81.06
368.184	89.06
368.41	80.06
368.636	108.06
368.862	106.06
369.089	100.06
369.315	102.06
369.541	90.06
369.767	90.06
369.993	90.06
370.219	85.06
370.445	72.06
370.672	76.06
370.898	76.06
371.124	78.06
371.35	87.06
371.576	95.06
371.802	78.06
372.028	95.06
372.254	78.06
372.48	87.06
372.706	93.06
372.932	89.06
373.158	95.06
373.384	78.06
373.61	92.06
373.835	94.06
374.061	88.06
374.287	93.06
374.513	70.06
374.739	94.06
374.965	89.06
375.191	94.06
375.416	87.06
375.642	98.06
375.868	86.06
376.094	91.06
376.319	86.06
376.545	76.06
376.771	92.06
376.997	94.06
377.222	90.06
377.448	84.06
377.674	80.06
377.899	83.06
378.125	78.06
378.35	86.06
378.576	92.06
378.802	74.06
379.027	82.06
379.253	101.06
379.478	97.06
379.704	81.06
379.929	77.06
380.155	95.06
380.38	94.06
380.606	94.06
380.831	82.06
381.057	100.06
381.282	84.06
381.507	93.06
381.733	76.06
381.958	92.06
382.184	87.06
382.409	100.06
382.634	102.06
382.86	104.06
383.085	101.06
383.31	102.06
383.535	104.06
383.761	87.06
383.986	93.06
384.211	101.06
384.436	84.06
384.662	90.06
384.887	93.06
385.112	97.06
385.337	93.06
385.562	96.06
385.787	98.06
386.013	100.06
386.238	109.06
386.463	109.06
386.688	97.06
386.913	100.06
387.138	88.06
387.363	110.06
387.588	97.06
387.813	85.06
388.038	105.06
388.263	90.06
388.488	92.06
388.713	82.06
388.938	89.06
389.163	87.06
389.387	89.06
389.612	87.06
389.837	81.06
390.062	97.06
390.287	85.06
390.512	81.06
390.736	93.06
390.961	95.06
391.186	100.06
391.411	93.06
391.636	77.06
391.86	74.06
392.085	71.06
392.31	70.06
392.534	74.06
392.759	90.06
392.984	88.06
393.208	87.06
393.433	93.06
393.658	84.06
393.882	88.06
394.107	98.06
394.331	87.06
394.556	84.06
394.78	74.06
395.005	80.06
395.229	84.06
395.454	86.06
395.678	96.06
395.903	81.06
396.127	82.06
396.352	81.06
396.576	79.06
396.801	79.06
397.025	92.06
397.249	83.06
397.474	79.06
397.698	87.06
397.922	79.06
398.147	90.06
398.371	96.06
398.595	74.06
398.82	87.06
399.044	82.06
399.268	74.06
399.492	73.06
399.717	90.06
399.941	81.06
400.165	96.06
400.389	90.06
400.613	98.06
400.837	87.06
401.062	83.06
401.286	77.06
401.51	93.06
401.734	88.06
401.958	95.06
402.182	102.06
402.406	140.06
402.63	105.06
402.854	89.06
403.078	74.06
403.302	94.06
403.526	90.06
403.75	103.06
403.974	76.06
404.198	84.06
404.422	82.06
404.645	90.06
404.869	81.06
405.093	81.06
405.317	102.06
405.541	106.06
405.765	86.06
405.988	99.06
406.212	131.06
406.436	183.06
406.66	107.06
406.883	103.06
407.107	98.06
407.331	83.06
407.555	99.06
407.778	102.06
408.002	94.06
408.226	89.06
408.449	84.06
408.673	85.06
408.896	104.06
409.12	90.06
409.344	81.06
409.567	85.06
409.791	80.06
410.014	88.06
410.238	98.06
410.461	87.06
410.685	85.06
410.908	91.06
411.132	112.06
411.355	102.06
411.578	96.06
411.802	85.06
412.025	98.06
412.249	88.06
412.472	101.06
412.695	105.06
412.919	96.06
413.142	84.06
413.365	84.06
413.589	81.06
413.812	87.06
414.035	79.06
414.258	92.06
414.482	94.06
414.705	96.06
414.928	96.06
415.151	80.06
415.374	85.06
415.597	91.06
415.821	87.06
416.044	84.06
416.267	88.06
416.49	100.06
416.713	104.06
416.936	87.06
417.159	79.06
417.382	98.06
417.605	84.06
417.828	87.06
418.051	88.06
418.274	85.06
418.497	99.06
418.72	85.06
418.943	90.06
419.166	93.06
419.389	85.06
419.611	84.06
419.834	81.06
420.057	86.06
420.28	97.06
420.503	97.06
420.726	100.06
420.948	97.06
421.171	92.06
421.394	94.06
421.617	81.06
421.839	100.06
422.062	75.06
422.285	82.06
422.507	101.06
422.73	97.06
422.953	99.06
423.175	94.06
423.398	90.06
423.621	93.06
423.843	88.06
424.066	101.06
424.288	97.06
424.511	93.06
424.733	87.06
424.956	93.06
425.178	102.06
425.401	82.06
425.623	97.06
425.846	80.06
426.068	85.06
426.291	75.06
426.513	73.06
426.735	84.06
426.958	72.06
427.18	101.06
427.402	128.06
427.625	132.06
427.847	132.06
428.069	125.06
428.292	89.06
428.514	81.06
428.736	83.06
428.958	98.06
429.181	99.06
429.403	87.06
429.625	97.06
429.847	88.06
430.069	74.06
430.292	82.06
430.514	84.06
430.736	79.06
430.958	82.06
431.18	79.06
431.402	79.06
431.624	83.06
431.846	66.06
432.068	87.06
432.29	77.06
432.512	83.06
432.734	88.06
432.956	89.06
433.178	89.06
433.4	89.06
433.622	83.06
433.844	90.06
434.066	87.06
434.287	79.06
434.509	84.06
434.731	89.06
434.953	83.06
435.175	81.06
435.397	93.06
435.618	85.06
435.84	88.06
436.062	106.06
436.284	101.06
436.505	105.06
436.727	102.06
436.949	102.06
437.17	93.06
437.392	79.06
437.614	80.06
437.835	94.06
438.057	118.06
438.278	96.06
438.5	87.06
438.721	112.06
438.943	89.06
439.165	80.06
439.386	78.06
439.608	85.06
439.829	78.06
440.05	110.06
440.272	129.06
440.493	99.06
440.715	95.06
440.936	87.06
441.158	87.06
441.379	74.06
441.6	84.06
441.822	95.06
442.043	94.06
442.264	89.06
442.486	87.06
442.707	82.06
442.928	98.06
443.149	98.06
443.371	118.06
443.592	107.06
443.813	109.06
444.034	95.06
444.255	78.06
444.476	93.06
444.698	88.06
444.919	92.06
445.14	137.06
445.361	109.06
445.582	112.06
445.803	121.06
446.024	114.06
446.245	126.06
446.466	98.06
446.687	65.06
446.908	80.06
447.129	69.06
447.35	88.06
447.571	94.06
447.792	92.06
448.013	97.06
448.234	115.06
448.455	93.06
448.675	109.06
448.896	110.06
449.117	81.06
449.338	77.06
449.559	103.06
449.779	127.06
450	100.06
450.221	70.06
450.442	78.06
450.662	89.06
450.883	86.06
451.104	101.06
451.324	78.06
451.545	98.06
451.766	82.06
451.986	80.06
452.207	85.06
452.428	85.06
452.648	93.06
452.869	93.06
453.089	94.06
453.31	121.06
453.53	93.06
453.751	92.06
453.971	83.06
454.192	99.06
454.412	87.06
454.633	97.06
454.853	78.06
455.073	84.06
455.294	98.06
455.514	89.06
455.734	76.06
455.955	84.06
456.175	84.06
456.395	95.06
456.616	74.06
456.836	93.06
457.056	85.06
457.276	60.06
457.497	88.06
457.717	77.06
457.937	86.06
458.157	89.06
458.377	78.06
458.598	87.06
458.818	126.06
459.038	134.06
459.258	97.06
459.478	88.06
459.698	72.06
459.918	69.06
460.138	76.06
460.358	78.06
460.578	93.06
460.798	94.06
461.018	81.06
461.238	85.06
461.458	68.06
461.678	81.06
461.898	80.06
462.118	93.06
462.338	77.06
462.558	72.06
462.777	85.06
462.997	89.06
463.217	85.06
463.437	77.06
463.657	92.06
463.876	80.06
464.096	86.06
464.316	80.06
464.536	95.06
464.755	90.06
464.975	104.06
465.195	133.06
465.414	138.06
465.634	96.06
465.854	90.06
466.073	79.06
466.293	76.06
466.512	72.06
466.732	91.06
466.951	76.06
467.171	80.06
467.391	97.06
467.61	91.06
467.829	93.06
468.049	127.06
468.268	136.06
468.488	95.06
468.707	81.06
468.927	77.06
469.146	69.06
469.365	88.06
469.585	70.06
469.804	98.06
470.023	93.06
470.243	97.06
470.462	83.06
470.681	96.06
470.901	76.06
471.12	86.06
471.339	81.06
471.558	89.06
471.777	82.06
471.997	111.06
472.216	186.06
472.435	274.06
472.654	132.06
472.873	92.06
473.092	88.06
473.311	86.06
473.53	86.06
473.749	93.06
473.968	86.06
474.187	106.06
474.406	71.06
474.625	89.06
474.844	86.06
475.063	88.06
475.282	70.06
475.501	71.06
475.72	82.06
475.939	85.06
476.158	92.06
476.377	86.06
476.596	76.06
476.814	89.06
477.033	82.06
477.252	83.06
477.471	64.06
477.69	60.06
477.908	88.06
478.127	88.06
478.346	87.06
478.564	68.06
478.783	86.06
479.002	94.06
479.22	83.06
479.439	85.06
479.658	84.06
479.876	96.06
480.095	92.06
480.313	98.06
480.532	95.06
480.751	104.06
480.969	202.06
481.188	470.06
481.406	306.06
481.624	102.06
481.843	78.06
482.061	84.06
482.28	96.06
482.498	73.06
482.717	78.06
482.935	93.06
483.153	85.06
483.372	79.06
483.59	89.06
483.808	87.06
484.027	73.06
484.245	79.06
484.463	84.06
484.681	99.06
484.9	87.06
485.118	83.06
485.336	96.06
485.554	98.06
485.772	94.06
485.99	94.06
486.209	93.06
486.427	99.06
486.645	97.06
486.863	105.06
487.081	95.06
487.299	101.06
487.517	94.06
487.735	79.06
487.953	92.06
488.171	83.06
488.389	103.06
488.607	93.06
488.825	88.06
489.043	89.06
489.261	84.06
489.479	90.06
489.696	81.06
489.914	88.06
490.132	85.06
490.35	92.06
490.568	92.06
490.786	97.06
491.003	84.06
491.221	88.06
491.439	86.06
491.657	83.06
491.874	91.06
492.092	98.06
492.31	100.06
492.527	81.06
492.745	86.06
492.963	79.06
493.18	77.06
493.398	98.06
493.615	88.06
493.833	83.06
494.05	83.06
494.268	89.06
494.485	85.06
494.703	76.06
494.92	94.06
495.138	85.06
495.355	82.06
495.573	81.06
495.79	93.06
496.008	84.06
496.225	95.06
496.442	82.06
496.66	88.06
496.877	87.06
497.094	97.06
497.312	98.06
497.529	82.06
497.746	87.06
497.963	69.06
498.181	74.06
498.398	94.06
498.615	105.06
498.832	90.06
499.049	85.06
499.267	100.06
499.484	92.06
499.701	84.06
499.918	76.06
500.135	80.06
500.352	84.06
500.569	86.06
500.786	90.06
501.003	79.06
501.22	101.06
501.437	85.06
501.654	84.06
501.871	97.06
502.088	80.06
502.305	79.06
502.522	91.06
502.739	98.06
502.956	89.06
503.172	88.06
503.389	82.06
503.606	108.06
503.823	97.06
504.04	101.06
504.256	88.06
504.473	76.06
504.69	100.06
504.907	78.06
505.123	88.06
505.34	80.06
505.557	82.06
505.773	104.06
505.99	90.06
506.207	98.06
506.423	79.06
506.64	95.06
506.856	94.06
507.073	100.06
507.289	85.06
507.506	92.06
507.722	102.06
507.939	113.06
508.155	94.06
508.372	92.06
508.588	94.06
508.805	88.06
509.021	92.06
509.238	91.06
509.454	96.06
509.67	96.06
509.887	104.06
510.103	116.06
510.319	193.06
510.536	618.06
510.752	1830.06
510.968	513.06
511.184	147.06
511.401	104.06
511.617	102.06
511.833	97.06
512.049	85.06
512.265	87.06
512.481	89.06
512.698	86.06
512.914	90.06
513.13	101.06
513.346	98.06
513.562	98.06
513.778	106.06
513.994	80.06
514.21	95.06
514.426	110.06
514.642	126.06
514.858	105.06
515.074	140.06
515.29	359.06
515.506	1129.06
515.721	432.06
515.937	145.06
516.153	105.06
516.369	103.06
516.585	90.06
516.801	78.06
517.016	93.06
