Data from Circ_1986_H10_HRD10591_00053.txt Node
Date: Wed Jan 03 12:15:36 EST 2024
User: Yrep
Spectrometer: HR+D1059
Trigger mode: 1
Integration Time (sec): 1.000000E-1
Scans to average: 1
Electric dark correction enabled: true
Nonlinearity correction enabled: false
Boxcar width: 0
XAxis mode: Wavelengths
Number of Pixels in Spectrum: 2048
>>>>>Begin Spectral Data<<<<<
223.165	-6.31
223.4	-6.31
223.635	-6.31
223.869	-27.31
224.104	-21.31
224.338	-5.31
224.573	-24.31
224.808	-16.31
225.042	-14.31
225.277	-7.31
225.511	-0.31
225.746	7.69
225.98	9.69
226.215	17.69
226.449	15.69
226.683	11.69
226.918	27.69
227.152	32.69
227.387	37.69
227.621	39.69
227.856	56.69
228.09	56.69
228.324	64.69
228.559	54.69
228.793	56.69
229.027	78.69
229.262	61.69
229.496	58.69
229.73	67.69
229.964	78.69
230.199	72.69
230.433	72.69
230.667	86.69
230.901	58.69
231.136	88.69
231.37	88.69
231.604	79.69
231.838	84.69
232.072	87.69
232.306	87.69
232.541	86.69
232.775	81.69
233.009	94.69
233.243	78.69
233.477	79.69
233.711	78.69
233.945	91.69
234.179	76.69
234.413	86.69
234.647	73.69
234.881	87.69
235.115	101.69
235.349	83.69
235.583	82.69
235.817	81.69
236.051	68.69
236.285	90.69
236.519	82.69
236.753	72.69
236.987	75.69
237.221	84.69
237.455	82.69
237.689	76.69
237.922	66.69
238.156	77.69
238.39	86.69
238.624	86.69
238.858	77.69
239.091	83.69
239.325	67.69
239.559	72.69
239.793	65.69
240.027	63.69
240.26	72.69
240.494	86.69
240.728	78.69
240.961	83.69
241.195	78.69
241.429	86.69
241.662	85.69
241.896	76.69
242.13	62.69
242.363	66.69
242.597	75.69
242.83	81.69
243.064	83.69
243.298	84.69
243.531	83.69
243.765	81.69
243.998	88.69
244.232	88.69
244.465	90.69
244.699	74.69
244.932	84.69
245.166	84.69
245.399	83.69
245.633	75.69
245.866	88.69
246.099	83.69
246.333	72.69
246.566	72.69
246.8	81.69
247.033	78.69
247.266	80.69
247.5	89.69
247.733	91.69
247.966	83.69
248.2	84.69
248.433	64.69
248.666	71.69
248.899	81.69
249.133	79.69
249.366	89.69
249.599	74.69
249.832	88.69
250.066	86.69
250.299	72.69
250.532	82.69
250.765	72.69
250.998	79.69
251.231	83.69
251.465	88.69
251.698	84.69
251.931	82.69
252.164	70.69
252.397	78.69
252.63	86.69
252.863	77.69
253.096	82.69
253.329	90.69
253.562	73.69
253.795	66.69
254.028	85.69
254.261	83.69
254.494	68.69
254.727	70.69
254.96	91.69
255.193	80.69
255.426	80.69
255.659	82.69
255.892	93.69
256.124	94.69
256.357	75.69
256.59	81.69
256.823	78.69
257.056	103.69
257.289	92.69
257.521	91.69
257.754	100.69
257.987	84.69
258.22	79.69
258.452	72.69
258.685	89.69
258.918	92.69
259.151	73.69
259.383	75.69
259.616	80.69
259.849	77.69
260.081	94.69
260.314	83.69
260.547	90.69
260.779	72.69
261.012	92.69
261.244	81.69
261.477	80.69
261.71	100.69
261.942	105.69
262.175	118.69
262.407	84.69
262.64	83.69
262.872	71.69
263.105	80.69
263.337	99.69
263.57	86.69
263.802	81.69
264.035	82.69
264.267	71.69
264.499	74.69
264.732	68.69
264.964	82.69
265.197	83.69
265.429	82.69
265.661	83.69
265.894	78.69
266.126	89.69
266.358	68.69
266.591	84.69
266.823	79.69
267.055	87.69
267.287	95.69
267.52	85.69
267.752	80.69
267.984	87.69
268.216	85.69
268.448	91.69
268.681	81.69
268.913	85.69
269.145	81.69
269.377	86.69
269.609	82.69
269.841	83.69
270.073	89.69
270.306	87.69
270.538	82.69
270.77	86.69
271.002	87.69
271.234	90.69
271.466	95.69
271.698	83.69
271.93	81.69
272.162	82.69
272.394	81.69
272.626	90.69
272.858	83.69
273.09	84.69
273.322	91.69
273.553	82.69
273.785	87.69
274.017	83.69
274.249	78.69
274.481	73.69
274.713	80.69
274.945	86.69
275.176	77.69
275.408	84.69
275.64	96.69
275.872	87.69
276.104	64.69
276.335	82.69
276.567	87.69
276.799	106.69
277.031	89.69
277.262	90.69
277.494	91.69
277.726	75.69
277.957	89.69
278.189	94.69
278.421	85.69
278.652	99.69
278.884	86.69
279.115	86.69
279.347	71.69
279.579	97.69
279.81	81.69
280.042	96.69
280.273	91.69
280.505	84.69
280.736	82.69
280.968	98.69
281.199	82.69
281.431	80.69
281.662	95.69
281.894	111.69
282.125	101.69
282.356	115.69
282.588	103.69
282.819	112.69
283.051	86.69
283.282	90.69
283.513	90.69
283.745	92.69
283.976	84.69
284.207	103.69
284.439	90.69
284.67	73.69
284.901	78.69
285.132	89.69
285.364	84.69
285.595	86.69
285.826	86.69
286.057	92.69
286.288	82.69
286.52	86.69
286.751	85.69
286.982	93.69
287.213	73.69
287.444	106.69
287.675	86.69
287.906	85.69
288.138	82.69
288.369	81.69
288.6	88.69
288.831	85.69
289.062	88.69
289.293	95.69
289.524	90.69
289.755	78.69
289.986	79.69
290.217	85.69
290.448	86.69
290.679	94.69
290.91	83.69
291.141	98.69
291.371	92.69
291.602	74.69
291.833	80.69
292.064	90.69
292.295	96.69
292.526	87.69
292.757	88.69
292.987	92.69
293.218	75.69
293.449	85.69
293.68	74.69
293.91	90.69
294.141	87.69
294.372	91.69
294.603	90.69
294.833	95.69
295.064	85.69
295.295	102.69
295.525	101.69
295.756	105.69
295.987	90.69
296.217	124.69
296.448	107.69
296.679	86.69
296.909	96.69
297.14	102.69
297.37	96.69
297.601	102.69
297.831	89.69
298.062	86.69
298.292	84.69
298.523	80.69
298.753	84.69
298.984	85.69
299.214	80.69
299.445	87.69
299.675	93.69
299.905	105.69
300.136	89.69
300.366	79.69
300.597	92.69
300.827	97.69
301.057	91.69
301.288	95.69
301.518	80.69
301.748	103.69
301.979	108.69
302.209	103.69
302.439	101.69
302.669	81.69
302.9	96.69
303.13	84.69
303.36	107.69
303.59	79.69
303.82	95.69
304.051	91.69
304.281	94.69
304.511	84.69
304.741	103.69
304.971	75.69
305.201	79.69
305.431	75.69
305.661	94.69
305.891	86.69
306.121	90.69
306.352	95.69
306.582	103.69
306.812	91.69
307.042	92.69
307.272	108.69
307.502	109.69
307.731	94.69
307.961	94.69
308.191	85.69
308.421	88.69
308.651	90.69
308.881	95.69
309.111	83.69
309.341	87.69
309.571	102.69
309.8	86.69
310.03	101.69
310.26	108.69
310.49	103.69
310.72	107.69
310.949	83.69
311.179	95.69
311.409	81.69
311.639	90.69
311.868	89.69
312.098	93.69
312.328	97.69
312.557	93.69
312.787	103.69
313.017	85.69
313.246	95.69
313.476	82.69
313.706	104.69
313.935	104.69
314.165	82.69
314.394	85.69
314.624	88.69
314.853	75.69
315.083	106.69
315.312	86.69
315.542	88.69
315.771	89.69
316.001	92.69
316.23	99.69
316.46	104.69
316.689	99.69
316.919	90.69
317.148	90.69
317.377	100.69
317.607	80.69
317.836	92.69
318.065	94.69
318.295	81.69
318.524	82.69
318.753	90.69
318.983	98.69
319.212	92.69
319.441	99.69
319.67	98.69
319.9	100.69
320.129	85.69
320.358	96.69
320.587	104.69
320.816	100.69
321.046	99.69
321.275	107.69
321.504	96.69
321.733	98.69
321.962	95.69
322.191	95.69
322.42	98.69
322.649	89.69
322.878	123.69
323.108	100.69
323.337	113.69
323.566	122.69
323.795	131.69
324.024	167.69
324.253	334.69
324.482	631.69
324.71	1298.69
324.939	1686.69
325.168	633.69
325.397	192.69
325.626	142.69
325.855	116.69
326.084	124.69
326.313	127.69
326.542	131.69
326.77	191.69
326.999	371.69
327.228	742.69
327.457	1328.69
327.686	1078.69
327.914	301.69
328.143	168.69
328.372	147.69
328.6	124.69
328.829	108.69
329.058	127.69
329.287	126.69
329.515	97.69
329.744	110.69
329.972	116.69
330.201	138.69
330.43	161.69
330.658	142.69
330.887	115.69
331.115	121.69
331.344	96.69
331.572	103.69
331.801	107.69
332.03	102.69
332.258	94.69
332.486	105.69
332.715	98.69
332.943	114.69
333.172	100.69
333.4	97.69
333.629	106.69
333.857	100.69
334.085	129.69
334.314	135.69
334.542	197.69
334.771	184.69
334.999	107.69
335.227	95.69
335.455	100.69
335.684	98.69
335.912	99.69
336.14	95.69
336.369	92.69
336.597	102.69
336.825	104.69
337.053	92.69
337.281	103.69
337.51	98.69
337.738	89.69
337.966	109.69
338.194	84.69
338.422	98.69
338.65	94.69
338.878	90.69
339.106	93.69
339.334	79.69
339.562	82.69
339.79	80.69
340.018	91.69
340.246	84.69
340.474	106.69
340.702	103.69
340.93	103.69
341.158	94.69
341.386	96.69
341.614	107.69
341.842	86.69
342.07	84.69
342.298	96.69
342.526	91.69
342.754	98.69
342.981	86.69
343.209	70.69
343.437	105.69
343.665	84.69
343.893	86.69
344.12	90.69
344.348	99.69
344.576	90.69
344.804	104.69
345.031	94.69
345.259	90.69
345.487	104.69
345.714	100.69
345.942	89.69
346.17	102.69
346.397	86.69
346.625	98.69
346.853	92.69
347.08	94.69
347.308	94.69
347.535	91.69
347.763	90.69
347.99	89.69
348.218	107.69
348.445	99.69
348.673	93.69
348.9	96.69
349.128	98.69
349.355	94.69
349.583	94.69
349.81	87.69
350.037	95.69
350.265	94.69
350.492	86.69
350.72	97.69
350.947	103.69
351.174	91.69
351.402	112.69
351.629	100.69
351.856	97.69
352.083	92.69
352.311	98.69
352.538	87.69
352.765	107.69
352.992	108.69
353.22	109.69
353.447	102.69
353.674	100.69
353.901	103.69
354.128	87.69
354.355	85.69
354.583	94.69
354.81	87.69
355.037	88.69
355.264	89.69
355.491	96.69
355.718	87.69
355.945	87.69
356.172	105.69
356.399	99.69
356.626	107.69
356.853	96.69
357.08	90.69
357.307	97.69
357.534	80.69
357.761	82.69
357.988	99.69
358.215	91.69
358.441	91.69
358.668	87.69
358.895	97.69
359.122	88.69
359.349	82.69
359.576	92.69
359.802	97.69
360.029	91.69
360.256	95.69
360.483	109.69
360.709	75.69
360.936	89.69
361.163	87.69
361.39	92.69
361.616	86.69
361.843	100.69
362.07	84.69
362.296	91.69
362.523	97.69
362.749	82.69
362.976	91.69
363.203	87.69
363.429	76.69
363.656	90.69
363.882	88.69
364.109	88.69
364.335	88.69
364.562	90.69
364.788	94.69
365.015	87.69
365.241	92.69
365.468	106.69
365.694	88.69
365.92	106.69
366.147	90.69
366.373	85.69
366.599	73.69
366.826	90.69
367.052	88.69
367.278	82.69
367.505	95.69
367.731	95.69
367.957	96.69
368.184	94.69
368.41	79.69
368.636	105.69
368.862	112.69
369.089	108.69
369.315	92.69
369.541	82.69
369.767	83.69
369.993	88.69
370.219	89.69
370.445	90.69
370.672	94.69
370.898	84.69
371.124	93.69
371.35	94.69
371.576	90.69
371.802	85.69
372.028	93.69
372.254	91.69
372.48	90.69
372.706	90.69
372.932	90.69
373.158	87.69
373.384	93.69
373.61	94.69
373.835	84.69
374.061	74.69
374.287	84.69
374.513	89.69
374.739	79.69
374.965	84.69
375.191	81.69
375.416	75.69
375.642	98.69
375.868	82.69
376.094	91.69
376.319	100.69
376.545	89.69
376.771	90.69
376.997	65.69
377.222	87.69
377.448	94.69
377.674	79.69
377.899	94.69
378.125	94.69
378.35	102.69
378.576	78.69
378.802	78.69
379.027	90.69
379.253	82.69
379.478	88.69
379.704	98.69
379.929	99.69
380.155	86.69
380.38	108.69
380.606	88.69
380.831	95.69
381.057	88.69
381.282	95.69
381.507	93.69
381.733	97.69
381.958	82.69
382.184	99.69
382.409	100.69
382.634	113.69
382.86	104.69
383.085	103.69
383.31	86.69
383.535	112.69
383.761	97.69
383.986	83.69
384.211	96.69
384.436	111.69
384.662	87.69
384.887	101.69
385.112	106.69
385.337	105.69
385.562	101.69
385.787	106.69
386.013	114.69
386.238	89.69
386.463	96.69
386.688	102.69
386.913	108.69
387.138	109.69
387.363	110.69
387.588	105.69
387.813	117.69
388.038	112.69
388.263	110.69
388.488	107.69
388.713	93.69
388.938	96.69
389.163	91.69
389.387	91.69
389.612	82.69
389.837	86.69
390.062	95.69
390.287	75.69
390.512	100.69
390.736	92.69
390.961	81.69
391.186	86.69
391.411	88.69
391.636	99.69
391.86	94.69
392.085	71.69
392.31	78.69
392.534	91.69
392.759	97.69
392.984	91.69
393.208	78.69
393.433	98.69
393.658	79.69
393.882	85.69
394.107	90.69
394.331	83.69
394.556	72.69
394.78	85.69
395.005	86.69
395.229	84.69
395.454	89.69
395.678	91.69
395.903	89.69
396.127	91.69
396.352	85.69
396.576	90.69
396.801	98.69
397.025	78.69
397.249	83.69
397.474	76.69
397.698	91.69
397.922	87.69
398.147	88.69
398.371	78.69
398.595	79.69
398.82	90.69
399.044	62.69
399.268	78.69
399.492	81.69
399.717	85.69
399.941	82.69
400.165	94.69
400.389	97.69
400.613	90.69
400.837	91.69
401.062	81.69
401.286	96.69
401.51	102.69
401.734	79.69
401.958	97.69
402.182	118.69
402.406	136.69
402.63	106.69
402.854	88.69
403.078	91.69
403.302	73.69
403.526	91.69
403.75	85.69
403.974	82.69
404.198	91.69
404.422	90.69
404.645	89.69
404.869	86.69
405.093	68.69
405.317	90.69
405.541	87.69
405.765	95.69
405.988	106.69
406.212	156.69
406.436	170.69
406.66	121.69
406.883	94.69
407.107	90.69
407.331	99.69
407.555	92.69
407.778	97.69
408.002	72.69
408.226	94.69
408.449	84.69
408.673	81.69
408.896	90.69
409.12	98.69
409.344	78.69
409.567	98.69
409.791	93.69
410.014	104.69
410.238	94.69
410.461	91.69
410.685	84.69
410.908	102.69
411.132	97.69
411.355	96.69
411.578	79.69
411.802	88.69
412.025	96.69
412.249	70.69
412.472	92.69
412.695	94.69
412.919	100.69
413.142	84.69
413.365	78.69
413.589	73.69
413.812	94.69
414.035	94.69
414.258	90.69
414.482	80.69
414.705	97.69
414.928	98.69
415.151	90.69
415.374	101.69
415.597	92.69
415.821	90.69
416.044	90.69
416.267	87.69
416.49	84.69
416.713	79.69
416.936	76.69
417.159	71.69
417.382	87.69
417.605	82.69
417.828	78.69
418.051	96.69
418.274	90.69
418.497	88.69
418.72	91.69
418.943	103.69
419.166	84.69
419.389	73.69
419.611	78.69
419.834	71.69
420.057	76.69
420.28	98.69
420.503	72.69
420.726	86.69
420.948	102.69
421.171	81.69
421.394	92.69
421.617	91.69
421.839	98.69
422.062	98.69
422.285	94.69
422.507	90.69
422.73	91.69
422.953	86.69
423.175	74.69
423.398	90.69
423.621	82.69
423.843	96.69
424.066	78.69
424.288	102.69
424.511	88.69
424.733	87.69
424.956	89.69
425.178	97.69
425.401	96.69
425.623	102.69
425.846	97.69
426.068	74.69
426.291	78.69
426.513	81.69
426.735	93.69
426.958	94.69
427.18	94.69
427.402	122.69
427.625	127.69
427.847	119.69
428.069	119.69
428.292	106.69
428.514	84.69
428.736	76.69
428.958	99.69
429.181	86.69
429.403	80.69
429.625	83.69
429.847	85.69
430.069	106.69
430.292	91.69
430.514	95.69
430.736	82.69
430.958	89.69
431.18	95.69
431.402	84.69
431.624	92.69
431.846	78.69
432.068	87.69
432.29	71.69
432.512	82.69
432.734	100.69
432.956	82.69
433.178	104.69
433.4	86.69
433.622	88.69
433.844	89.69
434.066	91.69
434.287	92.69
434.509	92.69
434.731	84.69
434.953	82.69
435.175	85.69
435.397	97.69
435.618	97.69
435.84	102.69
436.062	110.69
436.284	100.69
436.505	94.69
436.727	86.69
436.949	85.69
437.17	91.69
437.392	84.69
437.614	91.69
437.835	84.69
438.057	102.69
438.278	90.69
438.5	81.69
438.721	122.69
438.943	102.69
439.165	93.69
439.386	94.69
439.608	91.69
439.829	89.69
440.05	92.69
440.272	113.69
440.493	80.69
440.715	88.69
440.936	83.69
441.158	90.69
441.379	89.69
441.6	98.69
441.822	99.69
442.043	95.69
442.264	102.69
442.486	102.69
442.707	89.69
442.928	95.69
443.149	118.69
443.371	115.69
443.592	103.69
443.813	99.69
444.034	105.69
444.255	93.69
444.476	74.69
444.698	90.69
444.919	100.69
445.14	115.69
445.361	108.69
445.582	122.69
445.803	127.69
446.024	122.69
446.245	120.69
446.466	99.69
446.687	94.69
446.908	99.69
447.129	83.69
447.35	83.69
447.571	95.69
447.792	76.69
448.013	98.69
448.234	92.69
448.455	97.69
448.675	99.69
448.896	106.69
449.117	101.69
449.338	98.69
449.559	107.69
449.779	109.69
450	71.69
450.221	73.69
450.442	80.69
450.662	89.69
450.883	84.69
451.104	99.69
451.324	83.69
451.545	92.69
451.766	83.69
451.986	96.69
452.207	95.69
452.428	97.69
452.648	92.69
452.869	98.69
453.089	101.69
453.31	103.69
453.53	88.69
453.751	106.69
453.971	98.69
454.192	105.69
454.412	100.69
454.633	96.69
454.853	105.69
455.073	94.69
455.294	88.69
455.514	89.69
455.734	82.69
455.955	77.69
456.175	81.69
456.395	99.69
456.616	99.69
456.836	72.69
457.056	90.69
457.276	78.69
457.497	75.69
457.717	92.69
457.937	82.69
458.157	88.69
458.377	94.69
458.598	111.69
458.818	130.69
459.038	111.69
459.258	89.69
459.478	80.69
459.698	87.69
459.918	90.69
460.138	94.69
460.358	78.69
460.578	91.69
460.798	96.69
461.018	95.69
461.238	90.69
461.458	72.69
461.678	77.69
461.898	92.69
462.118	89.69
462.338	79.69
462.558	89.69
462.777	89.69
462.997	89.69
463.217	87.69
463.437	89.69
463.657	79.69
463.876	97.69
464.096	81.69
464.316	88.69
464.536	82.69
464.755	78.69
464.975	111.69
465.195	128.69
465.414	130.69
465.634	78.69
465.854	83.69
466.073	79.69
466.293	94.69
466.512	80.69
466.732	80.69
466.951	85.69
467.171	98.69
467.391	98.69
467.61	83.69
467.829	101.69
468.049	115.69
468.268	106.69
468.488	92.69
468.707	87.69
468.927	81.69
469.146	83.69
469.365	90.69
469.585	86.69
469.804	76.69
470.023	96.69
470.243	84.69
470.462	95.69
470.681	100.69
470.901	96.69
471.12	91.69
471.339	88.69
471.558	92.69
471.777	75.69
471.997	90.69
472.216	158.69
472.435	229.69
472.654	114.69
472.873	94.69
473.092	68.69
473.311	85.69
473.53	71.69
473.749	88.69
473.968	80.69
474.187	83.69
474.406	98.69
474.625	96.69
474.844	80.69
475.063	87.69
475.282	87.69
475.501	76.69
475.72	87.69
475.939	79.69
476.158	78.69
476.377	81.69
476.596	92.69
476.814	80.69
477.033	89.69
477.252	96.69
477.471	98.69
477.69	87.69
477.908	97.69
478.127	90.69
478.346	76.69
478.564	86.69
478.783	98.69
479.002	87.69
479.22	90.69
479.439	94.69
479.658	98.69
479.876	100.69
480.095	106.69
480.313	98.69
480.532	104.69
480.751	107.69
480.969	135.69
481.188	331.69
481.406	240.69
481.624	96.69
481.843	79.69
482.061	100.69
482.28	78.69
482.498	73.69
482.717	81.69
482.935	80.69
483.153	82.69
483.372	89.69
483.59	87.69
483.808	89.69
484.027	89.69
484.245	75.69
484.463	89.69
484.681	89.69
484.9	72.69
485.118	97.69
485.336	86.69
485.554	81.69
485.772	91.69
485.99	100.69
486.209	97.69
486.427	87.69
486.645	97.69
486.863	101.69
487.081	113.69
487.299	110.69
487.517	106.69
487.735	90.69
487.953	82.69
488.171	79.69
488.389	99.69
488.607	97.69
488.825	94.69
489.043	92.69
489.261	80.69
489.479	89.69
489.696	99.69
489.914	87.69
490.132	89.69
490.35	84.69
490.568	102.69
490.786	76.69
491.003	87.69
491.221	82.69
491.439	92.69
491.657	104.69
491.874	105.69
492.092	99.69
492.31	99.69
492.527	86.69
492.745	92.69
492.963	90.69
493.18	100.69
493.398	107.69
493.615	94.69
493.833	95.69
494.05	98.69
494.268	94.69
494.485	73.69
494.703	87.69
494.92	82.69
495.138	78.69
495.355	94.69
495.573	89.69
495.79	84.69
496.008	104.69
496.225	94.69
496.442	79.69
496.66	96.69
496.877	86.69
497.094	86.69
497.312	95.69
497.529	91.69
497.746	91.69
497.963	95.69
498.181	91.69
498.398	96.69
498.615	111.69
498.832	102.69
499.049	108.69
499.267	88.69
499.484	84.69
499.701	97.69
499.918	84.69
500.135	89.69
500.352	86.69
500.569	83.69
500.786	102.69
501.003	82.69
501.22	89.69
501.437	91.69
501.654	91.69
501.871	100.69
502.088	83.69
502.305	89.69
502.522	87.69
502.739	90.69
502.956	92.69
503.172	91.69
503.389	102.69
503.606	98.69
503.823	102.69
504.04	86.69
504.256	98.69
504.473	86.69
504.69	83.69
504.907	90.69
505.123	93.69
505.34	99.69
505.557	88.69
505.773	83.69
505.99	86.69
506.207	83.69
506.423	84.69
506.64	73.69
506.856	88.69
507.073	86.69
507.289	99.69
507.506	94.69
507.722	107.69
507.939	94.69
508.155	97.69
508.372	89.69
508.588	100.69
508.805	89.69
509.021	91.69
509.238	93.69
509.454	95.69
509.67	99.69
509.887	92.69
510.103	117.69
510.319	181.69
510.536	611.69
510.752	1814.69
510.968	501.69
511.184	138.69
511.401	100.69
511.617	106.69
511.833	95.69
512.049	95.69
512.265	82.69
512.481	85.69
512.698	85.69
512.914	89.69
513.13	97.69
513.346	95.69
513.562	91.69
513.778	74.69
513.994	107.69
514.21	102.69
514.426	129.69
514.642	122.69
514.858	113.69
515.074	128.69
515.29	350.69
515.506	1066.69
515.721	403.69
515.937	126.69
516.153	106.69
516.369	94.69
