Data from Circ_1986_H10_HRD10591_00026.txt Node
Date: Wed Jan 03 12:15:31 EST 2024
User: Yrep
Spectrometer: HR+D1059
Trigger mode: 1
Integration Time (sec): 1.000000E-1
Scans to average: 1
Electric dark correction enabled: true
Nonlinearity correction enabled: false
Boxcar width: 0
XAxis mode: Wavelengths
Number of Pixels in Spectrum: 2048
>>>>>Begin Spectral Data<<<<<
223.165	-35.62
223.4	-35.62
223.635	-35.62
223.869	-5.62
224.104	-19.62
224.338	-12.62
224.573	-14.62
224.808	-12.62
225.042	-17.62
225.277	-1.62
225.511	-1.62
225.746	1.38
225.98	13.38
226.215	17.38
226.449	17.38
226.683	22.38
226.918	23.38
227.152	26.38
227.387	38.38
227.621	47.38
227.856	52.38
228.09	53.38
228.324	55.38
228.559	65.38
228.793	60.38
229.027	61.38
229.262	65.38
229.496	83.38
229.73	75.38
229.964	88.38
230.199	86.38
230.433	87.38
230.667	72.38
230.901	81.38
231.136	75.38
231.37	73.38
231.604	79.38
231.838	89.38
232.072	89.38
232.306	89.38
232.541	78.38
232.775	79.38
233.009	81.38
233.243	101.38
233.477	82.38
233.711	82.38
233.945	83.38
234.179	83.38
234.413	82.38
234.647	77.38
234.881	93.38
235.115	76.38
235.349	81.38
235.583	93.38
235.817	92.38
236.051	76.38
236.285	74.38
236.519	65.38
236.753	80.38
236.987	101.38
237.221	91.38
237.455	86.38
237.689	83.38
237.922	68.38
238.156	76.38
238.39	81.38
238.624	73.38
238.858	85.38
239.091	82.38
239.325	76.38
239.559	81.38
239.793	70.38
240.027	68.38
240.26	86.38
240.494	66.38
240.728	75.38
240.961	80.38
241.195	87.38
241.429	66.38
241.662	90.38
241.896	69.38
242.13	77.38
242.363	83.38
242.597	75.38
242.83	89.38
243.064	87.38
243.298	84.38
243.531	83.38
243.765	85.38
243.998	76.38
244.232	100.38
244.465	92.38
244.699	84.38
244.932	67.38
245.166	81.38
245.399	96.38
245.633	79.38
245.866	92.38
246.099	70.38
246.333	73.38
246.566	87.38
246.8	72.38
247.033	69.38
247.266	85.38
247.5	76.38
247.733	76.38
247.966	89.38
248.2	72.38
248.433	67.38
248.666	82.38
248.899	85.38
249.133	78.38
249.366	105.38
249.599	85.38
249.832	86.38
250.066	98.38
250.299	85.38
250.532	84.38
250.765	73.38
250.998	90.38
251.231	78.38
251.465	89.38
251.698	83.38
251.931	92.38
252.164	86.38
252.397	74.38
252.63	83.38
252.863	88.38
253.096	86.38
253.329	79.38
253.562	84.38
253.795	89.38
254.028	76.38
254.261	96.38
254.494	86.38
254.727	81.38
254.96	75.38
255.193	79.38
255.426	82.38
255.659	75.38
255.892	75.38
256.124	78.38
256.357	76.38
256.59	90.38
256.823	82.38
257.056	99.38
257.289	92.38
257.521	88.38
257.754	88.38
257.987	89.38
258.22	76.38
258.452	89.38
258.685	83.38
258.918	91.38
259.151	99.38
259.383	83.38
259.616	79.38
259.849	73.38
260.081	94.38
260.314	76.38
260.547	81.38
260.779	83.38
261.012	74.38
261.244	93.38
261.477	99.38
261.71	85.38
261.942	94.38
262.175	108.38
262.407	91.38
262.64	74.38
262.872	89.38
263.105	86.38
263.337	87.38
263.57	88.38
263.802	83.38
264.035	89.38
264.267	93.38
264.499	87.38
264.732	101.38
264.964	90.38
265.197	77.38
265.429	87.38
265.661	87.38
265.894	87.38
266.126	95.38
266.358	93.38
266.591	92.38
266.823	78.38
267.055	67.38
267.287	88.38
267.52	81.38
267.752	88.38
267.984	98.38
268.216	84.38
268.448	76.38
268.681	67.38
268.913	89.38
269.145	99.38
269.377	92.38
269.609	101.38
269.841	88.38
270.073	87.38
270.306	69.38
270.538	95.38
270.77	94.38
271.002	83.38
271.234	89.38
271.466	86.38
271.698	83.38
271.93	85.38
272.162	88.38
272.394	93.38
272.626	89.38
272.858	97.38
273.09	101.38
273.322	85.38
273.553	82.38
273.785	75.38
274.017	87.38
274.249	89.38
274.481	99.38
274.713	88.38
274.945	95.38
275.176	87.38
275.408	71.38
275.64	75.38
275.872	92.38
276.104	85.38
276.335	99.38
276.567	111.38
276.799	106.38
277.031	106.38
277.262	98.38
277.494	83.38
277.726	84.38
277.957	85.38
278.189	82.38
278.421	87.38
278.652	79.38
278.884	81.38
279.115	81.38
279.347	93.38
279.579	90.38
279.81	104.38
280.042	98.38
280.273	81.38
280.505	99.38
280.736	91.38
280.968	90.38
281.199	87.38
281.431	73.38
281.662	86.38
281.894	93.38
282.125	101.38
282.356	107.38
282.588	139.38
282.819	106.38
283.051	86.38
283.282	81.38
283.513	93.38
283.745	83.38
283.976	100.38
284.207	94.38
284.439	74.38
284.67	93.38
284.901	92.38
285.132	94.38
285.364	104.38
285.595	86.38
285.826	84.38
286.057	87.38
286.288	84.38
286.52	76.38
286.751	99.38
286.982	95.38
287.213	84.38
287.444	93.38
287.675	74.38
287.906	100.38
288.138	92.38
288.369	94.38
288.6	102.38
288.831	100.38
289.062	81.38
289.293	84.38
289.524	87.38
289.755	94.38
289.986	91.38
290.217	78.38
290.448	85.38
290.679	94.38
290.91	77.38
291.141	95.38
291.371	85.38
291.602	81.38
291.833	85.38
292.064	97.38
292.295	93.38
292.526	93.38
292.757	93.38
292.987	96.38
293.218	74.38
293.449	79.38
293.68	94.38
293.91	94.38
294.141	90.38
294.372	90.38
294.603	86.38
294.833	89.38
295.064	81.38
295.295	97.38
295.525	75.38
295.756	105.38
295.987	110.38
296.217	117.38
296.448	107.38
296.679	85.38
296.909	81.38
297.14	70.38
297.37	93.38
297.601	94.38
297.831	79.38
298.062	97.38
298.292	102.38
298.523	88.38
298.753	97.38
298.984	86.38
299.214	102.38
299.445	79.38
299.675	90.38
299.905	85.38
300.136	98.38
300.366	89.38
300.597	90.38
300.827	87.38
301.057	106.38
301.288	103.38
301.518	92.38
301.748	88.38
301.979	101.38
302.209	97.38
302.439	90.38
302.669	86.38
302.9	102.38
303.13	108.38
303.36	106.38
303.59	116.38
303.82	106.38
304.051	102.38
304.281	109.38
304.511	111.38
304.741	94.38
304.971	91.38
305.201	98.38
305.431	100.38
305.661	84.38
305.891	90.38
306.121	98.38
306.352	102.38
306.582	108.38
306.812	97.38
307.042	93.38
307.272	110.38
307.502	101.38
307.731	106.38
307.961	90.38
308.191	98.38
308.421	100.38
308.651	97.38
308.881	97.38
309.111	99.38
309.341	97.38
309.571	106.38
309.8	92.38
310.03	103.38
310.26	95.38
310.49	94.38
310.72	116.38
310.949	99.38
311.179	102.38
311.409	82.38
311.639	98.38
311.868	102.38
312.098	75.38
312.328	103.38
312.557	97.38
312.787	95.38
313.017	93.38
313.246	110.38
313.476	102.38
313.706	93.38
313.935	86.38
314.165	98.38
314.394	93.38
314.624	98.38
314.853	105.38
315.083	93.38
315.312	86.38
315.542	97.38
315.771	82.38
316.001	103.38
316.23	98.38
316.46	98.38
316.689	98.38
316.919	95.38
317.148	90.38
317.377	101.38
317.607	99.38
317.836	77.38
318.065	97.38
318.295	93.38
318.524	88.38
318.753	77.38
318.983	102.38
319.212	100.38
319.441	107.38
319.67	105.38
319.9	87.38
320.129	96.38
320.358	101.38
320.587	92.38
320.816	89.38
321.046	98.38
321.275	98.38
321.504	105.38
321.733	105.38
321.962	99.38
322.191	79.38
322.42	101.38
322.649	102.38
322.878	119.38
323.108	124.38
323.337	113.38
323.566	122.38
323.795	145.38
324.024	195.38
324.253	308.38
324.482	692.38
324.71	1367.38
324.939	1781.38
325.168	658.38
325.397	214.38
325.626	142.38
325.855	134.38
326.084	130.38
326.313	124.38
326.542	141.38
326.77	190.38
326.999	379.38
327.228	778.38
327.457	1437.38
327.686	1099.38
327.914	310.38
328.143	179.38
328.372	146.38
328.6	127.38
328.829	116.38
329.058	112.38
329.287	121.38
329.515	116.38
329.744	105.38
329.972	108.38
330.201	126.38
330.43	135.38
330.658	124.38
330.887	121.38
331.115	118.38
331.344	112.38
331.572	107.38
331.801	102.38
332.03	121.38
332.258	95.38
332.486	93.38
332.715	89.38
332.943	91.38
333.172	95.38
333.4	95.38
333.629	103.38
333.857	103.38
334.085	120.38
334.314	111.38
334.542	135.38
334.771	145.38
334.999	111.38
335.227	95.38
335.455	90.38
335.684	121.38
335.912	87.38
336.14	88.38
336.369	97.38
336.597	103.38
336.825	102.38
337.053	94.38
337.281	99.38
337.51	99.38
337.738	111.38
337.966	105.38
338.194	104.38
338.422	100.38
338.65	87.38
338.878	106.38
339.106	90.38
339.334	95.38
339.562	95.38
339.79	103.38
340.018	102.38
340.246	85.38
340.474	79.38
340.702	101.38
340.93	89.38
341.158	100.38
341.386	95.38
341.614	101.38
341.842	102.38
342.07	97.38
342.298	90.38
342.526	98.38
342.754	95.38
342.981	87.38
343.209	105.38
343.437	88.38
343.665	91.38
343.893	97.38
344.12	106.38
344.348	93.38
344.576	102.38
344.804	94.38
345.031	110.38
345.259	79.38
345.487	91.38
345.714	96.38
345.942	100.38
346.17	93.38
346.397	79.38
346.625	98.38
346.853	82.38
347.08	90.38
347.308	86.38
347.535	99.38
347.763	93.38
347.99	87.38
348.218	105.38
348.445	97.38
348.673	102.38
348.9	95.38
349.128	87.38
349.355	98.38
349.583	90.38
349.81	100.38
350.037	97.38
350.265	99.38
350.492	79.38
350.72	87.38
350.947	115.38
351.174	115.38
351.402	101.38
351.629	104.38
351.856	102.38
352.083	94.38
352.311	121.38
352.538	107.38
352.765	124.38
352.992	122.38
353.22	124.38
353.447	122.38
353.674	98.38
353.901	108.38
354.128	99.38
354.355	98.38
354.583	106.38
354.81	102.38
355.037	120.38
355.264	93.38
355.491	100.38
355.718	96.38
355.945	95.38
356.172	99.38
356.399	107.38
356.626	102.38
356.853	91.38
357.08	98.38
357.307	90.38
357.534	86.38
357.761	96.38
357.988	97.38
358.215	103.38
358.441	97.38
358.668	95.38
358.895	103.38
359.122	88.38
359.349	98.38
359.576	74.38
359.802	87.38
360.029	107.38
360.256	117.38
360.483	93.38
360.709	87.38
360.936	101.38
361.163	89.38
361.39	93.38
361.616	87.38
361.843	74.38
362.07	86.38
362.296	94.38
362.523	93.38
362.749	85.38
362.976	87.38
363.203	102.38
363.429	92.38
363.656	91.38
363.882	96.38
364.109	78.38
364.335	93.38
364.562	84.38
364.788	84.38
365.015	103.38
365.241	103.38
365.468	112.38
365.694	114.38
365.92	101.38
366.147	94.38
366.373	84.38
366.599	88.38
366.826	94.38
367.052	108.38
367.278	86.38
367.505	93.38
367.731	90.38
367.957	87.38
368.184	84.38
368.41	98.38
368.636	100.38
368.862	118.38
369.089	104.38
369.315	85.38
369.541	88.38
369.767	82.38
369.993	82.38
370.219	93.38
370.445	98.38
370.672	77.38
370.898	97.38
371.124	86.38
371.35	82.38
371.576	107.38
371.802	90.38
372.028	96.38
372.254	90.38
372.48	87.38
372.706	90.38
372.932	93.38
373.158	83.38
373.384	75.38
373.61	95.38
373.835	94.38
374.061	83.38
374.287	91.38
374.513	92.38
374.739	101.38
374.965	91.38
375.191	96.38
375.416	99.38
375.642	103.38
375.868	92.38
376.094	89.38
376.319	95.38
376.545	88.38
376.771	95.38
376.997	100.38
377.222	103.38
377.448	80.38
377.674	91.38
377.899	98.38
378.125	99.38
378.35	93.38
378.576	98.38
378.802	94.38
379.027	96.38
379.253	112.38
379.478	86.38
379.704	83.38
379.929	96.38
380.155	95.38
380.38	111.38
380.606	117.38
380.831	105.38
381.057	95.38
381.282	81.38
381.507	105.38
381.733	97.38
381.958	103.38
382.184	100.38
382.409	109.38
382.634	109.38
382.86	103.38
383.085	114.38
383.31	95.38
383.535	113.38
383.761	111.38
383.986	103.38
384.211	110.38
384.436	129.38
384.662	106.38
384.887	124.38
385.112	119.38
385.337	123.38
385.562	115.38
385.787	124.38
386.013	126.38
386.238	132.38
386.463	122.38
386.688	115.38
386.913	110.38
387.138	123.38
387.363	100.38
387.588	100.38
387.813	118.38
388.038	125.38
388.263	120.38
388.488	118.38
388.713	109.38
388.938	101.38
389.163	103.38
389.387	114.38
389.612	91.38
389.837	101.38
390.062	94.38
390.287	98.38
390.512	91.38
390.736	95.38
390.961	84.38
391.186	114.38
391.411	91.38
391.636	87.38
391.86	102.38
392.085	96.38
392.31	91.38
392.534	78.38
392.759	89.38
392.984	86.38
393.208	86.38
393.433	92.38
393.658	84.38
393.882	84.38
394.107	99.38
394.331	107.38
394.556	104.38
394.78	95.38
395.005	86.38
395.229	86.38
395.454	86.38
395.678	76.38
395.903	88.38
396.127	90.38
396.352	86.38
396.576	82.38
396.801	90.38
397.025	94.38
397.249	90.38
397.474	93.38
397.698	90.38
397.922	78.38
398.147	96.38
398.371	94.38
398.595	98.38
398.82	99.38
399.044	98.38
399.268	76.38
399.492	93.38
399.717	95.38
399.941	91.38
400.165	87.38
400.389	92.38
400.613	90.38
400.837	108.38
401.062	100.38
401.286	91.38
401.51	97.38
401.734	89.38
401.958	108.38
402.182	110.38
402.406	132.38
402.63	118.38
402.854	92.38
403.078	87.38
403.302	92.38
403.526	88.38
403.75	94.38
403.974	82.38
404.198	104.38
404.422	78.38
404.645	96.38
404.869	92.38
405.093	94.38
405.317	109.38
405.541	97.38
405.765	94.38
405.988	90.38
406.212	146.38
406.436	185.38
406.66	136.38
406.883	91.38
407.107	99.38
407.331	90.38
407.555	91.38
407.778	99.38
408.002	98.38
408.226	91.38
408.449	86.38
408.673	96.38
408.896	115.38
409.12	105.38
409.344	95.38
409.567	97.38
409.791	93.38
410.014	77.38
410.238	105.38
410.461	109.38
410.685	105.38
410.908	86.38
411.132	99.38
411.355	87.38
411.578	92.38
411.802	91.38
412.025	95.38
412.249	101.38
412.472	99.38
412.695	92.38
412.919	85.38
413.142	97.38
413.365	87.38
413.589	84.38
413.812	94.38
414.035	94.38
414.258	99.38
414.482	97.38
414.705	92.38
414.928	94.38
415.151	92.38
415.374	83.38
415.597	84.38
415.821	94.38
416.044	93.38
416.267	96.38
416.49	92.38
416.713	93.38
416.936	97.38
417.159	101.38
417.382	97.38
417.605	103.38
417.828	92.38
418.051	92.38
418.274	94.38
418.497	101.38
418.72	97.38
418.943	90.38
419.166	94.38
419.389	87.38
419.611	99.38
419.834	97.38
420.057	82.38
420.28	100.38
420.503	100.38
420.726	95.38
420.948	103.38
421.171	107.38
421.394	81.38
421.617	93.38
421.839	108.38
422.062	98.38
422.285	100.38
422.507	91.38
422.73	113.38
422.953	105.38
423.175	79.38
423.398	95.38
423.621	77.38
423.843	88.38
424.066	104.38
424.288	90.38
424.511	96.38
424.733	102.38
424.956	95.38
425.178	92.38
425.401	107.38
425.623	91.38
425.846	88.38
426.068	107.38
426.291	94.38
426.513	92.38
426.735	91.38
426.958	91.38
427.18	100.38
427.402	105.38
427.625	143.38
427.847	122.38
428.069	110.38
428.292	92.38
428.514	99.38
428.736	83.38
428.958	87.38
429.181	93.38
429.403	96.38
429.625	82.38
429.847	85.38
430.069	98.38
430.292	73.38
430.514	88.38
430.736	93.38
430.958	97.38
431.18	75.38
431.402	82.38
431.624	98.38
431.846	105.38
432.068	85.38
432.29	90.38
432.512	90.38
432.734	86.38
432.956	74.38
433.178	99.38
433.4	107.38
433.622	102.38
433.844	103.38
434.066	90.38
434.287	93.38
434.509	81.38
434.731	88.38
434.953	87.38
435.175	95.38
435.397	104.38
435.618	101.38
435.84	108.38
436.062	114.38
436.284	121.38
436.505	104.38
436.727	98.38
436.949	89.38
437.17	87.38
437.392	77.38
437.614	89.38
437.835	106.38
438.057	108.38
438.278	122.38
438.5	91.38
438.721	100.38
438.943	103.38
439.165	88.38
439.386	81.38
439.608	96.38
439.829	81.38
440.05	125.38
440.272	123.38
440.493	98.38
440.715	80.38
440.936	93.38
441.158	87.38
441.379	86.38
441.6	105.38
441.822	105.38
442.043	93.38
442.264	104.38
442.486	93.38
442.707	78.38
442.928	97.38
443.149	122.38
443.371	124.38
443.592	98.38
443.813	109.38
444.034	97.38
444.255	94.38
444.476	81.38
444.698	75.38
444.919	103.38
445.14	134.38
445.361	125.38
445.582	109.38
445.803	124.38
446.024	125.38
446.245	114.38
446.466	99.38
446.687	90.38
446.908	86.38
447.129	82.38
447.35	105.38
447.571	97.38
447.792	97.38
448.013	96.38
448.234	95.38
448.455	101.38
448.675	114.38
448.896	118.38
449.117	108.38
449.338	109.38
449.559	122.38
449.779	129.38
450	87.38
450.221	92.38
450.442	103.38
450.662	91.38
450.883	101.38
451.104	120.38
451.324	97.38
451.545	101.38
451.766	92.38
451.986	92.38
452.207	86.38
452.428	88.38
452.648	99.38
452.869	109.38
453.089	109.38
453.31	108.38
453.53	106.38
453.751	88.38
453.971	85.38
454.192	99.38
454.412	105.38
454.633	100.38
454.853	101.38
455.073	86.38
455.294	97.38
455.514	100.38
455.734	97.38
455.955	82.38
456.175	83.38
456.395	94.38
456.616	105.38
456.836	85.38
457.056	91.38
457.276	98.38
457.497	85.38
457.717	85.38
457.937	84.38
458.157	93.38
458.377	84.38
458.598	102.38
458.818	131.38
459.038	133.38
459.258	109.38
459.478	98.38
459.698	93.38
459.918	87.38
460.138	90.38
460.358	92.38
460.578	92.38
460.798	97.38
461.018	87.38
461.238	82.38
461.458	101.38
461.678	99.38
461.898	91.38
462.118	92.38
462.338	81.38
462.558	89.38
462.777	83.38
462.997	93.38
463.217	97.38
463.437	105.38
463.657	102.38
463.876	101.38
464.096	97.38
464.316	92.38
464.536	94.38
464.755	106.38
464.975	104.38
465.195	136.38
465.414	128.38
465.634	94.38
465.854	76.38
466.073	87.38
466.293	95.38
466.512	83.38
466.732	100.38
466.951	86.38
467.171	86.38
467.391	102.38
467.61	94.38
467.829	97.38
468.049	106.38
468.268	107.38
468.488	95.38
468.707	93.38
468.927	91.38
469.146	78.38
469.365	86.38
469.585	95.38
469.804	93.38
470.023	85.38
470.243	106.38
470.462	102.38
470.681	94.38
470.901	109.38
471.12	105.38
471.339	94.38
471.558	81.38
471.777	88.38
471.997	103.38
472.216	115.38
472.435	151.38
472.654	108.38
472.873	93.38
473.092	96.38
473.311	95.38
473.53	91.38
473.749	82.38
473.968	99.38
474.187	99.38
474.406	83.38
474.625	89.38
474.844	84.38
475.063	86.38
475.282	81.38
475.501	82.38
475.72	86.38
475.939	93.38
476.158	101.38
476.377	91.38
476.596	78.38
476.814	94.38
477.033	97.38
477.252	99.38
477.471	93.38
477.69	93.38
477.908	85.38
478.127	96.38
478.346	95.38
478.564	74.38
478.783	108.38
479.002	93.38
479.22	103.38
479.439	108.38
479.658	94.38
479.876	91.38
480.095	90.38
480.313	100.38
480.532	102.38
480.751	113.38
480.969	108.38
481.188	216.38
481.406	157.38
481.624	89.38
481.843	92.38
482.061	80.38
482.28	92.38
482.498	105.38
482.717	87.38
482.935	101.38
483.153	103.38
483.372	92.38
483.59	97.38
483.808	91.38
484.027	106.38
484.245	102.38
484.463	106.38
484.681	105.38
484.9	89.38
485.118	93.38
485.336	96.38
485.554	105.38
485.772	99.38
485.99	105.38
486.209	109.38
486.427	119.38
486.645	106.38
486.863	115.38
487.081	110.38
487.299	105.38
487.517	101.38
487.735	93.38
487.953	77.38
488.171	91.38
488.389	99.38
488.607	97.38
488.825	90.38
489.043	87.38
489.261	93.38
489.479	83.38
489.696	95.38
489.914	79.38
490.132	108.38
490.35	97.38
490.568	99.38
490.786	88.38
491.003	89.38
491.221	92.38
491.439	82.38
491.657	83.38
491.874	90.38
492.092	86.38
492.31	107.38
492.527	94.38
492.745	88.38
492.963	97.38
493.18	106.38
493.398	106.38
493.615	93.38
493.833	103.38
494.05	95.38
494.268	93.38
494.485	83.38
494.703	87.38
494.92	92.38
495.138	79.38
495.355	87.38
495.573	110.38
495.79	91.38
496.008	82.38
496.225	98.38
496.442	85.38
496.66	93.38
496.877	110.38
497.094	91.38
497.312	104.38
497.529	99.38
497.746	102.38
497.963	93.38
498.181	85.38
498.398	94.38
498.615	102.38
498.832	92.38
499.049	105.38
499.267	81.38
499.484	110.38
499.701	88.38
499.918	92.38
500.135	101.38
500.352	92.38
500.569	91.38
500.786	79.38
501.003	95.38
501.22	97.38
501.437	102.38
501.654	105.38
501.871	97.38
502.088	89.38
502.305	90.38
502.522	95.38
502.739	93.38
502.956	79.38
503.172	86.38
503.389	83.38
503.606	87.38
503.823	99.38
504.04	99.38
504.256	86.38
504.473	89.38
504.69	105.38
504.907	88.38
505.123	84.38
505.34	86.38
505.557	86.38
505.773	86.38
505.99	98.38
506.207	85.38
506.423	87.38
506.64	96.38
506.856	96.38
507.073	85.38
507.289	102.38
507.506	87.38
507.722	98.38
507.939	106.38
508.155	93.38
508.372	74.38
508.588	88.38
508.805	96.38
509.021	108.38
509.238	118.38
509.454	97.38
509.67	112.38
509.887	106.38
510.103	116.38
510.319	185.38
510.536	620.38
510.752	1779.38
510.968	506.38
511.184	152.38
511.401	101.38
511.617	106.38
511.833	103.38
512.049	94.38
512.265	100.38
512.481	97.38
512.698	102.38
512.914	89.38
513.13	101.38
513.346	90.38
513.562	91.38
513.778	97.38
513.994	81.38
514.21	96.38
514.426	103.38
