Data from Circ_1986_H10_HRD10591_00078.txt Node
Date: Wed Jan 03 12:15:41 EST 2024
User: Yrep
Spectrometer: HR+D1059
Trigger mode: 1
Integration Time (sec): 1.000000E-1
Scans to average: 1
Electric dark correction enabled: true
Nonlinearity correction enabled: false
Boxcar width: 0
XAxis mode: Wavelengths
Number of Pixels in Spectrum: 2048
>>>>>Begin Spectral Data<<<<<
223.165	-19.56
223.4	-19.56
223.635	-19.56
223.869	-27.56
224.104	-17.56
224.338	-4.56
224.573	-10.56
224.808	-14.56
225.042	-13.56
225.277	-9.56
225.511	1.44
225.746	1.44
225.98	4.44
226.215	9.44
226.449	15.44
226.683	25.44
226.918	32.44
227.152	27.44
227.387	33.44
227.621	39.44
227.856	43.44
228.09	40.44
228.324	50.44
228.559	65.44
228.793	59.44
229.027	57.44
229.262	76.44
229.496	82.44
229.73	73.44
229.964	76.44
230.199	82.44
230.433	79.44
230.667	83.44
230.901	72.44
231.136	82.44
231.37	77.44
231.604	77.44
231.838	76.44
232.072	80.44
232.306	68.44
232.541	72.44
232.775	77.44
233.009	87.44
233.243	81.44
233.477	80.44
233.711	72.44
233.945	77.44
234.179	76.44
234.413	84.44
234.647	84.44
234.881	78.44
235.115	80.44
235.349	80.44
235.583	80.44
235.817	69.44
236.051	72.44
236.285	68.44
236.519	78.44
236.753	92.44
236.987	85.44
237.221	82.44
237.455	79.44
237.689	72.44
237.922	86.44
238.156	66.44
238.39	83.44
238.624	64.44
238.858	66.44
239.091	69.44
239.325	67.44
239.559	70.44
239.793	70.44
240.027	79.44
240.26	76.44
240.494	73.44
240.728	64.44
240.961	68.44
241.195	73.44
241.429	73.44
241.662	77.44
241.896	72.44
242.13	80.44
242.363	81.44
242.597	73.44
242.83	84.44
243.064	85.44
243.298	79.44
243.531	86.44
243.765	70.44
243.998	80.44
244.232	91.44
244.465	69.44
244.699	72.44
244.932	63.44
245.166	94.44
245.399	73.44
245.633	75.44
245.866	78.44
246.099	87.44
246.333	74.44
246.566	73.44
246.8	70.44
247.033	73.44
247.266	54.44
247.5	82.44
247.733	94.44
247.966	92.44
248.2	71.44
248.433	81.44
248.666	64.44
248.899	87.44
249.133	74.44
249.366	86.44
249.599	85.44
249.832	94.44
250.066	95.44
250.299	87.44
250.532	73.44
250.765	75.44
250.998	90.44
251.231	73.44
251.465	77.44
251.698	77.44
251.931	90.44
252.164	82.44
252.397	80.44
252.63	77.44
252.863	78.44
253.096	74.44
253.329	77.44
253.562	80.44
253.795	95.44
254.028	85.44
254.261	91.44
254.494	71.44
254.727	90.44
254.96	78.44
255.193	97.44
255.426	72.44
255.659	88.44
255.892	68.44
256.124	71.44
256.357	78.44
256.59	80.44
256.823	76.44
257.056	88.44
257.289	78.44
257.521	84.44
257.754	78.44
257.987	80.44
258.22	82.44
258.452	78.44
258.685	77.44
258.918	80.44
259.151	81.44
259.383	87.44
259.616	82.44
259.849	76.44
260.081	72.44
260.314	80.44
260.547	84.44
260.779	66.44
261.012	80.44
261.244	94.44
261.477	88.44
261.71	80.44
261.942	88.44
262.175	100.44
262.407	92.44
262.64	90.44
262.872	72.44
263.105	83.44
263.337	83.44
263.57	89.44
263.802	65.44
264.035	79.44
264.267	90.44
264.499	80.44
264.732	85.44
264.964	73.44
265.197	81.44
265.429	84.44
265.661	79.44
265.894	93.44
266.126	68.44
266.358	90.44
266.591	68.44
266.823	100.44
267.055	78.44
267.287	68.44
267.52	80.44
267.752	89.44
267.984	97.44
268.216	88.44
268.448	86.44
268.681	77.44
268.913	84.44
269.145	78.44
269.377	85.44
269.609	76.44
269.841	94.44
270.073	83.44
270.306	72.44
270.538	82.44
270.77	83.44
271.002	65.44
271.234	85.44
271.466	87.44
271.698	88.44
271.93	82.44
272.162	94.44
272.394	81.44
272.626	89.44
272.858	72.44
273.09	86.44
273.322	87.44
273.553	76.44
273.785	87.44
274.017	88.44
274.249	83.44
274.481	84.44
274.713	86.44
274.945	80.44
275.176	94.44
275.408	81.44
275.64	90.44
275.872	81.44
276.104	89.44
276.335	80.44
276.567	83.44
276.799	65.44
277.031	80.44
277.262	76.44
277.494	86.44
277.726	94.44
277.957	74.44
278.189	94.44
278.421	90.44
278.652	72.44
278.884	80.44
279.115	84.44
279.347	80.44
279.579	78.44
279.81	87.44
280.042	83.44
280.273	97.44
280.505	77.44
280.736	75.44
280.968	85.44
281.199	86.44
281.431	93.44
281.662	77.44
281.894	85.44
282.125	98.44
282.356	101.44
282.588	114.44
282.819	100.44
283.051	69.44
283.282	64.44
283.513	84.44
283.745	97.44
283.976	85.44
284.207	83.44
284.439	80.44
284.67	93.44
284.901	91.44
285.132	83.44
285.364	76.44
285.595	66.44
285.826	95.44
286.057	85.44
286.288	81.44
286.52	86.44
286.751	70.44
286.982	72.44
287.213	69.44
287.444	80.44
287.675	88.44
287.906	95.44
288.138	94.44
288.369	76.44
288.6	93.44
288.831	91.44
289.062	88.44
289.293	100.44
289.524	78.44
289.755	74.44
289.986	77.44
290.217	78.44
290.448	81.44
290.679	89.44
290.91	84.44
291.141	80.44
291.371	81.44
291.602	82.44
291.833	79.44
292.064	92.44
292.295	96.44
292.526	76.44
292.757	87.44
292.987	94.44
293.218	79.44
293.449	82.44
293.68	93.44
293.91	82.44
294.141	86.44
294.372	77.44
294.603	80.44
294.833	90.44
295.064	75.44
295.295	65.44
295.525	88.44
295.756	82.44
295.987	106.44
296.217	113.44
296.448	117.44
296.679	72.44
296.909	79.44
297.14	76.44
297.37	90.44
297.601	91.44
297.831	92.44
298.062	87.44
298.292	93.44
298.523	81.44
298.753	105.44
298.984	73.44
299.214	89.44
299.445	97.44
299.675	94.44
299.905	86.44
300.136	95.44
300.366	86.44
300.597	96.44
300.827	96.44
301.057	88.44
301.288	108.44
301.518	88.44
301.748	88.44
301.979	100.44
302.209	84.44
302.439	95.44
302.669	76.44
302.9	74.44
303.13	86.44
303.36	89.44
303.59	96.44
303.82	101.44
304.051	98.44
304.281	81.44
304.511	92.44
304.741	102.44
304.971	79.44
305.201	74.44
305.431	89.44
305.661	67.44
305.891	81.44
306.121	88.44
306.352	92.44
306.582	88.44
306.812	86.44
307.042	94.44
307.272	104.44
307.502	94.44
307.731	100.44
307.961	93.44
308.191	81.44
308.421	92.44
308.651	80.44
308.881	85.44
309.111	83.44
309.341	82.44
309.571	91.44
309.8	85.44
310.03	88.44
310.26	84.44
310.49	89.44
310.72	89.44
310.949	86.44
311.179	88.44
311.409	92.44
311.639	81.44
311.868	97.44
312.098	102.44
312.328	88.44
312.557	106.44
312.787	111.44
313.017	94.44
313.246	98.44
313.476	81.44
313.706	80.44
313.935	89.44
314.165	105.44
314.394	105.44
314.624	93.44
314.853	98.44
315.083	83.44
315.312	85.44
315.542	82.44
315.771	91.44
316.001	87.44
316.23	99.44
316.46	96.44
316.689	110.44
316.919	85.44
317.148	92.44
317.377	83.44
317.607	74.44
317.836	80.44
318.065	91.44
318.295	88.44
318.524	94.44
318.753	83.44
318.983	91.44
319.212	110.44
319.441	105.44
319.67	96.44
319.9	80.44
320.129	88.44
320.358	97.44
320.587	80.44
320.816	92.44
321.046	89.44
321.275	94.44
321.504	87.44
321.733	84.44
321.962	101.44
322.191	109.44
322.42	106.44
322.649	93.44
322.878	104.44
323.108	95.44
323.337	105.44
323.566	124.44
323.795	130.44
324.024	169.44
324.253	322.44
324.482	633.44
324.71	1294.44
324.939	1666.44
325.168	634.44
325.397	196.44
325.626	136.44
325.855	116.44
326.084	114.44
326.313	120.44
326.542	123.44
326.77	181.44
326.999	368.44
327.228	742.44
327.457	1300.44
327.686	1077.44
327.914	306.44
328.143	205.44
328.372	162.44
328.6	135.44
328.829	104.44
329.058	125.44
329.287	108.44
329.515	101.44
329.744	100.44
329.972	122.44
330.201	144.44
330.43	183.44
330.658	152.44
330.887	120.44
331.115	116.44
331.344	103.44
331.572	81.44
331.801	118.44
332.03	93.44
332.258	96.44
332.486	76.44
332.715	94.44
332.943	90.44
333.172	82.44
333.4	100.44
333.629	112.44
333.857	111.44
334.085	119.44
334.314	150.44
334.542	228.44
334.771	201.44
334.999	125.44
335.227	100.44
335.455	93.44
335.684	63.44
335.912	81.44
336.14	88.44
336.369	86.44
336.597	92.44
336.825	90.44
337.053	85.44
337.281	85.44
337.51	87.44
337.738	86.44
337.966	81.44
338.194	97.44
338.422	99.44
338.65	91.44
338.878	93.44
339.106	89.44
339.334	81.44
339.562	74.44
339.79	87.44
340.018	91.44
340.246	93.44
340.474	79.44
340.702	87.44
340.93	93.44
341.158	95.44
341.386	94.44
341.614	87.44
341.842	90.44
342.07	79.44
342.298	90.44
342.526	89.44
342.754	81.44
342.981	87.44
343.209	89.44
343.437	97.44
343.665	86.44
343.893	82.44
344.12	93.44
344.348	72.44
344.576	88.44
344.804	74.44
345.031	98.44
345.259	93.44
345.487	110.44
345.714	94.44
345.942	104.44
346.17	79.44
346.397	97.44
346.625	75.44
346.853	92.44
347.08	99.44
347.308	100.44
347.535	86.44
347.763	94.44
347.99	102.44
348.218	101.44
348.445	88.44
348.673	86.44
348.9	86.44
349.128	82.44
349.355	96.44
349.583	87.44
349.81	94.44
350.037	85.44
350.265	89.44
350.492	82.44
350.72	77.44
350.947	94.44
351.174	101.44
351.402	100.44
351.629	96.44
351.856	93.44
352.083	95.44
352.311	101.44
352.538	118.44
352.765	110.44
352.992	118.44
353.22	121.44
353.447	93.44
353.674	98.44
353.901	97.44
354.128	89.44
354.355	88.44
354.583	100.44
354.81	104.44
355.037	88.44
355.264	94.44
355.491	95.44
355.718	94.44
355.945	97.44
356.172	92.44
356.399	89.44
356.626	96.44
356.853	97.44
357.08	84.44
357.307	84.44
357.534	81.44
357.761	92.44
357.988	97.44
358.215	85.44
358.441	87.44
358.668	94.44
358.895	85.44
359.122	76.44
359.349	95.44
359.576	97.44
359.802	81.44
360.029	89.44
360.256	88.44
360.483	111.44
360.709	87.44
360.936	95.44
361.163	97.44
361.39	84.44
361.616	93.44
361.843	81.44
362.07	88.44
362.296	91.44
362.523	97.44
362.749	86.44
362.976	88.44
363.203	82.44
363.429	78.44
363.656	90.44
363.882	81.44
364.109	95.44
364.335	84.44
364.562	89.44
364.788	93.44
365.015	86.44
365.241	87.44
365.468	91.44
365.694	84.44
365.92	76.44
366.147	92.44
366.373	79.44
366.599	95.44
366.826	97.44
367.052	89.44
367.278	82.44
367.505	96.44
367.731	112.44
367.957	84.44
368.184	90.44
368.41	105.44
368.636	96.44
368.862	109.44
369.089	105.44
369.315	89.44
369.541	94.44
369.767	86.44
369.993	72.44
370.219	86.44
370.445	78.44
370.672	88.44
370.898	88.44
371.124	93.44
371.35	87.44
371.576	83.44
371.802	80.44
372.028	93.44
372.254	96.44
372.48	101.44
372.706	94.44
372.932	67.44
373.158	88.44
373.384	93.44
373.61	78.44
373.835	90.44
374.061	65.44
374.287	86.44
374.513	88.44
374.739	97.44
374.965	88.44
375.191	95.44
375.416	76.44
375.642	72.44
375.868	93.44
376.094	88.44
376.319	90.44
376.545	89.44
376.771	80.44
376.997	86.44
377.222	83.44
377.448	74.44
377.674	76.44
377.899	78.44
378.125	87.44
378.35	71.44
378.576	85.44
378.802	90.44
379.027	90.44
379.253	93.44
379.478	83.44
379.704	82.44
379.929	89.44
380.155	85.44
380.38	87.44
380.606	89.44
380.831	99.44
381.057	102.44
381.282	106.44
381.507	89.44
381.733	92.44
381.958	103.44
382.184	94.44
382.409	78.44
382.634	96.44
382.86	101.44
383.085	101.44
383.31	95.44
383.535	98.44
383.761	103.44
383.986	94.44
384.211	92.44
384.436	84.44
384.662	102.44
384.887	100.44
385.112	88.44
385.337	104.44
385.562	95.44
385.787	102.44
386.013	101.44
386.238	101.44
386.463	110.44
386.688	103.44
386.913	107.44
387.138	114.44
387.363	93.44
387.588	84.44
387.813	99.44
388.038	111.44
388.263	99.44
388.488	102.44
388.713	103.44
388.938	96.44
389.163	95.44
389.387	88.44
389.612	105.44
389.837	81.44
390.062	97.44
390.287	82.44
390.512	86.44
390.736	109.44
390.961	98.44
391.186	77.44
391.411	81.44
391.636	89.44
391.86	81.44
392.085	94.44
392.31	78.44
392.534	80.44
392.759	75.44
392.984	87.44
393.208	80.44
393.433	84.44
393.658	100.44
393.882	73.44
394.107	89.44
394.331	81.44
394.556	82.44
394.78	81.44
395.005	83.44
395.229	92.44
395.454	73.44
395.678	84.44
395.903	76.44
396.127	87.44
396.352	87.44
396.576	74.44
396.801	77.44
397.025	79.44
397.249	71.44
397.474	86.44
397.698	86.44
397.922	72.44
398.147	82.44
398.371	93.44
398.595	84.44
398.82	70.44
399.044	83.44
399.268	87.44
399.492	78.44
399.717	87.44
399.941	82.44
400.165	79.44
400.389	70.44
400.613	84.44
400.837	68.44
401.062	87.44
401.286	108.44
401.51	76.44
401.734	99.44
401.958	93.44
402.182	98.44
402.406	139.44
402.63	118.44
402.854	89.44
403.078	80.44
403.302	94.44
403.526	87.44
403.75	84.44
403.974	87.44
404.198	78.44
404.422	97.44
404.645	90.44
404.869	85.44
405.093	84.44
405.317	99.44
405.541	82.44
405.765	82.44
405.988	96.44
406.212	148.44
406.436	183.44
406.66	132.44
406.883	96.44
407.107	85.44
407.331	86.44
407.555	105.44
407.778	97.44
408.002	86.44
408.226	80.44
408.449	87.44
408.673	80.44
408.896	83.44
409.12	103.44
409.344	84.44
409.567	69.44
409.791	71.44
410.014	98.44
410.238	94.44
410.461	89.44
410.685	88.44
410.908	82.44
411.132	98.44
411.355	102.44
411.578	83.44
411.802	81.44
412.025	83.44
412.249	87.44
412.472	84.44
412.695	89.44
412.919	79.44
413.142	86.44
413.365	97.44
413.589	88.44
413.812	86.44
414.035	86.44
414.258	81.44
414.482	84.44
414.705	83.44
414.928	83.44
415.151	101.44
415.374	86.44
415.597	87.44
415.821	83.44
416.044	77.44
416.267	93.44
416.49	79.44
416.713	71.44
416.936	90.44
417.159	87.44
417.382	81.44
417.605	82.44
417.828	100.44
418.051	80.44
418.274	70.44
418.497	88.44
418.72	97.44
418.943	79.44
419.166	68.44
419.389	95.44
419.611	82.44
419.834	88.44
420.057	88.44
420.28	95.44
420.503	86.44
420.726	94.44
420.948	86.44
421.171	75.44
421.394	85.44
421.617	82.44
421.839	74.44
422.062	92.44
422.285	91.44
422.507	80.44
422.73	87.44
422.953	84.44
423.175	82.44
423.398	90.44
423.621	85.44
423.843	96.44
424.066	80.44
424.288	88.44
424.511	80.44
424.733	90.44
424.956	94.44
425.178	80.44
425.401	96.44
425.623	99.44
425.846	91.44
426.068	87.44
426.291	87.44
426.513	92.44
426.735	72.44
426.958	92.44
427.18	99.44
427.402	121.44
427.625	137.44
427.847	122.44
428.069	122.44
428.292	98.44
428.514	86.44
428.736	88.44
428.958	81.44
429.181	88.44
429.403	84.44
429.625	89.44
429.847	96.44
430.069	91.44
430.292	84.44
430.514	89.44
430.736	76.44
430.958	93.44
431.18	90.44
431.402	92.44
431.624	84.44
431.846	79.44
432.068	82.44
432.29	93.44
432.512	85.44
432.734	99.44
432.956	81.44
433.178	92.44
433.4	105.44
433.622	101.44
433.844	82.44
434.066	71.44
434.287	78.44
434.509	84.44
434.731	86.44
434.953	92.44
435.175	83.44
435.397	89.44
435.618	104.44
435.84	87.44
436.062	113.44
436.284	102.44
436.505	89.44
436.727	96.44
436.949	82.44
437.17	80.44
437.392	80.44
437.614	89.44
437.835	91.44
438.057	102.44
438.278	99.44
438.5	93.44
438.721	115.44
438.943	99.44
439.165	80.44
439.386	88.44
439.608	80.44
439.829	93.44
440.05	113.44
440.272	121.44
440.493	99.44
440.715	76.44
440.936	75.44
441.158	87.44
441.379	78.44
441.6	98.44
441.822	92.44
442.043	90.44
442.264	78.44
442.486	104.44
442.707	87.44
442.928	97.44
443.149	120.44
443.371	104.44
443.592	92.44
443.813	92.44
444.034	109.44
444.255	82.44
444.476	67.44
444.698	80.44
444.919	94.44
445.14	129.44
445.361	120.44
445.582	100.44
445.803	111.44
446.024	110.44
446.245	133.44
446.466	100.44
446.687	85.44
446.908	77.44
447.129	87.44
447.35	74.44
447.571	72.44
447.792	93.44
448.013	84.44
448.234	89.44
448.455	96.44
448.675	99.44
448.896	100.44
449.117	101.44
449.338	90.44
449.559	113.44
449.779	113.44
450	81.44
450.221	83.44
450.442	86.44
450.662	82.44
450.883	95.44
451.104	96.44
451.324	83.44
451.545	84.44
451.766	87.44
451.986	99.44
452.207	97.44
452.428	78.44
452.648	84.44
452.869	99.44
453.089	92.44
453.31	116.44
453.53	88.44
453.751	94.44
453.971	101.44
454.192	85.44
454.412	91.44
454.633	73.44
454.853	83.44
455.073	90.44
455.294	83.44
455.514	82.44
455.734	92.44
455.955	74.44
456.175	71.44
456.395	83.44
456.616	90.44
456.836	82.44
457.056	87.44
457.276	72.44
457.497	76.44
457.717	85.44
457.937	92.44
458.157	72.44
458.377	91.44
458.598	108.44
458.818	111.44
459.038	130.44
459.258	78.44
459.478	85.44
459.698	93.44
459.918	71.44
460.138	90.44
460.358	84.44
460.578	80.44
460.798	85.44
461.018	76.44
461.238	85.44
461.458	89.44
461.678	76.44
461.898	80.44
462.118	81.44
462.338	81.44
462.558	82.44
462.777	80.44
462.997	88.44
463.217	79.44
463.437	70.44
463.657	84.44
463.876	80.44
464.096	78.44
464.316	87.44
464.536	92.44
464.755	84.44
464.975	102.44
465.195	140.44
465.414	122.44
465.634	96.44
465.854	92.44
466.073	85.44
466.293	85.44
466.512	85.44
466.732	88.44
466.951	89.44
467.171	86.44
467.391	87.44
467.61	98.44
467.829	92.44
468.049	116.44
468.268	131.44
468.488	88.44
468.707	87.44
468.927	76.44
469.146	73.44
469.365	92.44
469.585	81.44
469.804	97.44
470.023	94.44
470.243	91.44
470.462	107.44
470.681	104.44
470.901	81.44
471.12	93.44
471.339	93.44
471.558	79.44
471.777	104.44
471.997	110.44
472.216	170.44
472.435	272.44
472.654	116.44
472.873	94.44
473.092	88.44
473.311	84.44
473.53	73.44
473.749	84.44
473.968	87.44
474.187	88.44
474.406	93.44
474.625	93.44
474.844	94.44
475.063	79.44
475.282	80.44
475.501	80.44
475.72	86.44
475.939	83.44
476.158	82.44
476.377	81.44
476.596	83.44
476.814	93.44
477.033	86.44
477.252	75.44
477.471	94.44
477.69	94.44
477.908	88.44
478.127	97.44
478.346	93.44
478.564	90.44
478.783	86.44
479.002	103.44
479.22	92.44
479.439	85.44
479.658	92.44
479.876	94.44
480.095	89.44
480.313	93.44
480.532	92.44
480.751	117.44
480.969	164.44
481.188	425.44
481.406	275.44
481.624	93.44
481.843	84.44
482.061	78.44
482.28	96.44
482.498	86.44
482.717	88.44
482.935	86.44
483.153	97.44
483.372	74.44
483.59	96.44
483.808	80.44
484.027	79.44
484.245	89.44
484.463	84.44
484.681	81.44
484.9	79.44
485.118	81.44
485.336	82.44
485.554	97.44
485.772	96.44
485.99	104.44
486.209	105.44
486.427	116.44
486.645	106.44
486.863	105.44
487.081	93.44
487.299	85.44
487.517	97.44
487.735	91.44
487.953	90.44
488.171	92.44
488.389	106.44
488.607	93.44
488.825	89.44
489.043	101.44
489.261	85.44
489.479	88.44
489.696	95.44
489.914	97.44
490.132	71.44
490.35	97.44
490.568	81.44
490.786	78.44
491.003	85.44
491.221	82.44
491.439	82.44
491.657	95.44
491.874	95.44
492.092	86.44
492.31	95.44
492.527	84.44
492.745	94.44
492.963	84.44
493.18	81.44
493.398	84.44
493.615	91.44
493.833	76.44
494.05	72.44
494.268	85.44
494.485	88.44
494.703	95.44
494.92	95.44
495.138	65.44
495.355	78.44
495.573	103.44
495.79	84.44
496.008	81.44
496.225	82.44
496.442	91.44
496.66	89.44
496.877	82.44
497.094	92.44
497.312	76.44
497.529	105.44
497.746	92.44
497.963	87.44
498.181	97.44
498.398	94.44
498.615	108.44
498.832	110.44
499.049	94.44
499.267	78.44
499.484	72.44
499.701	87.44
499.918	80.44
500.135	81.44
500.352	94.44
500.569	62.44
500.786	84.44
501.003	96.44
501.22	88.44
501.437	87.44
501.654	96.44
501.871	98.44
502.088	87.44
502.305	97.44
502.522	91.44
502.739	77.44
502.956	84.44
503.172	82.44
503.389	87.44
503.606	83.44
503.823	87.44
504.04	93.44
504.256	92.44
504.473	77.44
504.69	89.44
504.907	98.44
505.123	93.44
505.34	83.44
505.557	81.44
505.773	87.44
505.99	81.44
506.207	94.44
506.423	99.44
506.64	101.44
506.856	81.44
507.073	85.44
507.289	74.44
507.506	82.44
507.722	102.44
507.939	104.44
508.155	79.44
508.372	94.44
508.588	95.44
508.805	88.44
509.021	97.44
509.238	100.44
509.454	92.44
509.67	86.44
509.887	95.44
510.103	111.44
510.319	182.44
510.536	582.44
510.752	1697.44
510.968	484.44
511.184	128.44
511.401	102.44
511.617	95.44
511.833	78.44
512.049	68.44
512.265	101.44
512.481	103.44
512.698	88.44
512.914	82.44
513.13	92.44
513.346	87.44
513.562	100.44
513.778	88.44
513.994	90.44
514.21	89.44
514.426	108.44
514.642	98.44
514.858	104.44
515.074	120.44
515.29	352.44
515.506	1019.44
515.721	398.44
515.937	136.44
516.153	92.44
516.369	89.44
516.585	106.44
516.801	83.44
517.016	85.44
517.232	77.44
