Data from Circ_1986_H10_HRD10591_00061.txt Node
Date: Wed Jan 03 12:15:38 EST 2024
User: Yrep
Spectrometer: HR+D1059
Trigger mode: 1
Integration Time (sec): 1.000000E-1
Scans to average: 1
Electric dark correction enabled: true
Nonlinearity correction enabled: false
Boxcar width: 0
XAxis mode: Wavelengths
Number of Pixels in Spectrum: 2048
>>>>>Begin Spectral Data<<<<<
223.165	-14.31
223.4	-14.31
223.635	-14.31
223.869	-20.31
224.104	-19.31
224.338	-6.31
224.573	-11.31
224.808	-10.31
225.042	-22.31
225.277	-10.31
225.511	-2.31
225.746	-3.31
225.98	11.69
226.215	-0.31
226.449	16.69
226.683	23.69
226.918	28.69
227.152	39.69
227.387	31.69
227.621	29.69
227.856	47.69
228.09	43.69
228.324	59.69
228.559	62.69
228.793	69.69
229.027	66.69
229.262	69.69
229.496	59.69
229.73	79.69
229.964	80.69
230.199	68.69
230.433	89.69
230.667	85.69
230.901	64.69
231.136	64.69
231.37	83.69
231.604	60.69
231.838	88.69
232.072	75.69
232.306	86.69
232.541	88.69
232.775	95.69
233.009	89.69
233.243	86.69
233.477	87.69
233.711	80.69
233.945	82.69
234.179	96.69
234.413	75.69
234.647	88.69
234.881	75.69
235.115	81.69
235.349	87.69
235.583	89.69
235.817	75.69
236.051	89.69
236.285	85.69
236.519	86.69
236.753	81.69
236.987	90.69
237.221	83.69
237.455	82.69
237.689	73.69
237.922	59.69
238.156	76.69
238.39	77.69
238.624	93.69
238.858	76.69
239.091	74.69
239.325	81.69
239.559	79.69
239.793	66.69
240.027	81.69
240.26	64.69
240.494	91.69
240.728	74.69
240.961	77.69
241.195	89.69
241.429	83.69
241.662	57.69
241.896	88.69
242.13	68.69
242.363	71.69
242.597	87.69
242.83	79.69
243.064	88.69
243.298	82.69
243.531	83.69
243.765	67.69
243.998	80.69
244.232	79.69
244.465	86.69
244.699	75.69
244.932	79.69
245.166	79.69
245.399	79.69
245.633	85.69
245.866	83.69
246.099	91.69
246.333	79.69
246.566	80.69
246.8	85.69
247.033	68.69
247.266	74.69
247.5	72.69
247.733	81.69
247.966	74.69
248.2	87.69
248.433	87.69
248.666	78.69
248.899	85.69
249.133	84.69
249.366	103.69
249.599	107.69
249.832	82.69
250.066	76.69
250.299	72.69
250.532	76.69
250.765	86.69
250.998	89.69
251.231	89.69
251.465	82.69
251.698	80.69
251.931	75.69
252.164	72.69
252.397	77.69
252.63	85.69
252.863	83.69
253.096	78.69
253.329	74.69
253.562	83.69
253.795	83.69
254.028	85.69
254.261	77.69
254.494	89.69
254.727	83.69
254.96	95.69
255.193	85.69
255.426	93.69
255.659	83.69
255.892	85.69
256.124	91.69
256.357	82.69
256.59	85.69
256.823	87.69
257.056	83.69
257.289	81.69
257.521	96.69
257.754	68.69
257.987	87.69
258.22	87.69
258.452	95.69
258.685	87.69
258.918	85.69
259.151	86.69
259.383	81.69
259.616	86.69
259.849	90.69
260.081	88.69
260.314	81.69
260.547	85.69
260.779	82.69
261.012	92.69
261.244	85.69
261.477	85.69
261.71	89.69
261.942	113.69
262.175	108.69
262.407	96.69
262.64	97.69
262.872	76.69
263.105	84.69
263.337	81.69
263.57	86.69
263.802	87.69
264.035	83.69
264.267	68.69
264.499	83.69
264.732	73.69
264.964	76.69
265.197	85.69
265.429	88.69
265.661	90.69
265.894	86.69
266.126	91.69
266.358	72.69
266.591	89.69
266.823	87.69
267.055	82.69
267.287	86.69
267.52	82.69
267.752	90.69
267.984	74.69
268.216	79.69
268.448	77.69
268.681	83.69
268.913	86.69
269.145	88.69
269.377	84.69
269.609	74.69
269.841	95.69
270.073	89.69
270.306	72.69
270.538	83.69
270.77	94.69
271.002	82.69
271.234	84.69
271.466	82.69
271.698	85.69
271.93	83.69
272.162	85.69
272.394	83.69
272.626	80.69
272.858	76.69
273.09	88.69
273.322	100.69
273.553	93.69
273.785	96.69
274.017	79.69
274.249	86.69
274.481	83.69
274.713	92.69
274.945	76.69
275.176	90.69
275.408	107.69
275.64	86.69
275.872	89.69
276.104	85.69
276.335	74.69
276.567	91.69
276.799	100.69
277.031	99.69
277.262	84.69
277.494	96.69
277.726	99.69
277.957	97.69
278.189	93.69
278.421	88.69
278.652	79.69
278.884	76.69
279.115	79.69
279.347	97.69
279.579	96.69
279.81	82.69
280.042	93.69
280.273	103.69
280.505	99.69
280.736	96.69
280.968	99.69
281.199	71.69
281.431	90.69
281.662	92.69
281.894	82.69
282.125	90.69
282.356	105.69
282.588	117.69
282.819	108.69
283.051	99.69
283.282	89.69
283.513	98.69
283.745	98.69
283.976	96.69
284.207	96.69
284.439	80.69
284.67	76.69
284.901	108.69
285.132	99.69
285.364	82.69
285.595	93.69
285.826	85.69
286.057	95.69
286.288	95.69
286.52	86.69
286.751	88.69
286.982	79.69
287.213	83.69
287.444	88.69
287.675	99.69
287.906	90.69
288.138	93.69
288.369	89.69
288.6	103.69
288.831	79.69
289.062	80.69
289.293	76.69
289.524	92.69
289.755	97.69
289.986	97.69
290.217	77.69
290.448	87.69
290.679	86.69
290.91	81.69
291.141	79.69
291.371	81.69
291.602	83.69
291.833	109.69
292.064	90.69
292.295	85.69
292.526	97.69
292.757	97.69
292.987	97.69
293.218	96.69
293.449	96.69
293.68	79.69
293.91	82.69
294.141	104.69
294.372	104.69
294.603	88.69
294.833	87.69
295.064	86.69
295.295	96.69
295.525	104.69
295.756	98.69
295.987	124.69
296.217	127.69
296.448	109.69
296.679	95.69
296.909	72.69
297.14	87.69
297.37	104.69
297.601	93.69
297.831	98.69
298.062	83.69
298.292	98.69
298.523	98.69
298.753	88.69
298.984	82.69
299.214	79.69
299.445	96.69
299.675	90.69
299.905	84.69
300.136	99.69
300.366	95.69
300.597	89.69
300.827	81.69
301.057	104.69
301.288	99.69
301.518	101.69
301.748	92.69
301.979	96.69
302.209	87.69
302.439	82.69
302.669	103.69
302.9	95.69
303.13	92.69
303.36	95.69
303.59	93.69
303.82	105.69
304.051	101.69
304.281	99.69
304.511	86.69
304.741	104.69
304.971	85.69
305.201	87.69
305.431	95.69
305.661	79.69
305.891	99.69
306.121	94.69
306.352	107.69
306.582	105.69
306.812	100.69
307.042	87.69
307.272	100.69
307.502	83.69
307.731	100.69
307.961	89.69
308.191	104.69
308.421	94.69
308.651	88.69
308.881	95.69
309.111	101.69
309.341	105.69
309.571	106.69
309.8	99.69
310.03	91.69
310.26	106.69
310.49	100.69
310.72	101.69
310.949	104.69
311.179	100.69
311.409	102.69
311.639	103.69
311.868	96.69
312.098	103.69
312.328	75.69
312.557	94.69
312.787	99.69
313.017	91.69
313.246	84.69
313.476	92.69
313.706	80.69
313.935	96.69
314.165	93.69
314.394	101.69
314.624	95.69
314.853	92.69
315.083	95.69
315.312	93.69
315.542	82.69
315.771	95.69
316.001	87.69
316.23	74.69
316.46	92.69
316.689	104.69
316.919	89.69
317.148	92.69
317.377	91.69
317.607	94.69
317.836	87.69
318.065	102.69
318.295	89.69
318.524	90.69
318.753	92.69
318.983	84.69
319.212	95.69
319.441	98.69
319.67	103.69
319.9	98.69
320.129	98.69
320.358	93.69
320.587	97.69
320.816	106.69
321.046	99.69
321.275	100.69
321.504	94.69
321.733	97.69
321.962	108.69
322.191	104.69
322.42	108.69
322.649	119.69
322.878	99.69
323.108	103.69
323.337	107.69
323.566	121.69
323.795	130.69
324.024	181.69
324.253	308.69
324.482	628.69
324.71	1276.69
324.939	1675.69
325.168	641.69
325.397	203.69
325.626	131.69
325.855	120.69
326.084	113.69
326.313	127.69
326.542	136.69
326.77	202.69
326.999	367.69
327.228	741.69
327.457	1339.69
327.686	1088.69
327.914	307.69
328.143	166.69
328.372	165.69
328.6	130.69
328.829	117.69
329.058	108.69
329.287	124.69
329.515	98.69
329.744	104.69
329.972	106.69
330.201	159.69
330.43	172.69
330.658	124.69
330.887	129.69
331.115	105.69
331.344	95.69
331.572	89.69
331.801	85.69
332.03	103.69
332.258	94.69
332.486	103.69
332.715	88.69
332.943	99.69
333.172	80.69
333.4	99.69
333.629	114.69
333.857	117.69
334.085	124.69
334.314	153.69
334.542	196.69
334.771	182.69
334.999	112.69
335.227	105.69
335.455	96.69
335.684	99.69
335.912	104.69
336.14	86.69
336.369	97.69
336.597	108.69
336.825	96.69
337.053	100.69
337.281	96.69
337.51	95.69
337.738	96.69
337.966	101.69
338.194	94.69
338.422	91.69
338.65	99.69
338.878	92.69
339.106	79.69
339.334	87.69
339.562	76.69
339.79	83.69
340.018	93.69
340.246	93.69
340.474	89.69
340.702	96.69
340.93	86.69
341.158	83.69
341.386	106.69
341.614	85.69
341.842	94.69
342.07	83.69
342.298	88.69
342.526	99.69
342.754	84.69
342.981	87.69
343.209	89.69
343.437	101.69
343.665	95.69
343.893	92.69
344.12	105.69
344.348	88.69
344.576	103.69
344.804	83.69
345.031	91.69
345.259	104.69
345.487	103.69
345.714	90.69
345.942	89.69
346.17	87.69
346.397	95.69
346.625	84.69
346.853	99.69
347.08	91.69
347.308	102.69
347.535	108.69
347.763	96.69
347.99	106.69
348.218	106.69
348.445	109.69
348.673	95.69
348.9	102.69
349.128	105.69
349.355	93.69
349.583	103.69
349.81	89.69
350.037	86.69
350.265	90.69
350.492	77.69
350.72	83.69
350.947	98.69
351.174	108.69
351.402	104.69
351.629	106.69
351.856	96.69
352.083	96.69
352.311	107.69
352.538	120.69
352.765	110.69
352.992	111.69
353.22	103.69
353.447	97.69
353.674	115.69
353.901	96.69
354.128	86.69
354.355	89.69
354.583	99.69
354.81	99.69
355.037	101.69
355.264	86.69
355.491	97.69
355.718	93.69
355.945	91.69
356.172	92.69
356.399	93.69
356.626	85.69
356.853	96.69
357.08	99.69
357.307	89.69
357.534	93.69
357.761	101.69
357.988	97.69
358.215	98.69
358.441	101.69
358.668	102.69
358.895	93.69
359.122	81.69
359.349	87.69
359.576	94.69
359.802	106.69
360.029	109.69
360.256	109.69
360.483	109.69
360.709	107.69
360.936	93.69
361.163	94.69
361.39	102.69
361.616	111.69
361.843	89.69
362.07	87.69
362.296	84.69
362.523	99.69
362.749	85.69
362.976	83.69
363.203	86.69
363.429	97.69
363.656	85.69
363.882	88.69
364.109	95.69
364.335	80.69
364.562	102.69
364.788	91.69
365.015	95.69
365.241	93.69
365.468	114.69
365.694	93.69
365.92	81.69
366.147	102.69
366.373	90.69
366.599	79.69
366.826	83.69
367.052	79.69
367.278	98.69
367.505	85.69
367.731	90.69
367.957	88.69
368.184	86.69
368.41	90.69
368.636	87.69
368.862	100.69
369.089	87.69
369.315	86.69
369.541	98.69
369.767	88.69
369.993	93.69
370.219	87.69
370.445	87.69
370.672	88.69
370.898	96.69
371.124	85.69
371.35	88.69
371.576	97.69
371.802	87.69
372.028	88.69
372.254	82.69
372.48	92.69
372.706	84.69
372.932	94.69
373.158	93.69
373.384	90.69
373.61	83.69
373.835	87.69
374.061	106.69
374.287	108.69
374.513	114.69
374.739	101.69
374.965	85.69
375.191	93.69
375.416	85.69
375.642	76.69
375.868	85.69
376.094	87.69
376.319	85.69
376.545	91.69
376.771	93.69
376.997	98.69
377.222	81.69
377.448	69.69
377.674	80.69
377.899	105.69
378.125	94.69
378.35	98.69
378.576	93.69
378.802	77.69
379.027	87.69
379.253	96.69
379.478	92.69
379.704	92.69
379.929	90.69
380.155	96.69
380.38	98.69
380.606	103.69
380.831	109.69
381.057	99.69
381.282	98.69
381.507	100.69
381.733	103.69
381.958	91.69
382.184	90.69
382.409	95.69
382.634	98.69
382.86	101.69
383.085	103.69
383.31	117.69
383.535	106.69
383.761	107.69
383.986	94.69
384.211	103.69
384.436	105.69
384.662	96.69
384.887	93.69
385.112	94.69
385.337	93.69
385.562	100.69
385.787	100.69
386.013	107.69
386.238	128.69
386.463	98.69
386.688	123.69
386.913	108.69
387.138	105.69
387.363	106.69
387.588	100.69
387.813	96.69
388.038	99.69
388.263	122.69
388.488	105.69
388.713	93.69
388.938	100.69
389.163	92.69
389.387	100.69
389.612	82.69
389.837	93.69
390.062	100.69
390.287	95.69
390.512	96.69
390.736	81.69
390.961	100.69
391.186	91.69
391.411	92.69
391.636	88.69
391.86	83.69
392.085	89.69
392.31	91.69
392.534	92.69
392.759	77.69
392.984	86.69
393.208	105.69
393.433	86.69
393.658	86.69
393.882	75.69
394.107	81.69
394.331	86.69
394.556	94.69
394.78	101.69
395.005	86.69
395.229	74.69
395.454	98.69
395.678	81.69
395.903	108.69
396.127	97.69
396.352	88.69
396.576	85.69
396.801	75.69
397.025	76.69
397.249	68.69
397.474	86.69
397.698	75.69
397.922	79.69
398.147	98.69
398.371	79.69
398.595	80.69
398.82	92.69
399.044	87.69
399.268	74.69
399.492	80.69
399.717	87.69
399.941	89.69
400.165	89.69
400.389	99.69
400.613	94.69
400.837	89.69
401.062	83.69
401.286	92.69
401.51	88.69
401.734	88.69
401.958	103.69
402.182	111.69
402.406	126.69
402.63	107.69
402.854	94.69
403.078	86.69
403.302	93.69
403.526	83.69
403.75	88.69
403.974	82.69
404.198	64.69
404.422	69.69
404.645	62.69
404.869	97.69
405.093	92.69
405.317	91.69
405.541	89.69
405.765	108.69
405.988	104.69
406.212	145.69
406.436	173.69
406.66	123.69
406.883	95.69
407.107	76.69
407.331	84.69
407.555	86.69
407.778	107.69
408.002	88.69
408.226	83.69
408.449	96.69
408.673	105.69
408.896	77.69
409.12	98.69
409.344	90.69
409.567	86.69
409.791	100.69
410.014	88.69
410.238	98.69
410.461	81.69
410.685	93.69
410.908	85.69
411.132	87.69
411.355	100.69
411.578	88.69
411.802	88.69
412.025	101.69
412.249	82.69
412.472	92.69
412.695	88.69
412.919	100.69
413.142	83.69
413.365	75.69
413.589	89.69
413.812	102.69
414.035	103.69
414.258	82.69
414.482	93.69
414.705	89.69
414.928	86.69
415.151	84.69
415.374	87.69
415.597	86.69
415.821	87.69
416.044	91.69
416.267	85.69
416.49	85.69
416.713	90.69
416.936	69.69
417.159	79.69
417.382	82.69
417.605	82.69
417.828	88.69
418.051	84.69
418.274	83.69
418.497	76.69
418.72	99.69
418.943	74.69
419.166	90.69
419.389	87.69
419.611	97.69
419.834	85.69
420.057	92.69
420.28	98.69
420.503	85.69
420.726	85.69
420.948	74.69
421.171	89.69
421.394	92.69
421.617	88.69
421.839	81.69
422.062	83.69
422.285	90.69
422.507	76.69
422.73	92.69
422.953	75.69
423.175	89.69
423.398	84.69
423.621	72.69
423.843	84.69
424.066	85.69
424.288	91.69
424.511	77.69
424.733	94.69
424.956	97.69
425.178	101.69
425.401	94.69
425.623	97.69
425.846	95.69
426.068	104.69
426.291	93.69
426.513	89.69
426.735	91.69
426.958	89.69
427.18	92.69
427.402	118.69
427.625	150.69
427.847	130.69
428.069	121.69
428.292	104.69
428.514	73.69
428.736	95.69
428.958	77.69
429.181	102.69
429.403	91.69
429.625	82.69
429.847	92.69
430.069	87.69
430.292	87.69
430.514	89.69
430.736	82.69
430.958	90.69
431.18	78.69
431.402	92.69
431.624	86.69
431.846	98.69
432.068	74.69
432.29	83.69
432.512	83.69
432.734	92.69
432.956	87.69
433.178	83.69
433.4	100.69
433.622	91.69
433.844	89.69
434.066	92.69
434.287	84.69
434.509	100.69
434.731	91.69
434.953	83.69
435.175	72.69
435.397	92.69
435.618	97.69
435.84	96.69
436.062	119.69
436.284	105.69
436.505	88.69
436.727	101.69
436.949	87.69
437.17	90.69
437.392	92.69
437.614	95.69
437.835	86.69
438.057	100.69
438.278	96.69
438.5	99.69
438.721	96.69
438.943	112.69
439.165	85.69
439.386	93.69
439.608	93.69
439.829	68.69
440.05	96.69
440.272	121.69
440.493	109.69
440.715	100.69
440.936	84.69
441.158	92.69
441.379	90.69
441.6	101.69
441.822	100.69
442.043	92.69
442.264	90.69
442.486	85.69
442.707	103.69
442.928	101.69
443.149	113.69
443.371	105.69
443.592	106.69
443.813	106.69
444.034	114.69
444.255	81.69
444.476	68.69
444.698	81.69
444.919	73.69
445.14	121.69
445.361	123.69
445.582	102.69
445.803	108.69
446.024	114.69
446.245	110.69
446.466	104.69
446.687	77.69
446.908	83.69
447.129	79.69
447.35	84.69
447.571	97.69
447.792	86.69
448.013	91.69
448.234	96.69
448.455	82.69
448.675	94.69
448.896	102.69
449.117	103.69
449.338	89.69
449.559	122.69
449.779	107.69
450	80.69
450.221	82.69
450.442	76.69
450.662	87.69
450.883	97.69
451.104	100.69
451.324	91.69
451.545	77.69
451.766	86.69
451.986	77.69
452.207	84.69
452.428	99.69
452.648	87.69
452.869	99.69
453.089	111.69
453.31	105.69
453.53	95.69
453.751	81.69
453.971	83.69
454.192	96.69
454.412	93.69
454.633	73.69
454.853	91.69
455.073	82.69
455.294	72.69
455.514	99.69
455.734	78.69
455.955	91.69
456.175	91.69
456.395	83.69
456.616	90.69
456.836	87.69
457.056	87.69
457.276	76.69
457.497	79.69
457.717	91.69
457.937	82.69
458.157	85.69
458.377	87.69
458.598	90.69
458.818	121.69
459.038	139.69
459.258	99.69
459.478	90.69
459.698	81.69
459.918	85.69
460.138	71.69
460.358	72.69
460.578	83.69
460.798	87.69
461.018	99.69
461.238	92.69
461.458	84.69
461.678	90.69
461.898	76.69
462.118	87.69
462.338	77.69
462.558	91.69
462.777	97.69
462.997	96.69
463.217	73.69
463.437	83.69
463.657	85.69
463.876	80.69
464.096	80.69
464.316	75.69
464.536	91.69
464.755	97.69
464.975	108.69
465.195	135.69
465.414	123.69
465.634	104.69
465.854	89.69
466.073	81.69
466.293	77.69
466.512	89.69
466.732	92.69
466.951	91.69
467.171	97.69
467.391	96.69
467.61	99.69
467.829	101.69
468.049	121.69
468.268	129.69
468.488	92.69
468.707	94.69
468.927	85.69
469.146	88.69
469.365	82.69
469.585	94.69
469.804	98.69
470.023	95.69
470.243	91.69
470.462	101.69
470.681	96.69
470.901	92.69
471.12	101.69
471.339	80.69
471.558	94.69
471.777	88.69
471.997	88.69
472.216	157.69
472.435	240.69
472.654	116.69
472.873	92.69
473.092	72.69
473.311	76.69
473.53	86.69
473.749	92.69
473.968	77.69
474.187	104.69
474.406	84.69
474.625	91.69
474.844	91.69
475.063	91.69
475.282	83.69
475.501	73.69
475.72	89.69
475.939	92.69
476.158	94.69
476.377	84.69
476.596	83.69
476.814	90.69
477.033	91.69
477.252	88.69
477.471	88.69
477.69	92.69
477.908	96.69
478.127	94.69
478.346	85.69
478.564	86.69
478.783	91.69
479.002	88.69
479.22	82.69
479.439	96.69
479.658	90.69
479.876	101.69
480.095	95.69
480.313	104.69
480.532	100.69
480.751	108.69
480.969	155.69
481.188	368.69
481.406	244.69
481.624	111.69
481.843	94.69
482.061	88.69
482.28	88.69
482.498	92.69
482.717	89.69
482.935	85.69
483.153	86.69
483.372	99.69
483.59	85.69
483.808	90.69
484.027	91.69
484.245	95.69
484.463	94.69
484.681	103.69
484.9	103.69
485.118	101.69
485.336	84.69
485.554	87.69
485.772	107.69
485.99	93.69
486.209	104.69
486.427	97.69
486.645	106.69
486.863	104.69
487.081	101.69
487.299	95.69
487.517	89.69
487.735	83.69
487.953	83.69
488.171	103.69
488.389	85.69
488.607	89.69
488.825	95.69
489.043	90.69
489.261	87.69
489.479	101.69
489.696	112.69
489.914	73.69
490.132	89.69
490.35	102.69
490.568	88.69
490.786	95.69
491.003	89.69
491.221	92.69
491.439	107.69
491.657	83.69
491.874	95.69
492.092	88.69
492.31	88.69
492.527	86.69
492.745	85.69
492.963	88.69
493.18	90.69
493.398	76.69
493.615	91.69
493.833	92.69
494.05	89.69
494.268	96.69
494.485	84.69
494.703	92.69
494.92	92.69
495.138	90.69
495.355	91.69
495.573	85.69
495.79	96.69
496.008	102.69
496.225	95.69
496.442	76.69
496.66	85.69
496.877	94.69
497.094	103.69
497.312	99.69
497.529	88.69
497.746	95.69
497.963	90.69
498.181	95.69
498.398	89.69
498.615	107.69
498.832	107.69
499.049	94.69
499.267	92.69
499.484	81.69
499.701	88.69
499.918	91.69
500.135	95.69
500.352	85.69
500.569	103.69
500.786	91.69
501.003	97.69
501.22	88.69
501.437	96.69
501.654	82.69
501.871	116.69
502.088	117.69
502.305	94.69
502.522	86.69
502.739	78.69
502.956	101.69
503.172	88.69
503.389	97.69
503.606	103.69
503.823	90.69
504.04	89.69
504.256	91.69
504.473	89.69
504.69	92.69
504.907	95.69
505.123	91.69
505.34	101.69
505.557	84.69
505.773	97.69
505.99	86.69
506.207	85.69
506.423	90.69
506.64	94.69
506.856	84.69
507.073	95.69
507.289	101.69
507.506	101.69
507.722	103.69
507.939	98.69
508.155	101.69
508.372	100.69
508.588	94.69
508.805	87.69
509.021	106.69
509.238	102.69
509.454	82.69
509.67	88.69
509.887	98.69
510.103	131.69
510.319	189.69
510.536	611.69
510.752	1890.69
510.968	530.69
511.184	138.69
511.401	117.69
511.617	103.69
511.833	101.69
512.049	84.69
512.265	79.69
512.481	84.69
512.698	89.69
512.914	88.69
513.13	91.69
513.346	79.69
513.562	84.69
513.778	89.69
513.994	89.69
514.21	98.69
514.426	111.69
514.642	123.69
514.858	109.69
515.074	148.69
515.29	368.69
515.506	1067.69
515.721	405.69
