Data from Circ_1986_H10_HRD10591_00059.txt Node
Date: Wed Jan 03 12:15:37 EST 2024
User: Yrep
Spectrometer: HR+D1059
Trigger mode: 1
Integration Time (sec): 1.000000E-1
Scans to average: 1
Electric dark correction enabled: true
Nonlinearity correction enabled: false
Boxcar width: 0
XAxis mode: Wavelengths
Number of Pixels in Spectrum: 2048
>>>>>Begin Spectral Data<<<<<
223.165	-11.69
223.4	-11.69
223.635	-11.69
223.869	-11.69
224.104	-21.69
224.338	-9.69
224.573	-19.69
224.808	-21.69
225.042	0.31
225.277	-10.69
225.511	0.31
225.746	10.31
225.98	7.31
226.215	3.31
226.449	15.31
226.683	16.31
226.918	27.31
227.152	26.31
227.387	33.31
227.621	43.31
227.856	31.31
228.09	44.31
228.324	46.31
228.559	56.31
228.793	59.31
229.027	69.31
229.262	67.31
229.496	71.31
229.73	89.31
229.964	92.31
230.199	83.31
230.433	81.31
230.667	72.31
230.901	71.31
231.136	78.31
231.37	72.31
231.604	78.31
231.838	66.31
232.072	75.31
232.306	84.31
232.541	84.31
232.775	82.31
233.009	80.31
233.243	75.31
233.477	74.31
233.711	89.31
233.945	86.31
234.179	73.31
234.413	75.31
234.647	80.31
234.881	75.31
235.115	69.31
235.349	96.31
235.583	86.31
235.817	75.31
236.051	79.31
236.285	78.31
236.519	67.31
236.753	83.31
236.987	69.31
237.221	74.31
237.455	98.31
237.689	76.31
237.922	63.31
238.156	71.31
238.39	62.31
238.624	69.31
238.858	66.31
239.091	48.31
239.325	75.31
239.559	59.31
239.793	90.31
240.027	80.31
240.26	92.31
240.494	75.31
240.728	76.31
240.961	78.31
241.195	82.31
241.429	81.31
241.662	73.31
241.896	53.31
242.13	87.31
242.363	79.31
242.597	63.31
242.83	74.31
243.064	82.31
243.298	79.31
243.531	72.31
243.765	74.31
243.998	75.31
244.232	80.31
244.465	67.31
244.699	77.31
244.932	79.31
245.166	73.31
245.399	80.31
245.633	68.31
245.866	99.31
246.099	82.31
246.333	79.31
246.566	79.31
246.8	82.31
247.033	70.31
247.266	73.31
247.5	78.31
247.733	91.31
247.966	77.31
248.2	88.31
248.433	86.31
248.666	90.31
248.899	88.31
249.133	79.31
249.366	83.31
249.599	79.31
249.832	81.31
250.066	90.31
250.299	86.31
250.532	86.31
250.765	86.31
250.998	63.31
251.231	76.31
251.465	86.31
251.698	84.31
251.931	71.31
252.164	82.31
252.397	92.31
252.63	90.31
252.863	76.31
253.096	68.31
253.329	72.31
253.562	81.31
253.795	96.31
254.028	72.31
254.261	69.31
254.494	99.31
254.727	80.31
254.96	89.31
255.193	95.31
255.426	76.31
255.659	83.31
255.892	80.31
256.124	74.31
256.357	70.31
256.59	79.31
256.823	85.31
257.056	79.31
257.289	69.31
257.521	70.31
257.754	71.31
257.987	73.31
258.22	74.31
258.452	78.31
258.685	88.31
258.918	93.31
259.151	76.31
259.383	80.31
259.616	70.31
259.849	83.31
260.081	97.31
260.314	87.31
260.547	76.31
260.779	89.31
261.012	77.31
261.244	84.31
261.477	95.31
261.71	76.31
261.942	92.31
262.175	94.31
262.407	97.31
262.64	89.31
262.872	88.31
263.105	83.31
263.337	79.31
263.57	81.31
263.802	78.31
264.035	96.31
264.267	73.31
264.499	75.31
264.732	80.31
264.964	92.31
265.197	90.31
265.429	86.31
265.661	85.31
265.894	83.31
266.126	87.31
266.358	64.31
266.591	88.31
266.823	86.31
267.055	89.31
267.287	82.31
267.52	71.31
267.752	92.31
267.984	89.31
268.216	87.31
268.448	84.31
268.681	94.31
268.913	70.31
269.145	75.31
269.377	90.31
269.609	76.31
269.841	79.31
270.073	92.31
270.306	97.31
270.538	72.31
270.77	77.31
271.002	80.31
271.234	81.31
271.466	81.31
271.698	87.31
271.93	89.31
272.162	87.31
272.394	87.31
272.626	84.31
272.858	85.31
273.09	74.31
273.322	82.31
273.553	80.31
273.785	90.31
274.017	85.31
274.249	72.31
274.481	89.31
274.713	88.31
274.945	88.31
275.176	75.31
275.408	85.31
275.64	83.31
275.872	90.31
276.104	83.31
276.335	96.31
276.567	81.31
276.799	79.31
277.031	107.31
277.262	95.31
277.494	89.31
277.726	83.31
277.957	85.31
278.189	91.31
278.421	91.31
278.652	83.31
278.884	82.31
279.115	91.31
279.347	92.31
279.579	96.31
279.81	94.31
280.042	78.31
280.273	84.31
280.505	85.31
280.736	78.31
280.968	84.31
281.199	82.31
281.431	74.31
281.662	74.31
281.894	83.31
282.125	90.31
282.356	100.31
282.588	129.31
282.819	103.31
283.051	82.31
283.282	98.31
283.513	83.31
283.745	106.31
283.976	84.31
284.207	82.31
284.439	62.31
284.67	78.31
284.901	87.31
285.132	84.31
285.364	93.31
285.595	82.31
285.826	88.31
286.057	88.31
286.288	87.31
286.52	83.31
286.751	89.31
286.982	94.31
287.213	81.31
287.444	94.31
287.675	91.31
287.906	84.31
288.138	84.31
288.369	105.31
288.6	68.31
288.831	83.31
289.062	88.31
289.293	93.31
289.524	86.31
289.755	85.31
289.986	68.31
290.217	86.31
290.448	75.31
290.679	80.31
290.91	96.31
291.141	81.31
291.371	94.31
291.602	91.31
291.833	80.31
292.064	91.31
292.295	85.31
292.526	89.31
292.757	97.31
292.987	95.31
293.218	84.31
293.449	76.31
293.68	85.31
293.91	96.31
294.141	89.31
294.372	98.31
294.603	100.31
294.833	83.31
295.064	89.31
295.295	96.31
295.525	98.31
295.756	104.31
295.987	99.31
296.217	124.31
296.448	123.31
296.679	87.31
296.909	105.31
297.14	82.31
297.37	87.31
297.601	91.31
297.831	101.31
298.062	82.31
298.292	96.31
298.523	90.31
298.753	84.31
298.984	98.31
299.214	99.31
299.445	88.31
299.675	104.31
299.905	72.31
300.136	89.31
300.366	89.31
300.597	84.31
300.827	96.31
301.057	90.31
301.288	99.31
301.518	92.31
301.748	78.31
301.979	100.31
302.209	95.31
302.439	102.31
302.669	88.31
302.9	85.31
303.13	86.31
303.36	98.31
303.59	85.31
303.82	107.31
304.051	100.31
304.281	79.31
304.511	84.31
304.741	98.31
304.971	106.31
305.201	104.31
305.431	85.31
305.661	79.31
305.891	91.31
306.121	90.31
306.352	102.31
306.582	114.31
306.812	86.31
307.042	91.31
307.272	95.31
307.502	98.31
307.731	102.31
307.961	89.31
308.191	76.31
308.421	90.31
308.651	94.31
308.881	96.31
309.111	83.31
309.341	96.31
309.571	100.31
309.8	91.31
310.03	89.31
310.26	92.31
310.49	94.31
310.72	90.31
310.949	96.31
311.179	108.31
311.409	98.31
311.639	99.31
311.868	83.31
312.098	92.31
312.328	98.31
312.557	99.31
312.787	102.31
313.017	98.31
313.246	88.31
313.476	99.31
313.706	92.31
313.935	87.31
314.165	103.31
314.394	95.31
314.624	91.31
314.853	112.31
315.083	81.31
315.312	75.31
315.542	102.31
315.771	90.31
316.001	97.31
316.23	89.31
316.46	89.31
316.689	82.31
316.919	102.31
317.148	83.31
317.377	85.31
317.607	91.31
317.836	95.31
318.065	103.31
318.295	118.31
318.524	95.31
318.753	92.31
318.983	99.31
319.212	99.31
319.441	101.31
319.67	102.31
319.9	103.31
320.129	97.31
320.358	92.31
320.587	93.31
320.816	94.31
321.046	102.31
321.275	95.31
321.504	103.31
321.733	103.31
321.962	90.31
322.191	94.31
322.42	98.31
322.649	95.31
322.878	106.31
323.108	116.31
323.337	122.31
323.566	123.31
323.795	144.31
324.024	173.31
324.253	345.31
324.482	705.31
324.71	1427.31
324.939	1899.31
325.168	710.31
325.397	223.31
325.626	131.31
325.855	114.31
326.084	130.31
326.313	114.31
326.542	131.31
326.77	197.31
326.999	395.31
327.228	798.31
327.457	1482.31
327.686	1172.31
327.914	318.31
328.143	193.31
328.372	157.31
328.6	120.31
328.829	114.31
329.058	107.31
329.287	124.31
329.515	100.31
329.744	99.31
329.972	116.31
330.201	148.31
330.43	180.31
330.658	136.31
330.887	125.31
331.115	114.31
331.344	111.31
331.572	106.31
331.801	90.31
332.03	109.31
332.258	95.31
332.486	111.31
332.715	84.31
332.943	98.31
333.172	103.31
333.4	102.31
333.629	108.31
333.857	108.31
334.085	120.31
334.314	155.31
334.542	190.31
334.771	187.31
334.999	112.31
335.227	104.31
335.455	107.31
335.684	90.31
335.912	88.31
336.14	101.31
336.369	106.31
336.597	113.31
336.825	107.31
337.053	102.31
337.281	103.31
337.51	103.31
337.738	83.31
337.966	89.31
338.194	93.31
338.422	94.31
338.65	103.31
338.878	98.31
339.106	101.31
339.334	89.31
339.562	94.31
339.79	89.31
340.018	93.31
340.246	89.31
340.474	79.31
340.702	103.31
340.93	101.31
341.158	96.31
341.386	91.31
341.614	96.31
341.842	84.31
342.07	87.31
342.298	84.31
342.526	71.31
342.754	85.31
342.981	74.31
343.209	85.31
343.437	105.31
343.665	95.31
343.893	88.31
344.12	95.31
344.348	97.31
344.576	86.31
344.804	98.31
345.031	97.31
345.259	93.31
345.487	92.31
345.714	91.31
345.942	80.31
346.17	98.31
346.397	92.31
346.625	94.31
346.853	84.31
347.08	85.31
347.308	86.31
347.535	88.31
347.763	102.31
347.99	84.31
348.218	81.31
348.445	90.31
348.673	85.31
348.9	100.31
349.128	95.31
349.355	101.31
349.583	97.31
349.81	103.31
350.037	107.31
350.265	92.31
350.492	95.31
350.72	88.31
350.947	99.31
351.174	94.31
351.402	87.31
351.629	100.31
351.856	97.31
352.083	83.31
352.311	103.31
352.538	103.31
352.765	106.31
352.992	108.31
353.22	105.31
353.447	99.31
353.674	99.31
353.901	88.31
354.128	89.31
354.355	98.31
354.583	104.31
354.81	99.31
355.037	91.31
355.264	98.31
355.491	90.31
355.718	90.31
355.945	98.31
356.172	91.31
356.399	99.31
356.626	76.31
356.853	64.31
357.08	78.31
357.307	100.31
357.534	82.31
357.761	91.31
357.988	78.31
358.215	92.31
358.441	83.31
358.668	90.31
358.895	83.31
359.122	100.31
359.349	75.31
359.576	88.31
359.802	95.31
360.029	96.31
360.256	107.31
360.483	95.31
360.709	98.31
360.936	105.31
361.163	92.31
361.39	90.31
361.616	105.31
361.843	90.31
362.07	93.31
362.296	67.31
362.523	102.31
362.749	83.31
362.976	80.31
363.203	94.31
363.429	82.31
363.656	80.31
363.882	83.31
364.109	84.31
364.335	76.31
364.562	92.31
364.788	79.31
365.015	98.31
365.241	95.31
365.468	104.31
365.694	88.31
365.92	90.31
366.147	84.31
366.373	102.31
366.599	84.31
366.826	71.31
367.052	74.31
367.278	86.31
367.505	82.31
367.731	92.31
367.957	100.31
368.184	99.31
368.41	95.31
368.636	98.31
368.862	102.31
369.089	111.31
369.315	82.31
369.541	89.31
369.767	78.31
369.993	92.31
370.219	93.31
370.445	84.31
370.672	80.31
370.898	99.31
371.124	99.31
371.35	90.31
371.576	88.31
371.802	91.31
372.028	80.31
372.254	89.31
372.48	74.31
372.706	78.31
372.932	86.31
373.158	97.31
373.384	89.31
373.61	91.31
373.835	100.31
374.061	93.31
374.287	102.31
374.513	82.31
374.739	90.31
374.965	94.31
375.191	95.31
375.416	95.31
375.642	98.31
375.868	89.31
376.094	90.31
376.319	100.31
376.545	80.31
376.771	91.31
376.997	104.31
377.222	103.31
377.448	80.31
377.674	99.31
377.899	96.31
378.125	81.31
378.35	89.31
378.576	87.31
378.802	87.31
379.027	97.31
379.253	105.31
379.478	94.31
379.704	106.31
379.929	106.31
380.155	82.31
380.38	94.31
380.606	96.31
380.831	95.31
381.057	99.31
381.282	86.31
381.507	92.31
381.733	90.31
381.958	98.31
382.184	110.31
382.409	94.31
382.634	96.31
382.86	104.31
383.085	88.31
383.31	107.31
383.535	105.31
383.761	96.31
383.986	91.31
384.211	92.31
384.436	110.31
384.662	88.31
384.887	104.31
385.112	104.31
385.337	105.31
385.562	102.31
385.787	99.31
386.013	119.31
386.238	112.31
386.463	100.31
386.688	105.31
386.913	112.31
387.138	91.31
387.363	90.31
387.588	92.31
387.813	101.31
388.038	106.31
388.263	104.31
388.488	107.31
388.713	96.31
388.938	86.31
389.163	101.31
389.387	92.31
389.612	102.31
389.837	88.31
390.062	96.31
390.287	95.31
390.512	78.31
390.736	88.31
390.961	96.31
391.186	107.31
391.411	88.31
391.636	87.31
391.86	91.31
392.085	93.31
392.31	84.31
392.534	86.31
392.759	74.31
392.984	83.31
393.208	74.31
393.433	92.31
393.658	101.31
393.882	82.31
394.107	81.31
394.331	99.31
394.556	87.31
394.78	91.31
395.005	72.31
395.229	82.31
395.454	96.31
395.678	82.31
395.903	78.31
396.127	80.31
396.352	91.31
396.576	73.31
396.801	93.31
397.025	88.31
397.249	78.31
397.474	97.31
397.698	90.31
397.922	74.31
398.147	87.31
398.371	80.31
398.595	89.31
398.82	79.31
399.044	95.31
399.268	81.31
399.492	90.31
399.717	102.31
399.941	87.31
400.165	90.31
400.389	98.31
400.613	83.31
400.837	90.31
401.062	86.31
401.286	86.31
401.51	93.31
401.734	94.31
401.958	85.31
402.182	127.31
402.406	134.31
402.63	116.31
402.854	86.31
403.078	82.31
403.302	72.31
403.526	89.31
403.75	91.31
403.974	75.31
404.198	99.31
404.422	95.31
404.645	74.31
404.869	82.31
405.093	98.31
405.317	103.31
405.541	93.31
405.765	88.31
405.988	112.31
406.212	156.31
406.436	204.31
406.66	122.31
406.883	103.31
407.107	88.31
407.331	93.31
407.555	104.31
407.778	88.31
408.002	92.31
408.226	92.31
408.449	86.31
408.673	76.31
408.896	80.31
409.12	83.31
409.344	88.31
409.567	92.31
409.791	78.31
410.014	79.31
410.238	86.31
410.461	87.31
410.685	92.31
410.908	81.31
411.132	99.31
411.355	91.31
411.578	84.31
411.802	65.31
412.025	93.31
412.249	93.31
412.472	89.31
412.695	98.31
412.919	89.31
413.142	83.31
413.365	81.31
413.589	76.31
413.812	86.31
414.035	89.31
414.258	96.31
414.482	94.31
414.705	86.31
414.928	96.31
415.151	98.31
415.374	93.31
415.597	90.31
415.821	96.31
416.044	84.31
416.267	95.31
416.49	83.31
416.713	75.31
416.936	68.31
417.159	74.31
417.382	83.31
417.605	81.31
417.828	93.31
418.051	90.31
418.274	81.31
418.497	99.31
418.72	85.31
418.943	74.31
419.166	80.31
419.389	87.31
419.611	73.31
419.834	92.31
420.057	83.31
420.28	76.31
420.503	80.31
420.726	76.31
420.948	87.31
421.171	97.31
421.394	93.31
421.617	91.31
421.839	94.31
422.062	75.31
422.285	88.31
422.507	86.31
422.73	102.31
422.953	94.31
423.175	89.31
423.398	74.31
423.621	82.31
423.843	88.31
424.066	97.31
424.288	72.31
424.511	95.31
424.733	90.31
424.956	94.31
425.178	93.31
425.401	104.31
425.623	101.31
425.846	85.31
426.068	104.31
426.291	93.31
426.513	96.31
426.735	98.31
426.958	92.31
427.18	95.31
427.402	111.31
427.625	131.31
427.847	107.31
428.069	92.31
428.292	92.31
428.514	96.31
428.736	95.31
428.958	81.31
429.181	103.31
429.403	84.31
429.625	81.31
429.847	80.31
430.069	78.31
430.292	87.31
430.514	86.31
430.736	95.31
430.958	81.31
431.18	79.31
431.402	94.31
431.624	78.31
431.846	78.31
432.068	91.31
432.29	104.31
432.512	91.31
432.734	91.31
432.956	77.31
433.178	96.31
433.4	111.31
433.622	87.31
433.844	100.31
434.066	94.31
434.287	99.31
434.509	90.31
434.731	84.31
434.953	83.31
435.175	70.31
435.397	83.31
435.618	86.31
435.84	98.31
436.062	115.31
436.284	90.31
436.505	96.31
436.727	94.31
436.949	99.31
437.17	80.31
437.392	79.31
437.614	91.31
437.835	104.31
438.057	115.31
438.278	102.31
438.5	82.31
438.721	110.31
438.943	84.31
439.165	76.31
439.386	86.31
439.608	86.31
439.829	102.31
440.05	110.31
440.272	123.31
440.493	102.31
440.715	82.31
440.936	90.31
441.158	76.31
441.379	89.31
441.6	86.31
441.822	96.31
442.043	95.31
442.264	91.31
442.486	96.31
442.707	81.31
442.928	86.31
443.149	113.31
443.371	116.31
443.592	107.31
443.813	108.31
444.034	97.31
444.255	101.31
444.476	87.31
444.698	98.31
444.919	84.31
445.14	125.31
445.361	113.31
445.582	104.31
445.803	125.31
446.024	108.31
446.245	120.31
446.466	117.31
446.687	73.31
446.908	64.31
447.129	78.31
447.35	89.31
447.571	82.31
447.792	91.31
448.013	81.31
448.234	105.31
448.455	95.31
448.675	103.31
448.896	111.31
449.117	89.31
449.338	97.31
449.559	108.31
449.779	124.31
450	91.31
450.221	90.31
450.442	91.31
450.662	91.31
450.883	85.31
451.104	108.31
451.324	73.31
451.545	91.31
451.766	92.31
451.986	94.31
452.207	90.31
452.428	96.31
452.648	96.31
452.869	101.31
453.089	101.31
453.31	114.31
453.53	92.31
453.751	78.31
453.971	116.31
454.192	98.31
454.412	81.31
454.633	90.31
454.853	85.31
455.073	83.31
455.294	79.31
455.514	95.31
455.734	80.31
455.955	83.31
456.175	86.31
456.395	80.31
456.616	78.31
456.836	87.31
457.056	70.31
457.276	91.31
457.497	73.31
457.717	90.31
457.937	80.31
458.157	94.31
458.377	95.31
458.598	87.31
458.818	128.31
459.038	128.31
459.258	107.31
459.478	90.31
459.698	81.31
459.918	103.31
460.138	90.31
460.358	83.31
460.578	90.31
460.798	82.31
461.018	85.31
461.238	75.31
461.458	101.31
461.678	75.31
461.898	84.31
462.118	78.31
462.338	84.31
462.558	81.31
462.777	98.31
462.997	81.31
463.217	90.31
463.437	86.31
463.657	76.31
463.876	84.31
464.096	95.31
464.316	90.31
464.536	84.31
464.755	95.31
464.975	96.31
465.195	145.31
465.414	136.31
465.634	97.31
465.854	75.31
466.073	93.31
466.293	86.31
466.512	74.31
466.732	95.31
466.951	86.31
467.171	95.31
467.391	82.31
467.61	97.31
467.829	103.31
468.049	102.31
468.268	122.31
468.488	87.31
468.707	91.31
468.927	88.31
469.146	75.31
469.365	91.31
469.585	86.31
469.804	98.31
470.023	93.31
470.243	88.31
470.462	95.31
470.681	102.31
470.901	83.31
471.12	92.31
471.339	89.31
471.558	88.31
471.777	71.31
471.997	98.31
472.216	164.31
472.435	231.31
472.654	111.31
472.873	92.31
473.092	95.31
473.311	66.31
473.53	87.31
473.749	74.31
473.968	84.31
474.187	116.31
474.406	76.31
474.625	88.31
474.844	83.31
475.063	83.31
475.282	90.31
475.501	87.31
475.72	96.31
475.939	78.31
476.158	86.31
476.377	89.31
476.596	99.31
476.814	97.31
477.033	90.31
477.252	90.31
477.471	88.31
477.69	95.31
477.908	92.31
478.127	90.31
478.346	95.31
478.564	86.31
478.783	102.31
479.002	94.31
479.22	103.31
479.439	96.31
479.658	106.31
479.876	85.31
480.095	78.31
480.313	93.31
480.532	97.31
480.751	105.31
480.969	161.31
481.188	385.31
481.406	257.31
481.624	96.31
481.843	97.31
482.061	67.31
482.28	97.31
482.498	75.31
482.717	87.31
482.935	95.31
483.153	85.31
483.372	86.31
483.59	83.31
483.808	91.31
484.027	90.31
484.245	76.31
484.463	88.31
484.681	98.31
484.9	99.31
485.118	91.31
485.336	81.31
485.554	82.31
485.772	87.31
485.99	99.31
486.209	98.31
486.427	97.31
486.645	111.31
486.863	112.31
487.081	82.31
487.299	98.31
487.517	99.31
487.735	87.31
487.953	83.31
488.171	82.31
488.389	104.31
488.607	87.31
488.825	84.31
489.043	85.31
489.261	90.31
489.479	102.31
489.696	87.31
489.914	93.31
490.132	85.31
490.35	97.31
490.568	94.31
490.786	95.31
491.003	96.31
491.221	81.31
491.439	85.31
491.657	85.31
491.874	92.31
492.092	91.31
492.31	84.31
492.527	86.31
492.745	76.31
492.963	100.31
493.18	96.31
493.398	95.31
493.615	79.31
493.833	95.31
494.05	84.31
494.268	94.31
494.485	87.31
494.703	73.31
494.92	74.31
495.138	85.31
495.355	94.31
495.573	84.31
495.79	89.31
496.008	91.31
496.225	88.31
496.442	88.31
496.66	91.31
496.877	83.31
497.094	89.31
497.312	82.31
497.529	100.31
497.746	98.31
497.963	101.31
498.181	91.31
498.398	90.31
498.615	97.31
498.832	90.31
499.049	74.31
499.267	100.31
499.484	89.31
499.701	88.31
499.918	88.31
500.135	84.31
500.352	82.31
500.569	94.31
500.786	94.31
501.003	90.31
501.22	87.31
501.437	91.31
501.654	89.31
501.871	100.31
502.088	98.31
502.305	89.31
502.522	88.31
502.739	90.31
502.956	84.31
503.172	87.31
503.389	92.31
503.606	107.31
503.823	98.31
504.04	96.31
504.256	83.31
504.473	85.31
504.69	86.31
504.907	90.31
505.123	83.31
505.34	88.31
505.557	99.31
505.773	98.31
505.99	89.31
506.207	99.31
506.423	85.31
506.64	94.31
506.856	98.31
507.073	85.31
507.289	80.31
507.506	89.31
507.722	122.31
507.939	94.31
508.155	87.31
508.372	90.31
508.588	85.31
508.805	95.31
509.021	100.31
509.238	99.31
509.454	91.31
509.67	94.31
509.887	107.31
510.103	125.31
510.319	203.31
510.536	678.31
510.752	2120.31
510.968	574.31
511.184	143.31
511.401	106.31
511.617	108.31
511.833	94.31
512.049	111.31
512.265	101.31
512.481	86.31
512.698	89.31
512.914	74.31
513.13	106.31
513.346	97.31
513.562	102.31
513.778	107.31
513.994	95.31
514.21	108.31
514.426	123.31
514.642	130.31
514.858	108.31
515.074	140.31
515.29	406.31
515.506	1256.31
515.721	451.31
515.937	135.31
516.153	90.31
516.369	98.31
