Data from Circ_1986_H10_HRD10591_00016.txt Node
Date: Wed Jan 03 12:15:29 EST 2024
User: Yrep
Spectrometer: HR+D1059
Trigger mode: 1
Integration Time (sec): 1.000000E-1
Scans to average: 1
Electric dark correction enabled: true
Nonlinearity correction enabled: false
Boxcar width: 0
XAxis mode: Wavelengths
Number of Pixels in Spectrum: 2048
>>>>>Begin Spectral Data<<<<<
223.165	-14.56
223.4	-14.56
223.635	-14.56
223.869	-17.56
224.104	-14.56
224.338	-11.56
224.573	-14.56
224.808	-23.56
225.042	-12.56
225.277	-9.56
225.511	-2.56
225.746	8.44
225.98	-3.56
226.215	10.44
226.449	13.44
226.683	24.44
226.918	32.44
227.152	35.44
227.387	36.44
227.621	34.44
227.856	44.44
228.09	58.44
228.324	52.44
228.559	42.44
228.793	46.44
229.027	59.44
229.262	63.44
229.496	83.44
229.73	80.44
229.964	72.44
230.199	79.44
230.433	68.44
230.667	83.44
230.901	76.44
231.136	80.44
231.37	76.44
231.604	83.44
231.838	80.44
232.072	87.44
232.306	90.44
232.541	76.44
232.775	78.44
233.009	83.44
233.243	78.44
233.477	83.44
233.711	65.44
233.945	73.44
234.179	67.44
234.413	79.44
234.647	95.44
234.881	78.44
235.115	81.44
235.349	69.44
235.583	86.44
235.817	76.44
236.051	91.44
236.285	77.44
236.519	74.44
236.753	73.44
236.987	74.44
237.221	66.44
237.455	79.44
237.689	80.44
237.922	67.44
238.156	68.44
238.39	75.44
238.624	86.44
238.858	64.44
239.091	79.44
239.325	86.44
239.559	84.44
239.793	84.44
240.027	67.44
240.26	62.44
240.494	71.44
240.728	69.44
240.961	82.44
241.195	92.44
241.429	76.44
241.662	49.44
241.896	80.44
242.13	85.44
242.363	71.44
242.597	76.44
242.83	66.44
243.064	68.44
243.298	68.44
243.531	73.44
243.765	60.44
243.998	80.44
244.232	76.44
244.465	89.44
244.699	61.44
244.932	76.44
245.166	76.44
245.399	87.44
245.633	87.44
245.866	73.44
246.099	93.44
246.333	72.44
246.566	68.44
246.8	77.44
247.033	90.44
247.266	67.44
247.5	85.44
247.733	73.44
247.966	79.44
248.2	82.44
248.433	83.44
248.666	71.44
248.899	76.44
249.133	81.44
249.366	93.44
249.599	96.44
249.832	76.44
250.066	65.44
250.299	78.44
250.532	76.44
250.765	89.44
250.998	77.44
251.231	79.44
251.465	67.44
251.698	87.44
251.931	76.44
252.164	63.44
252.397	84.44
252.63	78.44
252.863	76.44
253.096	69.44
253.329	92.44
253.562	82.44
253.795	80.44
254.028	73.44
254.261	77.44
254.494	76.44
254.727	84.44
254.96	75.44
255.193	82.44
255.426	76.44
255.659	77.44
255.892	77.44
256.124	91.44
256.357	87.44
256.59	80.44
256.823	89.44
257.056	74.44
257.289	76.44
257.521	80.44
257.754	82.44
257.987	78.44
258.22	85.44
258.452	83.44
258.685	70.44
258.918	79.44
259.151	68.44
259.383	96.44
259.616	92.44
259.849	79.44
260.081	77.44
260.314	84.44
260.547	76.44
260.779	69.44
261.012	92.44
261.244	71.44
261.477	82.44
261.71	83.44
261.942	88.44
262.175	98.44
262.407	90.44
262.64	79.44
262.872	86.44
263.105	88.44
263.337	71.44
263.57	84.44
263.802	81.44
264.035	85.44
264.267	70.44
264.499	78.44
264.732	87.44
264.964	78.44
265.197	100.44
265.429	80.44
265.661	83.44
265.894	70.44
266.126	88.44
266.358	71.44
266.591	82.44
266.823	82.44
267.055	80.44
267.287	77.44
267.52	73.44
267.752	74.44
267.984	90.44
268.216	78.44
268.448	69.44
268.681	90.44
268.913	87.44
269.145	71.44
269.377	90.44
269.609	82.44
269.841	79.44
270.073	94.44
270.306	78.44
270.538	89.44
270.77	86.44
271.002	92.44
271.234	91.44
271.466	87.44
271.698	90.44
271.93	94.44
272.162	90.44
272.394	80.44
272.626	88.44
272.858	90.44
273.09	78.44
273.322	95.44
273.553	94.44
273.785	78.44
274.017	71.44
274.249	97.44
274.481	80.44
274.713	76.44
274.945	98.44
275.176	68.44
275.408	87.44
275.64	84.44
275.872	88.44
276.104	74.44
276.335	80.44
276.567	98.44
276.799	97.44
277.031	74.44
277.262	88.44
277.494	82.44
277.726	77.44
277.957	85.44
278.189	72.44
278.421	71.44
278.652	74.44
278.884	83.44
279.115	82.44
279.347	73.44
279.579	76.44
279.81	83.44
280.042	72.44
280.273	74.44
280.505	95.44
280.736	91.44
280.968	73.44
281.199	94.44
281.431	80.44
281.662	92.44
281.894	94.44
282.125	85.44
282.356	95.44
282.588	103.44
282.819	86.44
283.051	92.44
283.282	84.44
283.513	90.44
283.745	102.44
283.976	86.44
284.207	84.44
284.439	91.44
284.67	77.44
284.901	96.44
285.132	90.44
285.364	103.44
285.595	90.44
285.826	88.44
286.057	90.44
286.288	84.44
286.52	90.44
286.751	86.44
286.982	101.44
287.213	95.44
287.444	89.44
287.675	73.44
287.906	91.44
288.138	80.44
288.369	90.44
288.6	77.44
288.831	91.44
289.062	80.44
289.293	88.44
289.524	76.44
289.755	92.44
289.986	75.44
290.217	83.44
290.448	92.44
290.679	79.44
290.91	78.44
291.141	81.44
291.371	73.44
291.602	89.44
291.833	94.44
292.064	82.44
292.295	84.44
292.526	88.44
292.757	86.44
292.987	83.44
293.218	95.44
293.449	99.44
293.68	97.44
293.91	95.44
294.141	90.44
294.372	82.44
294.603	82.44
294.833	90.44
295.064	84.44
295.295	97.44
295.525	98.44
295.756	86.44
295.987	103.44
296.217	129.44
296.448	102.44
296.679	99.44
296.909	90.44
297.14	90.44
297.37	92.44
297.601	69.44
297.831	78.44
298.062	100.44
298.292	82.44
298.523	83.44
298.753	80.44
298.984	88.44
299.214	92.44
299.445	95.44
299.675	81.44
299.905	102.44
300.136	85.44
300.366	92.44
300.597	88.44
300.827	77.44
301.057	100.44
301.288	97.44
301.518	91.44
301.748	93.44
301.979	100.44
302.209	87.44
302.439	79.44
302.669	85.44
302.9	85.44
303.13	81.44
303.36	79.44
303.59	94.44
303.82	85.44
304.051	91.44
304.281	96.44
304.511	88.44
304.741	87.44
304.971	82.44
305.201	95.44
305.431	82.44
305.661	102.44
305.891	85.44
306.121	81.44
306.352	102.44
306.582	106.44
306.812	92.44
307.042	85.44
307.272	90.44
307.502	106.44
307.731	81.44
307.961	89.44
308.191	85.44
308.421	92.44
308.651	89.44
308.881	94.44
309.111	84.44
309.341	88.44
309.571	82.44
309.8	92.44
310.03	99.44
310.26	89.44
310.49	87.44
310.72	81.44
310.949	101.44
311.179	114.44
311.409	100.44
311.639	82.44
311.868	102.44
312.098	87.44
312.328	88.44
312.557	92.44
312.787	85.44
313.017	86.44
313.246	85.44
313.476	78.44
313.706	78.44
313.935	93.44
314.165	85.44
314.394	81.44
314.624	93.44
314.853	97.44
315.083	77.44
315.312	88.44
315.542	90.44
315.771	81.44
316.001	85.44
316.23	84.44
316.46	79.44
316.689	94.44
316.919	80.44
317.148	86.44
317.377	87.44
317.607	97.44
317.836	86.44
318.065	92.44
318.295	84.44
318.524	92.44
318.753	94.44
318.983	85.44
319.212	106.44
319.441	88.44
319.67	95.44
319.9	89.44
320.129	77.44
320.358	74.44
320.587	101.44
320.816	103.44
321.046	91.44
321.275	97.44
321.504	80.44
321.733	95.44
321.962	87.44
322.191	102.44
322.42	94.44
322.649	122.44
322.878	92.44
323.108	106.44
323.337	106.44
323.566	112.44
323.795	133.44
324.024	174.44
324.253	298.44
324.482	636.44
324.71	1298.44
324.939	1640.44
325.168	619.44
325.397	190.44
325.626	138.44
325.855	112.44
326.084	110.44
326.313	125.44
326.542	133.44
326.77	186.44
326.999	367.44
327.228	736.44
327.457	1316.44
327.686	1028.44
327.914	292.44
328.143	179.44
328.372	116.44
328.6	106.44
328.829	110.44
329.058	126.44
329.287	115.44
329.515	114.44
329.744	96.44
329.972	104.44
330.201	97.44
330.43	111.44
330.658	127.44
330.887	128.44
331.115	106.44
331.344	94.44
331.572	98.44
331.801	103.44
332.03	97.44
332.258	94.44
332.486	84.44
332.715	81.44
332.943	82.44
333.172	107.44
333.4	99.44
333.629	107.44
333.857	123.44
334.085	105.44
334.314	111.44
334.542	107.44
334.771	113.44
334.999	100.44
335.227	86.44
335.455	87.44
335.684	97.44
335.912	105.44
336.14	87.44
336.369	95.44
336.597	93.44
336.825	85.44
337.053	97.44
337.281	92.44
337.51	86.44
337.738	86.44
337.966	77.44
338.194	85.44
338.422	97.44
338.65	89.44
338.878	94.44
339.106	92.44
339.334	88.44
339.562	82.44
339.79	92.44
340.018	80.44
340.246	78.44
340.474	78.44
340.702	102.44
340.93	87.44
341.158	80.44
341.386	97.44
341.614	95.44
341.842	74.44
342.07	90.44
342.298	80.44
342.526	90.44
342.754	76.44
342.981	86.44
343.209	77.44
343.437	91.44
343.665	78.44
343.893	92.44
344.12	93.44
344.348	74.44
344.576	94.44
344.804	92.44
345.031	102.44
345.259	95.44
345.487	88.44
345.714	96.44
345.942	93.44
346.17	89.44
346.397	73.44
346.625	79.44
346.853	89.44
347.08	97.44
347.308	88.44
347.535	78.44
347.763	79.44
347.99	89.44
348.218	103.44
348.445	85.44
348.673	84.44
348.9	88.44
349.128	73.44
349.355	80.44
349.583	93.44
349.81	88.44
350.037	87.44
350.265	101.44
350.492	92.44
350.72	91.44
350.947	95.44
351.174	102.44
351.402	94.44
351.629	90.44
351.856	96.44
352.083	96.44
352.311	102.44
352.538	94.44
352.765	100.44
352.992	91.44
353.22	98.44
353.447	109.44
353.674	97.44
353.901	94.44
354.128	90.44
354.355	86.44
354.583	87.44
354.81	92.44
355.037	94.44
355.264	98.44
355.491	84.44
355.718	100.44
355.945	97.44
356.172	82.44
356.399	91.44
356.626	90.44
356.853	89.44
357.08	102.44
357.307	91.44
357.534	81.44
357.761	95.44
357.988	96.44
358.215	92.44
358.441	100.44
358.668	76.44
358.895	93.44
359.122	95.44
359.349	85.44
359.576	98.44
359.802	97.44
360.029	110.44
360.256	86.44
360.483	96.44
360.709	80.44
360.936	94.44
361.163	99.44
361.39	97.44
361.616	80.44
361.843	85.44
362.07	88.44
362.296	81.44
362.523	87.44
362.749	89.44
362.976	86.44
363.203	90.44
363.429	84.44
363.656	85.44
363.882	95.44
364.109	94.44
364.335	81.44
364.562	97.44
364.788	77.44
365.015	94.44
365.241	88.44
365.468	96.44
365.694	101.44
365.92	96.44
366.147	103.44
366.373	94.44
366.599	80.44
366.826	88.44
367.052	83.44
367.278	87.44
367.505	102.44
367.731	102.44
367.957	84.44
368.184	73.44
368.41	92.44
368.636	105.44
368.862	110.44
369.089	102.44
369.315	105.44
369.541	95.44
369.767	85.44
369.993	85.44
370.219	69.44
370.445	84.44
370.672	90.44
370.898	78.44
371.124	82.44
371.35	102.44
371.576	94.44
371.802	96.44
372.028	94.44
372.254	100.44
372.48	88.44
372.706	93.44
372.932	89.44
373.158	103.44
373.384	82.44
373.61	82.44
373.835	84.44
374.061	77.44
374.287	90.44
374.513	98.44
374.739	91.44
374.965	89.44
375.191	81.44
375.416	94.44
375.642	86.44
375.868	102.44
376.094	100.44
376.319	94.44
376.545	99.44
376.771	85.44
376.997	100.44
377.222	97.44
377.448	90.44
377.674	88.44
377.899	94.44
378.125	88.44
378.35	86.44
378.576	86.44
378.802	92.44
379.027	88.44
379.253	90.44
379.478	100.44
379.704	84.44
379.929	105.44
380.155	106.44
380.38	96.44
380.606	111.44
380.831	95.44
381.057	113.44
381.282	94.44
381.507	86.44
381.733	110.44
381.958	96.44
382.184	98.44
382.409	103.44
382.634	109.44
382.86	110.44
383.085	108.44
383.31	120.44
383.535	109.44
383.761	102.44
383.986	108.44
384.211	96.44
384.436	117.44
384.662	110.44
384.887	110.44
385.112	121.44
385.337	104.44
385.562	117.44
385.787	117.44
386.013	122.44
386.238	104.44
386.463	120.44
386.688	113.44
386.913	106.44
387.138	117.44
387.363	122.44
387.588	96.44
387.813	97.44
388.038	126.44
388.263	121.44
388.488	124.44
388.713	105.44
388.938	81.44
389.163	98.44
389.387	89.44
389.612	104.44
389.837	85.44
390.062	78.44
390.287	92.44
390.512	88.44
390.736	81.44
390.961	92.44
391.186	98.44
391.411	91.44
391.636	78.44
391.86	76.44
392.085	85.44
392.31	94.44
392.534	97.44
392.759	94.44
392.984	84.44
393.208	96.44
393.433	106.44
393.658	85.44
393.882	82.44
394.107	86.44
394.331	83.44
394.556	83.44
394.78	87.44
395.005	97.44
395.229	79.44
395.454	79.44
395.678	83.44
395.903	98.44
396.127	77.44
396.352	93.44
396.576	87.44
396.801	81.44
397.025	73.44
397.249	98.44
397.474	92.44
397.698	95.44
397.922	90.44
398.147	85.44
398.371	97.44
398.595	91.44
398.82	73.44
399.044	94.44
399.268	84.44
399.492	88.44
399.717	77.44
399.941	82.44
400.165	93.44
400.389	91.44
400.613	68.44
400.837	79.44
401.062	73.44
401.286	88.44
401.51	86.44
401.734	94.44
401.958	93.44
402.182	117.44
402.406	127.44
402.63	110.44
402.854	97.44
403.078	87.44
403.302	83.44
403.526	101.44
403.75	81.44
403.974	82.44
404.198	94.44
404.422	80.44
404.645	88.44
404.869	79.44
405.093	81.44
405.317	90.44
405.541	103.44
405.765	92.44
405.988	103.44
406.212	127.44
406.436	180.44
406.66	117.44
406.883	91.44
407.107	84.44
407.331	90.44
407.555	89.44
407.778	94.44
408.002	84.44
408.226	78.44
408.449	76.44
408.673	80.44
408.896	97.44
409.12	98.44
409.344	93.44
409.567	99.44
409.791	78.44
410.014	93.44
410.238	87.44
410.461	90.44
410.685	89.44
410.908	85.44
411.132	102.44
411.355	103.44
411.578	97.44
411.802	81.44
412.025	92.44
412.249	77.44
412.472	91.44
412.695	94.44
412.919	92.44
413.142	96.44
413.365	86.44
413.589	77.44
413.812	84.44
414.035	79.44
414.258	81.44
414.482	100.44
414.705	78.44
414.928	92.44
415.151	95.44
415.374	93.44
415.597	88.44
415.821	81.44
416.044	94.44
416.267	87.44
416.49	93.44
416.713	101.44
416.936	98.44
417.159	86.44
417.382	88.44
417.605	96.44
417.828	97.44
418.051	88.44
418.274	103.44
418.497	84.44
418.72	84.44
418.943	93.44
419.166	90.44
419.389	90.44
419.611	83.44
419.834	85.44
420.057	78.44
420.28	89.44
420.503	102.44
420.726	89.44
420.948	90.44
421.171	89.44
421.394	85.44
421.617	100.44
421.839	87.44
422.062	86.44
422.285	93.44
422.507	100.44
422.73	97.44
422.953	76.44
423.175	80.44
423.398	83.44
423.621	81.44
423.843	87.44
424.066	78.44
424.288	94.44
424.511	76.44
424.733	87.44
424.956	90.44
425.178	96.44
425.401	93.44
425.623	82.44
425.846	84.44
426.068	100.44
426.291	69.44
426.513	74.44
426.735	84.44
426.958	101.44
427.18	96.44
427.402	124.44
427.625	134.44
427.847	111.44
428.069	106.44
428.292	90.44
428.514	88.44
428.736	86.44
428.958	76.44
429.181	76.44
429.403	73.44
429.625	79.44
429.847	80.44
430.069	83.44
430.292	87.44
430.514	72.44
430.736	79.44
430.958	70.44
431.18	84.44
431.402	74.44
431.624	67.44
431.846	85.44
432.068	86.44
432.29	96.44
432.512	80.44
432.734	87.44
432.956	92.44
433.178	99.44
433.4	94.44
433.622	68.44
433.844	90.44
434.066	103.44
434.287	91.44
434.509	86.44
434.731	89.44
434.953	84.44
435.175	90.44
435.397	96.44
435.618	92.44
435.84	113.44
436.062	115.44
436.284	102.44
436.505	85.44
436.727	100.44
436.949	90.44
437.17	83.44
437.392	80.44
437.614	80.44
437.835	109.44
438.057	107.44
438.278	99.44
438.5	108.44
438.721	103.44
438.943	91.44
439.165	79.44
439.386	93.44
439.608	78.44
439.829	81.44
440.05	113.44
440.272	129.44
440.493	85.44
440.715	80.44
440.936	92.44
441.158	75.44
441.379	74.44
441.6	80.44
441.822	80.44
442.043	95.44
442.264	86.44
442.486	96.44
442.707	97.44
442.928	115.44
443.149	119.44
443.371	94.44
443.592	97.44
443.813	90.44
444.034	101.44
444.255	91.44
444.476	93.44
444.698	72.44
444.919	78.44
445.14	123.44
445.361	117.44
445.582	109.44
445.803	116.44
446.024	112.44
446.245	129.44
446.466	106.44
446.687	92.44
446.908	95.44
447.129	73.44
447.35	80.44
447.571	76.44
447.792	85.44
448.013	94.44
448.234	92.44
448.455	90.44
448.675	107.44
448.896	100.44
449.117	85.44
449.338	90.44
449.559	119.44
449.779	119.44
450	95.44
450.221	91.44
450.442	85.44
450.662	92.44
450.883	88.44
451.104	92.44
451.324	85.44
451.545	83.44
451.766	88.44
451.986	82.44
452.207	87.44
452.428	82.44
452.648	92.44
452.869	103.44
453.089	83.44
453.31	105.44
453.53	84.44
453.751	96.44
453.971	91.44
454.192	106.44
454.412	90.44
454.633	95.44
454.853	87.44
455.073	90.44
455.294	81.44
455.514	94.44
455.734	89.44
455.955	81.44
456.175	79.44
456.395	73.44
456.616	80.44
456.836	81.44
457.056	88.44
457.276	96.44
457.497	91.44
457.717	92.44
457.937	87.44
458.157	84.44
458.377	81.44
458.598	97.44
458.818	112.44
459.038	125.44
459.258	83.44
459.478	88.44
459.698	68.44
459.918	89.44
460.138	86.44
460.358	83.44
460.578	75.44
460.798	85.44
461.018	73.44
461.238	82.44
461.458	76.44
461.678	90.44
461.898	87.44
462.118	85.44
462.338	69.44
462.558	84.44
462.777	74.44
462.997	82.44
463.217	94.44
463.437	88.44
463.657	74.44
463.876	87.44
464.096	87.44
464.316	92.44
464.536	88.44
464.755	95.44
464.975	90.44
465.195	148.44
465.414	143.44
465.634	88.44
465.854	91.44
466.073	84.44
466.293	92.44
466.512	67.44
466.732	81.44
466.951	89.44
467.171	100.44
467.391	88.44
467.61	105.44
467.829	98.44
468.049	86.44
468.268	97.44
468.488	82.44
468.707	88.44
468.927	79.44
469.146	75.44
469.365	79.44
469.585	89.44
469.804	88.44
470.023	107.44
470.243	90.44
470.462	86.44
470.681	85.44
470.901	85.44
471.12	78.44
471.339	77.44
471.558	93.44
471.777	92.44
471.997	87.44
472.216	96.44
472.435	103.44
472.654	80.44
472.873	93.44
473.092	86.44
473.311	90.44
473.53	85.44
473.749	76.44
473.968	81.44
474.187	82.44
474.406	85.44
474.625	81.44
474.844	70.44
475.063	72.44
475.282	76.44
475.501	84.44
475.72	97.44
475.939	81.44
476.158	88.44
476.377	85.44
476.596	81.44
476.814	81.44
477.033	95.44
477.252	83.44
477.471	78.44
477.69	90.44
477.908	76.44
478.127	87.44
478.346	73.44
478.564	84.44
478.783	103.44
479.002	90.44
479.22	96.44
479.439	105.44
479.658	106.44
479.876	88.44
480.095	90.44
480.313	99.44
480.532	92.44
480.751	77.44
480.969	109.44
481.188	168.44
481.406	136.44
481.624	82.44
481.843	72.44
482.061	70.44
482.28	84.44
482.498	78.44
482.717	83.44
482.935	92.44
483.153	80.44
483.372	89.44
483.59	86.44
483.808	81.44
484.027	90.44
484.245	93.44
484.463	85.44
484.681	94.44
484.9	80.44
485.118	98.44
485.336	90.44
485.554	86.44
485.772	89.44
485.99	95.44
486.209	97.44
486.427	103.44
486.645	107.44
486.863	108.44
487.081	89.44
487.299	96.44
487.517	95.44
487.735	88.44
487.953	91.44
488.171	98.44
488.389	99.44
488.607	95.44
488.825	92.44
489.043	74.44
489.261	83.44
489.479	101.44
489.696	77.44
489.914	105.44
490.132	86.44
490.35	76.44
490.568	81.44
490.786	93.44
491.003	82.44
491.221	97.44
491.439	81.44
491.657	87.44
491.874	93.44
492.092	73.44
492.31	93.44
492.527	87.44
492.745	89.44
492.963	76.44
493.18	78.44
493.398	92.44
493.615	83.44
493.833	112.44
494.05	76.44
494.268	79.44
494.485	80.44
494.703	84.44
494.92	86.44
495.138	93.44
495.355	99.44
495.573	92.44
495.79	79.44
496.008	82.44
496.225	77.44
496.442	84.44
496.66	86.44
496.877	92.44
497.094	89.44
497.312	90.44
497.529	103.44
497.746	80.44
497.963	84.44
498.181	70.44
498.398	85.44
498.615	89.44
498.832	85.44
499.049	80.44
499.267	84.44
499.484	88.44
499.701	98.44
499.918	88.44
500.135	82.44
500.352	84.44
500.569	90.44
500.786	100.44
501.003	98.44
501.22	92.44
501.437	81.44
501.654	97.44
501.871	93.44
502.088	89.44
502.305	86.44
502.522	88.44
502.739	84.44
502.956	84.44
503.172	88.44
503.389	97.44
503.606	109.44
503.823	101.44
504.04	95.44
504.256	78.44
504.473	82.44
504.69	80.44
504.907	98.44
505.123	87.44
505.34	88.44
505.557	75.44
505.773	87.44
505.99	88.44
506.207	88.44
506.423	96.44
506.64	81.44
506.856	92.44
507.073	85.44
507.289	96.44
507.506	102.44
507.722	116.44
507.939	86.44
508.155	92.44
508.372	102.44
508.588	90.44
508.805	104.44
509.021	87.44
509.238	88.44
509.454	98.44
509.67	100.44
509.887	115.44
510.103	121.44
510.319	196.44
510.536	612.44
510.752	1754.44
510.968	492.44
511.184	126.44
511.401	112.44
511.617	89.44
511.833	87.44
512.049	96.44
512.265	86.44
512.481	80.44
512.698	95.44
512.914	90.44
513.13	100.44
513.346	91.44
513.562	92.44
513.778	93.44
513.994	85.44
514.21	94.44
514.426	100.44
514.642	97.44
514.858	114.44
515.074	138.44
515.29	348.44
515.506	1054.44
515.721	408.44
515.937	130.44
516.153	92.44
516.369	102.44
516.585	98.44
516.801	96.44
