Data from Circ_1986_H10_HRD10591_00055.txt Node
Date: Wed Jan 03 12:15:37 EST 2024
User: Yrep
Spectrometer: HR+D1059
Trigger mode: 1
Integration Time (sec): 1.000000E-1
Scans to average: 1
Electric dark correction enabled: true
Nonlinearity correction enabled: false
Boxcar width: 0
XAxis mode: Wavelengths
Number of Pixels in Spectrum: 2048
>>>>>Begin Spectral Data<<<<<
223.165	-25
223.4	-25
223.635	-25
223.869	-22
224.104	-17
224.338	-26
224.573	-18
224.808	-10
225.042	2
225.277	3
225.511	-4
225.746	-1
225.98	13
226.215	9
226.449	22
226.683	20
226.918	27
227.152	27
227.387	40
227.621	37
227.856	38
228.09	42
228.324	66
228.559	61
228.793	59
229.027	51
229.262	68
229.496	67
229.73	79
229.964	80
230.199	83
230.433	91
230.667	82
230.901	68
231.136	79
231.37	79
231.604	94
231.838	96
232.072	84
232.306	73
232.541	84
232.775	79
233.009	71
233.243	70
233.477	79
233.711	69
233.945	85
234.179	89
234.413	66
234.647	89
234.881	83
235.115	85
235.349	77
235.583	82
235.817	88
236.051	75
236.285	84
236.519	74
236.753	78
236.987	77
237.221	73
237.455	75
237.689	84
237.922	57
238.156	72
238.39	87
238.624	80
238.858	74
239.091	68
239.325	76
239.559	84
239.793	95
240.027	75
240.26	83
240.494	80
240.728	75
240.961	84
241.195	73
241.429	73
241.662	72
241.896	81
242.13	73
242.363	79
242.597	76
242.83	87
243.064	63
243.298	69
243.531	84
243.765	91
243.998	76
244.232	95
244.465	91
244.699	83
244.932	74
245.166	75
245.399	61
245.633	83
245.866	75
246.099	83
246.333	75
246.566	76
246.8	75
247.033	74
247.266	72
247.5	71
247.733	70
247.966	87
248.2	68
248.433	72
248.666	86
248.899	89
249.133	82
249.366	104
249.599	98
249.832	83
250.066	79
250.299	87
250.532	74
250.765	80
250.998	75
251.231	76
251.465	80
251.698	81
251.931	77
252.164	78
252.397	78
252.63	86
252.863	89
253.096	80
253.329	73
253.562	86
253.795	98
254.028	81
254.261	70
254.494	89
254.727	83
254.96	87
255.193	79
255.426	77
255.659	70
255.892	85
256.124	81
256.357	86
256.59	87
256.823	88
257.056	72
257.289	85
257.521	79
257.754	70
257.987	66
258.22	92
258.452	91
258.685	77
258.918	77
259.151	97
259.383	83
259.616	76
259.849	82
260.081	84
260.314	86
260.547	73
260.779	96
261.012	99
261.244	84
261.477	81
261.71	80
261.942	108
262.175	126
262.407	84
262.64	91
262.872	101
263.105	84
263.337	78
263.57	85
263.802	96
264.035	89
264.267	79
264.499	91
264.732	82
264.964	94
265.197	75
265.429	83
265.661	86
265.894	83
266.126	79
266.358	79
266.591	89
266.823	99
267.055	94
267.287	84
267.52	59
267.752	83
267.984	93
268.216	94
268.448	77
268.681	99
268.913	80
269.145	95
269.377	85
269.609	81
269.841	86
270.073	75
270.306	73
270.538	83
270.77	80
271.002	93
271.234	93
271.466	91
271.698	87
271.93	73
272.162	83
272.394	91
272.626	92
272.858	80
273.09	79
273.322	98
273.553	76
273.785	83
274.017	78
274.249	83
274.481	92
274.713	89
274.945	88
275.176	82
275.408	89
275.64	71
275.872	91
276.104	100
276.335	89
276.567	103
276.799	100
277.031	104
277.262	103
277.494	86
277.726	75
277.957	80
278.189	97
278.421	95
278.652	88
278.884	79
279.115	80
279.347	77
279.579	84
279.81	93
280.042	86
280.273	81
280.505	91
280.736	88
280.968	85
281.199	94
281.431	77
281.662	100
281.894	101
282.125	93
282.356	107
282.588	123
282.819	103
283.051	83
283.282	91
283.513	114
283.745	89
283.976	91
284.207	84
284.439	93
284.67	108
284.901	97
285.132	90
285.364	76
285.595	84
285.826	87
286.057	79
286.288	83
286.52	86
286.751	86
286.982	93
287.213	88
287.444	94
287.675	101
287.906	81
288.138	104
288.369	84
288.6	79
288.831	86
289.062	102
289.293	72
289.524	97
289.755	91
289.986	92
290.217	81
290.448	86
290.679	88
290.91	92
291.141	96
291.371	83
291.602	83
291.833	85
292.064	82
292.295	83
292.526	96
292.757	97
292.987	91
293.218	72
293.449	91
293.68	101
293.91	95
294.141	84
294.372	91
294.603	96
294.833	104
295.064	96
295.295	90
295.525	82
295.756	96
295.987	105
296.217	124
296.448	126
296.679	93
296.909	101
297.14	90
297.37	88
297.601	88
297.831	86
298.062	98
298.292	97
298.523	83
298.753	77
298.984	83
299.214	86
299.445	87
299.675	100
299.905	74
300.136	88
300.366	80
300.597	84
300.827	86
301.057	92
301.288	96
301.518	101
301.748	90
301.979	99
302.209	97
302.439	100
302.669	100
302.9	92
303.13	93
303.36	96
303.59	91
303.82	95
304.051	91
304.281	95
304.511	83
304.741	87
304.971	94
305.201	90
305.431	78
305.661	86
305.891	89
306.121	86
306.352	112
306.582	106
306.812	102
307.042	103
307.272	100
307.502	90
307.731	104
307.961	97
308.191	88
308.421	97
308.651	84
308.881	84
309.111	80
309.341	94
309.571	87
309.8	100
310.03	97
310.26	97
310.49	97
310.72	100
310.949	105
311.179	71
311.409	95
311.639	79
311.868	97
312.098	90
312.328	76
312.557	99
312.787	84
313.017	93
313.246	78
313.476	80
313.706	88
313.935	102
314.165	90
314.394	94
314.624	99
314.853	89
315.083	105
315.312	84
315.542	94
315.771	97
316.001	89
316.23	97
316.46	101
316.689	94
316.919	105
317.148	82
317.377	105
317.607	99
317.836	100
318.065	95
318.295	94
318.524	90
318.753	101
318.983	99
319.212	100
319.441	100
319.67	114
319.9	95
320.129	95
320.358	89
320.587	103
320.816	101
321.046	87
321.275	96
321.504	91
321.733	103
321.962	104
322.191	100
322.42	105
322.649	100
322.878	97
323.108	136
323.337	107
323.566	123
323.795	134
324.024	183
324.253	339
324.482	729
324.71	1461
324.939	1901
325.168	711
325.397	229
325.626	129
325.855	121
326.084	121
326.313	116
326.542	144
326.77	198
326.999	387
327.228	799
327.457	1481
327.686	1194
327.914	352
328.143	189
328.372	159
328.6	124
328.829	109
329.058	121
329.287	129
329.515	106
329.744	115
329.972	121
330.201	156
330.43	184
330.658	136
330.887	117
331.115	121
331.344	97
331.572	105
331.801	104
332.03	103
332.258	92
332.486	84
332.715	83
332.943	99
333.172	103
333.4	87
333.629	108
333.857	121
334.085	124
334.314	159
334.542	201
334.771	203
334.999	122
335.227	92
335.455	102
335.684	98
335.912	99
336.14	104
336.369	88
336.597	82
336.825	90
337.053	106
337.281	90
337.51	92
337.738	89
337.966	90
338.194	95
338.422	99
338.65	90
338.878	80
339.106	88
339.334	103
339.562	97
339.79	93
340.018	87
340.246	85
340.474	101
340.702	89
340.93	86
341.158	90
341.386	104
341.614	92
341.842	104
342.07	95
342.298	95
342.526	92
342.754	85
342.981	81
343.209	84
343.437	105
343.665	76
343.893	98
344.12	91
344.348	105
344.576	91
344.804	96
345.031	103
345.259	100
345.487	86
345.714	91
345.942	91
346.17	93
346.397	90
346.625	97
346.853	85
347.08	94
347.308	89
347.535	106
347.763	106
347.99	91
348.218	88
348.445	91
348.673	90
348.9	79
349.128	87
349.355	92
349.583	83
349.81	87
350.037	97
350.265	95
350.492	90
350.72	101
350.947	96
351.174	98
351.402	109
351.629	98
351.856	119
352.083	100
352.311	102
352.538	87
352.765	94
352.992	101
353.22	101
353.447	106
353.674	109
353.901	106
354.128	98
354.355	76
354.583	86
354.81	109
355.037	97
355.264	90
355.491	90
355.718	105
355.945	102
356.172	93
356.399	103
356.626	82
356.853	88
357.08	87
357.307	98
357.534	86
357.761	105
357.988	93
358.215	93
358.441	87
358.668	88
358.895	89
359.122	96
359.349	80
359.576	85
359.802	115
360.029	106
360.256	109
360.483	89
360.709	85
360.936	95
361.163	102
361.39	104
361.616	104
361.843	85
362.07	93
362.296	97
362.523	98
362.749	91
362.976	95
363.203	102
363.429	87
363.656	92
363.882	95
364.109	97
364.335	94
364.562	88
364.788	86
365.015	98
365.241	99
365.468	109
365.694	109
365.92	95
366.147	106
366.373	90
366.599	88
366.826	97
367.052	89
367.278	95
367.505	86
367.731	87
367.957	88
368.184	99
368.41	105
368.636	105
368.862	114
369.089	103
369.315	103
369.541	95
369.767	83
369.993	105
370.219	96
370.445	84
370.672	103
370.898	85
371.124	75
371.35	83
371.576	79
371.802	86
372.028	78
372.254	92
372.48	84
372.706	95
372.932	88
373.158	99
373.384	85
373.61	76
373.835	89
374.061	87
374.287	91
374.513	76
374.739	90
374.965	92
375.191	89
375.416	82
375.642	96
375.868	92
376.094	95
376.319	89
376.545	73
376.771	100
376.997	104
377.222	91
377.448	79
377.674	99
377.899	90
378.125	97
378.35	97
378.576	97
378.802	101
379.027	99
379.253	101
379.478	90
379.704	88
379.929	98
380.155	92
380.38	100
380.606	96
380.831	97
381.057	113
381.282	88
381.507	97
381.733	92
381.958	97
382.184	89
382.409	91
382.634	99
382.86	109
383.085	105
383.31	83
383.535	91
383.761	116
383.986	100
384.211	88
384.436	104
384.662	105
384.887	90
385.112	93
385.337	103
385.562	101
385.787	105
386.013	107
386.238	120
386.463	102
386.688	102
386.913	107
387.138	127
387.363	104
387.588	95
387.813	103
388.038	108
388.263	107
388.488	105
388.713	105
388.938	89
389.163	88
389.387	88
389.612	90
389.837	88
390.062	90
390.287	97
390.512	97
390.736	91
390.961	83
391.186	92
391.411	97
391.636	100
391.86	87
392.085	91
392.31	74
392.534	83
392.759	92
392.984	93
393.208	103
393.433	92
393.658	83
393.882	93
394.107	81
394.331	87
394.556	76
394.78	95
395.005	95
395.229	86
395.454	83
395.678	90
395.903	77
396.127	93
396.352	69
396.576	84
396.801	91
397.025	97
397.249	92
397.474	86
397.698	86
397.922	85
398.147	87
398.371	83
398.595	77
398.82	89
399.044	85
399.268	92
399.492	100
399.717	93
399.941	91
400.165	97
400.389	95
400.613	79
400.837	91
401.062	83
401.286	81
401.51	96
401.734	87
401.958	91
402.182	119
402.406	160
402.63	117
402.854	103
403.078	88
403.302	85
403.526	95
403.75	92
403.974	87
404.198	82
404.422	97
404.645	93
404.869	80
405.093	109
405.317	109
405.541	109
405.765	93
405.988	95
406.212	155
406.436	207
406.66	135
406.883	115
407.107	92
407.331	98
407.555	107
407.778	107
408.002	94
408.226	92
408.449	98
408.673	77
408.896	96
409.12	92
409.344	104
409.567	82
409.791	101
410.014	93
410.238	101
410.461	93
410.685	95
410.908	102
411.132	91
411.355	104
411.578	89
411.802	84
412.025	84
412.249	105
412.472	94
412.695	103
412.919	98
413.142	96
413.365	89
413.589	109
413.812	89
414.035	90
414.258	91
414.482	100
414.705	84
414.928	97
415.151	85
415.374	91
415.597	75
415.821	102
416.044	101
416.267	80
416.49	90
416.713	98
416.936	89
417.159	91
417.382	84
417.605	92
417.828	88
418.051	87
418.274	91
418.497	83
418.72	92
418.943	79
419.166	94
419.389	84
419.611	91
419.834	97
420.057	89
420.28	86
420.503	88
420.726	96
420.948	90
421.171	97
421.394	94
421.617	91
421.839	87
422.062	95
422.285	90
422.507	98
422.73	106
422.953	83
423.175	91
423.398	75
423.621	82
423.843	96
424.066	75
424.288	96
424.511	83
424.733	95
424.956	102
425.178	96
425.401	95
425.623	103
425.846	100
426.068	101
426.291	98
426.513	75
426.735	82
426.958	93
427.18	120
427.402	137
427.625	150
427.847	125
428.069	131
428.292	89
428.514	90
428.736	90
428.958	90
429.181	99
429.403	87
429.625	87
429.847	98
430.069	96
430.292	97
430.514	99
430.736	95
430.958	89
431.18	82
431.402	74
431.624	79
431.846	80
432.068	86
432.29	80
432.512	92
432.734	76
432.956	97
433.178	95
433.4	96
433.622	102
433.844	87
434.066	104
434.287	87
434.509	107
434.731	87
434.953	99
435.175	96
435.397	98
435.618	80
435.84	84
436.062	99
436.284	101
436.505	93
436.727	104
436.949	85
437.17	83
437.392	100
437.614	93
437.835	98
438.057	121
438.278	104
438.5	106
438.721	105
438.943	103
439.165	90
439.386	87
439.608	87
439.829	105
440.05	107
440.272	124
440.493	93
440.715	90
440.936	78
441.158	79
441.379	90
441.6	87
441.822	99
442.043	98
442.264	94
442.486	106
442.707	103
442.928	90
443.149	120
443.371	115
443.592	87
443.813	99
444.034	90
444.255	85
444.476	101
444.698	100
444.919	98
445.14	115
445.361	116
445.582	107
445.803	128
446.024	113
446.245	130
446.466	106
446.687	92
446.908	87
447.129	97
447.35	73
447.571	89
447.792	91
448.013	88
448.234	110
448.455	90
448.675	107
448.896	109
449.117	79
449.338	91
449.559	103
449.779	112
450	87
450.221	98
450.442	95
450.662	116
450.883	105
451.104	103
451.324	95
451.545	77
451.766	83
451.986	106
452.207	108
452.428	104
452.648	99
452.869	92
453.089	110
453.31	120
453.53	91
453.751	82
453.971	108
454.192	113
454.412	95
454.633	91
454.853	86
455.073	92
455.294	97
455.514	107
455.734	98
455.955	97
456.175	105
456.395	83
456.616	89
456.836	77
457.056	67
457.276	91
457.497	74
457.717	87
457.937	95
458.157	91
458.377	91
458.598	116
458.818	137
459.038	151
459.258	102
459.478	98
459.698	78
459.918	77
460.138	107
460.358	87
460.578	76
460.798	86
461.018	95
461.238	86
461.458	91
461.678	97
461.898	95
462.118	75
462.338	86
462.558	79
462.777	81
462.997	79
463.217	81
463.437	89
463.657	86
463.876	82
464.096	104
464.316	93
464.536	81
464.755	83
464.975	112
465.195	137
465.414	144
465.634	84
465.854	90
466.073	91
466.293	85
466.512	81
466.732	90
466.951	91
467.171	94
467.391	82
467.61	100
467.829	114
468.049	112
468.268	124
468.488	104
468.707	92
468.927	82
469.146	84
469.365	92
469.585	99
469.804	100
470.023	97
470.243	86
470.462	100
470.681	101
470.901	95
471.12	60
471.339	88
471.558	90
471.777	95
471.997	100
472.216	173
472.435	244
472.654	121
472.873	87
473.092	91
473.311	94
473.53	82
473.749	97
473.968	100
474.187	90
474.406	85
474.625	80
474.844	94
475.063	85
475.282	80
475.501	91
475.72	82
475.939	76
476.158	88
476.377	91
476.596	83
476.814	84
477.033	91
477.252	88
477.471	97
477.69	87
477.908	77
478.127	94
478.346	86
478.564	86
478.783	103
479.002	93
479.22	90
479.439	86
479.658	103
479.876	102
480.095	96
480.313	96
480.532	97
480.751	104
480.969	161
481.188	388
481.406	260
481.624	105
481.843	90
482.061	81
482.28	76
482.498	97
482.717	87
482.935	98
483.153	90
483.372	84
483.59	105
483.808	88
484.027	86
484.245	85
484.463	87
484.681	101
484.9	97
485.118	71
485.336	93
485.554	100
485.772	112
485.99	94
486.209	93
486.427	93
486.645	87
486.863	116
487.081	85
487.299	96
487.517	86
487.735	92
487.953	81
488.171	86
488.389	91
488.607	100
488.825	86
489.043	99
489.261	99
489.479	76
489.696	87
489.914	87
490.132	82
490.35	93
490.568	106
490.786	80
491.003	83
491.221	98
491.439	96
491.657	91
491.874	94
492.092	100
492.31	98
492.527	81
492.745	92
492.963	92
493.18	92
493.398	93
493.615	96
493.833	93
494.05	86
494.268	88
494.485	99
494.703	80
494.92	78
495.138	83
495.355	82
495.573	79
495.79	76
496.008	86
496.225	92
496.442	83
496.66	80
496.877	78
497.094	76
497.312	79
497.529	95
497.746	88
497.963	101
498.181	86
498.398	93
498.615	103
498.832	104
499.049	100
499.267	89
499.484	84
499.701	84
499.918	85
500.135	80
500.352	91
500.569	82
500.786	87
501.003	82
501.22	90
501.437	83
501.654	103
501.871	95
502.088	103
502.305	81
502.522	87
502.739	83
502.956	93
503.172	76
503.389	81
503.606	97
503.823	89
504.04	99
504.256	100
504.473	91
504.69	93
504.907	107
505.123	95
505.34	82
505.557	96
505.773	75
505.99	99
506.207	83
506.423	87
506.64	94
506.856	87
507.073	80
507.289	87
507.506	95
507.722	111
507.939	115
508.155	99
508.372	100
508.588	85
508.805	87
509.021	91
509.238	93
509.454	93
509.67	98
509.887	101
510.103	130
510.319	191
510.536	716
510.752	2206
510.968	588
511.184	137
511.401	92
511.617	99
511.833	90
512.049	100
512.265	95
512.481	97
512.698	86
512.914	91
513.13	92
513.346	86
513.562	82
513.778	82
513.994	92
514.21	92
514.426	107
514.642	111
514.858	113
515.074	151
515.29	441
515.506	1320
515.721	488
515.937	156
516.153	98
516.369	111
516.585	95
516.801	77
517.016	84
517.232	85
517.448	89
517.664	108
517.879	98
518.095	96
518.311	103
518.527	104
518.742	91
518.958	85
519.173	91
519.389	101
519.605	95
519.82	102
520.036	92
520.251	106
520.467	96
520.682	91
520.898	112
521.113	119
521.329	132
521.544	182
521.76	495
521.975	2192
522.19	1299
522.406	288
522.621	121
522.836	117
523.052	85
523.267	96
523.482	95
523.698	91
523.913	116
524.128	106
524.343	87
524.559	87
524.774	85
524.989	89
525.204	107
525.419	91
525.634	74
525.849	85
526.064	97
526.28	93
526.495	93
526.71	80
526.925	86
527.14	83
527.355	84
527.57	86
527.785	89
527.999	99
528.214	95
528.429	90
528.644	97
528.859	87
529.074	95
529.289	113
529.503	159
529.718	103
529.933	83
530.148	93
530.363	91
530.577	109
530.792	81
531.007	84
531.221	81
531.436	75
531.651	91
531.865	100
532.08	94
532.295	95
532.509	93
532.724	96
532.938	110
533.153	101
533.367	90
533.582	65
533.796	95
534.011	82
534.225	90
534.44	93
534.654	91
534.868	94
535.083	103
535.297	83
535.511	97
535.726	104
535.94	92
536.154	100
536.369	97
536.583	89
536.797	98
537.011	88
537.225	85
537.44	71
537.654	92
537.868	96
538.082	98
538.296	103
538.51	90
538.724	97
538.938	82
539.153	100
539.367	96
539.581	92
539.795	88
540.009	90
540.222	97
540.436	92
540.65	99
540.864	87
541.078	96
541.292	82
541.506	84
541.72	91
541.934	81
542.147	96
542.361	84
542.575	80
542.789	88
543.002	86
543.216	85
543.43	116
543.644	97
543.857	84
544.071	86
544.285	93
544.498	94
544.712	91
544.925	87
545.139	81
545.352	74
545.566	81
545.779	79
545.993	94
546.206	90
546.42	87
546.633	83
546.847	88
547.06	95
547.274	91
547.487	88
547.7	92
547.914	96
548.127	99
548.34	86
548.554	84
548.767	85
548.98	84
549.193	89
549.407	90
549.62	77
549.833	81
550.046	93
550.259	87
550.473	87
550.686	96
550.899	83
551.112	77
551.325	96
551.538	85
551.751	82
551.964	88
552.177	97
552.39	91
552.603	84
552.816	74
553.029	95
553.242	87
553.455	101
553.667	108
553.88	93
554.093	93
554.306	69
554.519	89
554.732	93
554.944	88
555.157	104
555.37	91
555.583	88
555.795	91
556.008	94
556.221	86
556.433	80
556.646	105
556.859	88
557.071	89
557.284	103
557.496	93
557.709	94
557.921	101
558.134	82
558.346	90
558.559	89
558.771	88
558.984	92
559.196	101
559.409	83
559.621	75
559.833	90
560.046	91
560.258	96
560.47	91
560.683	93
560.895	84
561.107	79
561.32	96
561.532	88
561.744	91
561.956	86
562.168	87
562.381	86
562.593	91
562.805	92
563.017	90
563.229	88
563.441	89
563.653	99
563.865	89
564.077	85
564.289	91
564.501	93
564.713	91
564.925	96
565.137	95
565.349	93
565.561	103
565.773	98
565.985	98
566.197	76
566.408	77
566.62	75
566.832	83
567.044	95
567.255	83
567.467	70
567.679	90
567.891	95
568.102	88
568.314	79
568.526	76
568.737	94
568.949	97
569.161	94
569.372	83
569.584	79
569.795	103
570.007	110
570.218	240
570.43	138
570.641	89
570.853	101
571.064	86
571.276	87
571.487	104
571.698	95
571.91	79
572.121	91
572.333	93
572.544	79
572.755	81
572.966	94
573.178	91
573.389	89
573.6	92
573.811	86
574.023	93
574.234	89
574.445	90
574.656	76
574.867	71
575.078	89
575.289	95
575.501	85
575.712	92
575.923	91
576.134	88
576.345	89
576.556	92
576.767	90
576.978	83
577.188	90
577.399	91
577.61	93
577.821	97
578.032	115
578.243	263
578.454	697
578.665	189
578.875	104
579.086	87
579.297	98
579.508	100
579.718	84
579.929	83
580.14	82
580.35	85
580.561	85
580.772	95
580.982	83
581.193	85
581.403	92
581.614	87
581.825	75
582.035	87
582.246	97
582.456	80
582.667	88
582.877	82
583.087	79
583.298	81
583.508	77
583.719	92
583.929	95
584.139	85
584.35	91
