Data from Circ_1986_H10_HRD10591_00073.txt Node
Date: Wed Jan 03 12:15:40 EST 2024
User: Yrep
Spectrometer: HR+D1059
Trigger mode: 1
Integration Time (sec): 1.000000E-1
Scans to average: 1
Electric dark correction enabled: true
Nonlinearity correction enabled: false
Boxcar width: 0
XAxis mode: Wavelengths
Number of Pixels in Spectrum: 2048
>>>>>Begin Spectral Data<<<<<
223.165	-17.19
223.4	-17.19
223.635	-17.19
223.869	-26.19
224.104	-24.19
224.338	2.81
224.573	-15.19
224.808	-1.19
225.042	-18.19
225.277	-22.19
225.511	-0.19
225.746	0.81
225.98	13.81
226.215	6.81
226.449	19.81
226.683	18.81
226.918	28.81
227.152	32.81
227.387	29.81
227.621	41.81
227.856	49.81
228.09	44.81
228.324	31.81
228.559	55.81
228.793	45.81
229.027	47.81
229.262	65.81
229.496	75.81
229.73	86.81
229.964	78.81
230.199	88.81
230.433	70.81
230.667	82.81
230.901	70.81
231.136	66.81
231.37	67.81
231.604	78.81
231.838	73.81
232.072	78.81
232.306	82.81
232.541	64.81
232.775	78.81
233.009	83.81
233.243	70.81
233.477	70.81
233.711	78.81
233.945	68.81
234.179	80.81
234.413	79.81
234.647	81.81
234.881	85.81
235.115	76.81
235.349	76.81
235.583	82.81
235.817	80.81
236.051	87.81
236.285	84.81
236.519	72.81
236.753	58.81
236.987	70.81
237.221	89.81
237.455	78.81
237.689	86.81
237.922	81.81
238.156	71.81
238.39	78.81
238.624	75.81
238.858	68.81
239.091	76.81
239.325	86.81
239.559	78.81
239.793	72.81
240.027	78.81
240.26	80.81
240.494	90.81
240.728	79.81
240.961	79.81
241.195	81.81
241.429	71.81
241.662	72.81
241.896	64.81
242.13	82.81
242.363	65.81
242.597	64.81
242.83	80.81
243.064	79.81
243.298	91.81
243.531	92.81
243.765	88.81
243.998	81.81
244.232	88.81
244.465	92.81
244.699	70.81
244.932	81.81
245.166	82.81
245.399	73.81
245.633	91.81
245.866	73.81
246.099	84.81
246.333	76.81
246.566	67.81
246.8	64.81
247.033	70.81
247.266	77.81
247.5	76.81
247.733	70.81
247.966	77.81
248.2	79.81
248.433	88.81
248.666	87.81
248.899	78.81
249.133	87.81
249.366	101.81
249.599	100.81
249.832	82.81
250.066	66.81
250.299	80.81
250.532	89.81
250.765	81.81
250.998	84.81
251.231	76.81
251.465	84.81
251.698	66.81
251.931	73.81
252.164	68.81
252.397	76.81
252.63	79.81
252.863	81.81
253.096	76.81
253.329	80.81
253.562	82.81
253.795	67.81
254.028	80.81
254.261	70.81
254.494	84.81
254.727	81.81
254.96	85.81
255.193	66.81
255.426	74.81
255.659	64.81
255.892	78.81
256.124	66.81
256.357	69.81
256.59	80.81
256.823	74.81
257.056	74.81
257.289	80.81
257.521	68.81
257.754	84.81
257.987	82.81
258.22	83.81
258.452	90.81
258.685	92.81
258.918	90.81
259.151	80.81
259.383	75.81
259.616	71.81
259.849	82.81
260.081	78.81
260.314	79.81
260.547	88.81
260.779	76.81
261.012	72.81
261.244	73.81
261.477	86.81
261.71	103.81
261.942	97.81
262.175	101.81
262.407	83.81
262.64	93.81
262.872	88.81
263.105	78.81
263.337	81.81
263.57	101.81
263.802	83.81
264.035	86.81
264.267	64.81
264.499	80.81
264.732	86.81
264.964	71.81
265.197	72.81
265.429	73.81
265.661	87.81
265.894	72.81
266.126	73.81
266.358	85.81
266.591	78.81
266.823	76.81
267.055	74.81
267.287	89.81
267.52	90.81
267.752	71.81
267.984	94.81
268.216	80.81
268.448	89.81
268.681	94.81
268.913	75.81
269.145	93.81
269.377	79.81
269.609	81.81
269.841	80.81
270.073	72.81
270.306	80.81
270.538	80.81
270.77	78.81
271.002	80.81
271.234	61.81
271.466	92.81
271.698	82.81
271.93	80.81
272.162	71.81
272.394	96.81
272.626	85.81
272.858	85.81
273.09	98.81
273.322	85.81
273.553	66.81
273.785	81.81
274.017	73.81
274.249	81.81
274.481	82.81
274.713	80.81
274.945	86.81
275.176	87.81
275.408	98.81
275.64	80.81
275.872	80.81
276.104	87.81
276.335	96.81
276.567	99.81
276.799	99.81
277.031	100.81
277.262	80.81
277.494	95.81
277.726	86.81
277.957	73.81
278.189	85.81
278.421	80.81
278.652	77.81
278.884	72.81
279.115	80.81
279.347	82.81
279.579	91.81
279.81	82.81
280.042	87.81
280.273	98.81
280.505	85.81
280.736	96.81
280.968	80.81
281.199	94.81
281.431	82.81
281.662	70.81
281.894	88.81
282.125	100.81
282.356	112.81
282.588	124.81
282.819	106.81
283.051	89.81
283.282	89.81
283.513	93.81
283.745	92.81
283.976	86.81
284.207	67.81
284.439	82.81
284.67	84.81
284.901	92.81
285.132	89.81
285.364	80.81
285.595	92.81
285.826	80.81
286.057	85.81
286.288	87.81
286.52	87.81
286.751	77.81
286.982	78.81
287.213	99.81
287.444	86.81
287.675	87.81
287.906	104.81
288.138	93.81
288.369	91.81
288.6	83.81
288.831	85.81
289.062	76.81
289.293	90.81
289.524	82.81
289.755	80.81
289.986	83.81
290.217	86.81
290.448	76.81
290.679	93.81
290.91	87.81
291.141	84.81
291.371	93.81
291.602	81.81
291.833	83.81
292.064	98.81
292.295	76.81
292.526	89.81
292.757	85.81
292.987	86.81
293.218	86.81
293.449	70.81
293.68	74.81
293.91	94.81
294.141	90.81
294.372	85.81
294.603	86.81
294.833	82.81
295.064	91.81
295.295	84.81
295.525	93.81
295.756	96.81
295.987	103.81
296.217	127.81
296.448	117.81
296.679	108.81
296.909	96.81
297.14	96.81
297.37	89.81
297.601	84.81
297.831	92.81
298.062	95.81
298.292	98.81
298.523	87.81
298.753	81.81
298.984	89.81
299.214	80.81
299.445	96.81
299.675	88.81
299.905	80.81
300.136	84.81
300.366	86.81
300.597	80.81
300.827	97.81
301.057	96.81
301.288	100.81
301.518	88.81
301.748	93.81
301.979	88.81
302.209	83.81
302.439	85.81
302.669	85.81
302.9	64.81
303.13	86.81
303.36	99.81
303.59	106.81
303.82	96.81
304.051	113.81
304.281	88.81
304.511	85.81
304.741	87.81
304.971	96.81
305.201	95.81
305.431	97.81
305.661	100.81
305.891	86.81
306.121	77.81
306.352	96.81
306.582	111.81
306.812	95.81
307.042	71.81
307.272	94.81
307.502	90.81
307.731	85.81
307.961	80.81
308.191	95.81
308.421	99.81
308.651	72.81
308.881	92.81
309.111	89.81
309.341	74.81
309.571	100.81
309.8	94.81
310.03	89.81
310.26	95.81
310.49	94.81
310.72	97.81
310.949	90.81
311.179	92.81
311.409	94.81
311.639	99.81
311.868	104.81
312.098	92.81
312.328	103.81
312.557	96.81
312.787	96.81
313.017	95.81
313.246	90.81
313.476	93.81
313.706	86.81
313.935	106.81
314.165	88.81
314.394	98.81
314.624	87.81
314.853	97.81
315.083	86.81
315.312	103.81
315.542	76.81
315.771	76.81
316.001	85.81
316.23	104.81
316.46	87.81
316.689	96.81
316.919	85.81
317.148	104.81
317.377	92.81
317.607	90.81
317.836	92.81
318.065	68.81
318.295	98.81
318.524	72.81
318.753	82.81
318.983	76.81
319.212	110.81
319.441	122.81
319.67	93.81
319.9	83.81
320.129	78.81
320.358	82.81
320.587	92.81
320.816	92.81
321.046	90.81
321.275	84.81
321.504	98.81
321.733	88.81
321.962	96.81
322.191	92.81
322.42	102.81
322.649	119.81
322.878	106.81
323.108	119.81
323.337	126.81
323.566	130.81
323.795	138.81
324.024	178.81
324.253	379.81
324.482	748.81
324.71	1638.81
324.939	2147.81
325.168	766.81
325.397	247.81
325.626	133.81
325.855	113.81
326.084	110.81
326.313	116.81
326.542	152.81
326.77	217.81
326.999	434.81
327.228	896.81
327.457	1675.81
327.686	1312.81
327.914	360.81
328.143	210.81
328.372	172.81
328.6	130.81
328.829	114.81
329.058	128.81
329.287	119.81
329.515	110.81
329.744	99.81
329.972	119.81
330.201	175.81
330.43	212.81
330.658	145.81
330.887	133.81
331.115	120.81
331.344	98.81
331.572	111.81
331.801	115.81
332.03	86.81
332.258	85.81
332.486	89.81
332.715	96.81
332.943	90.81
333.172	102.81
333.4	91.81
333.629	110.81
333.857	125.81
334.085	108.81
334.314	168.81
334.542	232.81
334.771	228.81
334.999	109.81
335.227	101.81
335.455	95.81
335.684	99.81
335.912	82.81
336.14	102.81
336.369	89.81
336.597	85.81
336.825	84.81
337.053	94.81
337.281	117.81
337.51	92.81
337.738	100.81
337.966	97.81
338.194	94.81
338.422	106.81
338.65	86.81
338.878	81.81
339.106	85.81
339.334	88.81
339.562	80.81
339.79	83.81
340.018	87.81
340.246	87.81
340.474	98.81
340.702	94.81
340.93	102.81
341.158	85.81
341.386	81.81
341.614	88.81
341.842	106.81
342.07	74.81
342.298	103.81
342.526	83.81
342.754	96.81
342.981	89.81
343.209	96.81
343.437	109.81
343.665	92.81
343.893	80.81
344.12	101.81
344.348	102.81
344.576	92.81
344.804	89.81
345.031	95.81
345.259	101.81
345.487	98.81
345.714	84.81
345.942	90.81
346.17	77.81
346.397	90.81
346.625	74.81
346.853	92.81
347.08	92.81
347.308	95.81
347.535	94.81
347.763	98.81
347.99	95.81
348.218	99.81
348.445	109.81
348.673	98.81
348.9	98.81
349.128	95.81
349.355	101.81
349.583	87.81
349.81	87.81
350.037	94.81
350.265	91.81
350.492	83.81
350.72	95.81
350.947	98.81
351.174	116.81
351.402	114.81
351.629	91.81
351.856	108.81
352.083	102.81
352.311	96.81
352.538	96.81
352.765	101.81
352.992	117.81
353.22	101.81
353.447	107.81
353.674	113.81
353.901	97.81
354.128	97.81
354.355	89.81
354.583	96.81
354.81	96.81
355.037	90.81
355.264	92.81
355.491	106.81
355.718	61.81
355.945	90.81
356.172	100.81
356.399	89.81
356.626	83.81
356.853	78.81
357.08	91.81
357.307	92.81
357.534	92.81
357.761	83.81
357.988	85.81
358.215	91.81
358.441	97.81
358.668	99.81
358.895	88.81
359.122	97.81
359.349	100.81
359.576	99.81
359.802	93.81
360.029	105.81
360.256	99.81
360.483	89.81
360.709	93.81
360.936	92.81
361.163	101.81
361.39	100.81
361.616	103.81
361.843	86.81
362.07	89.81
362.296	108.81
362.523	91.81
362.749	95.81
362.976	102.81
363.203	96.81
363.429	92.81
363.656	89.81
363.882	90.81
364.109	96.81
364.335	98.81
364.562	74.81
364.788	80.81
365.015	88.81
365.241	98.81
365.468	92.81
365.694	88.81
365.92	94.81
366.147	88.81
366.373	80.81
366.599	85.81
366.826	70.81
367.052	86.81
367.278	80.81
367.505	89.81
367.731	105.81
367.957	92.81
368.184	103.81
368.41	102.81
368.636	110.81
368.862	108.81
369.089	106.81
369.315	89.81
369.541	96.81
369.767	91.81
369.993	86.81
370.219	99.81
370.445	90.81
370.672	98.81
370.898	80.81
371.124	90.81
371.35	82.81
371.576	88.81
371.802	85.81
372.028	85.81
372.254	95.81
372.48	83.81
372.706	86.81
372.932	89.81
373.158	99.81
373.384	84.81
373.61	94.81
373.835	96.81
374.061	73.81
374.287	89.81
374.513	90.81
374.739	95.81
374.965	90.81
375.191	97.81
375.416	80.81
375.642	93.81
375.868	82.81
376.094	80.81
376.319	70.81
376.545	89.81
376.771	85.81
376.997	91.81
377.222	92.81
377.448	82.81
377.674	87.81
377.899	84.81
378.125	88.81
378.35	83.81
378.576	96.81
378.802	91.81
379.027	108.81
379.253	98.81
379.478	99.81
379.704	99.81
379.929	100.81
380.155	96.81
380.38	97.81
380.606	88.81
380.831	104.81
381.057	111.81
381.282	88.81
381.507	91.81
381.733	90.81
381.958	103.81
382.184	74.81
382.409	92.81
382.634	108.81
382.86	93.81
383.085	100.81
383.31	101.81
383.535	112.81
383.761	92.81
383.986	82.81
384.211	104.81
384.436	98.81
384.662	102.81
384.887	105.81
385.112	96.81
385.337	96.81
385.562	100.81
385.787	103.81
386.013	98.81
386.238	101.81
386.463	112.81
386.688	104.81
386.913	100.81
387.138	111.81
387.363	101.81
387.588	100.81
387.813	110.81
388.038	95.81
388.263	120.81
388.488	106.81
388.713	93.81
388.938	94.81
389.163	96.81
389.387	103.81
389.612	97.81
389.837	90.81
390.062	102.81
390.287	95.81
390.512	94.81
390.736	94.81
390.961	86.81
391.186	93.81
391.411	80.81
391.636	88.81
391.86	80.81
392.085	86.81
392.31	91.81
392.534	68.81
392.759	76.81
392.984	87.81
393.208	85.81
393.433	73.81
393.658	79.81
393.882	76.81
394.107	76.81
394.331	88.81
394.556	88.81
394.78	88.81
395.005	90.81
395.229	73.81
395.454	84.81
395.678	88.81
395.903	80.81
396.127	89.81
396.352	91.81
396.576	89.81
396.801	88.81
397.025	87.81
397.249	96.81
397.474	90.81
397.698	88.81
397.922	79.81
398.147	71.81
398.371	80.81
398.595	84.81
398.82	89.81
399.044	81.81
399.268	84.81
399.492	71.81
399.717	76.81
399.941	86.81
400.165	96.81
400.389	88.81
400.613	68.81
400.837	80.81
401.062	91.81
401.286	74.81
401.51	92.81
401.734	86.81
401.958	92.81
402.182	124.81
402.406	132.81
402.63	111.81
402.854	88.81
403.078	90.81
403.302	89.81
403.526	86.81
403.75	86.81
403.974	78.81
404.198	77.81
404.422	90.81
404.645	69.81
404.869	86.81
405.093	96.81
405.317	105.81
405.541	97.81
405.765	94.81
405.988	97.81
406.212	167.81
406.436	193.81
406.66	142.81
406.883	89.81
407.107	87.81
407.331	105.81
407.555	92.81
407.778	90.81
408.002	93.81
408.226	80.81
408.449	94.81
408.673	87.81
408.896	94.81
409.12	95.81
409.344	87.81
409.567	89.81
409.791	84.81
410.014	93.81
410.238	95.81
410.461	89.81
410.685	84.81
410.908	101.81
411.132	108.81
411.355	96.81
411.578	101.81
411.802	69.81
412.025	80.81
412.249	96.81
412.472	96.81
412.695	95.81
412.919	103.81
413.142	88.81
413.365	88.81
413.589	87.81
413.812	81.81
414.035	87.81
414.258	88.81
414.482	92.81
414.705	84.81
414.928	89.81
415.151	90.81
415.374	91.81
415.597	94.81
415.821	95.81
416.044	91.81
416.267	96.81
416.49	99.81
416.713	88.81
416.936	85.81
417.159	82.81
417.382	85.81
417.605	98.81
417.828	93.81
418.051	95.81
418.274	92.81
418.497	90.81
418.72	72.81
418.943	89.81
419.166	92.81
419.389	74.81
419.611	95.81
419.834	84.81
420.057	93.81
420.28	88.81
420.503	101.81
420.726	103.81
420.948	91.81
421.171	96.81
421.394	93.81
421.617	89.81
421.839	69.81
422.062	97.81
422.285	95.81
422.507	80.81
422.73	105.81
422.953	88.81
423.175	82.81
423.398	91.81
423.621	103.81
423.843	89.81
424.066	85.81
424.288	90.81
424.511	92.81
424.733	102.81
424.956	101.81
425.178	111.81
425.401	80.81
425.623	91.81
425.846	98.81
426.068	90.81
426.291	97.81
426.513	104.81
426.735	93.81
426.958	99.81
427.18	96.81
427.402	127.81
427.625	146.81
427.847	125.81
428.069	115.81
428.292	98.81
428.514	82.81
428.736	81.81
428.958	100.81
429.181	95.81
429.403	76.81
429.625	86.81
429.847	87.81
430.069	102.81
430.292	100.81
430.514	92.81
430.736	87.81
430.958	90.81
431.18	80.81
431.402	83.81
431.624	87.81
431.846	79.81
432.068	94.81
432.29	108.81
432.512	93.81
432.734	101.81
432.956	86.81
433.178	106.81
433.4	106.81
433.622	106.81
433.844	89.81
434.066	107.81
434.287	100.81
434.509	110.81
434.731	83.81
434.953	84.81
435.175	88.81
435.397	71.81
435.618	101.81
435.84	111.81
436.062	110.81
436.284	97.81
436.505	103.81
436.727	91.81
436.949	80.81
437.17	92.81
437.392	98.81
437.614	97.81
437.835	98.81
438.057	109.81
438.278	105.81
438.5	114.81
438.721	106.81
438.943	102.81
439.165	80.81
439.386	95.81
439.608	84.81
439.829	96.81
440.05	117.81
440.272	124.81
440.493	100.81
440.715	89.81
440.936	85.81
441.158	80.81
441.379	88.81
441.6	90.81
441.822	84.81
442.043	93.81
442.264	91.81
442.486	85.81
442.707	106.81
442.928	100.81
443.149	115.81
443.371	124.81
443.592	100.81
443.813	91.81
444.034	102.81
444.255	93.81
444.476	96.81
444.698	92.81
444.919	100.81
445.14	146.81
445.361	102.81
445.582	107.81
445.803	144.81
446.024	131.81
446.245	129.81
446.466	112.81
446.687	82.81
446.908	82.81
447.129	79.81
447.35	84.81
447.571	83.81
447.792	89.81
448.013	94.81
448.234	115.81
448.455	104.81
448.675	92.81
448.896	110.81
449.117	109.81
449.338	111.81
449.559	125.81
449.779	138.81
450	84.81
450.221	96.81
450.442	86.81
450.662	89.81
450.883	97.81
451.104	116.81
451.324	90.81
451.545	85.81
451.766	89.81
451.986	95.81
452.207	92.81
452.428	74.81
452.648	86.81
452.869	103.81
453.089	107.81
453.31	100.81
453.53	101.81
453.751	97.81
453.971	97.81
454.192	108.81
454.412	98.81
454.633	80.81
454.853	77.81
455.073	93.81
455.294	77.81
455.514	106.81
455.734	88.81
455.955	97.81
456.175	84.81
456.395	89.81
456.616	78.81
456.836	77.81
457.056	80.81
457.276	81.81
457.497	88.81
457.717	80.81
457.937	93.81
458.157	87.81
458.377	92.81
458.598	88.81
458.818	123.81
459.038	143.81
459.258	109.81
459.478	80.81
459.698	85.81
459.918	96.81
460.138	88.81
460.358	85.81
460.578	90.81
460.798	89.81
461.018	76.81
461.238	90.81
461.458	95.81
461.678	83.81
461.898	76.81
462.118	89.81
462.338	89.81
462.558	94.81
462.777	66.81
462.997	85.81
463.217	99.81
463.437	95.81
463.657	83.81
463.876	98.81
464.096	97.81
464.316	94.81
464.536	84.81
464.755	89.81
464.975	101.81
465.195	159.81
465.414	144.81
465.634	89.81
465.854	82.81
466.073	89.81
466.293	97.81
466.512	87.81
466.732	88.81
466.951	94.81
467.171	92.81
467.391	84.81
467.61	98.81
467.829	96.81
468.049	128.81
468.268	145.81
468.488	94.81
468.707	94.81
468.927	73.81
469.146	96.81
469.365	83.81
469.585	83.81
469.804	90.81
470.023	110.81
470.243	91.81
470.462	89.81
470.681	115.81
470.901	102.81
471.12	80.81
471.339	93.81
471.558	86.81
471.777	98.81
471.997	100.81
472.216	160.81
472.435	280.81
472.654	117.81
472.873	88.81
473.092	95.81
473.311	92.81
473.53	99.81
473.749	85.81
473.968	93.81
474.187	99.81
474.406	92.81
474.625	71.81
474.844	82.81
475.063	95.81
475.282	88.81
475.501	92.81
475.72	101.81
475.939	78.81
476.158	70.81
476.377	92.81
476.596	80.81
476.814	81.81
477.033	96.81
477.252	97.81
477.471	95.81
477.69	74.81
477.908	82.81
478.127	89.81
478.346	89.81
478.564	96.81
478.783	90.81
479.002	84.81
479.22	82.81
479.439	102.81
479.658	104.81
479.876	98.81
480.095	84.81
480.313	88.81
480.532	101.81
480.751	99.81
480.969	185.81
481.188	480.81
481.406	282.81
481.624	116.81
481.843	89.81
482.061	79.81
482.28	88.81
482.498	95.81
482.717	94.81
482.935	93.81
483.153	101.81
483.372	92.81
483.59	84.81
483.808	96.81
484.027	90.81
484.245	110.81
484.463	95.81
484.681	92.81
484.9	84.81
485.118	94.81
485.336	97.81
485.554	85.81
485.772	98.81
485.99	98.81
486.209	98.81
486.427	94.81
486.645	97.81
486.863	108.81
487.081	102.81
487.299	88.81
487.517	97.81
487.735	92.81
487.953	96.81
488.171	83.81
488.389	93.81
488.607	110.81
488.825	97.81
489.043	102.81
489.261	81.81
489.479	78.81
489.696	92.81
489.914	89.81
490.132	93.81
490.35	95.81
490.568	85.81
490.786	89.81
491.003	107.81
491.221	82.81
491.439	88.81
491.657	104.81
491.874	87.81
492.092	82.81
492.31	90.81
492.527	99.81
492.745	82.81
492.963	94.81
493.18	87.81
493.398	80.81
493.615	82.81
493.833	94.81
494.05	88.81
494.268	88.81
494.485	88.81
494.703	82.81
494.92	102.81
495.138	86.81
495.355	78.81
495.573	102.81
495.79	85.81
496.008	84.81
496.225	66.81
496.442	76.81
496.66	93.81
496.877	88.81
497.094	84.81
497.312	81.81
497.529	83.81
497.746	94.81
497.963	80.81
498.181	89.81
498.398	99.81
498.615	80.81
498.832	100.81
499.049	84.81
499.267	96.81
499.484	95.81
499.701	84.81
499.918	76.81
500.135	87.81
500.352	85.81
500.569	90.81
500.786	88.81
501.003	94.81
501.22	76.81
501.437	85.81
501.654	92.81
501.871	107.81
502.088	96.81
502.305	85.81
502.522	86.81
502.739	85.81
502.956	95.81
503.172	96.81
503.389	93.81
503.606	113.81
503.823	90.81
504.04	92.81
504.256	99.81
504.473	80.81
504.69	109.81
504.907	104.81
505.123	82.81
505.34	86.81
505.557	101.81
505.773	99.81
505.99	80.81
506.207	93.81
506.423	86.81
506.64	77.81
506.856	91.81
507.073	94.81
507.289	84.81
507.506	106.81
507.722	101.81
507.939	109.81
508.155	98.81
508.372	93.81
508.588	100.81
508.805	98.81
509.021	83.81
509.238	105.81
509.454	103.81
509.67	100.81
509.887	109.81
510.103	111.81
510.319	215.81
510.536	710.81
510.752	2144.81
510.968	585.81
511.184	133.81
511.401	96.81
511.617	82.81
511.833	96.81
512.049	93.81
512.265	96.81
512.481	89.81
512.698	84.81
512.914	87.81
513.13	92.81
513.346	93.81
513.562	95.81
513.778	93.81
513.994	88.81
514.21	84.81
514.426	86.81
514.642	133.81
514.858	117.81
515.074	156.81
515.29	424.81
515.506	1337.81
515.721	497.81
515.937	144.81
516.153	102.81
