Data from Circ_1986_H10_HRD10591_00072.txt Node
Date: Wed Jan 03 12:15:40 EST 2024
User: Yrep
Spectrometer: HR+D1059
Trigger mode: 1
Integration Time (sec): 1.000000E-1
Scans to average: 1
Electric dark correction enabled: true
Nonlinearity correction enabled: false
Boxcar width: 0
XAxis mode: Wavelengths
Number of Pixels in Spectrum: 2048
>>>>>Begin Spectral Data<<<<<
223.165	-11.75
223.4	-11.75
223.635	-11.75
223.869	-28.75
224.104	-16.75
224.338	-16.75
224.573	-6.75
224.808	3.25
225.042	0.25
225.277	-12.75
225.511	2.25
225.746	-2.75
225.98	0.25
226.215	19.25
226.449	8.25
226.683	27.25
226.918	17.25
227.152	18.25
227.387	34.25
227.621	37.25
227.856	42.25
228.09	37.25
228.324	45.25
228.559	43.25
228.793	43.25
229.027	56.25
229.262	57.25
229.496	67.25
229.73	62.25
229.964	61.25
230.199	64.25
230.433	63.25
230.667	50.25
230.901	83.25
231.136	59.25
231.37	76.25
231.604	77.25
231.838	82.25
232.072	84.25
232.306	80.25
232.541	80.25
232.775	65.25
233.009	89.25
233.243	79.25
233.477	81.25
233.711	71.25
233.945	70.25
234.179	75.25
234.413	62.25
234.647	65.25
234.881	77.25
235.115	79.25
235.349	81.25
235.583	77.25
235.817	86.25
236.051	62.25
236.285	89.25
236.519	82.25
236.753	71.25
236.987	70.25
237.221	80.25
237.455	77.25
237.689	70.25
237.922	76.25
238.156	69.25
238.39	63.25
238.624	67.25
238.858	77.25
239.091	67.25
239.325	65.25
239.559	80.25
239.793	80.25
240.027	85.25
240.26	74.25
240.494	83.25
240.728	60.25
240.961	65.25
241.195	80.25
241.429	82.25
241.662	71.25
241.896	71.25
242.13	64.25
242.363	62.25
242.597	68.25
242.83	65.25
243.064	77.25
243.298	80.25
243.531	70.25
243.765	83.25
243.998	69.25
244.232	71.25
244.465	77.25
244.699	85.25
244.932	79.25
245.166	73.25
245.399	63.25
245.633	76.25
245.866	75.25
246.099	76.25
246.333	65.25
246.566	77.25
246.8	73.25
247.033	68.25
247.266	70.25
247.5	82.25
247.733	59.25
247.966	69.25
248.2	94.25
248.433	60.25
248.666	83.25
248.899	82.25
249.133	92.25
249.366	91.25
249.599	95.25
249.832	71.25
250.066	70.25
250.299	78.25
250.532	72.25
250.765	64.25
250.998	78.25
251.231	89.25
251.465	81.25
251.698	71.25
251.931	94.25
252.164	77.25
252.397	79.25
252.63	81.25
252.863	61.25
253.096	81.25
253.329	90.25
253.562	75.25
253.795	71.25
254.028	77.25
254.261	86.25
254.494	79.25
254.727	78.25
254.96	81.25
255.193	76.25
255.426	82.25
255.659	72.25
255.892	77.25
256.124	86.25
256.357	84.25
256.59	77.25
256.823	80.25
257.056	87.25
257.289	84.25
257.521	75.25
257.754	84.25
257.987	72.25
258.22	80.25
258.452	80.25
258.685	76.25
258.918	76.25
259.151	82.25
259.383	81.25
259.616	71.25
259.849	69.25
260.081	82.25
260.314	83.25
260.547	75.25
260.779	72.25
261.012	79.25
261.244	82.25
261.477	87.25
261.71	82.25
261.942	88.25
262.175	101.25
262.407	80.25
262.64	81.25
262.872	71.25
263.105	79.25
263.337	95.25
263.57	91.25
263.802	85.25
264.035	69.25
264.267	87.25
264.499	79.25
264.732	87.25
264.964	75.25
265.197	76.25
265.429	92.25
265.661	78.25
265.894	83.25
266.126	80.25
266.358	80.25
266.591	94.25
266.823	75.25
267.055	77.25
267.287	71.25
267.52	65.25
267.752	71.25
267.984	83.25
268.216	79.25
268.448	82.25
268.681	88.25
268.913	92.25
269.145	87.25
269.377	90.25
269.609	79.25
269.841	80.25
270.073	76.25
270.306	69.25
270.538	98.25
270.77	102.25
271.002	85.25
271.234	67.25
271.466	83.25
271.698	78.25
271.93	88.25
272.162	81.25
272.394	86.25
272.626	73.25
272.858	85.25
273.09	90.25
273.322	76.25
273.553	79.25
273.785	86.25
274.017	80.25
274.249	84.25
274.481	70.25
274.713	89.25
274.945	94.25
275.176	71.25
275.408	73.25
275.64	76.25
275.872	88.25
276.104	95.25
276.335	97.25
276.567	100.25
276.799	102.25
277.031	95.25
277.262	89.25
277.494	87.25
277.726	84.25
277.957	74.25
278.189	79.25
278.421	81.25
278.652	102.25
278.884	82.25
279.115	91.25
279.347	89.25
279.579	84.25
279.81	99.25
280.042	81.25
280.273	88.25
280.505	95.25
280.736	82.25
280.968	101.25
281.199	90.25
281.431	81.25
281.662	81.25
281.894	77.25
282.125	104.25
282.356	93.25
282.588	113.25
282.819	105.25
283.051	81.25
283.282	76.25
283.513	88.25
283.745	83.25
283.976	69.25
284.207	90.25
284.439	89.25
284.67	89.25
284.901	79.25
285.132	92.25
285.364	80.25
285.595	82.25
285.826	96.25
286.057	95.25
286.288	82.25
286.52	95.25
286.751	89.25
286.982	91.25
287.213	80.25
287.444	78.25
287.675	89.25
287.906	83.25
288.138	92.25
288.369	102.25
288.6	86.25
288.831	87.25
289.062	99.25
289.293	79.25
289.524	91.25
289.755	78.25
289.986	89.25
290.217	75.25
290.448	76.25
290.679	77.25
290.91	70.25
291.141	61.25
291.371	89.25
291.602	79.25
291.833	71.25
292.064	80.25
292.295	79.25
292.526	84.25
292.757	85.25
292.987	82.25
293.218	81.25
293.449	78.25
293.68	73.25
293.91	98.25
294.141	94.25
294.372	94.25
294.603	87.25
294.833	87.25
295.064	88.25
295.295	91.25
295.525	83.25
295.756	97.25
295.987	95.25
296.217	109.25
296.448	107.25
296.679	72.25
296.909	88.25
297.14	91.25
297.37	87.25
297.601	89.25
297.831	77.25
298.062	96.25
298.292	78.25
298.523	95.25
298.753	87.25
298.984	80.25
299.214	70.25
299.445	77.25
299.675	88.25
299.905	84.25
300.136	85.25
300.366	72.25
300.597	87.25
300.827	86.25
301.057	101.25
301.288	88.25
301.518	97.25
301.748	91.25
301.979	86.25
302.209	104.25
302.439	81.25
302.669	76.25
302.9	85.25
303.13	92.25
303.36	85.25
303.59	87.25
303.82	83.25
304.051	86.25
304.281	91.25
304.511	84.25
304.741	85.25
304.971	86.25
305.201	91.25
305.431	98.25
305.661	94.25
305.891	85.25
306.121	98.25
306.352	82.25
306.582	95.25
306.812	90.25
307.042	99.25
307.272	90.25
307.502	81.25
307.731	87.25
307.961	103.25
308.191	74.25
308.421	112.25
308.651	78.25
308.881	96.25
309.111	89.25
309.341	75.25
309.571	83.25
309.8	103.25
310.03	80.25
310.26	87.25
310.49	101.25
310.72	91.25
310.949	82.25
311.179	79.25
311.409	89.25
311.639	101.25
311.868	77.25
312.098	90.25
312.328	84.25
312.557	95.25
312.787	94.25
313.017	79.25
313.246	65.25
313.476	85.25
313.706	92.25
313.935	85.25
314.165	100.25
314.394	105.25
314.624	101.25
314.853	92.25
315.083	84.25
315.312	92.25
315.542	85.25
315.771	97.25
316.001	71.25
316.23	84.25
316.46	89.25
316.689	85.25
316.919	80.25
317.148	92.25
317.377	88.25
317.607	81.25
317.836	81.25
318.065	92.25
318.295	82.25
318.524	77.25
318.753	88.25
318.983	97.25
319.212	92.25
319.441	100.25
319.67	103.25
319.9	100.25
320.129	89.25
320.358	103.25
320.587	95.25
320.816	92.25
321.046	106.25
321.275	102.25
321.504	92.25
321.733	102.25
321.962	95.25
322.191	106.25
322.42	93.25
322.649	114.25
322.878	94.25
323.108	97.25
323.337	116.25
323.566	132.25
323.795	135.25
324.024	174.25
324.253	323.25
324.482	645.25
324.71	1344.25
324.939	1780.25
325.168	659.25
325.397	205.25
325.626	141.25
325.855	122.25
326.084	111.25
326.313	114.25
326.542	139.25
326.77	200.25
326.999	376.25
327.228	721.25
327.457	1398.25
327.686	1084.25
327.914	315.25
328.143	176.25
328.372	135.25
328.6	114.25
328.829	131.25
329.058	110.25
329.287	105.25
329.515	99.25
329.744	98.25
329.972	121.25
330.201	134.25
330.43	175.25
330.658	135.25
330.887	129.25
331.115	98.25
331.344	95.25
331.572	96.25
331.801	104.25
332.03	105.25
332.258	88.25
332.486	87.25
332.715	87.25
332.943	94.25
333.172	98.25
333.4	98.25
333.629	113.25
333.857	115.25
334.085	118.25
334.314	146.25
334.542	204.25
334.771	203.25
334.999	119.25
335.227	97.25
335.455	67.25
335.684	98.25
335.912	96.25
336.14	90.25
336.369	88.25
336.597	88.25
336.825	100.25
337.053	84.25
337.281	92.25
337.51	109.25
337.738	83.25
337.966	98.25
338.194	79.25
338.422	88.25
338.65	85.25
338.878	99.25
339.106	83.25
339.334	99.25
339.562	81.25
339.79	84.25
340.018	79.25
340.246	102.25
340.474	91.25
340.702	94.25
340.93	104.25
341.158	94.25
341.386	75.25
341.614	98.25
341.842	90.25
342.07	86.25
342.298	89.25
342.526	80.25
342.754	88.25
342.981	72.25
343.209	92.25
343.437	111.25
343.665	86.25
343.893	76.25
344.12	88.25
344.348	86.25
344.576	88.25
344.804	102.25
345.031	82.25
345.259	108.25
345.487	96.25
345.714	100.25
345.942	88.25
346.17	91.25
346.397	93.25
346.625	91.25
346.853	93.25
347.08	97.25
347.308	95.25
347.535	95.25
347.763	97.25
347.99	88.25
348.218	103.25
348.445	102.25
348.673	89.25
348.9	99.25
349.128	103.25
349.355	82.25
349.583	92.25
349.81	97.25
350.037	93.25
350.265	91.25
350.492	88.25
350.72	101.25
350.947	101.25
351.174	94.25
351.402	104.25
351.629	108.25
351.856	90.25
352.083	100.25
352.311	99.25
352.538	98.25
352.765	97.25
352.992	123.25
353.22	107.25
353.447	89.25
353.674	92.25
353.901	95.25
354.128	99.25
354.355	91.25
354.583	99.25
354.81	101.25
355.037	82.25
355.264	87.25
355.491	85.25
355.718	100.25
355.945	87.25
356.172	87.25
356.399	91.25
356.626	71.25
356.853	88.25
357.08	113.25
357.307	80.25
357.534	87.25
357.761	104.25
357.988	88.25
358.215	92.25
358.441	88.25
358.668	104.25
358.895	93.25
359.122	94.25
359.349	106.25
359.576	97.25
359.802	99.25
360.029	101.25
360.256	101.25
360.483	91.25
360.709	83.25
360.936	82.25
361.163	81.25
361.39	89.25
361.616	65.25
361.843	91.25
362.07	96.25
362.296	67.25
362.523	85.25
362.749	100.25
362.976	89.25
363.203	93.25
363.429	93.25
363.656	83.25
363.882	82.25
364.109	79.25
364.335	82.25
364.562	100.25
364.788	71.25
365.015	89.25
365.241	85.25
365.468	103.25
365.694	105.25
365.92	94.25
366.147	89.25
366.373	83.25
366.599	87.25
366.826	88.25
367.052	93.25
367.278	77.25
367.505	82.25
367.731	86.25
367.957	83.25
368.184	93.25
368.41	102.25
368.636	110.25
368.862	101.25
369.089	93.25
369.315	91.25
369.541	95.25
369.767	81.25
369.993	65.25
370.219	95.25
370.445	80.25
370.672	83.25
370.898	92.25
371.124	80.25
371.35	92.25
371.576	70.25
371.802	87.25
372.028	70.25
372.254	89.25
372.48	91.25
372.706	87.25
372.932	97.25
373.158	88.25
373.384	94.25
373.61	76.25
373.835	87.25
374.061	76.25
374.287	91.25
374.513	82.25
374.739	95.25
374.965	87.25
375.191	86.25
375.416	80.25
375.642	94.25
375.868	79.25
376.094	79.25
376.319	78.25
376.545	91.25
376.771	76.25
376.997	75.25
377.222	72.25
377.448	89.25
377.674	94.25
377.899	77.25
378.125	75.25
378.35	80.25
378.576	95.25
378.802	84.25
379.027	88.25
379.253	86.25
379.478	91.25
379.704	105.25
379.929	86.25
380.155	88.25
380.38	81.25
380.606	96.25
380.831	87.25
381.057	94.25
381.282	86.25
381.507	92.25
381.733	85.25
381.958	104.25
382.184	96.25
382.409	91.25
382.634	92.25
382.86	83.25
383.085	96.25
383.31	98.25
383.535	85.25
383.761	92.25
383.986	92.25
384.211	102.25
384.436	96.25
384.662	100.25
384.887	101.25
385.112	110.25
385.337	105.25
385.562	108.25
385.787	93.25
386.013	111.25
386.238	108.25
386.463	115.25
386.688	96.25
386.913	108.25
387.138	103.25
387.363	88.25
387.588	83.25
387.813	87.25
388.038	91.25
388.263	111.25
388.488	104.25
388.713	93.25
388.938	87.25
389.163	79.25
389.387	82.25
389.612	100.25
389.837	87.25
390.062	86.25
390.287	82.25
390.512	61.25
390.736	87.25
390.961	82.25
391.186	93.25
391.411	93.25
391.636	96.25
391.86	78.25
392.085	86.25
392.31	69.25
392.534	82.25
392.759	82.25
392.984	91.25
393.208	53.25
393.433	80.25
393.658	86.25
393.882	89.25
394.107	79.25
394.331	83.25
394.556	96.25
394.78	81.25
395.005	86.25
395.229	95.25
395.454	81.25
395.678	79.25
395.903	67.25
396.127	86.25
396.352	89.25
396.576	87.25
396.801	81.25
397.025	80.25
397.249	76.25
397.474	87.25
397.698	93.25
397.922	100.25
398.147	82.25
398.371	81.25
398.595	87.25
398.82	83.25
399.044	84.25
399.268	93.25
399.492	83.25
399.717	88.25
399.941	78.25
400.165	84.25
400.389	79.25
400.613	90.25
400.837	103.25
401.062	83.25
401.286	94.25
401.51	91.25
401.734	91.25
401.958	97.25
402.182	116.25
402.406	124.25
402.63	102.25
402.854	92.25
403.078	86.25
403.302	84.25
403.526	70.25
403.75	93.25
403.974	81.25
404.198	65.25
404.422	74.25
404.645	83.25
404.869	76.25
405.093	85.25
405.317	93.25
405.541	92.25
405.765	84.25
405.988	88.25
406.212	148.25
406.436	183.25
406.66	121.25
406.883	87.25
407.107	92.25
407.331	74.25
407.555	102.25
407.778	93.25
408.002	95.25
408.226	72.25
408.449	85.25
408.673	93.25
408.896	91.25
409.12	79.25
409.344	73.25
409.567	79.25
409.791	79.25
410.014	83.25
410.238	84.25
410.461	83.25
410.685	82.25
410.908	81.25
411.132	96.25
411.355	91.25
411.578	94.25
411.802	85.25
412.025	80.25
412.249	94.25
412.472	90.25
412.695	100.25
412.919	88.25
413.142	84.25
413.365	72.25
413.589	78.25
413.812	97.25
414.035	87.25
414.258	83.25
414.482	85.25
414.705	93.25
414.928	93.25
415.151	87.25
415.374	86.25
415.597	78.25
415.821	97.25
416.044	85.25
416.267	81.25
416.49	87.25
416.713	83.25
416.936	77.25
417.159	79.25
417.382	71.25
417.605	85.25
417.828	95.25
418.051	96.25
418.274	87.25
418.497	97.25
418.72	93.25
418.943	78.25
419.166	83.25
419.389	80.25
419.611	81.25
419.834	91.25
420.057	94.25
420.28	93.25
420.503	78.25
420.726	95.25
420.948	86.25
421.171	88.25
421.394	82.25
421.617	85.25
421.839	91.25
422.062	80.25
422.285	92.25
422.507	89.25
422.73	105.25
422.953	90.25
423.175	84.25
423.398	81.25
423.621	82.25
423.843	75.25
424.066	85.25
424.288	85.25
424.511	90.25
424.733	96.25
424.956	85.25
425.178	112.25
425.401	78.25
425.623	107.25
425.846	88.25
426.068	81.25
426.291	83.25
426.513	81.25
426.735	88.25
426.958	89.25
427.18	94.25
427.402	117.25
427.625	133.25
427.847	117.25
428.069	114.25
428.292	87.25
428.514	91.25
428.736	104.25
428.958	82.25
429.181	78.25
429.403	80.25
429.625	83.25
429.847	102.25
430.069	88.25
430.292	79.25
430.514	86.25
430.736	72.25
430.958	79.25
431.18	93.25
431.402	85.25
431.624	81.25
431.846	79.25
432.068	90.25
432.29	95.25
432.512	87.25
432.734	71.25
432.956	91.25
433.178	92.25
433.4	105.25
433.622	91.25
433.844	79.25
434.066	105.25
434.287	97.25
434.509	79.25
434.731	81.25
434.953	85.25
435.175	75.25
435.397	90.25
435.618	69.25
435.84	102.25
436.062	111.25
436.284	121.25
436.505	102.25
436.727	84.25
436.949	94.25
437.17	90.25
437.392	86.25
437.614	88.25
437.835	100.25
438.057	96.25
438.278	97.25
438.5	104.25
438.721	93.25
438.943	87.25
439.165	87.25
439.386	91.25
439.608	82.25
439.829	101.25
440.05	108.25
440.272	120.25
440.493	78.25
440.715	75.25
440.936	82.25
441.158	84.25
441.379	87.25
441.6	83.25
441.822	99.25
442.043	88.25
442.264	95.25
442.486	81.25
442.707	88.25
442.928	96.25
443.149	97.25
443.371	103.25
443.592	98.25
443.813	88.25
444.034	108.25
444.255	76.25
444.476	86.25
444.698	92.25
444.919	81.25
445.14	127.25
445.361	134.25
445.582	107.25
445.803	113.25
446.024	104.25
446.245	114.25
446.466	109.25
446.687	92.25
446.908	82.25
447.129	96.25
447.35	70.25
447.571	81.25
447.792	88.25
448.013	73.25
448.234	101.25
448.455	104.25
448.675	91.25
448.896	108.25
449.117	95.25
449.338	105.25
449.559	108.25
449.779	115.25
450	101.25
450.221	94.25
450.442	91.25
450.662	95.25
450.883	109.25
451.104	95.25
451.324	94.25
451.545	86.25
451.766	79.25
451.986	89.25
452.207	80.25
452.428	85.25
452.648	92.25
452.869	90.25
453.089	91.25
453.31	104.25
453.53	88.25
453.751	90.25
453.971	91.25
454.192	102.25
454.412	84.25
454.633	75.25
454.853	93.25
455.073	99.25
455.294	87.25
455.514	92.25
455.734	96.25
455.955	85.25
456.175	77.25
456.395	86.25
456.616	81.25
456.836	85.25
457.056	77.25
457.276	71.25
457.497	75.25
457.717	77.25
457.937	71.25
458.157	84.25
458.377	79.25
458.598	96.25
458.818	127.25
459.038	134.25
459.258	88.25
459.478	89.25
459.698	89.25
459.918	79.25
460.138	77.25
460.358	70.25
460.578	72.25
460.798	75.25
461.018	81.25
461.238	87.25
461.458	77.25
461.678	86.25
461.898	87.25
462.118	77.25
462.338	90.25
462.558	68.25
462.777	88.25
462.997	92.25
463.217	81.25
463.437	99.25
463.657	100.25
463.876	95.25
464.096	87.25
464.316	95.25
464.536	89.25
464.755	89.25
464.975	76.25
465.195	143.25
465.414	127.25
465.634	97.25
465.854	71.25
466.073	72.25
466.293	86.25
466.512	89.25
466.732	89.25
466.951	92.25
467.171	100.25
467.391	93.25
467.61	101.25
467.829	109.25
468.049	110.25
468.268	128.25
468.488	78.25
468.707	83.25
468.927	85.25
469.146	89.25
469.365	83.25
469.585	88.25
469.804	86.25
470.023	101.25
470.243	94.25
470.462	89.25
470.681	81.25
470.901	72.25
471.12	90.25
471.339	89.25
471.558	85.25
471.777	90.25
471.997	87.25
472.216	157.25
472.435	239.25
472.654	95.25
472.873	86.25
473.092	78.25
473.311	85.25
473.53	98.25
473.749	85.25
473.968	103.25
474.187	83.25
474.406	86.25
474.625	79.25
474.844	89.25
475.063	92.25
475.282	81.25
475.501	83.25
475.72	88.25
475.939	85.25
476.158	94.25
476.377	97.25
476.596	71.25
476.814	81.25
477.033	98.25
477.252	77.25
477.471	82.25
477.69	72.25
477.908	67.25
478.127	85.25
478.346	81.25
478.564	76.25
478.783	93.25
479.002	89.25
479.22	81.25
479.439	92.25
479.658	95.25
479.876	87.25
480.095	92.25
480.313	104.25
480.532	80.25
480.751	99.25
480.969	163.25
481.188	421.25
481.406	258.25
481.624	99.25
481.843	88.25
482.061	86.25
482.28	80.25
482.498	88.25
482.717	92.25
482.935	81.25
483.153	83.25
483.372	85.25
483.59	75.25
483.808	78.25
484.027	85.25
484.245	78.25
484.463	73.25
484.681	84.25
484.9	100.25
485.118	97.25
485.336	82.25
485.554	97.25
485.772	94.25
485.99	91.25
486.209	94.25
486.427	92.25
486.645	110.25
486.863	105.25
487.081	102.25
487.299	82.25
487.517	91.25
487.735	88.25
487.953	83.25
488.171	95.25
488.389	82.25
488.607	88.25
488.825	94.25
489.043	101.25
489.261	80.25
489.479	94.25
489.696	77.25
489.914	88.25
490.132	91.25
490.35	94.25
490.568	95.25
490.786	85.25
491.003	86.25
491.221	76.25
491.439	79.25
491.657	79.25
491.874	94.25
492.092	94.25
492.31	86.25
492.527	82.25
492.745	82.25
492.963	81.25
493.18	93.25
493.398	97.25
493.615	82.25
493.833	89.25
494.05	82.25
494.268	77.25
494.485	88.25
494.703	76.25
494.92	81.25
495.138	86.25
495.355	83.25
495.573	81.25
495.79	83.25
496.008	94.25
496.225	80.25
496.442	93.25
496.66	99.25
496.877	83.25
497.094	80.25
497.312	79.25
497.529	85.25
497.746	87.25
497.963	91.25
498.181	77.25
498.398	94.25
498.615	116.25
498.832	89.25
499.049	89.25
499.267	90.25
499.484	83.25
499.701	96.25
499.918	83.25
500.135	89.25
500.352	93.25
500.569	89.25
500.786	83.25
501.003	68.25
501.22	88.25
501.437	81.25
501.654	86.25
501.871	84.25
502.088	91.25
502.305	95.25
502.522	92.25
502.739	80.25
502.956	73.25
503.172	74.25
503.389	79.25
503.606	90.25
503.823	88.25
504.04	101.25
504.256	81.25
504.473	90.25
504.69	89.25
504.907	89.25
505.123	86.25
505.34	97.25
505.557	87.25
505.773	79.25
505.99	80.25
506.207	99.25
506.423	87.25
506.64	79.25
506.856	97.25
507.073	81.25
507.289	87.25
507.506	89.25
507.722	103.25
507.939	105.25
508.155	83.25
508.372	81.25
508.588	89.25
508.805	95.25
509.021	86.25
509.238	91.25
509.454	111.25
509.67	96.25
509.887	92.25
510.103	123.25
510.319	193.25
510.536	587.25
510.752	1750.25
510.968	496.25
511.184	144.25
511.401	111.25
511.617	86.25
511.833	100.25
512.049	85.25
512.265	82.25
512.481	84.25
512.698	109.25
512.914	93.25
513.13	84.25
513.346	69.25
513.562	88.25
513.778	98.25
513.994	88.25
514.21	84.25
514.426	101.25
514.642	116.25
514.858	115.25
515.074	148.25
515.29	345.25
515.506	1057.25
515.721	400.25
515.937	133.25
516.153	93.25
516.369	91.25
516.585	82.25
516.801	78.25
517.016	93.25
