Data from Circ_1986_H10_HRD10591_00048.txt Node
Date: Wed Jan 03 12:15:35 EST 2024
User: Yrep
Spectrometer: HR+D1059
Trigger mode: 1
Integration Time (sec): 1.000000E-1
Scans to average: 1
Electric dark correction enabled: true
Nonlinearity correction enabled: false
Boxcar width: 0
XAxis mode: Wavelengths
Number of Pixels in Spectrum: 2048
>>>>>Begin Spectral Data<<<<<
223.165	-17.06
223.4	-17.06
223.635	-17.06
223.869	-19.06
224.104	-36.06
224.338	-25.06
224.573	-16.06
224.808	-23.06
225.042	0.94
225.277	0.94
225.511	-3.06
225.746	0.94
225.98	7.94
226.215	25.94
226.449	29.94
226.683	35.94
226.918	8.94
227.152	27.94
227.387	39.94
227.621	37.94
227.856	50.94
228.09	40.94
228.324	50.94
228.559	44.94
228.793	64.94
229.027	69.94
229.262	68.94
229.496	59.94
229.73	57.94
229.964	69.94
230.199	71.94
230.433	56.94
230.667	63.94
230.901	91.94
231.136	84.94
231.37	80.94
231.604	57.94
231.838	88.94
232.072	70.94
232.306	65.94
232.541	79.94
232.775	66.94
233.009	68.94
233.243	68.94
233.477	89.94
233.711	77.94
233.945	76.94
234.179	80.94
234.413	78.94
234.647	76.94
234.881	80.94
235.115	82.94
235.349	79.94
235.583	71.94
235.817	72.94
236.051	77.94
236.285	77.94
236.519	67.94
236.753	75.94
236.987	80.94
237.221	76.94
237.455	64.94
237.689	73.94
237.922	73.94
238.156	82.94
238.39	67.94
238.624	52.94
238.858	61.94
239.091	72.94
239.325	91.94
239.559	83.94
239.793	68.94
240.027	64.94
240.26	81.94
240.494	79.94
240.728	67.94
240.961	67.94
241.195	88.94
241.429	63.94
241.662	69.94
241.896	78.94
242.13	57.94
242.363	72.94
242.597	83.94
242.83	91.94
243.064	65.94
243.298	67.94
243.531	78.94
243.765	67.94
243.998	68.94
244.232	57.94
244.465	85.94
244.699	65.94
244.932	78.94
245.166	81.94
245.399	84.94
245.633	73.94
245.866	79.94
246.099	79.94
246.333	79.94
246.566	82.94
246.8	86.94
247.033	75.94
247.266	79.94
247.5	79.94
247.733	84.94
247.966	75.94
248.2	75.94
248.433	73.94
248.666	72.94
248.899	65.94
249.133	85.94
249.366	89.94
249.599	95.94
249.832	72.94
250.066	89.94
250.299	67.94
250.532	72.94
250.765	91.94
250.998	79.94
251.231	82.94
251.465	77.94
251.698	63.94
251.931	72.94
252.164	89.94
252.397	71.94
252.63	88.94
252.863	93.94
253.096	62.94
253.329	67.94
253.562	76.94
253.795	72.94
254.028	67.94
254.261	82.94
254.494	73.94
254.727	79.94
254.96	70.94
255.193	81.94
255.426	80.94
255.659	72.94
255.892	84.94
256.124	69.94
256.357	83.94
256.59	84.94
256.823	81.94
257.056	79.94
257.289	78.94
257.521	77.94
257.754	68.94
257.987	86.94
258.22	82.94
258.452	89.94
258.685	67.94
258.918	78.94
259.151	82.94
259.383	81.94
259.616	73.94
259.849	89.94
260.081	74.94
260.314	91.94
260.547	79.94
260.779	87.94
261.012	81.94
261.244	70.94
261.477	91.94
261.71	89.94
261.942	103.94
262.175	103.94
262.407	87.94
262.64	81.94
262.872	83.94
263.105	95.94
263.337	76.94
263.57	77.94
263.802	79.94
264.035	79.94
264.267	89.94
264.499	71.94
264.732	80.94
264.964	89.94
265.197	69.94
265.429	77.94
265.661	73.94
265.894	73.94
266.126	72.94
266.358	79.94
266.591	77.94
266.823	67.94
267.055	78.94
267.287	77.94
267.52	75.94
267.752	76.94
267.984	83.94
268.216	79.94
268.448	83.94
268.681	64.94
268.913	91.94
269.145	78.94
269.377	73.94
269.609	70.94
269.841	79.94
270.073	76.94
270.306	89.94
270.538	83.94
270.77	79.94
271.002	82.94
271.234	78.94
271.466	87.94
271.698	87.94
271.93	99.94
272.162	96.94
272.394	85.94
272.626	84.94
272.858	82.94
273.09	86.94
273.322	78.94
273.553	88.94
273.785	89.94
274.017	82.94
274.249	79.94
274.481	76.94
274.713	75.94
274.945	87.94
275.176	83.94
275.408	68.94
275.64	88.94
275.872	75.94
276.104	85.94
276.335	91.94
276.567	102.94
276.799	99.94
277.031	94.94
277.262	86.94
277.494	95.94
277.726	62.94
277.957	75.94
278.189	80.94
278.421	76.94
278.652	81.94
278.884	87.94
279.115	77.94
279.347	85.94
279.579	84.94
279.81	79.94
280.042	76.94
280.273	87.94
280.505	103.94
280.736	83.94
280.968	87.94
281.199	97.94
281.431	71.94
281.662	75.94
281.894	68.94
282.125	89.94
282.356	101.94
282.588	109.94
282.819	97.94
283.051	90.94
283.282	85.94
283.513	84.94
283.745	82.94
283.976	87.94
284.207	93.94
284.439	81.94
284.67	85.94
284.901	73.94
285.132	91.94
285.364	86.94
285.595	87.94
285.826	81.94
286.057	92.94
286.288	77.94
286.52	77.94
286.751	76.94
286.982	93.94
287.213	89.94
287.444	91.94
287.675	92.94
287.906	78.94
288.138	79.94
288.369	87.94
288.6	72.94
288.831	71.94
289.062	82.94
289.293	91.94
289.524	87.94
289.755	79.94
289.986	95.94
290.217	81.94
290.448	94.94
290.679	97.94
290.91	85.94
291.141	94.94
291.371	91.94
291.602	81.94
291.833	91.94
292.064	83.94
292.295	91.94
292.526	87.94
292.757	87.94
292.987	78.94
293.218	87.94
293.449	93.94
293.68	78.94
293.91	79.94
294.141	80.94
294.372	80.94
294.603	69.94
294.833	104.94
295.064	89.94
295.295	84.94
295.525	96.94
295.756	97.94
295.987	109.94
296.217	122.94
296.448	112.94
296.679	74.94
296.909	99.94
297.14	75.94
297.37	96.94
297.601	83.94
297.831	91.94
298.062	90.94
298.292	78.94
298.523	80.94
298.753	83.94
298.984	90.94
299.214	92.94
299.445	79.94
299.675	92.94
299.905	74.94
300.136	86.94
300.366	72.94
300.597	87.94
300.827	89.94
301.057	97.94
301.288	99.94
301.518	74.94
301.748	89.94
301.979	87.94
302.209	107.94
302.439	78.94
302.669	75.94
302.9	93.94
303.13	84.94
303.36	85.94
303.59	93.94
303.82	99.94
304.051	80.94
304.281	91.94
304.511	95.94
304.741	78.94
304.971	91.94
305.201	97.94
305.431	70.94
305.661	97.94
305.891	75.94
306.121	95.94
306.352	90.94
306.582	104.94
306.812	79.94
307.042	96.94
307.272	92.94
307.502	105.94
307.731	86.94
307.961	80.94
308.191	86.94
308.421	79.94
308.651	89.94
308.881	95.94
309.111	87.94
309.341	79.94
309.571	94.94
309.8	91.94
310.03	96.94
310.26	90.94
310.49	89.94
310.72	100.94
310.949	93.94
311.179	98.94
311.409	87.94
311.639	96.94
311.868	88.94
312.098	93.94
312.328	94.94
312.557	98.94
312.787	88.94
313.017	109.94
313.246	94.94
313.476	86.94
313.706	93.94
313.935	86.94
314.165	87.94
314.394	93.94
314.624	84.94
314.853	95.94
315.083	90.94
315.312	78.94
315.542	79.94
315.771	87.94
316.001	87.94
316.23	80.94
316.46	83.94
316.689	84.94
316.919	85.94
317.148	95.94
317.377	95.94
317.607	101.94
317.836	84.94
318.065	79.94
318.295	101.94
318.524	88.94
318.753	89.94
318.983	89.94
319.212	85.94
319.441	91.94
319.67	103.94
319.9	96.94
320.129	87.94
320.358	94.94
320.587	85.94
320.816	91.94
321.046	91.94
321.275	95.94
321.504	80.94
321.733	94.94
321.962	105.94
322.191	93.94
322.42	101.94
322.649	72.94
322.878	113.94
323.108	103.94
323.337	107.94
323.566	129.94
323.795	130.94
324.024	162.94
324.253	297.94
324.482	579.94
324.71	1181.94
324.939	1538.94
325.168	587.94
325.397	179.94
325.626	126.94
325.855	126.94
326.084	107.94
326.313	112.94
326.542	131.94
326.77	182.94
326.999	343.94
327.228	672.94
327.457	1218.94
327.686	983.94
327.914	283.94
328.143	183.94
328.372	121.94
328.6	114.94
328.829	113.94
329.058	116.94
329.287	109.94
329.515	89.94
329.744	108.94
329.972	106.94
330.201	146.94
330.43	147.94
330.658	124.94
330.887	107.94
331.115	108.94
331.344	98.94
331.572	93.94
331.801	88.94
332.03	96.94
332.258	90.94
332.486	81.94
332.715	93.94
332.943	92.94
333.172	97.94
333.4	89.94
333.629	105.94
333.857	103.94
334.085	118.94
334.314	140.94
334.542	166.94
334.771	169.94
334.999	110.94
335.227	97.94
335.455	98.94
335.684	96.94
335.912	95.94
336.14	95.94
336.369	90.94
336.597	85.94
336.825	99.94
337.053	86.94
337.281	73.94
337.51	92.94
337.738	102.94
337.966	72.94
338.194	80.94
338.422	88.94
338.65	72.94
338.878	85.94
339.106	73.94
339.334	95.94
339.562	80.94
339.79	92.94
340.018	92.94
340.246	96.94
340.474	82.94
340.702	75.94
340.93	83.94
341.158	83.94
341.386	93.94
341.614	78.94
341.842	83.94
342.07	80.94
342.298	80.94
342.526	81.94
342.754	92.94
342.981	91.94
343.209	90.94
343.437	106.94
343.665	80.94
343.893	94.94
344.12	92.94
344.348	86.94
344.576	96.94
344.804	88.94
345.031	81.94
345.259	92.94
345.487	91.94
345.714	86.94
345.942	88.94
346.17	81.94
346.397	88.94
346.625	92.94
346.853	84.94
347.08	79.94
347.308	95.94
347.535	76.94
347.763	76.94
347.99	89.94
348.218	106.94
348.445	102.94
348.673	89.94
348.9	88.94
349.128	81.94
349.355	99.94
349.583	103.94
349.81	99.94
350.037	83.94
350.265	87.94
350.492	95.94
350.72	87.94
350.947	93.94
351.174	105.94
351.402	104.94
351.629	100.94
351.856	103.94
352.083	107.94
352.311	104.94
352.538	99.94
352.765	96.94
352.992	111.94
353.22	97.94
353.447	97.94
353.674	86.94
353.901	94.94
354.128	104.94
354.355	87.94
354.583	97.94
354.81	102.94
355.037	88.94
355.264	90.94
355.491	98.94
355.718	91.94
355.945	99.94
356.172	103.94
356.399	91.94
356.626	92.94
356.853	85.94
357.08	88.94
357.307	89.94
357.534	98.94
357.761	92.94
357.988	91.94
358.215	100.94
358.441	96.94
358.668	92.94
358.895	75.94
359.122	69.94
359.349	87.94
359.576	87.94
359.802	85.94
360.029	111.94
360.256	95.94
360.483	89.94
360.709	87.94
360.936	100.94
361.163	88.94
361.39	98.94
361.616	92.94
361.843	88.94
362.07	82.94
362.296	92.94
362.523	86.94
362.749	83.94
362.976	85.94
363.203	77.94
363.429	80.94
363.656	79.94
363.882	85.94
364.109	92.94
364.335	89.94
364.562	79.94
364.788	80.94
365.015	92.94
365.241	93.94
365.468	90.94
365.694	88.94
365.92	93.94
366.147	91.94
366.373	80.94
366.599	91.94
366.826	80.94
367.052	87.94
367.278	95.94
367.505	79.94
367.731	84.94
367.957	72.94
368.184	89.94
368.41	95.94
368.636	92.94
368.862	111.94
369.089	95.94
369.315	90.94
369.541	91.94
369.767	77.94
369.993	97.94
370.219	81.94
370.445	93.94
370.672	78.94
370.898	75.94
371.124	94.94
371.35	84.94
371.576	85.94
371.802	75.94
372.028	83.94
372.254	72.94
372.48	89.94
372.706	82.94
372.932	77.94
373.158	103.94
373.384	96.94
373.61	93.94
373.835	79.94
374.061	83.94
374.287	91.94
374.513	95.94
374.739	79.94
374.965	80.94
375.191	78.94
375.416	87.94
375.642	95.94
375.868	75.94
376.094	90.94
376.319	80.94
376.545	87.94
376.771	76.94
376.997	87.94
377.222	71.94
377.448	68.94
377.674	95.94
377.899	87.94
378.125	97.94
378.35	96.94
378.576	77.94
378.802	91.94
379.027	84.94
379.253	91.94
379.478	105.94
379.704	85.94
379.929	85.94
380.155	82.94
380.38	91.94
380.606	79.94
380.831	84.94
381.057	99.94
381.282	89.94
381.507	84.94
381.733	97.94
381.958	98.94
382.184	89.94
382.409	107.94
382.634	100.94
382.86	105.94
383.085	104.94
383.31	104.94
383.535	85.94
383.761	105.94
383.986	98.94
384.211	101.94
384.436	101.94
384.662	91.94
384.887	106.94
385.112	111.94
385.337	95.94
385.562	83.94
385.787	105.94
386.013	95.94
386.238	97.94
386.463	106.94
386.688	107.94
386.913	104.94
387.138	116.94
387.363	96.94
387.588	91.94
387.813	107.94
388.038	97.94
388.263	98.94
388.488	97.94
388.713	78.94
388.938	90.94
389.163	97.94
389.387	93.94
389.612	87.94
389.837	88.94
390.062	84.94
390.287	87.94
390.512	95.94
390.736	83.94
390.961	89.94
391.186	93.94
391.411	82.94
391.636	77.94
391.86	75.94
392.085	96.94
392.31	82.94
392.534	84.94
392.759	75.94
392.984	83.94
393.208	75.94
393.433	77.94
393.658	96.94
393.882	75.94
394.107	86.94
394.331	92.94
394.556	88.94
394.78	83.94
395.005	100.94
395.229	87.94
395.454	84.94
395.678	87.94
395.903	89.94
396.127	85.94
396.352	91.94
396.576	84.94
396.801	69.94
397.025	88.94
397.249	86.94
397.474	104.94
397.698	73.94
397.922	87.94
398.147	90.94
398.371	81.94
398.595	79.94
398.82	88.94
399.044	89.94
399.268	95.94
399.492	88.94
399.717	77.94
399.941	77.94
400.165	91.94
400.389	89.94
400.613	83.94
400.837	90.94
401.062	83.94
401.286	91.94
401.51	77.94
401.734	85.94
401.958	91.94
402.182	101.94
402.406	128.94
402.63	104.94
402.854	93.94
403.078	89.94
403.302	83.94
403.526	84.94
403.75	74.94
403.974	89.94
404.198	76.94
404.422	85.94
404.645	89.94
404.869	93.94
405.093	102.94
405.317	101.94
405.541	101.94
405.765	97.94
405.988	105.94
406.212	147.94
406.436	165.94
406.66	126.94
406.883	105.94
407.107	85.94
407.331	85.94
407.555	101.94
407.778	90.94
408.002	87.94
408.226	82.94
408.449	91.94
408.673	78.94
408.896	89.94
409.12	94.94
409.344	88.94
409.567	88.94
409.791	94.94
410.014	94.94
410.238	93.94
410.461	96.94
410.685	88.94
410.908	95.94
411.132	91.94
411.355	95.94
411.578	100.94
411.802	103.94
412.025	78.94
412.249	85.94
412.472	84.94
412.695	71.94
412.919	86.94
413.142	95.94
413.365	79.94
413.589	86.94
413.812	88.94
414.035	82.94
414.258	89.94
414.482	91.94
414.705	88.94
414.928	94.94
415.151	80.94
415.374	84.94
415.597	85.94
415.821	100.94
416.044	81.94
416.267	88.94
416.49	91.94
416.713	79.94
416.936	80.94
417.159	84.94
417.382	87.94
417.605	87.94
417.828	85.94
418.051	92.94
418.274	88.94
418.497	95.94
418.72	66.94
418.943	95.94
419.166	85.94
419.389	83.94
419.611	86.94
419.834	88.94
420.057	71.94
420.28	89.94
420.503	93.94
420.726	84.94
420.948	82.94
421.171	96.94
421.394	91.94
421.617	84.94
421.839	79.94
422.062	92.94
422.285	89.94
422.507	92.94
422.73	91.94
422.953	83.94
423.175	90.94
423.398	86.94
423.621	97.94
423.843	85.94
424.066	66.94
424.288	83.94
424.511	91.94
424.733	94.94
424.956	93.94
425.178	85.94
425.401	93.94
425.623	91.94
425.846	77.94
426.068	82.94
426.291	92.94
426.513	72.94
426.735	84.94
426.958	94.94
427.18	91.94
427.402	107.94
427.625	143.94
427.847	119.94
428.069	113.94
428.292	94.94
428.514	87.94
428.736	97.94
428.958	79.94
429.181	91.94
429.403	92.94
429.625	84.94
429.847	89.94
430.069	97.94
430.292	94.94
430.514	79.94
430.736	81.94
430.958	88.94
431.18	81.94
431.402	79.94
431.624	90.94
431.846	81.94
432.068	83.94
432.29	81.94
432.512	77.94
432.734	89.94
432.956	80.94
433.178	92.94
433.4	79.94
433.622	93.94
433.844	92.94
434.066	81.94
434.287	88.94
434.509	80.94
434.731	90.94
434.953	92.94
435.175	76.94
435.397	85.94
435.618	97.94
435.84	102.94
436.062	109.94
436.284	96.94
436.505	88.94
436.727	95.94
436.949	77.94
437.17	88.94
437.392	67.94
437.614	94.94
437.835	98.94
438.057	105.94
438.278	100.94
438.5	90.94
438.721	100.94
438.943	86.94
439.165	75.94
439.386	78.94
439.608	76.94
439.829	82.94
440.05	101.94
440.272	111.94
440.493	91.94
440.715	93.94
440.936	79.94
441.158	90.94
441.379	88.94
441.6	94.94
441.822	87.94
442.043	89.94
442.264	104.94
442.486	84.94
442.707	82.94
442.928	88.94
443.149	93.94
443.371	121.94
443.592	88.94
443.813	95.94
444.034	99.94
444.255	86.94
444.476	77.94
444.698	72.94
444.919	88.94
445.14	135.94
445.361	119.94
445.582	69.94
445.803	115.94
446.024	111.94
446.245	118.94
446.466	107.94
446.687	77.94
446.908	71.94
447.129	78.94
447.35	88.94
447.571	93.94
447.792	89.94
448.013	91.94
448.234	96.94
448.455	73.94
448.675	94.94
448.896	105.94
449.117	93.94
449.338	94.94
449.559	108.94
449.779	112.94
450	89.94
450.221	87.94
450.442	81.94
450.662	84.94
450.883	84.94
451.104	88.94
451.324	85.94
451.545	75.94
451.766	80.94
451.986	84.94
452.207	86.94
452.428	91.94
452.648	91.94
452.869	106.94
453.089	118.94
453.31	117.94
453.53	84.94
453.751	79.94
453.971	87.94
454.192	89.94
454.412	98.94
454.633	87.94
454.853	76.94
455.073	87.94
455.294	85.94
455.514	96.94
455.734	92.94
455.955	76.94
456.175	71.94
456.395	94.94
456.616	93.94
456.836	82.94
457.056	70.94
457.276	75.94
457.497	85.94
457.717	83.94
457.937	92.94
458.157	88.94
458.377	93.94
458.598	94.94
458.818	114.94
459.038	115.94
459.258	87.94
459.478	79.94
459.698	81.94
459.918	90.94
460.138	91.94
460.358	78.94
460.578	72.94
460.798	89.94
461.018	92.94
461.238	96.94
461.458	87.94
461.678	88.94
461.898	89.94
462.118	95.94
462.338	83.94
462.558	87.94
462.777	90.94
462.997	90.94
463.217	100.94
463.437	88.94
463.657	77.94
463.876	84.94
464.096	77.94
464.316	81.94
464.536	88.94
464.755	86.94
464.975	94.94
465.195	135.94
465.414	130.94
465.634	84.94
465.854	91.94
466.073	85.94
466.293	78.94
466.512	75.94
466.732	76.94
466.951	72.94
467.171	69.94
467.391	85.94
467.61	97.94
467.829	93.94
468.049	108.94
468.268	116.94
468.488	91.94
468.707	82.94
468.927	79.94
469.146	90.94
469.365	81.94
469.585	77.94
469.804	92.94
470.023	73.94
470.243	88.94
470.462	83.94
470.681	98.94
470.901	91.94
471.12	92.94
471.339	77.94
471.558	95.94
471.777	98.94
471.997	94.94
472.216	150.94
472.435	192.94
472.654	113.94
472.873	78.94
473.092	79.94
473.311	70.94
473.53	79.94
473.749	79.94
473.968	91.94
474.187	94.94
474.406	81.94
474.625	92.94
474.844	82.94
475.063	92.94
475.282	80.94
475.501	92.94
475.72	86.94
475.939	91.94
476.158	103.94
476.377	71.94
476.596	79.94
476.814	81.94
477.033	82.94
477.252	86.94
477.471	87.94
477.69	74.94
477.908	87.94
478.127	91.94
478.346	80.94
478.564	81.94
478.783	98.94
479.002	81.94
479.22	81.94
479.439	102.94
479.658	93.94
479.876	88.94
480.095	89.94
480.313	84.94
480.532	81.94
480.751	92.94
480.969	146.94
481.188	303.94
481.406	225.94
481.624	97.94
481.843	82.94
482.061	76.94
482.28	83.94
482.498	81.94
482.717	81.94
482.935	96.94
483.153	85.94
483.372	86.94
483.59	73.94
483.808	95.94
484.027	88.94
484.245	70.94
484.463	89.94
484.681	93.94
484.9	93.94
485.118	99.94
485.336	103.94
485.554	82.94
485.772	99.94
485.99	87.94
486.209	88.94
486.427	93.94
486.645	99.94
486.863	93.94
487.081	105.94
487.299	108.94
487.517	96.94
487.735	108.94
487.953	92.94
488.171	87.94
488.389	88.94
488.607	85.94
488.825	103.94
489.043	84.94
489.261	85.94
489.479	87.94
489.696	79.94
489.914	77.94
490.132	72.94
490.35	91.94
490.568	82.94
490.786	105.94
491.003	80.94
491.221	78.94
491.439	85.94
491.657	86.94
491.874	95.94
492.092	82.94
492.31	93.94
492.527	86.94
492.745	94.94
492.963	91.94
493.18	89.94
493.398	98.94
493.615	89.94
493.833	90.94
494.05	83.94
494.268	76.94
494.485	80.94
494.703	89.94
494.92	101.94
495.138	88.94
495.355	103.94
495.573	87.94
495.79	99.94
496.008	103.94
496.225	87.94
496.442	91.94
496.66	82.94
496.877	83.94
497.094	80.94
497.312	91.94
497.529	86.94
497.746	82.94
497.963	78.94
498.181	94.94
498.398	84.94
498.615	94.94
498.832	103.94
499.049	86.94
499.267	91.94
499.484	79.94
499.701	88.94
499.918	84.94
500.135	101.94
500.352	100.94
500.569	86.94
500.786	83.94
501.003	84.94
501.22	81.94
501.437	68.94
501.654	89.94
501.871	81.94
502.088	87.94
502.305	77.94
502.522	104.94
502.739	81.94
502.956	91.94
503.172	92.94
503.389	95.94
503.606	99.94
503.823	103.94
504.04	89.94
504.256	98.94
504.473	81.94
504.69	85.94
504.907	102.94
505.123	94.94
505.34	82.94
505.557	85.94
505.773	85.94
505.99	93.94
506.207	92.94
506.423	95.94
506.64	80.94
506.856	88.94
507.073	80.94
507.289	89.94
507.506	99.94
507.722	100.94
507.939	101.94
508.155	75.94
508.372	98.94
508.588	80.94
508.805	95.94
509.021	92.94
509.238	80.94
509.454	86.94
509.67	96.94
509.887	104.94
510.103	111.94
510.319	167.94
510.536	597.94
510.752	1731.94
510.968	494.94
511.184	124.94
511.401	112.94
511.617	96.94
511.833	82.94
512.049	98.94
512.265	76.94
512.481	86.94
512.698	90.94
512.914	79.94
513.13	81.94
513.346	84.94
513.562	97.94
513.778	83.94
513.994	95.94
514.21	103.94
514.426	88.94
514.642	114.94
514.858	94.94
515.074	124.94
515.29	332.94
515.506	1032.94
515.721	376.94
515.937	124.94
516.153	111.94
516.369	99.94
516.585	88.94
516.801	86.94
517.016	95.94
517.232	87.94
517.448	88.94
