Data from Circ_1986_H10_HRD10591_00031.txt Node
Date: Wed Jan 03 12:15:32 EST 2024
User: Yrep
Spectrometer: HR+D1059
Trigger mode: 1
Integration Time (sec): 1.000000E-1
Scans to average: 1
Electric dark correction enabled: true
Nonlinearity correction enabled: false
Boxcar width: 0
XAxis mode: Wavelengths
Number of Pixels in Spectrum: 2048
>>>>>Begin Spectral Data<<<<<
223.165	-29.81
223.4	-29.81
223.635	-29.81
223.869	-20.81
224.104	-19.81
224.338	-7.81
224.573	-18.81
224.808	-7.81
225.042	-15.81
225.277	-12.81
225.511	-8.81
225.746	5.19
225.98	3.19
226.215	22.19
226.449	29.19
226.683	20.19
226.918	29.19
227.152	33.19
227.387	29.19
227.621	42.19
227.856	39.19
228.09	45.19
228.324	63.19
228.559	55.19
228.793	80.19
229.027	56.19
229.262	65.19
229.496	63.19
229.73	81.19
229.964	94.19
230.199	80.19
230.433	88.19
230.667	80.19
230.901	85.19
231.136	84.19
231.37	79.19
231.604	88.19
231.838	97.19
232.072	81.19
232.306	74.19
232.541	95.19
232.775	76.19
233.009	79.19
233.243	85.19
233.477	90.19
233.711	84.19
233.945	79.19
234.179	88.19
234.413	98.19
234.647	83.19
234.881	88.19
235.115	73.19
235.349	85.19
235.583	65.19
235.817	95.19
236.051	80.19
236.285	64.19
236.519	79.19
236.753	80.19
236.987	87.19
237.221	75.19
237.455	84.19
237.689	65.19
237.922	69.19
238.156	84.19
238.39	68.19
238.624	87.19
238.858	76.19
239.091	71.19
239.325	71.19
239.559	80.19
239.793	75.19
240.027	77.19
240.26	93.19
240.494	75.19
240.728	68.19
240.961	79.19
241.195	91.19
241.429	56.19
241.662	72.19
241.896	74.19
242.13	76.19
242.363	86.19
242.597	87.19
242.83	85.19
243.064	84.19
243.298	74.19
243.531	58.19
243.765	93.19
243.998	80.19
244.232	83.19
244.465	95.19
244.699	79.19
244.932	76.19
245.166	91.19
245.399	91.19
245.633	88.19
245.866	86.19
246.099	83.19
246.333	85.19
246.566	84.19
246.8	88.19
247.033	80.19
247.266	76.19
247.5	73.19
247.733	69.19
247.966	84.19
248.2	79.19
248.433	77.19
248.666	91.19
248.899	85.19
249.133	68.19
249.366	93.19
249.599	88.19
249.832	79.19
250.066	87.19
250.299	72.19
250.532	77.19
250.765	86.19
250.998	85.19
251.231	90.19
251.465	84.19
251.698	74.19
251.931	89.19
252.164	80.19
252.397	71.19
252.63	93.19
252.863	83.19
253.096	74.19
253.329	75.19
253.562	76.19
253.795	83.19
254.028	68.19
254.261	77.19
254.494	88.19
254.727	86.19
254.96	70.19
255.193	79.19
255.426	76.19
255.659	87.19
255.892	85.19
256.124	97.19
256.357	68.19
256.59	77.19
256.823	91.19
257.056	69.19
257.289	85.19
257.521	81.19
257.754	93.19
257.987	70.19
258.22	84.19
258.452	96.19
258.685	82.19
258.918	64.19
259.151	79.19
259.383	90.19
259.616	85.19
259.849	74.19
260.081	76.19
260.314	87.19
260.547	73.19
260.779	104.19
261.012	93.19
261.244	88.19
261.477	86.19
261.71	80.19
261.942	104.19
262.175	121.19
262.407	93.19
262.64	93.19
262.872	76.19
263.105	81.19
263.337	91.19
263.57	90.19
263.802	94.19
264.035	73.19
264.267	83.19
264.499	81.19
264.732	90.19
264.964	84.19
265.197	83.19
265.429	79.19
265.661	89.19
265.894	81.19
266.126	83.19
266.358	91.19
266.591	92.19
266.823	92.19
267.055	76.19
267.287	71.19
267.52	88.19
267.752	87.19
267.984	86.19
268.216	91.19
268.448	78.19
268.681	81.19
268.913	90.19
269.145	101.19
269.377	86.19
269.609	79.19
269.841	89.19
270.073	84.19
270.306	85.19
270.538	76.19
270.77	93.19
271.002	74.19
271.234	75.19
271.466	82.19
271.698	87.19
271.93	80.19
272.162	88.19
272.394	93.19
272.626	93.19
272.858	81.19
273.09	89.19
273.322	91.19
273.553	92.19
273.785	96.19
274.017	86.19
274.249	89.19
274.481	81.19
274.713	89.19
274.945	87.19
275.176	91.19
275.408	89.19
275.64	82.19
275.872	81.19
276.104	101.19
276.335	83.19
276.567	105.19
276.799	92.19
277.031	101.19
277.262	87.19
277.494	91.19
277.726	91.19
277.957	80.19
278.189	87.19
278.421	95.19
278.652	80.19
278.884	79.19
279.115	84.19
279.347	83.19
279.579	90.19
279.81	97.19
280.042	97.19
280.273	84.19
280.505	81.19
280.736	77.19
280.968	79.19
281.199	92.19
281.431	93.19
281.662	90.19
281.894	95.19
282.125	92.19
282.356	99.19
282.588	118.19
282.819	99.19
283.051	95.19
283.282	91.19
283.513	97.19
283.745	92.19
283.976	84.19
284.207	106.19
284.439	71.19
284.67	79.19
284.901	86.19
285.132	98.19
285.364	97.19
285.595	92.19
285.826	81.19
286.057	98.19
286.288	90.19
286.52	90.19
286.751	85.19
286.982	86.19
287.213	88.19
287.444	72.19
287.675	96.19
287.906	92.19
288.138	90.19
288.369	108.19
288.6	86.19
288.831	81.19
289.062	84.19
289.293	86.19
289.524	91.19
289.755	88.19
289.986	82.19
290.217	92.19
290.448	78.19
290.679	96.19
290.91	103.19
291.141	81.19
291.371	101.19
291.602	78.19
291.833	95.19
292.064	83.19
292.295	85.19
292.526	114.19
292.757	96.19
292.987	93.19
293.218	93.19
293.449	79.19
293.68	83.19
293.91	96.19
294.141	92.19
294.372	88.19
294.603	83.19
294.833	95.19
295.064	76.19
295.295	80.19
295.525	85.19
295.756	98.19
295.987	104.19
296.217	123.19
296.448	112.19
296.679	106.19
296.909	83.19
297.14	91.19
297.37	95.19
297.601	101.19
297.831	97.19
298.062	81.19
298.292	89.19
298.523	88.19
298.753	82.19
298.984	88.19
299.214	89.19
299.445	92.19
299.675	84.19
299.905	83.19
300.136	87.19
300.366	93.19
300.597	100.19
300.827	83.19
301.057	104.19
301.288	98.19
301.518	107.19
301.748	83.19
301.979	94.19
302.209	110.19
302.439	93.19
302.669	81.19
302.9	77.19
303.13	87.19
303.36	93.19
303.59	97.19
303.82	106.19
304.051	87.19
304.281	111.19
304.511	91.19
304.741	79.19
304.971	94.19
305.201	96.19
305.431	95.19
305.661	82.19
305.891	86.19
306.121	93.19
306.352	98.19
306.582	99.19
306.812	87.19
307.042	89.19
307.272	96.19
307.502	91.19
307.731	81.19
307.961	96.19
308.191	71.19
308.421	70.19
308.651	97.19
308.881	104.19
309.111	93.19
309.341	95.19
309.571	92.19
309.8	91.19
310.03	95.19
310.26	105.19
310.49	104.19
310.72	106.19
310.949	75.19
311.179	112.19
311.409	91.19
311.639	91.19
311.868	93.19
312.098	96.19
312.328	95.19
312.557	97.19
312.787	99.19
313.017	95.19
313.246	96.19
313.476	92.19
313.706	93.19
313.935	106.19
314.165	107.19
314.394	104.19
314.624	77.19
314.853	100.19
315.083	94.19
315.312	85.19
315.542	95.19
315.771	89.19
316.001	87.19
316.23	107.19
316.46	84.19
316.689	84.19
316.919	103.19
317.148	71.19
317.377	84.19
317.607	99.19
317.836	69.19
318.065	72.19
318.295	89.19
318.524	81.19
318.753	103.19
318.983	105.19
319.212	100.19
319.441	87.19
319.67	115.19
319.9	104.19
320.129	85.19
320.358	109.19
320.587	88.19
320.816	99.19
321.046	84.19
321.275	100.19
321.504	97.19
321.733	100.19
321.962	99.19
322.191	96.19
322.42	82.19
322.649	101.19
322.878	107.19
323.108	119.19
323.337	121.19
323.566	117.19
323.795	127.19
324.024	165.19
324.253	302.19
324.482	598.19
324.71	1194.19
324.939	1590.19
325.168	586.19
325.397	188.19
325.626	125.19
325.855	115.19
326.084	112.19
326.313	119.19
326.542	145.19
326.77	182.19
326.999	350.19
327.228	662.19
327.457	1237.19
327.686	1003.19
327.914	278.19
328.143	166.19
328.372	140.19
328.6	126.19
328.829	95.19
329.058	105.19
329.287	103.19
329.515	92.19
329.744	89.19
329.972	100.19
330.201	139.19
330.43	131.19
330.658	129.19
330.887	108.19
331.115	101.19
331.344	90.19
331.572	100.19
331.801	94.19
332.03	83.19
332.258	89.19
332.486	100.19
332.715	80.19
332.943	93.19
333.172	83.19
333.4	95.19
333.629	91.19
333.857	110.19
334.085	109.19
334.314	133.19
334.542	142.19
334.771	156.19
334.999	97.19
335.227	97.19
335.455	81.19
335.684	96.19
335.912	96.19
336.14	107.19
336.369	95.19
336.597	104.19
336.825	101.19
337.053	95.19
337.281	96.19
337.51	97.19
337.738	88.19
337.966	88.19
338.194	98.19
338.422	79.19
338.65	85.19
338.878	96.19
339.106	83.19
339.334	88.19
339.562	83.19
339.79	106.19
340.018	93.19
340.246	84.19
340.474	101.19
340.702	97.19
340.93	89.19
341.158	100.19
341.386	99.19
341.614	103.19
341.842	93.19
342.07	94.19
342.298	82.19
342.526	106.19
342.754	77.19
342.981	84.19
343.209	89.19
343.437	106.19
343.665	83.19
343.893	102.19
344.12	94.19
344.348	88.19
344.576	102.19
344.804	82.19
345.031	95.19
345.259	99.19
345.487	74.19
345.714	102.19
345.942	112.19
346.17	83.19
346.397	99.19
346.625	77.19
346.853	95.19
347.08	104.19
347.308	96.19
347.535	89.19
347.763	92.19
347.99	91.19
348.218	93.19
348.445	76.19
348.673	107.19
348.9	101.19
349.128	101.19
349.355	86.19
349.583	87.19
349.81	93.19
350.037	83.19
350.265	73.19
350.492	75.19
350.72	96.19
350.947	104.19
351.174	90.19
351.402	95.19
351.629	98.19
351.856	96.19
352.083	93.19
352.311	103.19
352.538	99.19
352.765	99.19
352.992	115.19
353.22	111.19
353.447	95.19
353.674	103.19
353.901	106.19
354.128	88.19
354.355	88.19
354.583	99.19
354.81	99.19
355.037	96.19
355.264	102.19
355.491	96.19
355.718	84.19
355.945	87.19
356.172	91.19
356.399	90.19
356.626	84.19
356.853	90.19
357.08	91.19
357.307	99.19
357.534	106.19
357.761	92.19
357.988	88.19
358.215	87.19
358.441	92.19
358.668	77.19
358.895	90.19
359.122	87.19
359.349	87.19
359.576	89.19
359.802	90.19
360.029	88.19
360.256	108.19
360.483	95.19
360.709	93.19
360.936	100.19
361.163	96.19
361.39	94.19
361.616	102.19
361.843	88.19
362.07	78.19
362.296	88.19
362.523	87.19
362.749	98.19
362.976	88.19
363.203	94.19
363.429	96.19
363.656	96.19
363.882	88.19
364.109	101.19
364.335	84.19
364.562	98.19
364.788	79.19
365.015	77.19
365.241	97.19
365.468	96.19
365.694	103.19
365.92	89.19
366.147	91.19
366.373	97.19
366.599	89.19
366.826	76.19
367.052	81.19
367.278	91.19
367.505	103.19
367.731	86.19
367.957	81.19
368.184	85.19
368.41	79.19
368.636	108.19
368.862	109.19
369.089	91.19
369.315	95.19
369.541	92.19
369.767	90.19
369.993	88.19
370.219	89.19
370.445	81.19
370.672	80.19
370.898	91.19
371.124	87.19
371.35	96.19
371.576	102.19
371.802	104.19
372.028	81.19
372.254	86.19
372.48	80.19
372.706	96.19
372.932	88.19
373.158	78.19
373.384	97.19
373.61	95.19
373.835	84.19
374.061	90.19
374.287	91.19
374.513	81.19
374.739	89.19
374.965	88.19
375.191	88.19
375.416	87.19
375.642	86.19
375.868	99.19
376.094	96.19
376.319	94.19
376.545	80.19
376.771	100.19
376.997	107.19
377.222	87.19
377.448	85.19
377.674	90.19
377.899	95.19
378.125	101.19
378.35	86.19
378.576	85.19
378.802	98.19
379.027	94.19
379.253	96.19
379.478	88.19
379.704	101.19
379.929	99.19
380.155	108.19
380.38	102.19
380.606	119.19
380.831	92.19
381.057	103.19
381.282	89.19
381.507	105.19
381.733	95.19
381.958	97.19
382.184	110.19
382.409	92.19
382.634	88.19
382.86	106.19
383.085	88.19
383.31	89.19
383.535	101.19
383.761	105.19
383.986	116.19
384.211	106.19
384.436	100.19
384.662	111.19
384.887	101.19
385.112	131.19
385.337	102.19
385.562	108.19
385.787	108.19
386.013	118.19
386.238	108.19
386.463	120.19
386.688	97.19
386.913	117.19
387.138	104.19
387.363	121.19
387.588	107.19
387.813	97.19
388.038	119.19
388.263	122.19
388.488	115.19
388.713	113.19
388.938	93.19
389.163	100.19
389.387	91.19
389.612	82.19
389.837	90.19
390.062	81.19
390.287	99.19
390.512	88.19
390.736	98.19
390.961	86.19
391.186	104.19
391.411	91.19
391.636	82.19
391.86	96.19
392.085	92.19
392.31	85.19
392.534	84.19
392.759	88.19
392.984	90.19
393.208	96.19
393.433	89.19
393.658	83.19
393.882	79.19
394.107	70.19
394.331	81.19
394.556	83.19
394.78	83.19
395.005	83.19
395.229	82.19
395.454	88.19
395.678	96.19
395.903	94.19
396.127	104.19
396.352	87.19
396.576	84.19
396.801	76.19
397.025	64.19
397.249	102.19
397.474	97.19
397.698	85.19
397.922	72.19
398.147	85.19
398.371	87.19
398.595	104.19
398.82	102.19
399.044	93.19
399.268	85.19
399.492	88.19
399.717	86.19
399.941	86.19
400.165	90.19
400.389	87.19
400.613	85.19
400.837	83.19
401.062	88.19
401.286	84.19
401.51	90.19
401.734	87.19
401.958	91.19
402.182	109.19
402.406	139.19
402.63	103.19
402.854	90.19
403.078	81.19
403.302	78.19
403.526	84.19
403.75	91.19
403.974	87.19
404.198	86.19
404.422	86.19
404.645	70.19
404.869	85.19
405.093	85.19
405.317	94.19
405.541	98.19
405.765	99.19
405.988	107.19
406.212	133.19
406.436	182.19
406.66	119.19
406.883	82.19
407.107	99.19
407.331	89.19
407.555	92.19
407.778	92.19
408.002	92.19
408.226	101.19
408.449	99.19
408.673	91.19
408.896	88.19
409.12	90.19
409.344	95.19
409.567	76.19
409.791	97.19
410.014	97.19
410.238	103.19
410.461	86.19
410.685	90.19
410.908	84.19
411.132	87.19
411.355	104.19
411.578	92.19
411.802	91.19
412.025	95.19
412.249	95.19
412.472	84.19
412.695	81.19
412.919	101.19
413.142	98.19
413.365	98.19
413.589	97.19
413.812	94.19
414.035	88.19
414.258	93.19
414.482	76.19
414.705	85.19
414.928	85.19
415.151	83.19
415.374	95.19
415.597	86.19
415.821	79.19
416.044	87.19
416.267	84.19
416.49	95.19
416.713	95.19
416.936	96.19
417.159	95.19
417.382	97.19
417.605	91.19
417.828	83.19
418.051	94.19
418.274	92.19
418.497	91.19
418.72	82.19
418.943	85.19
419.166	100.19
419.389	96.19
419.611	87.19
419.834	89.19
420.057	76.19
420.28	70.19
420.503	85.19
420.726	87.19
420.948	85.19
421.171	81.19
421.394	93.19
421.617	95.19
421.839	86.19
422.062	93.19
422.285	86.19
422.507	93.19
422.73	89.19
422.953	82.19
423.175	90.19
423.398	79.19
423.621	91.19
423.843	85.19
424.066	92.19
424.288	88.19
424.511	84.19
424.733	91.19
424.956	100.19
425.178	103.19
425.401	104.19
425.623	84.19
425.846	89.19
426.068	77.19
426.291	84.19
426.513	99.19
426.735	77.19
426.958	90.19
427.18	109.19
427.402	131.19
427.625	127.19
427.847	117.19
428.069	100.19
428.292	83.19
428.514	93.19
428.736	90.19
428.958	74.19
429.181	106.19
429.403	86.19
429.625	93.19
429.847	80.19
430.069	104.19
430.292	84.19
430.514	92.19
430.736	88.19
430.958	80.19
431.18	95.19
431.402	88.19
431.624	91.19
431.846	91.19
432.068	88.19
432.29	95.19
432.512	89.19
432.734	81.19
432.956	97.19
433.178	109.19
433.4	107.19
433.622	99.19
433.844	90.19
434.066	87.19
434.287	72.19
434.509	83.19
434.731	87.19
434.953	89.19
435.175	82.19
435.397	105.19
435.618	92.19
435.84	94.19
436.062	104.19
436.284	98.19
436.505	91.19
436.727	93.19
436.949	81.19
437.17	92.19
437.392	87.19
437.614	99.19
437.835	112.19
438.057	102.19
438.278	102.19
438.5	108.19
438.721	110.19
438.943	94.19
439.165	100.19
439.386	113.19
439.608	83.19
439.829	93.19
440.05	113.19
440.272	116.19
440.493	98.19
440.715	91.19
440.936	92.19
441.158	80.19
441.379	91.19
441.6	88.19
441.822	85.19
442.043	101.19
442.264	93.19
442.486	105.19
442.707	89.19
442.928	94.19
443.149	104.19
443.371	110.19
443.592	101.19
443.813	95.19
444.034	102.19
444.255	100.19
444.476	79.19
444.698	67.19
444.919	90.19
445.14	133.19
445.361	106.19
445.582	100.19
445.803	108.19
446.024	105.19
446.245	105.19
446.466	105.19
446.687	97.19
446.908	81.19
447.129	85.19
447.35	89.19
447.571	85.19
447.792	93.19
448.013	94.19
448.234	99.19
448.455	115.19
448.675	106.19
448.896	114.19
449.117	95.19
449.338	103.19
449.559	120.19
449.779	122.19
450	91.19
450.221	91.19
450.442	82.19
450.662	107.19
450.883	113.19
451.104	108.19
451.324	108.19
451.545	81.19
451.766	84.19
451.986	95.19
452.207	82.19
452.428	93.19
452.648	107.19
452.869	98.19
453.089	124.19
453.31	112.19
453.53	95.19
453.751	81.19
453.971	89.19
454.192	88.19
454.412	78.19
454.633	89.19
454.853	82.19
455.073	94.19
455.294	104.19
455.514	91.19
455.734	88.19
455.955	88.19
456.175	86.19
456.395	90.19
456.616	83.19
456.836	84.19
457.056	67.19
457.276	98.19
457.497	87.19
457.717	79.19
457.937	73.19
458.157	99.19
458.377	77.19
458.598	92.19
458.818	124.19
459.038	124.19
459.258	100.19
459.478	90.19
459.698	90.19
459.918	90.19
460.138	75.19
460.358	91.19
460.578	97.19
460.798	92.19
461.018	89.19
461.238	81.19
461.458	85.19
461.678	77.19
461.898	87.19
462.118	89.19
462.338	93.19
462.558	95.19
462.777	91.19
462.997	82.19
463.217	83.19
463.437	80.19
463.657	72.19
463.876	92.19
464.096	103.19
464.316	85.19
464.536	91.19
464.755	95.19
464.975	99.19
465.195	138.19
465.414	139.19
465.634	103.19
465.854	93.19
466.073	71.19
466.293	87.19
466.512	85.19
466.732	97.19
466.951	95.19
467.171	92.19
467.391	104.19
467.61	104.19
467.829	103.19
468.049	116.19
468.268	110.19
468.488	93.19
468.707	89.19
468.927	106.19
469.146	80.19
469.365	71.19
469.585	87.19
469.804	99.19
470.023	99.19
470.243	83.19
470.462	92.19
470.681	113.19
470.901	97.19
471.12	104.19
471.339	85.19
471.558	87.19
471.777	95.19
471.997	99.19
472.216	124.19
472.435	173.19
472.654	105.19
472.873	80.19
473.092	85.19
473.311	92.19
473.53	91.19
473.749	84.19
473.968	92.19
474.187	84.19
474.406	91.19
474.625	88.19
474.844	75.19
475.063	106.19
475.282	93.19
475.501	97.19
475.72	102.19
475.939	83.19
476.158	83.19
476.377	83.19
476.596	85.19
476.814	96.19
477.033	87.19
477.252	88.19
477.471	87.19
477.69	87.19
477.908	92.19
478.127	89.19
478.346	98.19
478.564	72.19
478.783	96.19
479.002	96.19
479.22	88.19
479.439	85.19
479.658	98.19
479.876	90.19
480.095	95.19
480.313	91.19
480.532	91.19
480.751	95.19
480.969	129.19
481.188	260.19
481.406	192.19
481.624	107.19
481.843	92.19
482.061	92.19
482.28	83.19
482.498	93.19
482.717	81.19
482.935	99.19
483.153	96.19
483.372	79.19
483.59	97.19
483.808	76.19
484.027	96.19
484.245	103.19
484.463	105.19
484.681	108.19
484.9	97.19
485.118	104.19
485.336	107.19
485.554	100.19
485.772	100.19
485.99	104.19
486.209	91.19
486.427	104.19
486.645	113.19
486.863	99.19
487.081	102.19
487.299	94.19
487.517	91.19
487.735	102.19
487.953	102.19
488.171	96.19
488.389	95.19
488.607	108.19
488.825	91.19
489.043	93.19
489.261	100.19
489.479	80.19
489.696	85.19
489.914	96.19
490.132	97.19
490.35	76.19
490.568	82.19
490.786	95.19
491.003	69.19
491.221	91.19
491.439	75.19
491.657	93.19
491.874	92.19
492.092	113.19
492.31	93.19
492.527	97.19
492.745	102.19
492.963	89.19
493.18	75.19
493.398	103.19
493.615	92.19
493.833	101.19
494.05	84.19
494.268	82.19
494.485	97.19
494.703	88.19
494.92	82.19
495.138	92.19
495.355	92.19
495.573	90.19
495.79	87.19
496.008	99.19
496.225	95.19
496.442	84.19
496.66	95.19
496.877	92.19
497.094	92.19
497.312	93.19
497.529	93.19
497.746	94.19
497.963	95.19
498.181	83.19
498.398	90.19
498.615	109.19
498.832	103.19
499.049	88.19
499.267	95.19
499.484	100.19
499.701	89.19
499.918	91.19
500.135	91.19
500.352	90.19
500.569	92.19
500.786	98.19
501.003	88.19
501.22	90.19
501.437	98.19
501.654	94.19
501.871	94.19
502.088	86.19
502.305	101.19
502.522	98.19
502.739	95.19
502.956	84.19
503.172	100.19
503.389	82.19
503.606	109.19
503.823	92.19
504.04	79.19
504.256	97.19
504.473	81.19
504.69	99.19
504.907	99.19
505.123	93.19
505.34	95.19
505.557	83.19
505.773	98.19
505.99	76.19
506.207	74.19
506.423	85.19
506.64	87.19
506.856	92.19
507.073	88.19
507.289	83.19
507.506	96.19
507.722	120.19
507.939	98.19
508.155	104.19
508.372	106.19
508.588	97.19
508.805	86.19
509.021	96.19
509.238	107.19
509.454	105.19
509.67	85.19
509.887	87.19
510.103	114.19
510.319	187.19
510.536	574.19
510.752	1722.19
510.968	492.19
511.184	139.19
511.401	115.19
511.617	101.19
511.833	78.19
512.049	98.19
512.265	97.19
512.481	91.19
512.698	85.19
512.914	104.19
513.13	96.19
513.346	80.19
513.562	91.19
513.778	105.19
513.994	89.19
514.21	91.19
514.426	103.19
514.642	111.19
514.858	99.19
515.074	118.19
515.29	328.19
515.506	987.19
515.721	369.19
515.937	139.19
