Data from Circ_1986_H10_HRD10591_00040.txt Node
Date: Wed Jan 03 12:15:34 EST 2024
User: Yrep
Spectrometer: HR+D1059
Trigger mode: 1
Integration Time (sec): 1.000000E-1
Scans to average: 1
Electric dark correction enabled: true
Nonlinearity correction enabled: false
Boxcar width: 0
XAxis mode: Wavelengths
Number of Pixels in Spectrum: 2048
>>>>>Begin Spectral Data<<<<<
223.165	-17.88
223.4	-17.88
223.635	-17.88
223.869	-32.88
224.104	-18.88
224.338	-8.88
224.573	-23.88
224.808	-13.88
225.042	-4.88
225.277	-11.88
225.511	9.12
225.746	10.12
225.98	9.12
226.215	1.12
226.449	13.12
226.683	22.12
226.918	32.12
227.152	36.12
227.387	38.12
227.621	31.12
227.856	55.12
228.09	57.12
228.324	69.12
228.559	50.12
228.793	66.12
229.027	53.12
229.262	67.12
229.496	78.12
229.73	86.12
229.964	79.12
230.199	69.12
230.433	81.12
230.667	74.12
230.901	65.12
231.136	80.12
231.37	69.12
231.604	69.12
231.838	85.12
232.072	64.12
232.306	72.12
232.541	69.12
232.775	85.12
233.009	81.12
233.243	82.12
233.477	78.12
233.711	86.12
233.945	83.12
234.179	79.12
234.413	88.12
234.647	92.12
234.881	81.12
235.115	77.12
235.349	83.12
235.583	85.12
235.817	92.12
236.051	89.12
236.285	86.12
236.519	72.12
236.753	87.12
236.987	82.12
237.221	93.12
237.455	90.12
237.689	81.12
237.922	67.12
238.156	66.12
238.39	71.12
238.624	70.12
238.858	87.12
239.091	80.12
239.325	71.12
239.559	85.12
239.793	67.12
240.027	79.12
240.26	83.12
240.494	70.12
240.728	70.12
240.961	73.12
241.195	68.12
241.429	71.12
241.662	84.12
241.896	71.12
242.13	82.12
242.363	88.12
242.597	86.12
242.83	63.12
243.064	81.12
243.298	70.12
243.531	72.12
243.765	73.12
243.998	84.12
244.232	78.12
244.465	81.12
244.699	84.12
244.932	76.12
245.166	86.12
245.399	85.12
245.633	85.12
245.866	96.12
246.099	77.12
246.333	98.12
246.566	68.12
246.8	81.12
247.033	82.12
247.266	80.12
247.5	74.12
247.733	80.12
247.966	80.12
248.2	80.12
248.433	76.12
248.666	68.12
248.899	86.12
249.133	78.12
249.366	98.12
249.599	86.12
249.832	94.12
250.066	95.12
250.299	86.12
250.532	79.12
250.765	89.12
250.998	67.12
251.231	77.12
251.465	81.12
251.698	81.12
251.931	89.12
252.164	83.12
252.397	84.12
252.63	69.12
252.863	66.12
253.096	86.12
253.329	64.12
253.562	69.12
253.795	79.12
254.028	83.12
254.261	73.12
254.494	92.12
254.727	94.12
254.96	99.12
255.193	83.12
255.426	78.12
255.659	84.12
255.892	80.12
256.124	78.12
256.357	84.12
256.59	84.12
256.823	83.12
257.056	81.12
257.289	99.12
257.521	84.12
257.754	89.12
257.987	78.12
258.22	77.12
258.452	80.12
258.685	92.12
258.918	91.12
259.151	85.12
259.383	96.12
259.616	77.12
259.849	103.12
260.081	97.12
260.314	77.12
260.547	76.12
260.779	100.12
261.012	89.12
261.244	81.12
261.477	102.12
261.71	95.12
261.942	109.12
262.175	107.12
262.407	87.12
262.64	76.12
262.872	83.12
263.105	89.12
263.337	88.12
263.57	85.12
263.802	79.12
264.035	79.12
264.267	67.12
264.499	84.12
264.732	77.12
264.964	84.12
265.197	72.12
265.429	72.12
265.661	86.12
265.894	71.12
266.126	89.12
266.358	87.12
266.591	89.12
266.823	67.12
267.055	88.12
267.287	90.12
267.52	77.12
267.752	86.12
267.984	90.12
268.216	80.12
268.448	79.12
268.681	79.12
268.913	80.12
269.145	87.12
269.377	80.12
269.609	78.12
269.841	86.12
270.073	92.12
270.306	81.12
270.538	77.12
270.77	83.12
271.002	81.12
271.234	71.12
271.466	80.12
271.698	86.12
271.93	92.12
272.162	89.12
272.394	89.12
272.626	80.12
272.858	80.12
273.09	82.12
273.322	78.12
273.553	82.12
273.785	88.12
274.017	84.12
274.249	75.12
274.481	83.12
274.713	87.12
274.945	90.12
275.176	81.12
275.408	78.12
275.64	73.12
275.872	78.12
276.104	79.12
276.335	92.12
276.567	104.12
276.799	104.12
277.031	104.12
277.262	93.12
277.494	72.12
277.726	96.12
277.957	80.12
278.189	84.12
278.421	80.12
278.652	86.12
278.884	93.12
279.115	81.12
279.347	85.12
279.579	82.12
279.81	84.12
280.042	80.12
280.273	83.12
280.505	81.12
280.736	84.12
280.968	82.12
281.199	78.12
281.431	100.12
281.662	80.12
281.894	95.12
282.125	97.12
282.356	113.12
282.588	111.12
282.819	102.12
283.051	82.12
283.282	85.12
283.513	78.12
283.745	71.12
283.976	80.12
284.207	92.12
284.439	85.12
284.67	72.12
284.901	87.12
285.132	87.12
285.364	83.12
285.595	91.12
285.826	85.12
286.057	93.12
286.288	82.12
286.52	84.12
286.751	84.12
286.982	93.12
287.213	91.12
287.444	82.12
287.675	84.12
287.906	82.12
288.138	92.12
288.369	85.12
288.6	89.12
288.831	80.12
289.062	93.12
289.293	80.12
289.524	82.12
289.755	93.12
289.986	84.12
290.217	95.12
290.448	92.12
290.679	82.12
290.91	102.12
291.141	89.12
291.371	88.12
291.602	77.12
291.833	78.12
292.064	82.12
292.295	105.12
292.526	80.12
292.757	100.12
292.987	85.12
293.218	92.12
293.449	81.12
293.68	78.12
293.91	88.12
294.141	96.12
294.372	88.12
294.603	82.12
294.833	72.12
295.064	91.12
295.295	89.12
295.525	92.12
295.756	103.12
295.987	100.12
296.217	119.12
296.448	113.12
296.679	79.12
296.909	84.12
297.14	72.12
297.37	94.12
297.601	97.12
297.831	83.12
298.062	78.12
298.292	80.12
298.523	67.12
298.753	99.12
298.984	81.12
299.214	85.12
299.445	89.12
299.675	88.12
299.905	100.12
300.136	93.12
300.366	71.12
300.597	92.12
300.827	101.12
301.057	86.12
301.288	98.12
301.518	100.12
301.748	84.12
301.979	98.12
302.209	87.12
302.439	94.12
302.669	88.12
302.9	82.12
303.13	93.12
303.36	104.12
303.59	91.12
303.82	99.12
304.051	86.12
304.281	84.12
304.511	77.12
304.741	89.12
304.971	93.12
305.201	93.12
305.431	92.12
305.661	97.12
305.891	101.12
306.121	103.12
306.352	93.12
306.582	106.12
306.812	98.12
307.042	87.12
307.272	91.12
307.502	89.12
307.731	90.12
307.961	93.12
308.191	80.12
308.421	99.12
308.651	87.12
308.881	93.12
309.111	89.12
309.341	106.12
309.571	107.12
309.8	98.12
310.03	102.12
310.26	95.12
310.49	106.12
310.72	108.12
310.949	104.12
311.179	97.12
311.409	92.12
311.639	72.12
311.868	80.12
312.098	87.12
312.328	95.12
312.557	93.12
312.787	101.12
313.017	89.12
313.246	97.12
313.476	109.12
313.706	100.12
313.935	104.12
314.165	111.12
314.394	99.12
314.624	95.12
314.853	82.12
315.083	85.12
315.312	96.12
315.542	104.12
315.771	97.12
316.001	102.12
316.23	90.12
316.46	97.12
316.689	91.12
316.919	89.12
317.148	96.12
317.377	96.12
317.607	90.12
317.836	84.12
318.065	81.12
318.295	85.12
318.524	82.12
318.753	94.12
318.983	91.12
319.212	96.12
319.441	99.12
319.67	104.12
319.9	74.12
320.129	87.12
320.358	87.12
320.587	86.12
320.816	90.12
321.046	100.12
321.275	86.12
321.504	88.12
321.733	94.12
321.962	96.12
322.191	105.12
322.42	100.12
322.649	102.12
322.878	117.12
323.108	110.12
323.337	126.12
323.566	128.12
323.795	131.12
324.024	181.12
324.253	331.12
324.482	723.12
324.71	1458.12
324.939	1917.12
325.168	709.12
325.397	224.12
325.626	152.12
325.855	122.12
326.084	100.12
326.313	125.12
326.542	142.12
326.77	213.12
326.999	404.12
327.228	860.12
327.457	1503.12
327.686	1222.12
327.914	328.12
328.143	176.12
328.372	127.12
328.6	128.12
328.829	120.12
329.058	111.12
329.287	125.12
329.515	102.12
329.744	100.12
329.972	97.12
330.201	136.12
330.43	146.12
330.658	134.12
330.887	149.12
331.115	111.12
331.344	92.12
331.572	96.12
331.801	94.12
332.03	94.12
332.258	87.12
332.486	75.12
332.715	84.12
332.943	105.12
333.172	89.12
333.4	90.12
333.629	107.12
333.857	112.12
334.085	113.12
334.314	135.12
334.542	158.12
334.771	137.12
334.999	113.12
335.227	90.12
335.455	89.12
335.684	86.12
335.912	102.12
336.14	112.12
336.369	97.12
336.597	91.12
336.825	94.12
337.053	78.12
337.281	94.12
337.51	106.12
337.738	88.12
337.966	92.12
338.194	86.12
338.422	78.12
338.65	93.12
338.878	104.12
339.106	81.12
339.334	96.12
339.562	95.12
339.79	88.12
340.018	102.12
340.246	92.12
340.474	105.12
340.702	94.12
340.93	83.12
341.158	96.12
341.386	84.12
341.614	96.12
341.842	101.12
342.07	80.12
342.298	82.12
342.526	84.12
342.754	94.12
342.981	77.12
343.209	93.12
343.437	97.12
343.665	87.12
343.893	82.12
344.12	83.12
344.348	86.12
344.576	105.12
344.804	80.12
345.031	88.12
345.259	105.12
345.487	87.12
345.714	98.12
345.942	81.12
346.17	90.12
346.397	74.12
346.625	100.12
346.853	82.12
347.08	103.12
347.308	82.12
347.535	88.12
347.763	95.12
347.99	89.12
348.218	93.12
348.445	101.12
348.673	100.12
348.9	98.12
349.128	101.12
349.355	100.12
349.583	86.12
349.81	81.12
350.037	85.12
350.265	86.12
350.492	85.12
350.72	89.12
350.947	103.12
351.174	106.12
351.402	93.12
351.629	89.12
351.856	103.12
352.083	100.12
352.311	89.12
352.538	94.12
352.765	109.12
352.992	102.12
353.22	98.12
353.447	100.12
353.674	93.12
353.901	106.12
354.128	89.12
354.355	88.12
354.583	81.12
354.81	100.12
355.037	94.12
355.264	93.12
355.491	102.12
355.718	91.12
355.945	100.12
356.172	80.12
356.399	97.12
356.626	81.12
356.853	95.12
357.08	98.12
357.307	94.12
357.534	80.12
357.761	80.12
357.988	94.12
358.215	104.12
358.441	84.12
358.668	101.12
358.895	89.12
359.122	92.12
359.349	91.12
359.576	93.12
359.802	90.12
360.029	102.12
360.256	110.12
360.483	93.12
360.709	88.12
360.936	94.12
361.163	106.12
361.39	80.12
361.616	86.12
361.843	76.12
362.07	96.12
362.296	84.12
362.523	86.12
362.749	82.12
362.976	73.12
363.203	89.12
363.429	81.12
363.656	93.12
363.882	80.12
364.109	90.12
364.335	84.12
364.562	107.12
364.788	97.12
365.015	100.12
365.241	96.12
365.468	89.12
365.694	90.12
365.92	91.12
366.147	86.12
366.373	68.12
366.599	80.12
366.826	88.12
367.052	85.12
367.278	95.12
367.505	87.12
367.731	83.12
367.957	89.12
368.184	85.12
368.41	88.12
368.636	86.12
368.862	105.12
369.089	97.12
369.315	88.12
369.541	91.12
369.767	89.12
369.993	98.12
370.219	85.12
370.445	82.12
370.672	78.12
370.898	79.12
371.124	85.12
371.35	82.12
371.576	85.12
371.802	95.12
372.028	73.12
372.254	98.12
372.48	72.12
372.706	80.12
372.932	86.12
373.158	73.12
373.384	82.12
373.61	76.12
373.835	80.12
374.061	82.12
374.287	86.12
374.513	80.12
374.739	87.12
374.965	88.12
375.191	101.12
375.416	95.12
375.642	98.12
375.868	90.12
376.094	88.12
376.319	88.12
376.545	74.12
376.771	85.12
376.997	101.12
377.222	92.12
377.448	85.12
377.674	85.12
377.899	82.12
378.125	80.12
378.35	92.12
378.576	89.12
378.802	92.12
379.027	93.12
379.253	95.12
379.478	83.12
379.704	103.12
379.929	93.12
380.155	100.12
380.38	90.12
380.606	95.12
380.831	100.12
381.057	101.12
381.282	105.12
381.507	83.12
381.733	83.12
381.958	83.12
382.184	100.12
382.409	99.12
382.634	98.12
382.86	88.12
383.085	109.12
383.31	96.12
383.535	104.12
383.761	106.12
383.986	97.12
384.211	99.12
384.436	96.12
384.662	105.12
384.887	114.12
385.112	120.12
385.337	112.12
385.562	100.12
385.787	107.12
386.013	101.12
386.238	111.12
386.463	105.12
386.688	99.12
386.913	105.12
387.138	115.12
387.363	112.12
387.588	80.12
387.813	113.12
388.038	101.12
388.263	122.12
388.488	119.12
388.713	81.12
388.938	97.12
389.163	104.12
389.387	98.12
389.612	92.12
389.837	77.12
390.062	86.12
390.287	79.12
390.512	80.12
390.736	87.12
390.961	95.12
391.186	90.12
391.411	94.12
391.636	71.12
391.86	90.12
392.085	82.12
392.31	84.12
392.534	76.12
392.759	85.12
392.984	79.12
393.208	93.12
393.433	85.12
393.658	66.12
393.882	94.12
394.107	101.12
394.331	86.12
394.556	82.12
394.78	81.12
395.005	96.12
395.229	64.12
395.454	85.12
395.678	88.12
395.903	96.12
396.127	87.12
396.352	91.12
396.576	76.12
396.801	97.12
397.025	85.12
397.249	88.12
397.474	86.12
397.698	81.12
397.922	89.12
398.147	64.12
398.371	78.12
398.595	85.12
398.82	81.12
399.044	82.12
399.268	95.12
399.492	86.12
399.717	82.12
399.941	87.12
400.165	80.12
400.389	94.12
400.613	85.12
400.837	85.12
401.062	93.12
401.286	83.12
401.51	84.12
401.734	82.12
401.958	99.12
402.182	115.12
402.406	132.12
402.63	111.12
402.854	99.12
403.078	84.12
403.302	70.12
403.526	87.12
403.75	92.12
403.974	97.12
404.198	88.12
404.422	93.12
404.645	79.12
404.869	89.12
405.093	92.12
405.317	82.12
405.541	96.12
405.765	101.12
405.988	110.12
406.212	138.12
406.436	181.12
406.66	125.12
406.883	95.12
407.107	92.12
407.331	83.12
407.555	89.12
407.778	98.12
408.002	81.12
408.226	94.12
408.449	78.12
408.673	80.12
408.896	97.12
409.12	87.12
409.344	91.12
409.567	93.12
409.791	95.12
410.014	106.12
410.238	84.12
410.461	76.12
410.685	78.12
410.908	90.12
411.132	92.12
411.355	86.12
411.578	89.12
411.802	79.12
412.025	79.12
412.249	79.12
412.472	94.12
412.695	93.12
412.919	90.12
413.142	92.12
413.365	77.12
413.589	81.12
413.812	68.12
414.035	79.12
414.258	86.12
414.482	84.12
414.705	91.12
414.928	76.12
415.151	100.12
415.374	94.12
415.597	90.12
415.821	92.12
416.044	88.12
416.267	86.12
416.49	86.12
416.713	69.12
416.936	86.12
417.159	84.12
417.382	92.12
417.605	78.12
417.828	88.12
418.051	103.12
418.274	98.12
418.497	97.12
418.72	85.12
418.943	93.12
419.166	84.12
419.389	79.12
419.611	87.12
419.834	85.12
420.057	81.12
420.28	96.12
420.503	80.12
420.726	83.12
420.948	68.12
421.171	82.12
421.394	96.12
421.617	77.12
421.839	96.12
422.062	74.12
422.285	77.12
422.507	84.12
422.73	105.12
422.953	85.12
423.175	81.12
423.398	82.12
423.621	83.12
423.843	70.12
424.066	74.12
424.288	85.12
424.511	86.12
424.733	106.12
424.956	100.12
425.178	94.12
425.401	90.12
425.623	95.12
425.846	83.12
426.068	87.12
426.291	93.12
426.513	82.12
426.735	84.12
426.958	73.12
427.18	97.12
427.402	121.12
427.625	133.12
427.847	124.12
428.069	112.12
428.292	92.12
428.514	97.12
428.736	81.12
428.958	72.12
429.181	82.12
429.403	84.12
429.625	69.12
429.847	100.12
430.069	107.12
430.292	73.12
430.514	73.12
430.736	76.12
430.958	83.12
431.18	84.12
431.402	81.12
431.624	69.12
431.846	73.12
432.068	83.12
432.29	95.12
432.512	86.12
432.734	86.12
432.956	73.12
433.178	90.12
433.4	99.12
433.622	79.12
433.844	81.12
434.066	74.12
434.287	71.12
434.509	76.12
434.731	88.12
434.953	89.12
435.175	81.12
435.397	82.12
435.618	91.12
435.84	90.12
436.062	121.12
436.284	97.12
436.505	110.12
436.727	100.12
436.949	92.12
437.17	87.12
437.392	79.12
437.614	87.12
437.835	108.12
438.057	101.12
438.278	111.12
438.5	94.12
438.721	128.12
438.943	89.12
439.165	94.12
439.386	74.12
439.608	69.12
439.829	100.12
440.05	102.12
440.272	134.12
440.493	90.12
440.715	77.12
440.936	80.12
441.158	91.12
441.379	76.12
441.6	81.12
441.822	86.12
442.043	99.12
442.264	84.12
442.486	99.12
442.707	79.12
442.928	105.12
443.149	117.12
443.371	117.12
443.592	92.12
443.813	100.12
444.034	93.12
444.255	70.12
444.476	86.12
444.698	76.12
444.919	73.12
445.14	121.12
445.361	111.12
445.582	105.12
445.803	113.12
446.024	130.12
446.245	126.12
446.466	113.12
446.687	103.12
446.908	78.12
447.129	76.12
447.35	81.12
447.571	82.12
447.792	89.12
448.013	87.12
448.234	83.12
448.455	112.12
448.675	103.12
448.896	104.12
449.117	101.12
449.338	97.12
449.559	122.12
449.779	126.12
450	92.12
450.221	88.12
450.442	88.12
450.662	98.12
450.883	93.12
451.104	91.12
451.324	92.12
451.545	95.12
451.766	81.12
451.986	106.12
452.207	72.12
452.428	84.12
452.648	93.12
452.869	111.12
453.089	98.12
453.31	94.12
453.53	80.12
453.751	101.12
453.971	103.12
454.192	104.12
454.412	93.12
454.633	71.12
454.853	86.12
455.073	81.12
455.294	82.12
455.514	89.12
455.734	86.12
455.955	104.12
456.175	86.12
456.395	77.12
456.616	84.12
456.836	85.12
457.056	86.12
457.276	77.12
457.497	76.12
457.717	82.12
457.937	81.12
458.157	78.12
458.377	94.12
458.598	106.12
458.818	130.12
459.038	141.12
459.258	89.12
459.478	83.12
459.698	82.12
459.918	92.12
460.138	92.12
460.358	80.12
460.578	63.12
460.798	78.12
461.018	72.12
461.238	81.12
461.458	80.12
461.678	90.12
461.898	77.12
462.118	90.12
462.338	82.12
462.558	101.12
462.777	86.12
462.997	81.12
463.217	77.12
463.437	81.12
463.657	79.12
463.876	79.12
464.096	69.12
464.316	88.12
464.536	78.12
464.755	84.12
464.975	105.12
465.195	134.12
465.414	132.12
465.634	89.12
465.854	86.12
466.073	71.12
466.293	85.12
466.512	70.12
466.732	80.12
466.951	77.12
467.171	87.12
467.391	89.12
467.61	92.12
467.829	87.12
468.049	98.12
468.268	101.12
468.488	93.12
468.707	95.12
468.927	73.12
469.146	74.12
469.365	81.12
469.585	87.12
469.804	97.12
470.023	84.12
470.243	102.12
470.462	86.12
470.681	104.12
470.901	84.12
471.12	84.12
471.339	80.12
471.558	84.12
471.777	85.12
471.997	85.12
472.216	140.12
472.435	183.12
472.654	109.12
472.873	85.12
473.092	85.12
473.311	90.12
473.53	81.12
473.749	86.12
473.968	95.12
474.187	107.12
474.406	89.12
474.625	71.12
474.844	81.12
475.063	76.12
475.282	80.12
475.501	72.12
475.72	93.12
475.939	69.12
476.158	86.12
476.377	95.12
476.596	81.12
476.814	95.12
477.033	93.12
477.252	80.12
477.471	71.12
477.69	86.12
477.908	81.12
478.127	82.12
478.346	68.12
478.564	92.12
478.783	90.12
479.002	100.12
479.22	100.12
479.439	93.12
479.658	103.12
479.876	89.12
480.095	78.12
480.313	96.12
480.532	82.12
480.751	104.12
480.969	140.12
481.188	294.12
481.406	192.12
481.624	105.12
481.843	97.12
482.061	95.12
482.28	73.12
482.498	82.12
482.717	86.12
482.935	84.12
483.153	95.12
483.372	88.12
483.59	72.12
483.808	83.12
484.027	84.12
484.245	82.12
484.463	86.12
484.681	94.12
484.9	93.12
485.118	90.12
485.336	110.12
485.554	89.12
485.772	87.12
485.99	101.12
486.209	110.12
486.427	96.12
486.645	109.12
486.863	94.12
487.081	96.12
487.299	87.12
487.517	91.12
487.735	96.12
487.953	100.12
488.171	99.12
488.389	94.12
488.607	97.12
488.825	73.12
489.043	88.12
489.261	95.12
489.479	81.12
489.696	89.12
489.914	77.12
490.132	87.12
490.35	98.12
490.568	85.12
490.786	93.12
491.003	83.12
491.221	93.12
491.439	86.12
491.657	80.12
491.874	87.12
492.092	83.12
492.31	83.12
492.527	74.12
492.745	89.12
492.963	88.12
493.18	70.12
493.398	92.12
493.615	82.12
493.833	88.12
494.05	74.12
494.268	84.12
494.485	92.12
494.703	92.12
494.92	87.12
495.138	91.12
495.355	85.12
495.573	73.12
495.79	71.12
496.008	98.12
496.225	94.12
496.442	106.12
496.66	89.12
496.877	97.12
497.094	89.12
497.312	92.12
497.529	80.12
497.746	80.12
497.963	76.12
498.181	85.12
498.398	94.12
498.615	92.12
498.832	92.12
499.049	80.12
499.267	95.12
499.484	84.12
499.701	92.12
499.918	90.12
500.135	90.12
500.352	89.12
500.569	92.12
500.786	89.12
501.003	88.12
501.22	81.12
501.437	87.12
501.654	93.12
501.871	97.12
502.088	97.12
502.305	97.12
502.522	91.12
502.739	87.12
502.956	95.12
503.172	90.12
503.389	90.12
503.606	97.12
503.823	86.12
504.04	86.12
504.256	80.12
504.473	94.12
504.69	86.12
504.907	89.12
505.123	89.12
505.34	111.12
505.557	88.12
505.773	88.12
505.99	96.12
506.207	85.12
506.423	79.12
506.64	86.12
506.856	94.12
507.073	98.12
507.289	85.12
507.506	99.12
507.722	102.12
507.939	99.12
508.155	94.12
508.372	84.12
508.588	93.12
508.805	99.12
509.021	90.12
509.238	93.12
509.454	88.12
509.67	94.12
509.887	114.12
510.103	135.12
510.319	192.12
510.536	664.12
510.752	1983.12
510.968	553.12
511.184	137.12
511.401	90.12
511.617	85.12
511.833	92.12
512.049	96.12
512.265	106.12
512.481	91.12
512.698	89.12
512.914	80.12
513.13	96.12
513.346	74.12
513.562	87.12
513.778	112.12
513.994	99.12
514.21	102.12
514.426	117.12
514.642	109.12
514.858	126.12
515.074	159.12
515.29	404.12
515.506	1226.12
515.721	450.12
515.937	132.12
516.153	96.12
516.369	97.12
516.585	101.12
