Data from Circ_1986_H10_HRD10591_00019.txt Node
Date: Wed Jan 03 12:15:29 EST 2024
User: Yrep
Spectrometer: HR+D1059
Trigger mode: 1
Integration Time (sec): 1.000000E-1
Scans to average: 1
Electric dark correction enabled: true
Nonlinearity correction enabled: false
Boxcar width: 0
XAxis mode: Wavelengths
Number of Pixels in Spectrum: 2048
>>>>>Begin Spectral Data<<<<<
223.165	-13.25
223.4	-13.25
223.635	-13.25
223.869	-7.25
224.104	-0.25
224.338	-1.25
224.573	-13.25
224.808	-13.25
225.042	-14.25
225.277	-13.25
225.511	-3.25
225.746	6.75
225.98	-5.25
226.215	2.75
226.449	11.75
226.683	22.75
226.918	18.75
227.152	21.75
227.387	32.75
227.621	45.75
227.856	38.75
228.09	42.75
228.324	49.75
228.559	50.75
228.793	67.75
229.027	52.75
229.262	55.75
229.496	72.75
229.73	76.75
229.964	80.75
230.199	71.75
230.433	66.75
230.667	70.75
230.901	89.75
231.136	72.75
231.37	83.75
231.604	85.75
231.838	68.75
232.072	90.75
232.306	66.75
232.541	84.75
232.775	73.75
233.009	82.75
233.243	77.75
233.477	73.75
233.711	80.75
233.945	81.75
234.179	72.75
234.413	82.75
234.647	74.75
234.881	78.75
235.115	84.75
235.349	70.75
235.583	79.75
235.817	78.75
236.051	70.75
236.285	67.75
236.519	77.75
236.753	87.75
236.987	86.75
237.221	78.75
237.455	80.75
237.689	67.75
237.922	72.75
238.156	72.75
238.39	81.75
238.624	69.75
238.858	72.75
239.091	87.75
239.325	76.75
239.559	73.75
239.793	73.75
240.027	83.75
240.26	76.75
240.494	73.75
240.728	70.75
240.961	70.75
241.195	73.75
241.429	69.75
241.662	78.75
241.896	69.75
242.13	69.75
242.363	99.75
242.597	69.75
242.83	69.75
243.064	73.75
243.298	87.75
243.531	66.75
243.765	85.75
243.998	77.75
244.232	69.75
244.465	88.75
244.699	69.75
244.932	60.75
245.166	70.75
245.399	85.75
245.633	69.75
245.866	71.75
246.099	87.75
246.333	59.75
246.566	74.75
246.8	81.75
247.033	79.75
247.266	84.75
247.5	65.75
247.733	88.75
247.966	84.75
248.2	80.75
248.433	86.75
248.666	81.75
248.899	79.75
249.133	69.75
249.366	84.75
249.599	95.75
249.832	100.75
250.066	82.75
250.299	76.75
250.532	64.75
250.765	78.75
250.998	67.75
251.231	88.75
251.465	78.75
251.698	69.75
251.931	89.75
252.164	80.75
252.397	79.75
252.63	70.75
252.863	94.75
253.096	58.75
253.329	80.75
253.562	73.75
253.795	72.75
254.028	82.75
254.261	92.75
254.494	76.75
254.727	78.75
254.96	86.75
255.193	70.75
255.426	87.75
255.659	76.75
255.892	78.75
256.124	74.75
256.357	85.75
256.59	72.75
256.823	84.75
257.056	88.75
257.289	69.75
257.521	89.75
257.754	85.75
257.987	66.75
258.22	85.75
258.452	84.75
258.685	96.75
258.918	69.75
259.151	92.75
259.383	78.75
259.616	90.75
259.849	83.75
260.081	67.75
260.314	76.75
260.547	79.75
260.779	88.75
261.012	78.75
261.244	73.75
261.477	80.75
261.71	93.75
261.942	99.75
262.175	103.75
262.407	95.75
262.64	93.75
262.872	83.75
263.105	88.75
263.337	94.75
263.57	77.75
263.802	84.75
264.035	81.75
264.267	98.75
264.499	77.75
264.732	81.75
264.964	94.75
265.197	95.75
265.429	76.75
265.661	77.75
265.894	87.75
266.126	90.75
266.358	88.75
266.591	88.75
266.823	87.75
267.055	79.75
267.287	90.75
267.52	72.75
267.752	82.75
267.984	76.75
268.216	74.75
268.448	80.75
268.681	92.75
268.913	72.75
269.145	80.75
269.377	78.75
269.609	73.75
269.841	69.75
270.073	74.75
270.306	77.75
270.538	80.75
270.77	95.75
271.002	92.75
271.234	87.75
271.466	78.75
271.698	80.75
271.93	84.75
272.162	81.75
272.394	70.75
272.626	82.75
272.858	81.75
273.09	87.75
273.322	81.75
273.553	90.75
273.785	80.75
274.017	80.75
274.249	80.75
274.481	69.75
274.713	69.75
274.945	80.75
275.176	94.75
275.408	88.75
275.64	77.75
275.872	65.75
276.104	88.75
276.335	88.75
276.567	93.75
276.799	94.75
277.031	82.75
277.262	87.75
277.494	93.75
277.726	78.75
277.957	91.75
278.189	88.75
278.421	69.75
278.652	77.75
278.884	89.75
279.115	83.75
279.347	73.75
279.579	81.75
279.81	90.75
280.042	98.75
280.273	95.75
280.505	86.75
280.736	80.75
280.968	92.75
281.199	87.75
281.431	103.75
281.662	80.75
281.894	82.75
282.125	85.75
282.356	104.75
282.588	121.75
282.819	94.75
283.051	81.75
283.282	88.75
283.513	85.75
283.745	91.75
283.976	90.75
284.207	77.75
284.439	92.75
284.67	84.75
284.901	93.75
285.132	82.75
285.364	78.75
285.595	85.75
285.826	83.75
286.057	72.75
286.288	81.75
286.52	89.75
286.751	78.75
286.982	80.75
287.213	78.75
287.444	73.75
287.675	93.75
287.906	81.75
288.138	94.75
288.369	100.75
288.6	94.75
288.831	84.75
289.062	92.75
289.293	101.75
289.524	93.75
289.755	84.75
289.986	82.75
290.217	88.75
290.448	81.75
290.679	81.75
290.91	82.75
291.141	89.75
291.371	98.75
291.602	78.75
291.833	73.75
292.064	76.75
292.295	93.75
292.526	83.75
292.757	91.75
292.987	82.75
293.218	78.75
293.449	83.75
293.68	94.75
293.91	69.75
294.141	78.75
294.372	92.75
294.603	82.75
294.833	85.75
295.064	72.75
295.295	88.75
295.525	77.75
295.756	111.75
295.987	113.75
296.217	119.75
296.448	100.75
296.679	95.75
296.909	78.75
297.14	88.75
297.37	100.75
297.601	84.75
297.831	73.75
298.062	84.75
298.292	81.75
298.523	89.75
298.753	82.75
298.984	95.75
299.214	84.75
299.445	85.75
299.675	98.75
299.905	107.75
300.136	87.75
300.366	94.75
300.597	96.75
300.827	87.75
301.057	91.75
301.288	98.75
301.518	90.75
301.748	89.75
301.979	105.75
302.209	84.75
302.439	81.75
302.669	94.75
302.9	84.75
303.13	99.75
303.36	88.75
303.59	101.75
303.82	89.75
304.051	82.75
304.281	101.75
304.511	88.75
304.741	74.75
304.971	90.75
305.201	88.75
305.431	89.75
305.661	85.75
305.891	93.75
306.121	89.75
306.352	109.75
306.582	101.75
306.812	93.75
307.042	97.75
307.272	99.75
307.502	84.75
307.731	105.75
307.961	90.75
308.191	92.75
308.421	82.75
308.651	86.75
308.881	70.75
309.111	88.75
309.341	84.75
309.571	96.75
309.8	81.75
310.03	85.75
310.26	95.75
310.49	92.75
310.72	97.75
310.949	97.75
311.179	86.75
311.409	90.75
311.639	85.75
311.868	89.75
312.098	82.75
312.328	89.75
312.557	96.75
312.787	95.75
313.017	94.75
313.246	87.75
313.476	98.75
313.706	76.75
313.935	87.75
314.165	81.75
314.394	79.75
314.624	104.75
314.853	85.75
315.083	81.75
315.312	97.75
315.542	100.75
315.771	91.75
316.001	92.75
316.23	64.75
316.46	80.75
316.689	95.75
316.919	77.75
317.148	85.75
317.377	81.75
317.607	79.75
317.836	92.75
318.065	92.75
318.295	92.75
318.524	81.75
318.753	103.75
318.983	97.75
319.212	73.75
319.441	91.75
319.67	94.75
319.9	97.75
320.129	102.75
320.358	78.75
320.587	95.75
320.816	90.75
321.046	101.75
321.275	78.75
321.504	88.75
321.733	98.75
321.962	93.75
322.191	91.75
322.42	100.75
322.649	96.75
322.878	97.75
323.108	120.75
323.337	109.75
323.566	115.75
323.795	143.75
324.024	192.75
324.253	314.75
324.482	624.75
324.71	1326.75
324.939	1726.75
325.168	639.75
325.397	208.75
325.626	129.75
325.855	121.75
326.084	120.75
326.313	121.75
326.542	130.75
326.77	208.75
326.999	376.75
327.228	772.75
327.457	1373.75
327.686	1081.75
327.914	316.75
328.143	162.75
328.372	126.75
328.6	114.75
328.829	115.75
329.058	117.75
329.287	120.75
329.515	86.75
329.744	96.75
329.972	92.75
330.201	98.75
330.43	121.75
330.658	104.75
330.887	121.75
331.115	106.75
331.344	97.75
331.572	97.75
331.801	92.75
332.03	103.75
332.258	84.75
332.486	100.75
332.715	77.75
332.943	92.75
333.172	96.75
333.4	94.75
333.629	99.75
333.857	100.75
334.085	94.75
334.314	108.75
334.542	129.75
334.771	116.75
334.999	85.75
335.227	81.75
335.455	93.75
335.684	90.75
335.912	94.75
336.14	97.75
336.369	92.75
336.597	89.75
336.825	94.75
337.053	82.75
337.281	80.75
337.51	93.75
337.738	94.75
337.966	94.75
338.194	97.75
338.422	92.75
338.65	97.75
338.878	90.75
339.106	89.75
339.334	85.75
339.562	76.75
339.79	84.75
340.018	88.75
340.246	81.75
340.474	91.75
340.702	95.75
340.93	93.75
341.158	91.75
341.386	78.75
341.614	96.75
341.842	82.75
342.07	84.75
342.298	89.75
342.526	84.75
342.754	80.75
342.981	90.75
343.209	92.75
343.437	107.75
343.665	86.75
343.893	92.75
344.12	91.75
344.348	99.75
344.576	79.75
344.804	80.75
345.031	97.75
345.259	91.75
345.487	86.75
345.714	91.75
345.942	79.75
346.17	86.75
346.397	102.75
346.625	94.75
346.853	89.75
347.08	81.75
347.308	84.75
347.535	104.75
347.763	91.75
347.99	84.75
348.218	99.75
348.445	100.75
348.673	104.75
348.9	88.75
349.128	85.75
349.355	89.75
349.583	100.75
349.81	97.75
350.037	95.75
350.265	93.75
350.492	97.75
350.72	90.75
350.947	78.75
351.174	101.75
351.402	104.75
351.629	93.75
351.856	97.75
352.083	102.75
352.311	82.75
352.538	108.75
352.765	112.75
352.992	100.75
353.22	108.75
353.447	100.75
353.674	92.75
353.901	96.75
354.128	105.75
354.355	91.75
354.583	93.75
354.81	105.75
355.037	86.75
355.264	104.75
355.491	87.75
355.718	100.75
355.945	82.75
356.172	106.75
356.399	88.75
356.626	94.75
356.853	91.75
357.08	83.75
357.307	83.75
357.534	94.75
357.761	99.75
357.988	93.75
358.215	92.75
358.441	86.75
358.668	89.75
358.895	78.75
359.122	90.75
359.349	94.75
359.576	89.75
359.802	102.75
360.029	102.75
360.256	91.75
360.483	90.75
360.709	90.75
360.936	92.75
361.163	92.75
361.39	86.75
361.616	80.75
361.843	89.75
362.07	98.75
362.296	82.75
362.523	85.75
362.749	88.75
362.976	86.75
363.203	80.75
363.429	88.75
363.656	98.75
363.882	93.75
364.109	89.75
364.335	79.75
364.562	80.75
364.788	88.75
365.015	74.75
365.241	95.75
365.468	104.75
365.694	99.75
365.92	92.75
366.147	77.75
366.373	87.75
366.599	86.75
366.826	76.75
367.052	86.75
367.278	85.75
367.505	92.75
367.731	99.75
367.957	76.75
368.184	90.75
368.41	97.75
368.636	98.75
368.862	100.75
369.089	98.75
369.315	87.75
369.541	71.75
369.767	84.75
369.993	81.75
370.219	90.75
370.445	84.75
370.672	83.75
370.898	81.75
371.124	84.75
371.35	87.75
371.576	96.75
371.802	89.75
372.028	88.75
372.254	82.75
372.48	73.75
372.706	76.75
372.932	77.75
373.158	89.75
373.384	83.75
373.61	79.75
373.835	85.75
374.061	84.75
374.287	80.75
374.513	85.75
374.739	84.75
374.965	94.75
375.191	91.75
375.416	86.75
375.642	86.75
375.868	90.75
376.094	87.75
376.319	85.75
376.545	90.75
376.771	90.75
376.997	89.75
377.222	85.75
377.448	82.75
377.674	78.75
377.899	79.75
378.125	93.75
378.35	88.75
378.576	100.75
378.802	82.75
379.027	96.75
379.253	97.75
379.478	99.75
379.704	94.75
379.929	95.75
380.155	100.75
380.38	93.75
380.606	98.75
380.831	102.75
381.057	101.75
381.282	110.75
381.507	95.75
381.733	99.75
381.958	95.75
382.184	102.75
382.409	112.75
382.634	101.75
382.86	96.75
383.085	96.75
383.31	92.75
383.535	114.75
383.761	96.75
383.986	103.75
384.211	102.75
384.436	103.75
384.662	104.75
384.887	106.75
385.112	104.75
385.337	112.75
385.562	114.75
385.787	119.75
386.013	131.75
386.238	119.75
386.463	110.75
386.688	137.75
386.913	124.75
387.138	113.75
387.363	114.75
387.588	113.75
387.813	102.75
388.038	98.75
388.263	120.75
388.488	111.75
388.713	87.75
388.938	93.75
389.163	93.75
389.387	98.75
389.612	101.75
389.837	88.75
390.062	96.75
390.287	89.75
390.512	83.75
390.736	86.75
390.961	81.75
391.186	93.75
391.411	101.75
391.636	94.75
391.86	78.75
392.085	89.75
392.31	73.75
392.534	76.75
392.759	90.75
392.984	92.75
393.208	92.75
393.433	90.75
393.658	99.75
393.882	91.75
394.107	79.75
394.331	99.75
394.556	96.75
394.78	89.75
395.005	86.75
395.229	80.75
395.454	79.75
395.678	73.75
395.903	81.75
396.127	78.75
396.352	88.75
396.576	88.75
396.801	64.75
397.025	80.75
397.249	86.75
397.474	91.75
397.698	87.75
397.922	84.75
398.147	70.75
398.371	90.75
398.595	81.75
398.82	87.75
399.044	78.75
399.268	93.75
399.492	90.75
399.717	95.75
399.941	97.75
400.165	88.75
400.389	86.75
400.613	77.75
400.837	65.75
401.062	77.75
401.286	94.75
401.51	82.75
401.734	81.75
401.958	73.75
402.182	102.75
402.406	130.75
402.63	103.75
402.854	78.75
403.078	72.75
403.302	96.75
403.526	92.75
403.75	92.75
403.974	92.75
404.198	68.75
404.422	80.75
404.645	85.75
404.869	90.75
405.093	93.75
405.317	80.75
405.541	88.75
405.765	70.75
405.988	101.75
406.212	133.75
406.436	175.75
406.66	131.75
406.883	85.75
407.107	79.75
407.331	76.75
407.555	108.75
407.778	81.75
408.002	80.75
408.226	84.75
408.449	93.75
408.673	84.75
408.896	91.75
409.12	86.75
409.344	76.75
409.567	92.75
409.791	72.75
410.014	88.75
410.238	88.75
410.461	103.75
410.685	100.75
410.908	87.75
411.132	104.75
411.355	93.75
411.578	82.75
411.802	82.75
412.025	71.75
412.249	92.75
412.472	86.75
412.695	84.75
412.919	81.75
413.142	91.75
413.365	80.75
413.589	89.75
413.812	70.75
414.035	92.75
414.258	88.75
414.482	82.75
414.705	100.75
414.928	91.75
415.151	85.75
415.374	98.75
415.597	101.75
415.821	97.75
416.044	85.75
416.267	93.75
416.49	75.75
416.713	88.75
416.936	88.75
417.159	77.75
417.382	92.75
417.605	90.75
417.828	106.75
418.051	90.75
418.274	106.75
418.497	87.75
418.72	95.75
418.943	98.75
419.166	82.75
419.389	74.75
419.611	92.75
419.834	87.75
420.057	99.75
420.28	87.75
420.503	79.75
420.726	83.75
420.948	94.75
421.171	87.75
421.394	86.75
421.617	78.75
421.839	66.75
422.062	90.75
422.285	80.75
422.507	92.75
422.73	97.75
422.953	88.75
423.175	87.75
423.398	92.75
423.621	88.75
423.843	70.75
424.066	81.75
424.288	87.75
424.511	89.75
424.733	77.75
424.956	100.75
425.178	80.75
425.401	92.75
425.623	94.75
425.846	86.75
426.068	88.75
426.291	76.75
426.513	73.75
426.735	88.75
426.958	98.75
427.18	105.75
427.402	113.75
427.625	131.75
427.847	97.75
428.069	109.75
428.292	101.75
428.514	88.75
428.736	85.75
428.958	80.75
429.181	81.75
429.403	85.75
429.625	90.75
429.847	94.75
430.069	75.75
430.292	87.75
430.514	63.75
430.736	84.75
430.958	92.75
431.18	89.75
431.402	89.75
431.624	96.75
431.846	75.75
432.068	82.75
432.29	81.75
432.512	69.75
432.734	81.75
432.956	84.75
433.178	98.75
433.4	105.75
433.622	92.75
433.844	85.75
434.066	86.75
434.287	88.75
434.509	100.75
434.731	84.75
434.953	83.75
435.175	71.75
435.397	80.75
435.618	93.75
435.84	92.75
436.062	98.75
436.284	100.75
436.505	90.75
436.727	93.75
436.949	80.75
437.17	66.75
437.392	74.75
437.614	94.75
437.835	96.75
438.057	108.75
438.278	107.75
438.5	94.75
438.721	119.75
438.943	76.75
439.165	86.75
439.386	85.75
439.608	84.75
439.829	87.75
440.05	109.75
440.272	115.75
440.493	88.75
440.715	94.75
440.936	79.75
441.158	86.75
441.379	86.75
441.6	84.75
441.822	82.75
442.043	87.75
442.264	94.75
442.486	85.75
442.707	98.75
442.928	85.75
443.149	104.75
443.371	99.75
443.592	92.75
443.813	96.75
444.034	96.75
444.255	87.75
444.476	81.75
444.698	85.75
444.919	78.75
445.14	141.75
445.361	114.75
445.582	101.75
445.803	117.75
446.024	108.75
446.245	110.75
446.466	112.75
446.687	103.75
446.908	90.75
447.129	99.75
447.35	97.75
447.571	94.75
447.792	101.75
448.013	93.75
448.234	90.75
448.455	88.75
448.675	104.75
448.896	91.75
449.117	90.75
449.338	94.75
449.559	124.75
449.779	132.75
450	102.75
450.221	81.75
450.442	77.75
450.662	104.75
450.883	102.75
451.104	106.75
451.324	91.75
451.545	62.75
451.766	83.75
451.986	94.75
452.207	85.75
452.428	77.75
452.648	92.75
452.869	83.75
453.089	105.75
453.31	100.75
453.53	82.75
453.751	89.75
453.971	92.75
454.192	92.75
454.412	77.75
454.633	71.75
454.853	86.75
455.073	72.75
455.294	106.75
455.514	90.75
455.734	92.75
455.955	71.75
456.175	86.75
456.395	88.75
456.616	85.75
456.836	79.75
457.056	70.75
457.276	80.75
457.497	88.75
457.717	81.75
457.937	80.75
458.157	71.75
458.377	97.75
458.598	101.75
458.818	103.75
459.038	124.75
459.258	100.75
459.478	72.75
459.698	84.75
459.918	73.75
460.138	86.75
460.358	73.75
460.578	76.75
460.798	70.75
461.018	92.75
461.238	80.75
461.458	89.75
461.678	98.75
461.898	86.75
462.118	81.75
462.338	70.75
462.558	88.75
462.777	80.75
462.997	76.75
463.217	86.75
463.437	93.75
463.657	89.75
463.876	79.75
464.096	88.75
464.316	95.75
464.536	87.75
464.755	79.75
464.975	109.75
465.195	137.75
465.414	148.75
465.634	100.75
465.854	87.75
466.073	74.75
466.293	96.75
466.512	73.75
466.732	91.75
466.951	76.75
467.171	88.75
467.391	96.75
467.61	99.75
467.829	83.75
468.049	94.75
468.268	80.75
468.488	85.75
468.707	74.75
468.927	84.75
469.146	84.75
469.365	94.75
469.585	88.75
469.804	99.75
470.023	83.75
470.243	67.75
470.462	93.75
470.681	100.75
470.901	90.75
471.12	86.75
471.339	87.75
471.558	65.75
471.777	88.75
471.997	93.75
472.216	103.75
472.435	120.75
472.654	86.75
472.873	88.75
473.092	89.75
473.311	84.75
473.53	79.75
473.749	80.75
473.968	82.75
474.187	92.75
474.406	89.75
474.625	92.75
474.844	85.75
475.063	89.75
475.282	96.75
475.501	83.75
475.72	95.75
475.939	78.75
476.158	88.75
476.377	83.75
476.596	93.75
476.814	84.75
477.033	96.75
477.252	95.75
477.471	78.75
477.69	90.75
477.908	87.75
478.127	87.75
478.346	84.75
478.564	85.75
478.783	95.75
479.002	101.75
479.22	86.75
479.439	101.75
479.658	83.75
479.876	80.75
480.095	90.75
480.313	85.75
480.532	82.75
480.751	95.75
480.969	112.75
481.188	169.75
481.406	118.75
481.624	90.75
481.843	93.75
482.061	87.75
482.28	78.75
482.498	106.75
482.717	96.75
482.935	85.75
483.153	84.75
483.372	73.75
483.59	88.75
483.808	82.75
484.027	87.75
484.245	76.75
484.463	93.75
484.681	101.75
484.9	82.75
485.118	88.75
485.336	92.75
485.554	100.75
485.772	103.75
485.99	110.75
486.209	108.75
486.427	108.75
486.645	111.75
486.863	99.75
487.081	100.75
487.299	87.75
487.517	69.75
487.735	95.75
487.953	67.75
488.171	89.75
488.389	99.75
488.607	105.75
488.825	87.75
489.043	84.75
489.261	94.75
489.479	84.75
489.696	90.75
489.914	84.75
490.132	95.75
490.35	95.75
490.568	82.75
490.786	78.75
491.003	80.75
491.221	92.75
491.439	80.75
491.657	97.75
491.874	110.75
492.092	83.75
492.31	71.75
492.527	78.75
492.745	89.75
492.963	98.75
493.18	83.75
493.398	100.75
493.615	98.75
493.833	94.75
494.05	86.75
494.268	88.75
494.485	89.75
494.703	91.75
494.92	74.75
495.138	78.75
495.355	82.75
495.573	79.75
495.79	76.75
496.008	92.75
496.225	97.75
496.442	89.75
496.66	89.75
496.877	77.75
497.094	100.75
497.312	81.75
497.529	93.75
497.746	75.75
497.963	95.75
498.181	86.75
498.398	102.75
498.615	104.75
498.832	96.75
499.049	88.75
499.267	88.75
499.484	76.75
499.701	82.75
499.918	90.75
500.135	85.75
500.352	84.75
500.569	87.75
500.786	71.75
501.003	86.75
501.22	84.75
501.437	78.75
501.654	81.75
501.871	94.75
502.088	91.75
502.305	92.75
502.522	87.75
502.739	95.75
502.956	83.75
503.172	96.75
503.389	95.75
503.606	92.75
503.823	92.75
504.04	94.75
504.256	87.75
504.473	84.75
504.69	85.75
504.907	86.75
505.123	90.75
505.34	81.75
505.557	88.75
505.773	78.75
505.99	66.75
506.207	76.75
506.423	78.75
506.64	70.75
506.856	77.75
507.073	82.75
507.289	93.75
507.506	99.75
507.722	113.75
507.939	98.75
508.155	99.75
508.372	85.75
508.588	80.75
508.805	95.75
509.021	81.75
509.238	95.75
509.454	79.75
509.67	90.75
509.887	101.75
510.103	130.75
510.319	194.75
510.536	600.75
510.752	1717.75
510.968	494.75
511.184	137.75
511.401	98.75
511.617	86.75
511.833	94.75
512.049	82.75
512.265	92.75
512.481	85.75
512.698	85.75
512.914	84.75
513.13	72.75
513.346	87.75
513.562	88.75
513.778	101.75
513.994	91.75
514.21	105.75
514.426	109.75
514.642	106.75
514.858	131.75
515.074	148.75
515.29	362.75
515.506	1040.75
515.721	382.75
515.937	134.75
516.153	96.75
516.369	96.75
516.585	105.75
516.801	82.75
517.016	89.75
