Data from Circ_1986_H10_HRD10591_00043.txt Node
Date: Wed Jan 03 12:15:34 EST 2024
User: Yrep
Spectrometer: HR+D1059
Trigger mode: 1
Integration Time (sec): 1.000000E-1
Scans to average: 1
Electric dark correction enabled: true
Nonlinearity correction enabled: false
Boxcar width: 0
XAxis mode: Wavelengths
Number of Pixels in Spectrum: 2048
>>>>>Begin Spectral Data<<<<<
223.165	-10.19
223.4	-10.19
223.635	-10.19
223.869	-24.19
224.104	-24.19
224.338	-7.19
224.573	-25.19
224.808	-15.19
225.042	-0.19
225.277	-9.19
225.511	-3.19
225.746	0.81
225.98	5.81
226.215	18.81
226.449	16.81
226.683	22.81
226.918	23.81
227.152	29.81
227.387	41.81
227.621	38.81
227.856	48.81
228.09	50.81
228.324	38.81
228.559	46.81
228.793	56.81
229.027	45.81
229.262	53.81
229.496	62.81
229.73	79.81
229.964	67.81
230.199	55.81
230.433	73.81
230.667	71.81
230.901	81.81
231.136	71.81
231.37	68.81
231.604	74.81
231.838	70.81
232.072	84.81
232.306	76.81
232.541	77.81
232.775	84.81
233.009	76.81
233.243	83.81
233.477	71.81
233.711	75.81
233.945	78.81
234.179	83.81
234.413	83.81
234.647	66.81
234.881	79.81
235.115	60.81
235.349	65.81
235.583	74.81
235.817	89.81
236.051	62.81
236.285	78.81
236.519	65.81
236.753	77.81
236.987	78.81
237.221	83.81
237.455	81.81
237.689	70.81
237.922	75.81
238.156	73.81
238.39	75.81
238.624	80.81
238.858	73.81
239.091	80.81
239.325	67.81
239.559	82.81
239.793	75.81
240.027	73.81
240.26	70.81
240.494	79.81
240.728	79.81
240.961	91.81
241.195	63.81
241.429	77.81
241.662	68.81
241.896	81.81
242.13	75.81
242.363	80.81
242.597	81.81
242.83	73.81
243.064	67.81
243.298	77.81
243.531	77.81
243.765	67.81
243.998	78.81
244.232	68.81
244.465	70.81
244.699	82.81
244.932	74.81
245.166	69.81
245.399	83.81
245.633	66.81
245.866	67.81
246.099	68.81
246.333	83.81
246.566	77.81
246.8	84.81
247.033	87.81
247.266	70.81
247.5	64.81
247.733	63.81
247.966	58.81
248.2	78.81
248.433	84.81
248.666	82.81
248.899	64.81
249.133	82.81
249.366	99.81
249.599	100.81
249.832	77.81
250.066	78.81
250.299	70.81
250.532	68.81
250.765	68.81
250.998	83.81
251.231	78.81
251.465	66.81
251.698	74.81
251.931	71.81
252.164	74.81
252.397	78.81
252.63	68.81
252.863	69.81
253.096	80.81
253.329	74.81
253.562	69.81
253.795	55.81
254.028	76.81
254.261	74.81
254.494	60.81
254.727	77.81
254.96	71.81
255.193	76.81
255.426	76.81
255.659	67.81
255.892	76.81
256.124	63.81
256.357	72.81
256.59	78.81
256.823	89.81
257.056	71.81
257.289	83.81
257.521	86.81
257.754	70.81
257.987	89.81
258.22	73.81
258.452	65.81
258.685	77.81
258.918	82.81
259.151	73.81
259.383	69.81
259.616	67.81
259.849	81.81
260.081	66.81
260.314	82.81
260.547	75.81
260.779	73.81
261.012	71.81
261.244	84.81
261.477	78.81
261.71	86.81
261.942	100.81
262.175	101.81
262.407	97.81
262.64	77.81
262.872	77.81
263.105	87.81
263.337	81.81
263.57	69.81
263.802	72.81
264.035	80.81
264.267	63.81
264.499	71.81
264.732	75.81
264.964	77.81
265.197	77.81
265.429	79.81
265.661	66.81
265.894	70.81
266.126	91.81
266.358	76.81
266.591	83.81
266.823	69.81
267.055	65.81
267.287	84.81
267.52	79.81
267.752	70.81
267.984	64.81
268.216	83.81
268.448	70.81
268.681	77.81
268.913	76.81
269.145	86.81
269.377	77.81
269.609	67.81
269.841	77.81
270.073	80.81
270.306	77.81
270.538	89.81
270.77	76.81
271.002	88.81
271.234	76.81
271.466	82.81
271.698	93.81
271.93	69.81
272.162	90.81
272.394	76.81
272.626	75.81
272.858	76.81
273.09	79.81
273.322	74.81
273.553	77.81
273.785	84.81
274.017	75.81
274.249	95.81
274.481	85.81
274.713	66.81
274.945	94.81
275.176	96.81
275.408	86.81
275.64	81.81
275.872	75.81
276.104	94.81
276.335	91.81
276.567	105.81
276.799	83.81
277.031	82.81
277.262	87.81
277.494	82.81
277.726	91.81
277.957	85.81
278.189	86.81
278.421	82.81
278.652	89.81
278.884	85.81
279.115	92.81
279.347	78.81
279.579	81.81
279.81	80.81
280.042	95.81
280.273	87.81
280.505	78.81
280.736	71.81
280.968	93.81
281.199	89.81
281.431	65.81
281.662	89.81
281.894	88.81
282.125	92.81
282.356	104.81
282.588	111.81
282.819	108.81
283.051	87.81
283.282	77.81
283.513	95.81
283.745	79.81
283.976	64.81
284.207	75.81
284.439	82.81
284.67	76.81
284.901	82.81
285.132	79.81
285.364	77.81
285.595	65.81
285.826	69.81
286.057	95.81
286.288	64.81
286.52	89.81
286.751	68.81
286.982	94.81
287.213	73.81
287.444	77.81
287.675	82.81
287.906	81.81
288.138	71.81
288.369	83.81
288.6	79.81
288.831	85.81
289.062	82.81
289.293	82.81
289.524	82.81
289.755	71.81
289.986	83.81
290.217	79.81
290.448	94.81
290.679	86.81
290.91	78.81
291.141	83.81
291.371	97.81
291.602	79.81
291.833	79.81
292.064	83.81
292.295	92.81
292.526	80.81
292.757	63.81
292.987	81.81
293.218	85.81
293.449	87.81
293.68	75.81
293.91	87.81
294.141	84.81
294.372	76.81
294.603	89.81
294.833	67.81
295.064	83.81
295.295	82.81
295.525	83.81
295.756	105.81
295.987	110.81
296.217	122.81
296.448	111.81
296.679	91.81
296.909	86.81
297.14	99.81
297.37	91.81
297.601	98.81
297.831	87.81
298.062	70.81
298.292	79.81
298.523	85.81
298.753	77.81
298.984	78.81
299.214	78.81
299.445	82.81
299.675	107.81
299.905	107.81
300.136	89.81
300.366	94.81
300.597	93.81
300.827	65.81
301.057	97.81
301.288	78.81
301.518	75.81
301.748	79.81
301.979	94.81
302.209	80.81
302.439	83.81
302.669	81.81
302.9	84.81
303.13	76.81
303.36	87.81
303.59	90.81
303.82	89.81
304.051	94.81
304.281	83.81
304.511	100.81
304.741	79.81
304.971	86.81
305.201	87.81
305.431	77.81
305.661	82.81
305.891	90.81
306.121	91.81
306.352	83.81
306.582	85.81
306.812	81.81
307.042	89.81
307.272	110.81
307.502	101.81
307.731	79.81
307.961	86.81
308.191	78.81
308.421	92.81
308.651	84.81
308.881	91.81
309.111	84.81
309.341	89.81
309.571	85.81
309.8	85.81
310.03	83.81
310.26	86.81
310.49	62.81
310.72	91.81
310.949	89.81
311.179	86.81
311.409	81.81
311.639	98.81
311.868	91.81
312.098	98.81
312.328	89.81
312.557	88.81
312.787	103.81
313.017	77.81
313.246	91.81
313.476	88.81
313.706	77.81
313.935	93.81
314.165	99.81
314.394	83.81
314.624	88.81
314.853	85.81
315.083	98.81
315.312	70.81
315.542	94.81
315.771	90.81
316.001	83.81
316.23	76.81
316.46	78.81
316.689	87.81
316.919	76.81
317.148	92.81
317.377	85.81
317.607	89.81
317.836	76.81
318.065	84.81
318.295	73.81
318.524	84.81
318.753	87.81
318.983	83.81
319.212	83.81
319.441	96.81
319.67	96.81
319.9	95.81
320.129	94.81
320.358	79.81
320.587	86.81
320.816	76.81
321.046	97.81
321.275	92.81
321.504	87.81
321.733	94.81
321.962	85.81
322.191	98.81
322.42	94.81
322.649	93.81
322.878	100.81
323.108	98.81
323.337	116.81
323.566	117.81
323.795	139.81
324.024	166.81
324.253	305.81
324.482	627.81
324.71	1263.81
324.939	1685.81
325.168	651.81
325.397	194.81
325.626	134.81
325.855	110.81
326.084	109.81
326.313	122.81
326.542	128.81
326.77	180.81
326.999	359.81
327.228	699.81
327.457	1309.81
327.686	1026.81
327.914	287.81
328.143	159.81
328.372	137.81
328.6	111.81
328.829	96.81
329.058	111.81
329.287	107.81
329.515	107.81
329.744	125.81
329.972	115.81
330.201	119.81
330.43	143.81
330.658	117.81
330.887	117.81
331.115	106.81
331.344	98.81
331.572	91.81
331.801	98.81
332.03	95.81
332.258	96.81
332.486	89.81
332.715	87.81
332.943	79.81
333.172	81.81
333.4	98.81
333.629	103.81
333.857	100.81
334.085	116.81
334.314	118.81
334.542	171.81
334.771	167.81
334.999	102.81
335.227	82.81
335.455	83.81
335.684	82.81
335.912	93.81
336.14	94.81
336.369	91.81
336.597	90.81
336.825	86.81
337.053	106.81
337.281	89.81
337.51	86.81
337.738	80.81
337.966	95.81
338.194	83.81
338.422	69.81
338.65	80.81
338.878	71.81
339.106	96.81
339.334	93.81
339.562	83.81
339.79	73.81
340.018	85.81
340.246	85.81
340.474	90.81
340.702	82.81
340.93	82.81
341.158	95.81
341.386	86.81
341.614	91.81
341.842	79.81
342.07	78.81
342.298	97.81
342.526	86.81
342.754	89.81
342.981	82.81
343.209	80.81
343.437	98.81
343.665	85.81
343.893	85.81
344.12	90.81
344.348	92.81
344.576	91.81
344.804	91.81
345.031	101.81
345.259	95.81
345.487	97.81
345.714	98.81
345.942	90.81
346.17	82.81
346.397	98.81
346.625	77.81
346.853	90.81
347.08	82.81
347.308	99.81
347.535	89.81
347.763	96.81
347.99	83.81
348.218	91.81
348.445	97.81
348.673	97.81
348.9	96.81
349.128	85.81
349.355	94.81
349.583	93.81
349.81	79.81
350.037	77.81
350.265	98.81
350.492	83.81
350.72	77.81
350.947	101.81
351.174	98.81
351.402	110.81
351.629	81.81
351.856	91.81
352.083	79.81
352.311	98.81
352.538	115.81
352.765	90.81
352.992	100.81
353.22	99.81
353.447	92.81
353.674	92.81
353.901	92.81
354.128	104.81
354.355	90.81
354.583	88.81
354.81	84.81
355.037	98.81
355.264	92.81
355.491	88.81
355.718	88.81
355.945	83.81
356.172	97.81
356.399	91.81
356.626	77.81
356.853	78.81
357.08	69.81
357.307	85.81
357.534	93.81
357.761	70.81
357.988	90.81
358.215	103.81
358.441	80.81
358.668	89.81
358.895	75.81
359.122	84.81
359.349	84.81
359.576	74.81
359.802	85.81
360.029	95.81
360.256	110.81
360.483	89.81
360.709	87.81
360.936	81.81
361.163	84.81
361.39	85.81
361.616	84.81
361.843	88.81
362.07	96.81
362.296	93.81
362.523	82.81
362.749	80.81
362.976	79.81
363.203	86.81
363.429	66.81
363.656	101.81
363.882	86.81
364.109	94.81
364.335	90.81
364.562	87.81
364.788	73.81
365.015	86.81
365.241	94.81
365.468	95.81
365.694	91.81
365.92	82.81
366.147	89.81
366.373	86.81
366.599	89.81
366.826	79.81
367.052	74.81
367.278	77.81
367.505	97.81
367.731	89.81
367.957	80.81
368.184	94.81
368.41	92.81
368.636	97.81
368.862	98.81
369.089	88.81
369.315	81.81
369.541	88.81
369.767	76.81
369.993	81.81
370.219	80.81
370.445	78.81
370.672	87.81
370.898	92.81
371.124	81.81
371.35	87.81
371.576	84.81
371.802	80.81
372.028	91.81
372.254	80.81
372.48	98.81
372.706	81.81
372.932	75.81
373.158	89.81
373.384	85.81
373.61	81.81
373.835	83.81
374.061	79.81
374.287	86.81
374.513	78.81
374.739	80.81
374.965	91.81
375.191	97.81
375.416	83.81
375.642	87.81
375.868	87.81
376.094	96.81
376.319	91.81
376.545	85.81
376.771	82.81
376.997	87.81
377.222	87.81
377.448	86.81
377.674	96.81
377.899	77.81
378.125	92.81
378.35	84.81
378.576	83.81
378.802	88.81
379.027	72.81
379.253	94.81
379.478	96.81
379.704	79.81
379.929	94.81
380.155	94.81
380.38	93.81
380.606	88.81
380.831	97.81
381.057	92.81
381.282	103.81
381.507	100.81
381.733	87.81
381.958	106.81
382.184	101.81
382.409	105.81
382.634	99.81
382.86	93.81
383.085	102.81
383.31	91.81
383.535	100.81
383.761	94.81
383.986	100.81
384.211	98.81
384.436	96.81
384.662	91.81
384.887	93.81
385.112	86.81
385.337	99.81
385.562	92.81
385.787	95.81
386.013	93.81
386.238	98.81
386.463	87.81
386.688	94.81
386.913	100.81
387.138	94.81
387.363	101.81
387.588	108.81
387.813	96.81
388.038	101.81
388.263	114.81
388.488	113.81
388.713	86.81
388.938	93.81
389.163	68.81
389.387	91.81
389.612	90.81
389.837	85.81
390.062	93.81
390.287	95.81
390.512	77.81
390.736	84.81
390.961	69.81
391.186	98.81
391.411	97.81
391.636	95.81
391.86	75.81
392.085	78.81
392.31	79.81
392.534	81.81
392.759	83.81
392.984	73.81
393.208	86.81
393.433	98.81
393.658	86.81
393.882	86.81
394.107	80.81
394.331	84.81
394.556	82.81
394.78	77.81
395.005	90.81
395.229	82.81
395.454	77.81
395.678	85.81
395.903	91.81
396.127	83.81
396.352	85.81
396.576	87.81
396.801	69.81
397.025	81.81
397.249	93.81
397.474	77.81
397.698	81.81
397.922	77.81
398.147	84.81
398.371	80.81
398.595	89.81
398.82	93.81
399.044	80.81
399.268	70.81
399.492	79.81
399.717	83.81
399.941	96.81
400.165	82.81
400.389	78.81
400.613	80.81
400.837	80.81
401.062	68.81
401.286	95.81
401.51	84.81
401.734	94.81
401.958	93.81
402.182	102.81
402.406	140.81
402.63	101.81
402.854	81.81
403.078	83.81
403.302	81.81
403.526	91.81
403.75	91.81
403.974	82.81
404.198	80.81
404.422	92.81
404.645	76.81
404.869	96.81
405.093	81.81
405.317	89.81
405.541	90.81
405.765	98.81
405.988	106.81
406.212	153.81
406.436	179.81
406.66	143.81
406.883	92.81
407.107	98.81
407.331	87.81
407.555	84.81
407.778	109.81
408.002	87.81
408.226	83.81
408.449	95.81
408.673	78.81
408.896	85.81
409.12	81.81
409.344	86.81
409.567	81.81
409.791	80.81
410.014	94.81
410.238	80.81
410.461	81.81
410.685	67.81
410.908	85.81
411.132	93.81
411.355	84.81
411.578	83.81
411.802	95.81
412.025	79.81
412.249	70.81
412.472	77.81
412.695	101.81
412.919	92.81
413.142	91.81
413.365	93.81
413.589	96.81
413.812	90.81
414.035	87.81
414.258	87.81
414.482	69.81
414.705	85.81
414.928	84.81
415.151	97.81
415.374	86.81
415.597	86.81
415.821	74.81
416.044	85.81
416.267	83.81
416.49	79.81
416.713	75.81
416.936	76.81
417.159	84.81
417.382	98.81
417.605	91.81
417.828	84.81
418.051	91.81
418.274	73.81
418.497	78.81
418.72	82.81
418.943	82.81
419.166	76.81
419.389	77.81
419.611	75.81
419.834	83.81
420.057	69.81
420.28	81.81
420.503	78.81
420.726	88.81
420.948	86.81
421.171	86.81
421.394	86.81
421.617	100.81
421.839	76.81
422.062	84.81
422.285	83.81
422.507	76.81
422.73	94.81
422.953	86.81
423.175	79.81
423.398	84.81
423.621	81.81
423.843	93.81
424.066	71.81
424.288	84.81
424.511	73.81
424.733	101.81
424.956	91.81
425.178	91.81
425.401	81.81
425.623	89.81
425.846	82.81
426.068	84.81
426.291	83.81
426.513	89.81
426.735	95.81
426.958	98.81
427.18	88.81
427.402	125.81
427.625	137.81
427.847	122.81
428.069	113.81
428.292	94.81
428.514	75.81
428.736	79.81
428.958	69.81
429.181	75.81
429.403	91.81
429.625	85.81
429.847	91.81
430.069	91.81
430.292	83.81
430.514	79.81
430.736	85.81
430.958	83.81
431.18	82.81
431.402	80.81
431.624	78.81
431.846	92.81
432.068	82.81
432.29	89.81
432.512	77.81
432.734	82.81
432.956	83.81
433.178	98.81
433.4	93.81
433.622	90.81
433.844	72.81
434.066	91.81
434.287	94.81
434.509	74.81
434.731	89.81
434.953	83.81
435.175	86.81
435.397	92.81
435.618	97.81
435.84	93.81
436.062	98.81
436.284	111.81
436.505	94.81
436.727	83.81
436.949	85.81
437.17	90.81
437.392	83.81
437.614	76.81
437.835	104.81
438.057	104.81
438.278	84.81
438.5	83.81
438.721	114.81
438.943	91.81
439.165	70.81
439.386	73.81
439.608	80.81
439.829	109.81
440.05	108.81
440.272	126.81
440.493	91.81
440.715	81.81
440.936	80.81
441.158	85.81
441.379	76.81
441.6	85.81
441.822	91.81
442.043	88.81
442.264	106.81
442.486	91.81
442.707	76.81
442.928	94.81
443.149	99.81
443.371	106.81
443.592	100.81
443.813	94.81
444.034	94.81
444.255	89.81
444.476	75.81
444.698	85.81
444.919	83.81
445.14	115.81
445.361	115.81
445.582	102.81
445.803	105.81
446.024	104.81
446.245	115.81
446.466	88.81
446.687	83.81
446.908	99.81
447.129	66.81
447.35	77.81
447.571	99.81
447.792	78.81
448.013	103.81
448.234	100.81
448.455	100.81
448.675	94.81
448.896	84.81
449.117	92.81
449.338	100.81
449.559	99.81
449.779	108.81
450	85.81
450.221	73.81
450.442	85.81
450.662	90.81
450.883	103.81
451.104	81.81
451.324	74.81
451.545	84.81
451.766	70.81
451.986	82.81
452.207	79.81
452.428	85.81
452.648	80.81
452.869	85.81
453.089	109.81
453.31	99.81
453.53	79.81
453.751	87.81
453.971	106.81
454.192	97.81
454.412	88.81
454.633	78.81
454.853	79.81
455.073	69.81
455.294	73.81
455.514	82.81
455.734	87.81
455.955	90.81
456.175	69.81
456.395	76.81
456.616	75.81
456.836	91.81
457.056	91.81
457.276	69.81
457.497	101.81
457.717	82.81
457.937	67.81
458.157	86.81
458.377	81.81
458.598	81.81
458.818	130.81
459.038	122.81
459.258	101.81
459.478	85.81
459.698	80.81
459.918	75.81
460.138	74.81
460.358	69.81
460.578	83.81
460.798	83.81
461.018	99.81
461.238	86.81
461.458	80.81
461.678	79.81
461.898	70.81
462.118	73.81
462.338	74.81
462.558	81.81
462.777	75.81
462.997	81.81
463.217	77.81
463.437	88.81
463.657	80.81
463.876	93.81
464.096	77.81
464.316	85.81
464.536	70.81
464.755	79.81
464.975	80.81
465.195	121.81
465.414	130.81
465.634	99.81
465.854	83.81
466.073	83.81
466.293	78.81
466.512	83.81
466.732	82.81
466.951	78.81
467.171	77.81
467.391	77.81
467.61	83.81
467.829	83.81
468.049	105.81
468.268	129.81
468.488	80.81
468.707	72.81
468.927	79.81
469.146	83.81
469.365	86.81
469.585	91.81
469.804	84.81
470.023	94.81
470.243	85.81
470.462	84.81
470.681	106.81
470.901	82.81
471.12	87.81
471.339	86.81
471.558	82.81
471.777	81.81
471.997	98.81
472.216	146.81
472.435	193.81
472.654	107.81
472.873	81.81
473.092	81.81
473.311	85.81
473.53	71.81
473.749	81.81
473.968	83.81
474.187	98.81
474.406	89.81
474.625	83.81
474.844	66.81
475.063	93.81
475.282	76.81
475.501	80.81
475.72	86.81
475.939	82.81
476.158	82.81
476.377	78.81
476.596	73.81
476.814	75.81
477.033	82.81
477.252	79.81
477.471	79.81
477.69	90.81
477.908	99.81
478.127	76.81
478.346	79.81
478.564	88.81
478.783	92.81
479.002	85.81
479.22	96.81
479.439	83.81
479.658	96.81
479.876	85.81
480.095	78.81
480.313	88.81
480.532	69.81
480.751	99.81
480.969	122.81
481.188	317.81
481.406	205.81
481.624	101.81
481.843	88.81
482.061	83.81
482.28	87.81
482.498	79.81
482.717	75.81
482.935	79.81
483.153	86.81
483.372	92.81
483.59	74.81
483.808	86.81
484.027	88.81
484.245	94.81
484.463	78.81
484.681	89.81
484.9	90.81
485.118	99.81
485.336	90.81
485.554	94.81
485.772	84.81
485.99	90.81
486.209	96.81
486.427	101.81
486.645	97.81
486.863	93.81
487.081	99.81
487.299	92.81
487.517	94.81
487.735	92.81
487.953	80.81
488.171	93.81
488.389	92.81
488.607	81.81
488.825	74.81
489.043	91.81
489.261	68.81
489.479	80.81
489.696	76.81
489.914	74.81
490.132	75.81
490.35	83.81
490.568	94.81
490.786	87.81
491.003	75.81
491.221	81.81
491.439	82.81
491.657	81.81
491.874	78.81
492.092	77.81
492.31	85.81
492.527	90.81
492.745	82.81
492.963	90.81
493.18	87.81
493.398	84.81
493.615	100.81
493.833	97.81
494.05	87.81
494.268	79.81
494.485	90.81
494.703	71.81
494.92	99.81
495.138	76.81
495.355	89.81
495.573	81.81
495.79	85.81
496.008	92.81
496.225	72.81
496.442	74.81
496.66	95.81
496.877	90.81
497.094	81.81
497.312	89.81
497.529	75.81
497.746	66.81
497.963	77.81
498.181	85.81
498.398	78.81
498.615	94.81
498.832	90.81
499.049	87.81
499.267	86.81
499.484	83.81
499.701	79.81
499.918	81.81
500.135	88.81
500.352	93.81
500.569	74.81
500.786	95.81
501.003	97.81
501.22	81.81
501.437	81.81
501.654	78.81
501.871	96.81
502.088	74.81
502.305	82.81
502.522	80.81
502.739	90.81
502.956	76.81
503.172	86.81
503.389	80.81
503.606	95.81
503.823	95.81
504.04	94.81
504.256	69.81
504.473	73.81
504.69	80.81
504.907	84.81
505.123	82.81
505.34	82.81
505.557	92.81
505.773	84.81
505.99	84.81
506.207	82.81
506.423	87.81
506.64	93.81
506.856	80.81
507.073	80.81
507.289	92.81
507.506	81.81
507.722	87.81
507.939	100.81
508.155	84.81
508.372	75.81
508.588	92.81
508.805	87.81
509.021	81.81
509.238	87.81
509.454	85.81
509.67	98.81
509.887	95.81
510.103	115.81
510.319	212.81
510.536	636.81
510.752	1933.81
510.968	522.81
511.184	124.81
511.401	115.81
511.617	102.81
511.833	90.81
512.049	78.81
512.265	97.81
512.481	71.81
512.698	89.81
512.914	66.81
513.13	100.81
513.346	79.81
513.562	81.81
513.778	92.81
513.994	101.81
514.21	99.81
514.426	104.81
514.642	102.81
514.858	118.81
515.074	147.81
515.29	368.81
515.506	1137.81
515.721	411.81
515.937	139.81
516.153	93.81
516.369	91.81
516.585	88.81
516.801	89.81
517.016	91.81
517.232	107.81
517.448	94.81
517.664	78.81
517.879	83.81
