Data from Circ_1986_H10_HRD10591_00094.txt Node
Date: Wed Jan 03 12:15:44 EST 2024
User: Yrep
Spectrometer: HR+D1059
Trigger mode: 1
Integration Time (sec): 1.000000E-1
Scans to average: 1
Electric dark correction enabled: true
Nonlinearity correction enabled: false
Boxcar width: 0
XAxis mode: Wavelengths
Number of Pixels in Spectrum: 2048
>>>>>Begin Spectral Data<<<<<
223.165	-14.81
223.4	-14.81
223.635	-14.81
223.869	-25.81
224.104	-23.81
224.338	-16.81
224.573	-12.81
224.808	-28.81
225.042	-9.81
225.277	2.19
225.511	-0.81
225.746	-0.81
225.98	20.19
226.215	2.19
226.449	24.19
226.683	18.19
226.918	28.19
227.152	39.19
227.387	42.19
227.621	45.19
227.856	60.19
228.09	46.19
228.324	61.19
228.559	58.19
228.793	67.19
229.027	55.19
229.262	62.19
229.496	61.19
229.73	98.19
229.964	92.19
230.199	80.19
230.433	89.19
230.667	78.19
230.901	91.19
231.136	76.19
231.37	92.19
231.604	84.19
231.838	71.19
232.072	66.19
232.306	82.19
232.541	87.19
232.775	80.19
233.009	69.19
233.243	74.19
233.477	82.19
233.711	93.19
233.945	71.19
234.179	82.19
234.413	94.19
234.647	93.19
234.881	75.19
235.115	74.19
235.349	90.19
235.583	83.19
235.817	87.19
236.051	84.19
236.285	85.19
236.519	100.19
236.753	80.19
236.987	77.19
237.221	89.19
237.455	83.19
237.689	94.19
237.922	94.19
238.156	82.19
238.39	74.19
238.624	79.19
238.858	68.19
239.091	78.19
239.325	86.19
239.559	63.19
239.793	75.19
240.027	69.19
240.26	88.19
240.494	79.19
240.728	77.19
240.961	82.19
241.195	91.19
241.429	86.19
241.662	76.19
241.896	78.19
242.13	90.19
242.363	67.19
242.597	79.19
242.83	76.19
243.064	75.19
243.298	67.19
243.531	80.19
243.765	84.19
243.998	95.19
244.232	74.19
244.465	82.19
244.699	75.19
244.932	82.19
245.166	92.19
245.399	72.19
245.633	72.19
245.866	85.19
246.099	83.19
246.333	75.19
246.566	88.19
246.8	91.19
247.033	85.19
247.266	80.19
247.5	77.19
247.733	87.19
247.966	83.19
248.2	77.19
248.433	86.19
248.666	78.19
248.899	89.19
249.133	89.19
249.366	98.19
249.599	100.19
249.832	79.19
250.066	92.19
250.299	97.19
250.532	80.19
250.765	76.19
250.998	72.19
251.231	72.19
251.465	90.19
251.698	76.19
251.931	77.19
252.164	82.19
252.397	75.19
252.63	92.19
252.863	72.19
253.096	104.19
253.329	79.19
253.562	94.19
253.795	94.19
254.028	96.19
254.261	85.19
254.494	90.19
254.727	94.19
254.96	86.19
255.193	80.19
255.426	64.19
255.659	79.19
255.892	79.19
256.124	80.19
256.357	75.19
256.59	85.19
256.823	78.19
257.056	82.19
257.289	90.19
257.521	77.19
257.754	76.19
257.987	79.19
258.22	94.19
258.452	94.19
258.685	86.19
258.918	87.19
259.151	88.19
259.383	100.19
259.616	90.19
259.849	89.19
260.081	89.19
260.314	102.19
260.547	88.19
260.779	92.19
261.012	78.19
261.244	85.19
261.477	87.19
261.71	95.19
261.942	94.19
262.175	121.19
262.407	105.19
262.64	88.19
262.872	94.19
263.105	76.19
263.337	91.19
263.57	93.19
263.802	95.19
264.035	93.19
264.267	80.19
264.499	77.19
264.732	85.19
264.964	85.19
265.197	84.19
265.429	87.19
265.661	97.19
265.894	88.19
266.126	79.19
266.358	87.19
266.591	85.19
266.823	86.19
267.055	94.19
267.287	92.19
267.52	90.19
267.752	96.19
267.984	99.19
268.216	88.19
268.448	95.19
268.681	92.19
268.913	93.19
269.145	91.19
269.377	95.19
269.609	82.19
269.841	90.19
270.073	92.19
270.306	89.19
270.538	86.19
270.77	83.19
271.002	92.19
271.234	90.19
271.466	89.19
271.698	94.19
271.93	86.19
272.162	97.19
272.394	79.19
272.626	96.19
272.858	92.19
273.09	105.19
273.322	85.19
273.553	84.19
273.785	87.19
274.017	92.19
274.249	87.19
274.481	93.19
274.713	75.19
274.945	95.19
275.176	102.19
275.408	98.19
275.64	89.19
275.872	97.19
276.104	86.19
276.335	83.19
276.567	91.19
276.799	102.19
277.031	105.19
277.262	90.19
277.494	93.19
277.726	84.19
277.957	82.19
278.189	84.19
278.421	80.19
278.652	78.19
278.884	92.19
279.115	101.19
279.347	87.19
279.579	87.19
279.81	102.19
280.042	92.19
280.273	101.19
280.505	97.19
280.736	91.19
280.968	84.19
281.199	102.19
281.431	87.19
281.662	88.19
281.894	74.19
282.125	95.19
282.356	117.19
282.588	135.19
282.819	106.19
283.051	80.19
283.282	98.19
283.513	94.19
283.745	94.19
283.976	91.19
284.207	90.19
284.439	95.19
284.67	89.19
284.901	91.19
285.132	94.19
285.364	90.19
285.595	91.19
285.826	90.19
286.057	90.19
286.288	98.19
286.52	106.19
286.751	94.19
286.982	95.19
287.213	99.19
287.444	88.19
287.675	90.19
287.906	77.19
288.138	86.19
288.369	75.19
288.6	86.19
288.831	77.19
289.062	86.19
289.293	84.19
289.524	94.19
289.755	90.19
289.986	91.19
290.217	86.19
290.448	88.19
290.679	82.19
290.91	88.19
291.141	86.19
291.371	100.19
291.602	93.19
291.833	79.19
292.064	88.19
292.295	96.19
292.526	101.19
292.757	94.19
292.987	95.19
293.218	95.19
293.449	97.19
293.68	100.19
293.91	96.19
294.141	84.19
294.372	81.19
294.603	86.19
294.833	108.19
295.064	90.19
295.295	91.19
295.525	78.19
295.756	116.19
295.987	111.19
296.217	138.19
296.448	108.19
296.679	83.19
296.909	77.19
297.14	95.19
297.37	86.19
297.601	88.19
297.831	83.19
298.062	102.19
298.292	71.19
298.523	112.19
298.753	82.19
298.984	103.19
299.214	96.19
299.445	98.19
299.675	89.19
299.905	103.19
300.136	90.19
300.366	84.19
300.597	100.19
300.827	98.19
301.057	98.19
301.288	90.19
301.518	88.19
301.748	84.19
301.979	110.19
302.209	90.19
302.439	87.19
302.669	95.19
302.9	94.19
303.13	95.19
303.36	98.19
303.59	106.19
303.82	102.19
304.051	101.19
304.281	82.19
304.511	95.19
304.741	91.19
304.971	94.19
305.201	85.19
305.431	102.19
305.661	92.19
305.891	110.19
306.121	112.19
306.352	98.19
306.582	102.19
306.812	115.19
307.042	94.19
307.272	96.19
307.502	112.19
307.731	90.19
307.961	98.19
308.191	95.19
308.421	94.19
308.651	100.19
308.881	97.19
309.111	87.19
309.341	105.19
309.571	112.19
309.8	107.19
310.03	98.19
310.26	90.19
310.49	95.19
310.72	97.19
310.949	103.19
311.179	104.19
311.409	95.19
311.639	85.19
311.868	97.19
312.098	101.19
312.328	92.19
312.557	93.19
312.787	99.19
313.017	95.19
313.246	88.19
313.476	96.19
313.706	85.19
313.935	93.19
314.165	109.19
314.394	106.19
314.624	94.19
314.853	106.19
315.083	90.19
315.312	96.19
315.542	86.19
315.771	104.19
316.001	86.19
316.23	87.19
316.46	98.19
316.689	85.19
316.919	99.19
317.148	93.19
317.377	102.19
317.607	88.19
317.836	95.19
318.065	88.19
318.295	96.19
318.524	83.19
318.753	96.19
318.983	103.19
319.212	107.19
319.441	106.19
319.67	96.19
319.9	85.19
320.129	103.19
320.358	98.19
320.587	98.19
320.816	96.19
321.046	112.19
321.275	102.19
321.504	92.19
321.733	93.19
321.962	91.19
322.191	106.19
322.42	103.19
322.649	97.19
322.878	108.19
323.108	117.19
323.337	126.19
323.566	122.19
323.795	146.19
324.024	204.19
324.253	359.19
324.482	730.19
324.71	1597.19
324.939	2116.19
325.168	779.19
325.397	237.19
325.626	162.19
325.855	141.19
326.084	118.19
326.313	131.19
326.542	162.19
326.77	224.19
326.999	425.19
327.228	879.19
327.457	1629.19
327.686	1298.19
327.914	364.19
328.143	213.19
328.372	178.19
328.6	137.19
328.829	115.19
329.058	122.19
329.287	135.19
329.515	107.19
329.744	117.19
329.972	134.19
330.201	184.19
330.43	229.19
330.658	163.19
330.887	138.19
331.115	117.19
331.344	100.19
331.572	109.19
331.801	122.19
332.03	109.19
332.258	107.19
332.486	94.19
332.715	100.19
332.943	100.19
333.172	95.19
333.4	89.19
333.629	105.19
333.857	114.19
334.085	132.19
334.314	190.19
334.542	276.19
334.771	253.19
334.999	134.19
335.227	103.19
335.455	100.19
335.684	110.19
335.912	102.19
336.14	101.19
336.369	93.19
336.597	102.19
336.825	89.19
337.053	107.19
337.281	103.19
337.51	90.19
337.738	100.19
337.966	97.19
338.194	103.19
338.422	111.19
338.65	107.19
338.878	87.19
339.106	96.19
339.334	98.19
339.562	84.19
339.79	90.19
340.018	94.19
340.246	83.19
340.474	100.19
340.702	84.19
340.93	88.19
341.158	96.19
341.386	88.19
341.614	106.19
341.842	94.19
342.07	101.19
342.298	88.19
342.526	98.19
342.754	86.19
342.981	86.19
343.209	98.19
343.437	101.19
343.665	86.19
343.893	91.19
344.12	98.19
344.348	96.19
344.576	109.19
344.804	80.19
345.031	103.19
345.259	116.19
345.487	99.19
345.714	101.19
345.942	102.19
346.17	94.19
346.397	94.19
346.625	97.19
346.853	105.19
347.08	77.19
347.308	92.19
347.535	107.19
347.763	90.19
347.99	100.19
348.218	105.19
348.445	102.19
348.673	94.19
348.9	92.19
349.128	97.19
349.355	90.19
349.583	95.19
349.81	105.19
350.037	92.19
350.265	92.19
350.492	104.19
350.72	94.19
350.947	97.19
351.174	103.19
351.402	111.19
351.629	102.19
351.856	100.19
352.083	109.19
352.311	103.19
352.538	102.19
352.765	98.19
352.992	123.19
353.22	124.19
353.447	102.19
353.674	103.19
353.901	95.19
354.128	106.19
354.355	90.19
354.583	98.19
354.81	100.19
355.037	101.19
355.264	87.19
355.491	98.19
355.718	88.19
355.945	91.19
356.172	99.19
356.399	92.19
356.626	95.19
356.853	93.19
357.08	105.19
357.307	93.19
357.534	101.19
357.761	83.19
357.988	111.19
358.215	102.19
358.441	96.19
358.668	91.19
358.895	102.19
359.122	84.19
359.349	95.19
359.576	107.19
359.802	93.19
360.029	102.19
360.256	100.19
360.483	103.19
360.709	84.19
360.936	99.19
361.163	83.19
361.39	111.19
361.616	94.19
361.843	93.19
362.07	90.19
362.296	99.19
362.523	91.19
362.749	88.19
362.976	82.19
363.203	97.19
363.429	87.19
363.656	92.19
363.882	96.19
364.109	83.19
364.335	92.19
364.562	91.19
364.788	94.19
365.015	96.19
365.241	91.19
365.468	100.19
365.694	119.19
365.92	88.19
366.147	101.19
366.373	96.19
366.599	97.19
366.826	86.19
367.052	83.19
367.278	93.19
367.505	106.19
367.731	97.19
367.957	90.19
368.184	96.19
368.41	98.19
368.636	107.19
368.862	105.19
369.089	102.19
369.315	113.19
369.541	97.19
369.767	92.19
369.993	93.19
370.219	89.19
370.445	90.19
370.672	89.19
370.898	78.19
371.124	98.19
371.35	92.19
371.576	84.19
371.802	87.19
372.028	104.19
372.254	86.19
372.48	85.19
372.706	89.19
372.932	100.19
373.158	88.19
373.384	88.19
373.61	96.19
373.835	92.19
374.061	87.19
374.287	106.19
374.513	85.19
374.739	85.19
374.965	77.19
375.191	107.19
375.416	106.19
375.642	79.19
375.868	100.19
376.094	87.19
376.319	92.19
376.545	96.19
376.771	107.19
376.997	85.19
377.222	77.19
377.448	78.19
377.674	90.19
377.899	94.19
378.125	96.19
378.35	109.19
378.576	101.19
378.802	101.19
379.027	106.19
379.253	88.19
379.478	92.19
379.704	104.19
379.929	100.19
380.155	92.19
380.38	112.19
380.606	101.19
380.831	92.19
381.057	92.19
381.282	98.19
381.507	105.19
381.733	98.19
381.958	98.19
382.184	111.19
382.409	92.19
382.634	104.19
382.86	108.19
383.085	105.19
383.31	98.19
383.535	101.19
383.761	111.19
383.986	104.19
384.211	99.19
384.436	103.19
384.662	88.19
384.887	101.19
385.112	110.19
385.337	103.19
385.562	120.19
385.787	112.19
386.013	111.19
386.238	112.19
386.463	104.19
386.688	104.19
386.913	112.19
387.138	103.19
387.363	107.19
387.588	101.19
387.813	99.19
388.038	111.19
388.263	118.19
388.488	95.19
388.713	106.19
388.938	95.19
389.163	105.19
389.387	112.19
389.612	96.19
389.837	99.19
390.062	91.19
390.287	93.19
390.512	91.19
390.736	101.19
390.961	92.19
391.186	89.19
391.411	88.19
391.636	95.19
391.86	102.19
392.085	98.19
392.31	90.19
392.534	96.19
392.759	95.19
392.984	85.19
393.208	94.19
393.433	91.19
393.658	78.19
393.882	94.19
394.107	101.19
394.331	87.19
394.556	82.19
394.78	96.19
395.005	102.19
395.229	82.19
395.454	90.19
395.678	99.19
395.903	100.19
396.127	106.19
396.352	94.19
396.576	86.19
396.801	88.19
397.025	104.19
397.249	91.19
397.474	92.19
397.698	96.19
397.922	90.19
398.147	94.19
398.371	99.19
398.595	100.19
398.82	84.19
399.044	88.19
399.268	95.19
399.492	90.19
399.717	86.19
399.941	89.19
400.165	94.19
400.389	92.19
400.613	103.19
400.837	87.19
401.062	104.19
401.286	109.19
401.51	98.19
401.734	104.19
401.958	116.19
402.182	111.19
402.406	140.19
402.63	109.19
402.854	102.19
403.078	71.19
403.302	84.19
403.526	90.19
403.75	84.19
403.974	92.19
404.198	94.19
404.422	94.19
404.645	88.19
404.869	112.19
405.093	98.19
405.317	94.19
405.541	96.19
405.765	94.19
405.988	102.19
406.212	177.19
406.436	206.19
406.66	138.19
406.883	98.19
407.107	94.19
407.331	95.19
407.555	92.19
407.778	98.19
408.002	93.19
408.226	98.19
408.449	92.19
408.673	84.19
408.896	87.19
409.12	90.19
409.344	101.19
409.567	95.19
409.791	107.19
410.014	104.19
410.238	102.19
410.461	87.19
410.685	90.19
410.908	110.19
411.132	115.19
411.355	106.19
411.578	105.19
411.802	98.19
412.025	100.19
412.249	94.19
412.472	102.19
412.695	111.19
412.919	102.19
413.142	105.19
413.365	91.19
413.589	93.19
413.812	96.19
414.035	93.19
414.258	98.19
414.482	93.19
414.705	94.19
414.928	103.19
415.151	91.19
415.374	90.19
415.597	94.19
415.821	107.19
416.044	91.19
416.267	93.19
416.49	75.19
416.713	88.19
416.936	91.19
417.159	102.19
417.382	94.19
417.605	80.19
417.828	98.19
418.051	96.19
418.274	92.19
418.497	93.19
418.72	98.19
418.943	104.19
419.166	98.19
419.389	79.19
419.611	96.19
419.834	95.19
420.057	101.19
420.28	97.19
420.503	91.19
420.726	106.19
420.948	102.19
421.171	100.19
421.394	82.19
421.617	102.19
421.839	83.19
422.062	87.19
422.285	103.19
422.507	94.19
422.73	99.19
422.953	95.19
423.175	97.19
423.398	87.19
423.621	96.19
423.843	96.19
424.066	88.19
424.288	100.19
424.511	89.19
424.733	106.19
424.956	111.19
425.178	98.19
425.401	99.19
425.623	117.19
425.846	93.19
426.068	87.19
426.291	92.19
426.513	86.19
426.735	94.19
426.958	101.19
427.18	106.19
427.402	122.19
427.625	184.19
427.847	134.19
428.069	111.19
428.292	102.19
428.514	90.19
428.736	83.19
428.958	92.19
429.181	101.19
429.403	90.19
429.625	89.19
429.847	100.19
430.069	103.19
430.292	94.19
430.514	85.19
430.736	102.19
430.958	96.19
431.18	87.19
431.402	84.19
431.624	85.19
431.846	86.19
432.068	91.19
432.29	79.19
432.512	100.19
432.734	88.19
432.956	88.19
433.178	102.19
433.4	101.19
433.622	93.19
433.844	93.19
434.066	107.19
434.287	86.19
434.509	90.19
434.731	85.19
434.953	91.19
435.175	99.19
435.397	84.19
435.618	114.19
435.84	98.19
436.062	112.19
436.284	126.19
436.505	98.19
436.727	96.19
436.949	98.19
437.17	107.19
437.392	95.19
437.614	101.19
437.835	107.19
438.057	117.19
438.278	100.19
438.5	100.19
438.721	125.19
438.943	101.19
439.165	94.19
439.386	92.19
439.608	103.19
439.829	96.19
440.05	129.19
440.272	131.19
440.493	112.19
440.715	77.19
440.936	84.19
441.158	92.19
441.379	82.19
441.6	91.19
441.822	104.19
442.043	104.19
442.264	93.19
442.486	105.19
442.707	96.19
442.928	99.19
443.149	129.19
443.371	119.19
443.592	114.19
443.813	111.19
444.034	108.19
444.255	101.19
444.476	104.19
444.698	98.19
444.919	99.19
445.14	138.19
445.361	126.19
445.582	107.19
445.803	133.19
446.024	133.19
446.245	125.19
446.466	99.19
446.687	91.19
446.908	86.19
447.129	98.19
447.35	91.19
447.571	103.19
447.792	89.19
448.013	103.19
448.234	110.19
448.455	110.19
448.675	115.19
448.896	124.19
449.117	104.19
449.338	109.19
449.559	125.19
449.779	129.19
450	102.19
450.221	91.19
450.442	95.19
450.662	106.19
450.883	94.19
451.104	104.19
451.324	107.19
451.545	101.19
451.766	108.19
451.986	94.19
452.207	101.19
452.428	88.19
452.648	103.19
452.869	117.19
453.089	98.19
453.31	119.19
453.53	86.19
453.751	112.19
453.971	97.19
454.192	111.19
454.412	95.19
454.633	94.19
454.853	92.19
455.073	94.19
455.294	92.19
455.514	103.19
455.734	87.19
455.955	101.19
456.175	90.19
456.395	91.19
456.616	90.19
456.836	96.19
457.056	91.19
457.276	83.19
457.497	83.19
457.717	91.19
457.937	84.19
458.157	94.19
458.377	98.19
458.598	115.19
458.818	135.19
459.038	147.19
459.258	116.19
459.478	90.19
459.698	93.19
459.918	94.19
460.138	91.19
460.358	97.19
460.578	90.19
460.798	107.19
461.018	77.19
461.238	100.19
461.458	89.19
461.678	95.19
461.898	94.19
462.118	108.19
462.338	105.19
462.558	111.19
462.777	81.19
462.997	98.19
463.217	74.19
463.437	99.19
463.657	91.19
463.876	88.19
464.096	87.19
464.316	92.19
464.536	101.19
464.755	102.19
464.975	119.19
465.195	159.19
465.414	133.19
465.634	102.19
465.854	94.19
466.073	103.19
466.293	94.19
466.512	96.19
466.732	85.19
466.951	102.19
467.171	102.19
467.391	101.19
467.61	102.19
467.829	112.19
468.049	156.19
468.268	146.19
468.488	104.19
468.707	90.19
468.927	88.19
469.146	89.19
469.365	104.19
469.585	89.19
469.804	104.19
470.023	97.19
470.243	98.19
470.462	110.19
470.681	119.19
470.901	78.19
471.12	88.19
471.339	94.19
471.558	105.19
471.777	104.19
471.997	115.19
472.216	204.19
472.435	349.19
472.654	148.19
472.873	104.19
473.092	94.19
473.311	97.19
473.53	92.19
473.749	93.19
473.968	115.19
474.187	105.19
474.406	90.19
474.625	94.19
474.844	78.19
475.063	89.19
475.282	94.19
475.501	96.19
475.72	82.19
475.939	99.19
476.158	86.19
476.377	95.19
476.596	96.19
476.814	99.19
477.033	90.19
477.252	96.19
477.471	87.19
477.69	83.19
477.908	98.19
478.127	89.19
478.346	90.19
478.564	98.19
478.783	96.19
479.002	98.19
479.22	95.19
479.439	111.19
479.658	109.19
479.876	105.19
480.095	86.19
480.313	84.19
480.532	104.19
480.751	114.19
480.969	228.19
481.188	569.19
481.406	328.19
481.624	121.19
481.843	103.19
482.061	96.19
482.28	74.19
482.498	104.19
482.717	99.19
482.935	108.19
483.153	96.19
483.372	92.19
483.59	98.19
483.808	83.19
484.027	103.19
484.245	111.19
484.463	85.19
484.681	95.19
484.9	99.19
485.118	107.19
485.336	108.19
485.554	92.19
485.772	88.19
485.99	102.19
486.209	100.19
486.427	100.19
486.645	93.19
486.863	108.19
487.081	107.19
487.299	96.19
487.517	109.19
487.735	90.19
487.953	92.19
488.171	86.19
488.389	94.19
488.607	97.19
488.825	90.19
489.043	96.19
489.261	101.19
489.479	85.19
489.696	87.19
489.914	92.19
490.132	88.19
490.35	91.19
490.568	102.19
490.786	100.19
491.003	100.19
491.221	102.19
491.439	90.19
491.657	96.19
491.874	98.19
492.092	85.19
492.31	92.19
492.527	96.19
492.745	92.19
492.963	106.19
493.18	90.19
493.398	92.19
493.615	90.19
493.833	98.19
494.05	102.19
494.268	108.19
494.485	92.19
494.703	83.19
494.92	88.19
495.138	99.19
495.355	92.19
495.573	105.19
495.79	114.19
496.008	80.19
496.225	106.19
496.442	102.19
496.66	94.19
496.877	91.19
497.094	98.19
497.312	87.19
497.529	82.19
497.746	108.19
497.963	86.19
498.181	84.19
498.398	94.19
498.615	122.19
498.832	92.19
499.049	96.19
499.267	89.19
499.484	99.19
499.701	95.19
499.918	106.19
500.135	101.19
500.352	93.19
500.569	104.19
500.786	112.19
501.003	106.19
501.22	100.19
501.437	91.19
501.654	92.19
501.871	93.19
502.088	90.19
502.305	116.19
502.522	99.19
502.739	87.19
502.956	105.19
503.172	95.19
503.389	88.19
503.606	103.19
503.823	84.19
504.04	92.19
504.256	99.19
504.473	94.19
504.69	102.19
504.907	99.19
505.123	95.19
505.34	98.19
505.557	97.19
505.773	104.19
505.99	93.19
506.207	91.19
506.423	89.19
506.64	101.19
506.856	94.19
507.073	104.19
507.289	92.19
507.506	104.19
507.722	122.19
507.939	103.19
508.155	100.19
508.372	99.19
508.588	102.19
508.805	114.19
509.021	98.19
509.238	101.19
509.454	92.19
509.67	103.19
509.887	101.19
510.103	143.19
510.319	201.19
510.536	684.19
510.752	2017.19
510.968	568.19
511.184	146.19
511.401	125.19
511.617	97.19
511.833	92.19
512.049	101.19
512.265	101.19
512.481	109.19
512.698	88.19
512.914	84.19
513.13	87.19
513.346	95.19
513.562	89.19
513.778	96.19
