Data from Circ_1986_H10_HRD10591_00080.txt Node
Date: Wed Jan 03 12:15:42 EST 2024
User: Yrep
Spectrometer: HR+D1059
Trigger mode: 1
Integration Time (sec): 1.000000E-1
Scans to average: 1
Electric dark correction enabled: true
Nonlinearity correction enabled: false
Boxcar width: 0
XAxis mode: Wavelengths
Number of Pixels in Spectrum: 2048
>>>>>Begin Spectral Data<<<<<
223.165	-4.62
223.4	-4.62
223.635	-4.62
223.869	-7.62
224.104	-21.62
224.338	-28.62
224.573	-11.62
224.808	-14.62
225.042	-21.62
225.277	-4.62
225.511	-5.62
225.746	-4.62
225.98	4.38
226.215	5.38
226.449	18.38
226.683	28.38
226.918	35.38
227.152	33.38
227.387	15.38
227.621	42.38
227.856	51.38
228.09	44.38
228.324	55.38
228.559	66.38
228.793	67.38
229.027	62.38
229.262	71.38
229.496	83.38
229.73	75.38
229.964	90.38
230.199	83.38
230.433	91.38
230.667	85.38
230.901	85.38
231.136	75.38
231.37	76.38
231.604	69.38
231.838	90.38
232.072	78.38
232.306	84.38
232.541	88.38
232.775	87.38
233.009	79.38
233.243	81.38
233.477	80.38
233.711	95.38
233.945	83.38
234.179	76.38
234.413	82.38
234.647	81.38
234.881	74.38
235.115	72.38
235.349	76.38
235.583	67.38
235.817	73.38
236.051	80.38
236.285	78.38
236.519	83.38
236.753	85.38
236.987	90.38
237.221	85.38
237.455	71.38
237.689	82.38
237.922	62.38
238.156	83.38
238.39	75.38
238.624	69.38
238.858	75.38
239.091	67.38
239.325	71.38
239.559	97.38
239.793	68.38
240.027	78.38
240.26	94.38
240.494	65.38
240.728	71.38
240.961	80.38
241.195	64.38
241.429	84.38
241.662	75.38
241.896	85.38
242.13	89.38
242.363	74.38
242.597	82.38
242.83	80.38
243.064	76.38
243.298	74.38
243.531	76.38
243.765	72.38
243.998	83.38
244.232	80.38
244.465	93.38
244.699	89.38
244.932	80.38
245.166	75.38
245.399	74.38
245.633	83.38
245.866	71.38
246.099	65.38
246.333	90.38
246.566	76.38
246.8	58.38
247.033	75.38
247.266	74.38
247.5	72.38
247.733	66.38
247.966	92.38
248.2	79.38
248.433	81.38
248.666	71.38
248.899	86.38
249.133	80.38
249.366	83.38
249.599	90.38
249.832	71.38
250.066	76.38
250.299	61.38
250.532	82.38
250.765	86.38
250.998	63.38
251.231	82.38
251.465	82.38
251.698	72.38
251.931	73.38
252.164	73.38
252.397	92.38
252.63	80.38
252.863	63.38
253.096	63.38
253.329	76.38
253.562	80.38
253.795	77.38
254.028	80.38
254.261	85.38
254.494	76.38
254.727	78.38
254.96	90.38
255.193	86.38
255.426	81.38
255.659	82.38
255.892	83.38
256.124	82.38
256.357	71.38
256.59	84.38
256.823	90.38
257.056	75.38
257.289	82.38
257.521	90.38
257.754	88.38
257.987	87.38
258.22	69.38
258.452	84.38
258.685	82.38
258.918	82.38
259.151	86.38
259.383	73.38
259.616	85.38
259.849	90.38
260.081	84.38
260.314	94.38
260.547	79.38
260.779	91.38
261.012	91.38
261.244	86.38
261.477	106.38
261.71	97.38
261.942	97.38
262.175	111.38
262.407	87.38
262.64	91.38
262.872	85.38
263.105	93.38
263.337	92.38
263.57	94.38
263.802	98.38
264.035	81.38
264.267	94.38
264.499	89.38
264.732	79.38
264.964	87.38
265.197	88.38
265.429	99.38
265.661	85.38
265.894	91.38
266.126	80.38
266.358	90.38
266.591	98.38
266.823	91.38
267.055	78.38
267.287	99.38
267.52	79.38
267.752	87.38
267.984	81.38
268.216	70.38
268.448	93.38
268.681	94.38
268.913	77.38
269.145	81.38
269.377	89.38
269.609	91.38
269.841	86.38
270.073	84.38
270.306	72.38
270.538	87.38
270.77	73.38
271.002	98.38
271.234	94.38
271.466	96.38
271.698	85.38
271.93	82.38
272.162	86.38
272.394	92.38
272.626	85.38
272.858	80.38
273.09	75.38
273.322	99.38
273.553	75.38
273.785	90.38
274.017	89.38
274.249	88.38
274.481	90.38
274.713	88.38
274.945	100.38
275.176	98.38
275.408	74.38
275.64	76.38
275.872	75.38
276.104	85.38
276.335	95.38
276.567	98.38
276.799	108.38
277.031	111.38
277.262	100.38
277.494	85.38
277.726	80.38
277.957	83.38
278.189	85.38
278.421	83.38
278.652	70.38
278.884	100.38
279.115	95.38
279.347	88.38
279.579	90.38
279.81	92.38
280.042	84.38
280.273	98.38
280.505	91.38
280.736	97.38
280.968	88.38
281.199	86.38
281.431	79.38
281.662	93.38
281.894	98.38
282.125	85.38
282.356	106.38
282.588	145.38
282.819	109.38
283.051	96.38
283.282	82.38
283.513	98.38
283.745	97.38
283.976	98.38
284.207	97.38
284.439	96.38
284.67	75.38
284.901	100.38
285.132	82.38
285.364	96.38
285.595	83.38
285.826	78.38
286.057	96.38
286.288	96.38
286.52	92.38
286.751	82.38
286.982	75.38
287.213	83.38
287.444	78.38
287.675	92.38
287.906	88.38
288.138	95.38
288.369	81.38
288.6	75.38
288.831	96.38
289.062	86.38
289.293	94.38
289.524	82.38
289.755	94.38
289.986	87.38
290.217	80.38
290.448	84.38
290.679	87.38
290.91	86.38
291.141	87.38
291.371	79.38
291.602	72.38
291.833	86.38
292.064	89.38
292.295	91.38
292.526	87.38
292.757	82.38
292.987	76.38
293.218	76.38
293.449	86.38
293.68	103.38
293.91	88.38
294.141	92.38
294.372	74.38
294.603	91.38
294.833	92.38
295.064	101.38
295.295	88.38
295.525	104.38
295.756	101.38
295.987	100.38
296.217	134.38
296.448	122.38
296.679	86.38
296.909	96.38
297.14	91.38
297.37	91.38
297.601	92.38
297.831	81.38
298.062	88.38
298.292	80.38
298.523	84.38
298.753	86.38
298.984	90.38
299.214	101.38
299.445	92.38
299.675	101.38
299.905	98.38
300.136	97.38
300.366	101.38
300.597	95.38
300.827	96.38
301.057	93.38
301.288	92.38
301.518	77.38
301.748	86.38
301.979	102.38
302.209	94.38
302.439	96.38
302.669	88.38
302.9	82.38
303.13	89.38
303.36	86.38
303.59	100.38
303.82	120.38
304.051	75.38
304.281	80.38
304.511	92.38
304.741	88.38
304.971	90.38
305.201	115.38
305.431	100.38
305.661	97.38
305.891	88.38
306.121	102.38
306.352	100.38
306.582	99.38
306.812	86.38
307.042	90.38
307.272	93.38
307.502	100.38
307.731	117.38
307.961	96.38
308.191	81.38
308.421	89.38
308.651	90.38
308.881	89.38
309.111	92.38
309.341	81.38
309.571	108.38
309.8	89.38
310.03	96.38
310.26	93.38
310.49	97.38
310.72	82.38
310.949	89.38
311.179	87.38
311.409	91.38
311.639	97.38
311.868	106.38
312.098	108.38
312.328	94.38
312.557	104.38
312.787	113.38
313.017	105.38
313.246	97.38
313.476	100.38
313.706	86.38
313.935	82.38
314.165	105.38
314.394	100.38
314.624	87.38
314.853	103.38
315.083	89.38
315.312	84.38
315.542	98.38
315.771	94.38
316.001	75.38
316.23	86.38
316.46	90.38
316.689	83.38
316.919	86.38
317.148	83.38
317.377	91.38
317.607	103.38
317.836	88.38
318.065	69.38
318.295	96.38
318.524	99.38
318.753	97.38
318.983	92.38
319.212	89.38
319.441	94.38
319.67	112.38
319.9	83.38
320.129	96.38
320.358	97.38
320.587	122.38
320.816	98.38
321.046	94.38
321.275	99.38
321.504	82.38
321.733	79.38
321.962	93.38
322.191	95.38
322.42	93.38
322.649	108.38
322.878	114.38
323.108	113.38
323.337	119.38
323.566	136.38
323.795	148.38
324.024	191.38
324.253	332.38
324.482	696.38
324.71	1443.38
324.939	1948.38
325.168	747.38
325.397	227.38
325.626	135.38
325.855	130.38
326.084	92.38
326.313	128.38
326.542	150.38
326.77	194.38
326.999	422.38
327.228	836.38
327.457	1499.38
327.686	1188.38
327.914	336.38
328.143	202.38
328.372	162.38
328.6	135.38
328.829	114.38
329.058	103.38
329.287	123.38
329.515	98.38
329.744	104.38
329.972	117.38
330.201	178.38
330.43	208.38
330.658	154.38
330.887	139.38
331.115	111.38
331.344	95.38
331.572	103.38
331.801	101.38
332.03	96.38
332.258	87.38
332.486	96.38
332.715	100.38
332.943	94.38
333.172	102.38
333.4	101.38
333.629	105.38
333.857	113.38
334.085	128.38
334.314	167.38
334.542	244.38
334.771	245.38
334.999	119.38
335.227	98.38
335.455	108.38
335.684	94.38
335.912	88.38
336.14	98.38
336.369	95.38
336.597	103.38
336.825	98.38
337.053	91.38
337.281	89.38
337.51	86.38
337.738	90.38
337.966	104.38
338.194	94.38
338.422	89.38
338.65	95.38
338.878	95.38
339.106	95.38
339.334	65.38
339.562	87.38
339.79	84.38
340.018	98.38
340.246	94.38
340.474	91.38
340.702	93.38
340.93	86.38
341.158	97.38
341.386	91.38
341.614	110.38
341.842	84.38
342.07	91.38
342.298	90.38
342.526	97.38
342.754	93.38
342.981	82.38
343.209	86.38
343.437	93.38
343.665	84.38
343.893	100.38
344.12	102.38
344.348	78.38
344.576	95.38
344.804	81.38
345.031	82.38
345.259	103.38
345.487	94.38
345.714	90.38
345.942	91.38
346.17	86.38
346.397	96.38
346.625	94.38
346.853	87.38
347.08	88.38
347.308	96.38
347.535	83.38
347.763	86.38
347.99	99.38
348.218	90.38
348.445	112.38
348.673	84.38
348.9	92.38
349.128	90.38
349.355	82.38
349.583	102.38
349.81	87.38
350.037	104.38
350.265	83.38
350.492	94.38
350.72	93.38
350.947	105.38
351.174	88.38
351.402	109.38
351.629	91.38
351.856	100.38
352.083	102.38
352.311	94.38
352.538	106.38
352.765	106.38
352.992	126.38
353.22	116.38
353.447	94.38
353.674	98.38
353.901	90.38
354.128	102.38
354.355	91.38
354.583	100.38
354.81	102.38
355.037	98.38
355.264	97.38
355.491	91.38
355.718	92.38
355.945	91.38
356.172	88.38
356.399	104.38
356.626	88.38
356.853	90.38
357.08	91.38
357.307	89.38
357.534	84.38
357.761	97.38
357.988	90.38
358.215	103.38
358.441	82.38
358.668	84.38
358.895	83.38
359.122	85.38
359.349	89.38
359.576	95.38
359.802	106.38
360.029	106.38
360.256	100.38
360.483	101.38
360.709	96.38
360.936	82.38
361.163	97.38
361.39	99.38
361.616	86.38
361.843	86.38
362.07	94.38
362.296	89.38
362.523	92.38
362.749	86.38
362.976	92.38
363.203	84.38
363.429	86.38
363.656	81.38
363.882	88.38
364.109	99.38
364.335	96.38
364.562	98.38
364.788	83.38
365.015	81.38
365.241	108.38
365.468	97.38
365.694	112.38
365.92	92.38
366.147	85.38
366.373	86.38
366.599	87.38
366.826	95.38
367.052	76.38
367.278	91.38
367.505	89.38
367.731	89.38
367.957	94.38
368.184	104.38
368.41	108.38
368.636	113.38
368.862	116.38
369.089	104.38
369.315	86.38
369.541	95.38
369.767	101.38
369.993	101.38
370.219	83.38
370.445	79.38
370.672	82.38
370.898	90.38
371.124	87.38
371.35	95.38
371.576	86.38
371.802	74.38
372.028	86.38
372.254	76.38
372.48	80.38
372.706	84.38
372.932	80.38
373.158	83.38
373.384	86.38
373.61	90.38
373.835	84.38
374.061	90.38
374.287	97.38
374.513	91.38
374.739	82.38
374.965	86.38
375.191	67.38
375.416	92.38
375.642	100.38
375.868	92.38
376.094	73.38
376.319	80.38
376.545	86.38
376.771	80.38
376.997	96.38
377.222	87.38
377.448	83.38
377.674	82.38
377.899	86.38
378.125	97.38
378.35	91.38
378.576	93.38
378.802	82.38
379.027	94.38
379.253	98.38
379.478	82.38
379.704	84.38
379.929	81.38
380.155	79.38
380.38	96.38
380.606	102.38
380.831	94.38
381.057	98.38
381.282	90.38
381.507	103.38
381.733	86.38
381.958	89.38
382.184	97.38
382.409	104.38
382.634	95.38
382.86	91.38
383.085	102.38
383.31	108.38
383.535	101.38
383.761	117.38
383.986	82.38
384.211	88.38
384.436	108.38
384.662	96.38
384.887	100.38
385.112	96.38
385.337	106.38
385.562	114.38
385.787	111.38
386.013	96.38
386.238	119.38
386.463	105.38
386.688	96.38
386.913	115.38
387.138	84.38
387.363	103.38
387.588	96.38
387.813	106.38
388.038	103.38
388.263	99.38
388.488	107.38
388.713	98.38
388.938	97.38
389.163	93.38
389.387	102.38
389.612	100.38
389.837	93.38
390.062	95.38
390.287	82.38
390.512	107.38
390.736	91.38
390.961	84.38
391.186	83.38
391.411	91.38
391.636	83.38
391.86	81.38
392.085	95.38
392.31	91.38
392.534	94.38
392.759	90.38
392.984	96.38
393.208	82.38
393.433	96.38
393.658	98.38
393.882	87.38
394.107	90.38
394.331	93.38
394.556	106.38
394.78	92.38
395.005	87.38
395.229	80.38
395.454	88.38
395.678	82.38
395.903	92.38
396.127	78.38
396.352	94.38
396.576	92.38
396.801	86.38
397.025	83.38
397.249	68.38
397.474	86.38
397.698	93.38
397.922	82.38
398.147	92.38
398.371	69.38
398.595	100.38
398.82	90.38
399.044	88.38
399.268	84.38
399.492	82.38
399.717	95.38
399.941	78.38
400.165	96.38
400.389	91.38
400.613	99.38
400.837	82.38
401.062	90.38
401.286	79.38
401.51	95.38
401.734	88.38
401.958	99.38
402.182	130.38
402.406	142.38
402.63	114.38
402.854	97.38
403.078	76.38
403.302	76.38
403.526	87.38
403.75	96.38
403.974	85.38
404.198	74.38
404.422	85.38
404.645	82.38
404.869	96.38
405.093	99.38
405.317	107.38
405.541	107.38
405.765	102.38
405.988	114.38
406.212	168.38
406.436	202.38
406.66	144.38
406.883	106.38
407.107	96.38
407.331	101.38
407.555	97.38
407.778	92.38
408.002	96.38
408.226	102.38
408.449	85.38
408.673	76.38
408.896	93.38
409.12	89.38
409.344	87.38
409.567	90.38
409.791	92.38
410.014	84.38
410.238	91.38
410.461	87.38
410.685	96.38
410.908	86.38
411.132	90.38
411.355	97.38
411.578	78.38
411.802	88.38
412.025	95.38
412.249	90.38
412.472	104.38
412.695	98.38
412.919	90.38
413.142	81.38
413.365	84.38
413.589	75.38
413.812	88.38
414.035	89.38
414.258	91.38
414.482	107.38
414.705	80.38
414.928	99.38
415.151	95.38
415.374	101.38
415.597	88.38
415.821	93.38
416.044	80.38
416.267	97.38
416.49	80.38
416.713	78.38
416.936	99.38
417.159	104.38
417.382	88.38
417.605	97.38
417.828	93.38
418.051	89.38
418.274	93.38
418.497	65.38
418.72	92.38
418.943	99.38
419.166	94.38
419.389	85.38
419.611	84.38
419.834	86.38
420.057	91.38
420.28	87.38
420.503	86.38
420.726	80.38
420.948	94.38
421.171	87.38
421.394	84.38
421.617	94.38
421.839	86.38
422.062	81.38
422.285	76.38
422.507	104.38
422.73	87.38
422.953	96.38
423.175	86.38
423.398	94.38
423.621	100.38
423.843	81.38
424.066	83.38
424.288	86.38
424.511	94.38
424.733	100.38
424.956	111.38
425.178	82.38
425.401	94.38
425.623	107.38
425.846	96.38
426.068	99.38
426.291	84.38
426.513	86.38
426.735	86.38
426.958	103.38
427.18	110.38
427.402	123.38
427.625	166.38
427.847	144.38
428.069	127.38
428.292	91.38
428.514	96.38
428.736	82.38
428.958	84.38
429.181	87.38
429.403	93.38
429.625	96.38
429.847	89.38
430.069	95.38
430.292	83.38
430.514	83.38
430.736	74.38
430.958	94.38
431.18	89.38
431.402	89.38
431.624	82.38
431.846	80.38
432.068	98.38
432.29	90.38
432.512	99.38
432.734	87.38
432.956	89.38
433.178	105.38
433.4	102.38
433.622	92.38
433.844	83.38
434.066	86.38
434.287	95.38
434.509	86.38
434.731	88.38
434.953	92.38
435.175	99.38
435.397	97.38
435.618	85.38
435.84	80.38
436.062	118.38
436.284	103.38
436.505	82.38
436.727	89.38
436.949	83.38
437.17	91.38
437.392	92.38
437.614	94.38
437.835	94.38
438.057	96.38
438.278	115.38
438.5	108.38
438.721	122.38
438.943	100.38
439.165	81.38
439.386	79.38
439.608	91.38
439.829	81.38
440.05	119.38
440.272	127.38
440.493	105.38
440.715	83.38
440.936	90.38
441.158	86.38
441.379	85.38
441.6	91.38
441.822	97.38
442.043	99.38
442.264	91.38
442.486	96.38
442.707	91.38
442.928	99.38
443.149	117.38
443.371	117.38
443.592	88.38
443.813	92.38
444.034	95.38
444.255	85.38
444.476	86.38
444.698	103.38
444.919	80.38
445.14	113.38
445.361	120.38
445.582	104.38
445.803	130.38
446.024	112.38
446.245	129.38
446.466	102.38
446.687	89.38
446.908	86.38
447.129	73.38
447.35	80.38
447.571	80.38
447.792	76.38
448.013	90.38
448.234	90.38
448.455	94.38
448.675	106.38
448.896	103.38
449.117	94.38
449.338	103.38
449.559	128.38
449.779	110.38
450	81.38
450.221	98.38
450.442	85.38
450.662	101.38
450.883	98.38
451.104	105.38
451.324	103.38
451.545	101.38
451.766	76.38
451.986	89.38
452.207	102.38
452.428	97.38
452.648	114.38
452.869	94.38
453.089	116.38
453.31	100.38
453.53	101.38
453.751	92.38
453.971	92.38
454.192	108.38
454.412	73.38
454.633	95.38
454.853	81.38
455.073	89.38
455.294	84.38
455.514	74.38
455.734	86.38
455.955	84.38
456.175	80.38
456.395	85.38
456.616	80.38
456.836	84.38
457.056	83.38
457.276	95.38
457.497	99.38
457.717	80.38
457.937	79.38
458.157	94.38
458.377	88.38
458.598	101.38
458.818	133.38
459.038	150.38
459.258	112.38
459.478	87.38
459.698	95.38
459.918	75.38
460.138	87.38
460.358	90.38
460.578	89.38
460.798	73.38
461.018	90.38
461.238	92.38
461.458	92.38
461.678	84.38
461.898	75.38
462.118	78.38
462.338	86.38
462.558	84.38
462.777	83.38
462.997	86.38
463.217	98.38
463.437	88.38
463.657	84.38
463.876	102.38
464.096	89.38
464.316	90.38
464.536	94.38
464.755	95.38
464.975	102.38
465.195	153.38
465.414	139.38
465.634	94.38
465.854	80.38
466.073	91.38
466.293	71.38
466.512	78.38
466.732	102.38
466.951	68.38
467.171	73.38
467.391	76.38
467.61	104.38
467.829	109.38
468.049	124.38
468.268	145.38
468.488	99.38
468.707	88.38
468.927	72.38
469.146	87.38
469.365	99.38
469.585	97.38
469.804	90.38
470.023	99.38
470.243	102.38
470.462	94.38
470.681	103.38
470.901	81.38
471.12	85.38
471.339	80.38
471.558	88.38
471.777	83.38
471.997	116.38
472.216	194.38
472.435	311.38
472.654	124.38
472.873	104.38
473.092	102.38
473.311	74.38
473.53	92.38
473.749	96.38
473.968	79.38
474.187	82.38
474.406	96.38
474.625	86.38
474.844	93.38
475.063	79.38
475.282	82.38
475.501	72.38
475.72	92.38
475.939	78.38
476.158	89.38
476.377	84.38
476.596	96.38
476.814	95.38
477.033	82.38
477.252	92.38
477.471	83.38
477.69	84.38
477.908	94.38
478.127	89.38
478.346	102.38
478.564	84.38
478.783	86.38
479.002	93.38
479.22	87.38
479.439	106.38
479.658	107.38
479.876	91.38
480.095	115.38
480.313	102.38
480.532	82.38
480.751	88.38
480.969	181.38
481.188	486.38
481.406	294.38
481.624	113.38
481.843	95.38
482.061	100.38
482.28	95.38
482.498	93.38
482.717	83.38
482.935	90.38
483.153	86.38
483.372	94.38
483.59	84.38
483.808	90.38
484.027	88.38
484.245	98.38
484.463	82.38
484.681	89.38
484.9	91.38
485.118	85.38
485.336	91.38
485.554	101.38
485.772	95.38
485.99	99.38
486.209	94.38
486.427	89.38
486.645	101.38
486.863	113.38
487.081	105.38
487.299	105.38
487.517	88.38
487.735	91.38
487.953	100.38
488.171	92.38
488.389	88.38
488.607	82.38
488.825	102.38
489.043	92.38
489.261	90.38
489.479	99.38
489.696	87.38
489.914	80.38
490.132	94.38
490.35	84.38
490.568	85.38
490.786	93.38
491.003	100.38
491.221	97.38
491.439	83.38
491.657	88.38
491.874	86.38
492.092	108.38
492.31	92.38
492.527	101.38
492.745	84.38
492.963	82.38
493.18	85.38
493.398	110.38
493.615	94.38
493.833	83.38
494.05	91.38
494.268	90.38
494.485	71.38
494.703	76.38
494.92	86.38
495.138	83.38
495.355	100.38
495.573	92.38
495.79	81.38
496.008	95.38
496.225	94.38
496.442	87.38
496.66	104.38
496.877	92.38
497.094	99.38
497.312	95.38
497.529	87.38
497.746	85.38
497.963	89.38
498.181	89.38
498.398	101.38
498.615	99.38
498.832	110.38
499.049	76.38
499.267	75.38
499.484	80.38
499.701	91.38
499.918	81.38
500.135	82.38
500.352	103.38
500.569	102.38
500.786	97.38
501.003	80.38
501.22	82.38
501.437	89.38
501.654	74.38
501.871	93.38
502.088	90.38
502.305	86.38
502.522	95.38
502.739	78.38
502.956	87.38
503.172	83.38
503.389	94.38
503.606	101.38
503.823	84.38
504.04	107.38
504.256	91.38
504.473	87.38
504.69	85.38
504.907	98.38
505.123	88.38
505.34	99.38
505.557	97.38
505.773	100.38
505.99	98.38
506.207	100.38
506.423	78.38
506.64	89.38
506.856	72.38
507.073	102.38
507.289	96.38
507.506	94.38
507.722	99.38
507.939	100.38
508.155	97.38
508.372	93.38
508.588	87.38
508.805	92.38
509.021	101.38
509.238	100.38
509.454	102.38
509.67	113.38
509.887	105.38
510.103	129.38
510.319	210.38
510.536	716.38
510.752	2167.38
510.968	595.38
511.184	156.38
511.401	95.38
511.617	108.38
511.833	98.38
512.049	82.38
512.265	84.38
512.481	79.38
512.698	82.38
512.914	101.38
513.13	91.38
513.346	88.38
513.562	104.38
513.778	93.38
513.994	88.38
514.21	106.38
514.426	112.38
514.642	130.38
514.858	131.38
515.074	156.38
515.29	431.38
515.506	1389.38
515.721	491.38
515.937	143.38
