Data from Circ_1986_H10_HRD10591_00039.txt Node
Date: Wed Jan 03 12:15:33 EST 2024
User: Yrep
Spectrometer: HR+D1059
Trigger mode: 1
Integration Time (sec): 1.000000E-1
Scans to average: 1
Electric dark correction enabled: true
Nonlinearity correction enabled: false
Boxcar width: 0
XAxis mode: Wavelengths
Number of Pixels in Spectrum: 2048
>>>>>Begin Spectral Data<<<<<
223.165	-25.19
223.4	-25.19
223.635	-25.19
223.869	-21.19
224.104	-17.19
224.338	-17.19
224.573	-5.19
224.808	2.81
225.042	-1.19
225.277	-21.19
225.511	-4.19
225.746	10.81
225.98	7.81
226.215	2.81
226.449	16.81
226.683	25.81
226.918	24.81
227.152	20.81
227.387	30.81
227.621	36.81
227.856	41.81
228.09	44.81
228.324	44.81
228.559	59.81
228.793	64.81
229.027	61.81
229.262	60.81
229.496	54.81
229.73	76.81
229.964	63.81
230.199	77.81
230.433	83.81
230.667	71.81
230.901	74.81
231.136	71.81
231.37	82.81
231.604	78.81
231.838	86.81
232.072	85.81
232.306	79.81
232.541	80.81
232.775	82.81
233.009	76.81
233.243	66.81
233.477	77.81
233.711	84.81
233.945	95.81
234.179	90.81
234.413	83.81
234.647	74.81
234.881	71.81
235.115	82.81
235.349	83.81
235.583	86.81
235.817	77.81
236.051	77.81
236.285	54.81
236.519	84.81
236.753	86.81
236.987	81.81
237.221	80.81
237.455	76.81
237.689	71.81
237.922	85.81
238.156	86.81
238.39	75.81
238.624	70.81
238.858	70.81
239.091	74.81
239.325	69.81
239.559	77.81
239.793	84.81
240.027	66.81
240.26	76.81
240.494	74.81
240.728	68.81
240.961	73.81
241.195	84.81
241.429	70.81
241.662	80.81
241.896	76.81
242.13	57.81
242.363	76.81
242.597	81.81
242.83	71.81
243.064	68.81
243.298	76.81
243.531	90.81
243.765	74.81
243.998	92.81
244.232	70.81
244.465	77.81
244.699	95.81
244.932	84.81
245.166	75.81
245.399	81.81
245.633	83.81
245.866	82.81
246.099	77.81
246.333	78.81
246.566	71.81
246.8	62.81
247.033	65.81
247.266	72.81
247.5	87.81
247.733	67.81
247.966	91.81
248.2	80.81
248.433	78.81
248.666	69.81
248.899	67.81
249.133	84.81
249.366	89.81
249.599	98.81
249.832	95.81
250.066	74.81
250.299	76.81
250.532	70.81
250.765	62.81
250.998	102.81
251.231	79.81
251.465	69.81
251.698	68.81
251.931	71.81
252.164	68.81
252.397	76.81
252.63	67.81
252.863	82.81
253.096	82.81
253.329	86.81
253.562	68.81
253.795	70.81
254.028	86.81
254.261	73.81
254.494	74.81
254.727	78.81
254.96	76.81
255.193	68.81
255.426	71.81
255.659	77.81
255.892	86.81
256.124	73.81
256.357	74.81
256.59	90.81
256.823	67.81
257.056	77.81
257.289	78.81
257.521	62.81
257.754	76.81
257.987	78.81
258.22	67.81
258.452	84.81
258.685	74.81
258.918	87.81
259.151	88.81
259.383	69.81
259.616	84.81
259.849	88.81
260.081	69.81
260.314	74.81
260.547	87.81
260.779	78.81
261.012	66.81
261.244	80.81
261.477	76.81
261.71	81.81
261.942	104.81
262.175	110.81
262.407	79.81
262.64	82.81
262.872	73.81
263.105	78.81
263.337	80.81
263.57	72.81
263.802	86.81
264.035	84.81
264.267	81.81
264.499	76.81
264.732	83.81
264.964	66.81
265.197	85.81
265.429	92.81
265.661	83.81
265.894	79.81
266.126	71.81
266.358	79.81
266.591	87.81
266.823	76.81
267.055	70.81
267.287	86.81
267.52	81.81
267.752	72.81
267.984	86.81
268.216	78.81
268.448	85.81
268.681	72.81
268.913	79.81
269.145	65.81
269.377	92.81
269.609	80.81
269.841	77.81
270.073	77.81
270.306	83.81
270.538	75.81
270.77	87.81
271.002	79.81
271.234	92.81
271.466	74.81
271.698	77.81
271.93	84.81
272.162	83.81
272.394	84.81
272.626	89.81
272.858	71.81
273.09	80.81
273.322	90.81
273.553	78.81
273.785	79.81
274.017	84.81
274.249	92.81
274.481	76.81
274.713	79.81
274.945	93.81
275.176	96.81
275.408	90.81
275.64	83.81
275.872	76.81
276.104	78.81
276.335	85.81
276.567	84.81
276.799	102.81
277.031	93.81
277.262	94.81
277.494	90.81
277.726	75.81
277.957	92.81
278.189	86.81
278.421	91.81
278.652	89.81
278.884	79.81
279.115	82.81
279.347	71.81
279.579	78.81
279.81	79.81
280.042	88.81
280.273	85.81
280.505	94.81
280.736	85.81
280.968	99.81
281.199	86.81
281.431	76.81
281.662	87.81
281.894	86.81
282.125	100.81
282.356	101.81
282.588	124.81
282.819	105.81
283.051	83.81
283.282	78.81
283.513	80.81
283.745	76.81
283.976	85.81
284.207	82.81
284.439	76.81
284.67	88.81
284.901	78.81
285.132	90.81
285.364	70.81
285.595	92.81
285.826	96.81
286.057	80.81
286.288	92.81
286.52	77.81
286.751	84.81
286.982	89.81
287.213	79.81
287.444	71.81
287.675	95.81
287.906	81.81
288.138	78.81
288.369	76.81
288.6	108.81
288.831	83.81
289.062	86.81
289.293	88.81
289.524	91.81
289.755	86.81
289.986	80.81
290.217	86.81
290.448	70.81
290.679	63.81
290.91	63.81
291.141	83.81
291.371	91.81
291.602	84.81
291.833	85.81
292.064	86.81
292.295	77.81
292.526	85.81
292.757	84.81
292.987	71.81
293.218	90.81
293.449	93.81
293.68	83.81
293.91	85.81
294.141	91.81
294.372	90.81
294.603	87.81
294.833	95.81
295.064	96.81
295.295	84.81
295.525	88.81
295.756	97.81
295.987	102.81
296.217	139.81
296.448	114.81
296.679	86.81
296.909	82.81
297.14	78.81
297.37	74.81
297.601	84.81
297.831	82.81
298.062	79.81
298.292	82.81
298.523	99.81
298.753	102.81
298.984	81.81
299.214	86.81
299.445	88.81
299.675	91.81
299.905	96.81
300.136	91.81
300.366	93.81
300.597	80.81
300.827	90.81
301.057	113.81
301.288	105.81
301.518	82.81
301.748	90.81
301.979	93.81
302.209	86.81
302.439	85.81
302.669	83.81
302.9	82.81
303.13	80.81
303.36	78.81
303.59	81.81
303.82	100.81
304.051	71.81
304.281	95.81
304.511	87.81
304.741	77.81
304.971	76.81
305.201	85.81
305.431	82.81
305.661	68.81
305.891	80.81
306.121	82.81
306.352	78.81
306.582	112.81
306.812	83.81
307.042	97.81
307.272	96.81
307.502	86.81
307.731	96.81
307.961	94.81
308.191	80.81
308.421	83.81
308.651	83.81
308.881	84.81
309.111	94.81
309.341	104.81
309.571	86.81
309.8	94.81
310.03	92.81
310.26	107.81
310.49	93.81
310.72	112.81
310.949	95.81
311.179	91.81
311.409	101.81
311.639	90.81
311.868	97.81
312.098	96.81
312.328	98.81
312.557	87.81
312.787	97.81
313.017	82.81
313.246	71.81
313.476	92.81
313.706	84.81
313.935	108.81
314.165	94.81
314.394	98.81
314.624	84.81
314.853	82.81
315.083	98.81
315.312	93.81
315.542	101.81
315.771	87.81
316.001	82.81
316.23	84.81
316.46	79.81
316.689	94.81
316.919	86.81
317.148	90.81
317.377	104.81
317.607	84.81
317.836	96.81
318.065	88.81
318.295	94.81
318.524	90.81
318.753	89.81
318.983	91.81
319.212	106.81
319.441	95.81
319.67	106.81
319.9	103.81
320.129	92.81
320.358	94.81
320.587	92.81
320.816	93.81
321.046	99.81
321.275	86.81
321.504	84.81
321.733	75.81
321.962	93.81
322.191	92.81
322.42	88.81
322.649	101.81
322.878	105.81
323.108	102.81
323.337	111.81
323.566	117.81
323.795	133.81
324.024	193.81
324.253	373.81
324.482	765.81
324.71	1541.81
324.939	2086.81
325.168	778.81
325.397	219.81
325.626	140.81
325.855	108.81
326.084	111.81
326.313	114.81
326.542	125.81
326.77	207.81
326.999	433.81
327.228	902.81
327.457	1634.81
327.686	1267.81
327.914	358.81
328.143	192.81
328.372	154.81
328.6	126.81
328.829	108.81
329.058	111.81
329.287	117.81
329.515	115.81
329.744	106.81
329.972	117.81
330.201	140.81
330.43	162.81
330.658	131.81
330.887	131.81
331.115	122.81
331.344	104.81
331.572	91.81
331.801	95.81
332.03	99.81
332.258	92.81
332.486	89.81
332.715	90.81
332.943	87.81
333.172	97.81
333.4	85.81
333.629	101.81
333.857	106.81
334.085	102.81
334.314	128.81
334.542	192.81
334.771	162.81
334.999	100.81
335.227	84.81
335.455	79.81
335.684	87.81
335.912	99.81
336.14	108.81
336.369	99.81
336.597	103.81
336.825	88.81
337.053	90.81
337.281	96.81
337.51	99.81
337.738	102.81
337.966	91.81
338.194	84.81
338.422	105.81
338.65	91.81
338.878	82.81
339.106	100.81
339.334	93.81
339.562	90.81
339.79	79.81
340.018	93.81
340.246	91.81
340.474	99.81
340.702	78.81
340.93	83.81
341.158	82.81
341.386	93.81
341.614	82.81
341.842	80.81
342.07	98.81
342.298	83.81
342.526	76.81
342.754	87.81
342.981	80.81
343.209	82.81
343.437	88.81
343.665	84.81
343.893	92.81
344.12	82.81
344.348	98.81
344.576	99.81
344.804	85.81
345.031	90.81
345.259	83.81
345.487	112.81
345.714	92.81
345.942	86.81
346.17	85.81
346.397	83.81
346.625	82.81
346.853	81.81
347.08	78.81
347.308	76.81
347.535	115.81
347.763	97.81
347.99	91.81
348.218	92.81
348.445	104.81
348.673	94.81
348.9	92.81
349.128	102.81
349.355	84.81
349.583	89.81
349.81	95.81
350.037	109.81
350.265	95.81
350.492	93.81
350.72	102.81
350.947	103.81
351.174	95.81
351.402	86.81
351.629	94.81
351.856	90.81
352.083	111.81
352.311	108.81
352.538	99.81
352.765	96.81
352.992	115.81
353.22	102.81
353.447	101.81
353.674	96.81
353.901	86.81
354.128	94.81
354.355	92.81
354.583	91.81
354.81	82.81
355.037	92.81
355.264	107.81
355.491	78.81
355.718	84.81
355.945	81.81
356.172	92.81
356.399	87.81
356.626	87.81
356.853	102.81
357.08	93.81
357.307	83.81
357.534	93.81
357.761	98.81
357.988	85.81
358.215	100.81
358.441	90.81
358.668	90.81
358.895	91.81
359.122	98.81
359.349	81.81
359.576	78.81
359.802	92.81
360.029	96.81
360.256	104.81
360.483	91.81
360.709	93.81
360.936	90.81
361.163	98.81
361.39	93.81
361.616	97.81
361.843	87.81
362.07	86.81
362.296	92.81
362.523	87.81
362.749	94.81
362.976	69.81
363.203	84.81
363.429	74.81
363.656	97.81
363.882	91.81
364.109	92.81
364.335	85.81
364.562	90.81
364.788	74.81
365.015	87.81
365.241	94.81
365.468	101.81
365.694	99.81
365.92	82.81
366.147	84.81
366.373	82.81
366.599	83.81
366.826	88.81
367.052	77.81
367.278	72.81
367.505	84.81
367.731	78.81
367.957	82.81
368.184	89.81
368.41	110.81
368.636	95.81
368.862	91.81
369.089	94.81
369.315	91.81
369.541	96.81
369.767	86.81
369.993	80.81
370.219	79.81
370.445	82.81
370.672	84.81
370.898	84.81
371.124	96.81
371.35	82.81
371.576	90.81
371.802	89.81
372.028	85.81
372.254	88.81
372.48	79.81
372.706	79.81
372.932	102.81
373.158	88.81
373.384	94.81
373.61	93.81
373.835	77.81
374.061	89.81
374.287	95.81
374.513	91.81
374.739	84.81
374.965	79.81
375.191	61.81
375.416	90.81
375.642	93.81
375.868	89.81
376.094	91.81
376.319	88.81
376.545	93.81
376.771	86.81
376.997	95.81
377.222	80.81
377.448	93.81
377.674	94.81
377.899	82.81
378.125	87.81
378.35	86.81
378.576	77.81
378.802	85.81
379.027	94.81
379.253	90.81
379.478	85.81
379.704	92.81
379.929	91.81
380.155	90.81
380.38	89.81
380.606	95.81
380.831	78.81
381.057	104.81
381.282	107.81
381.507	90.81
381.733	97.81
381.958	96.81
382.184	96.81
382.409	100.81
382.634	102.81
382.86	90.81
383.085	104.81
383.31	80.81
383.535	100.81
383.761	99.81
383.986	97.81
384.211	106.81
384.436	96.81
384.662	111.81
384.887	111.81
385.112	103.81
385.337	99.81
385.562	101.81
385.787	113.81
386.013	96.81
386.238	120.81
386.463	98.81
386.688	104.81
386.913	103.81
387.138	106.81
387.363	110.81
387.588	110.81
387.813	101.81
388.038	116.81
388.263	121.81
388.488	118.81
388.713	98.81
388.938	81.81
389.163	84.81
389.387	90.81
389.612	101.81
389.837	82.81
390.062	76.81
390.287	87.81
390.512	79.81
390.736	85.81
390.961	82.81
391.186	88.81
391.411	81.81
391.636	91.81
391.86	88.81
392.085	74.81
392.31	96.81
392.534	80.81
392.759	90.81
392.984	72.81
393.208	78.81
393.433	103.81
393.658	76.81
393.882	87.81
394.107	86.81
394.331	83.81
394.556	87.81
394.78	90.81
395.005	87.81
395.229	93.81
395.454	78.81
395.678	89.81
395.903	70.81
396.127	86.81
396.352	81.81
396.576	79.81
396.801	75.81
397.025	79.81
397.249	70.81
397.474	90.81
397.698	96.81
397.922	85.81
398.147	78.81
398.371	82.81
398.595	85.81
398.82	62.81
399.044	81.81
399.268	77.81
399.492	97.81
399.717	73.81
399.941	78.81
400.165	90.81
400.389	92.81
400.613	86.81
400.837	89.81
401.062	94.81
401.286	83.81
401.51	84.81
401.734	84.81
401.958	83.81
402.182	122.81
402.406	150.81
402.63	112.81
402.854	83.81
403.078	90.81
403.302	71.81
403.526	85.81
403.75	90.81
403.974	83.81
404.198	83.81
404.422	83.81
404.645	69.81
404.869	94.81
405.093	110.81
405.317	94.81
405.541	89.81
405.765	100.81
405.988	111.81
406.212	165.81
406.436	202.81
406.66	146.81
406.883	97.81
407.107	82.81
407.331	80.81
407.555	100.81
407.778	78.81
408.002	78.81
408.226	89.81
408.449	88.81
408.673	67.81
408.896	82.81
409.12	89.81
409.344	84.81
409.567	96.81
409.791	85.81
410.014	92.81
410.238	91.81
410.461	76.81
410.685	75.81
410.908	101.81
411.132	90.81
411.355	80.81
411.578	87.81
411.802	83.81
412.025	89.81
412.249	71.81
412.472	88.81
412.695	104.81
412.919	97.81
413.142	89.81
413.365	86.81
413.589	90.81
413.812	91.81
414.035	96.81
414.258	92.81
414.482	93.81
414.705	87.81
414.928	84.81
415.151	106.81
415.374	91.81
415.597	90.81
415.821	75.81
416.044	91.81
416.267	87.81
416.49	95.81
416.713	91.81
416.936	95.81
417.159	85.81
417.382	82.81
417.605	86.81
417.828	84.81
418.051	81.81
418.274	86.81
418.497	92.81
418.72	82.81
418.943	80.81
419.166	86.81
419.389	81.81
419.611	86.81
419.834	81.81
420.057	86.81
420.28	72.81
420.503	94.81
420.726	74.81
420.948	98.81
421.171	95.81
421.394	98.81
421.617	87.81
421.839	91.81
422.062	83.81
422.285	99.81
422.507	96.81
422.73	102.81
422.953	74.81
423.175	81.81
423.398	76.81
423.621	83.81
423.843	79.81
424.066	80.81
424.288	98.81
424.511	81.81
424.733	92.81
424.956	103.81
425.178	99.81
425.401	84.81
425.623	100.81
425.846	73.81
426.068	90.81
426.291	84.81
426.513	85.81
426.735	79.81
426.958	102.81
427.18	103.81
427.402	133.81
427.625	136.81
427.847	119.81
428.069	106.81
428.292	85.81
428.514	90.81
428.736	93.81
428.958	87.81
429.181	71.81
429.403	83.81
429.625	84.81
429.847	82.81
430.069	90.81
430.292	102.81
430.514	74.81
430.736	74.81
430.958	93.81
431.18	77.81
431.402	82.81
431.624	76.81
431.846	80.81
432.068	82.81
432.29	68.81
432.512	76.81
432.734	85.81
432.956	93.81
433.178	91.81
433.4	83.81
433.622	82.81
433.844	76.81
434.066	98.81
434.287	89.81
434.509	101.81
434.731	95.81
434.953	78.81
435.175	78.81
435.397	66.81
435.618	98.81
435.84	103.81
436.062	104.81
436.284	103.81
436.505	92.81
436.727	94.81
436.949	82.81
437.17	90.81
437.392	74.81
437.614	102.81
437.835	95.81
438.057	102.81
438.278	101.81
438.5	92.81
438.721	104.81
438.943	100.81
439.165	84.81
439.386	83.81
439.608	85.81
439.829	86.81
440.05	109.81
440.272	125.81
440.493	110.81
440.715	91.81
440.936	82.81
441.158	90.81
441.379	91.81
441.6	85.81
441.822	78.81
442.043	82.81
442.264	92.81
442.486	77.81
442.707	92.81
442.928	95.81
443.149	119.81
443.371	108.81
443.592	107.81
443.813	111.81
444.034	96.81
444.255	91.81
444.476	89.81
444.698	78.81
444.919	86.81
445.14	133.81
445.361	112.81
445.582	115.81
445.803	123.81
446.024	128.81
446.245	119.81
446.466	110.81
446.687	95.81
446.908	90.81
447.129	94.81
447.35	76.81
447.571	96.81
447.792	76.81
448.013	82.81
448.234	87.81
448.455	82.81
448.675	110.81
448.896	103.81
449.117	86.81
449.338	111.81
449.559	116.81
449.779	97.81
450	89.81
450.221	77.81
450.442	87.81
450.662	87.81
450.883	88.81
451.104	99.81
451.324	83.81
451.545	82.81
451.766	74.81
451.986	86.81
452.207	74.81
452.428	89.81
452.648	84.81
452.869	90.81
453.089	100.81
453.31	105.81
453.53	90.81
453.751	90.81
453.971	90.81
454.192	92.81
454.412	78.81
454.633	94.81
454.853	87.81
455.073	82.81
455.294	79.81
455.514	104.81
455.734	93.81
455.955	96.81
456.175	83.81
456.395	87.81
456.616	76.81
456.836	85.81
457.056	78.81
457.276	76.81
457.497	79.81
457.717	80.81
457.937	81.81
458.157	91.81
458.377	84.81
458.598	112.81
458.818	133.81
459.038	146.81
459.258	103.81
459.478	100.81
459.698	88.81
459.918	89.81
460.138	90.81
460.358	96.81
460.578	79.81
460.798	84.81
461.018	93.81
461.238	86.81
461.458	86.81
461.678	81.81
461.898	79.81
462.118	82.81
462.338	65.81
462.558	87.81
462.777	88.81
462.997	91.81
463.217	76.81
463.437	93.81
463.657	84.81
463.876	78.81
464.096	87.81
464.316	89.81
464.536	74.81
464.755	92.81
464.975	102.81
465.195	150.81
465.414	138.81
465.634	107.81
465.854	101.81
466.073	84.81
466.293	94.81
466.512	85.81
466.732	90.81
466.951	76.81
467.171	94.81
467.391	97.81
467.61	109.81
467.829	100.81
468.049	92.81
468.268	109.81
468.488	81.81
468.707	78.81
468.927	74.81
469.146	78.81
469.365	69.81
469.585	84.81
469.804	88.81
470.023	92.81
470.243	85.81
470.462	90.81
470.681	96.81
470.901	88.81
471.12	80.81
471.339	62.81
471.558	79.81
471.777	91.81
471.997	86.81
472.216	136.81
472.435	208.81
472.654	99.81
472.873	94.81
473.092	83.81
473.311	78.81
473.53	92.81
473.749	80.81
473.968	83.81
474.187	101.81
474.406	84.81
474.625	83.81
474.844	71.81
475.063	85.81
475.282	89.81
475.501	101.81
475.72	82.81
475.939	72.81
476.158	78.81
476.377	76.81
476.596	86.81
476.814	88.81
477.033	95.81
477.252	65.81
477.471	78.81
477.69	93.81
477.908	95.81
478.127	90.81
478.346	84.81
478.564	77.81
478.783	80.81
479.002	90.81
479.22	106.81
479.439	88.81
479.658	95.81
479.876	74.81
480.095	94.81
480.313	106.81
480.532	70.81
480.751	92.81
480.969	137.81
481.188	334.81
481.406	228.81
481.624	98.81
481.843	80.81
482.061	81.81
482.28	111.81
482.498	92.81
482.717	90.81
482.935	87.81
483.153	78.81
483.372	92.81
483.59	75.81
483.808	94.81
484.027	85.81
484.245	76.81
484.463	64.81
484.681	86.81
484.9	90.81
485.118	90.81
485.336	104.81
485.554	106.81
485.772	84.81
485.99	100.81
486.209	102.81
486.427	87.81
486.645	104.81
486.863	108.81
487.081	97.81
487.299	89.81
487.517	95.81
487.735	88.81
487.953	87.81
488.171	108.81
488.389	66.81
488.607	78.81
488.825	91.81
489.043	79.81
489.261	85.81
489.479	90.81
489.696	86.81
489.914	97.81
490.132	87.81
490.35	94.81
490.568	77.81
490.786	88.81
491.003	98.81
491.221	82.81
491.439	86.81
491.657	97.81
491.874	85.81
492.092	91.81
492.31	76.81
492.527	76.81
492.745	83.81
492.963	86.81
493.18	82.81
493.398	91.81
493.615	74.81
493.833	72.81
494.05	93.81
494.268	92.81
494.485	86.81
494.703	87.81
494.92	98.81
495.138	94.81
495.355	83.81
495.573	92.81
495.79	98.81
496.008	90.81
496.225	86.81
496.442	83.81
496.66	92.81
496.877	90.81
497.094	102.81
497.312	89.81
497.529	89.81
497.746	87.81
497.963	90.81
498.181	88.81
498.398	82.81
498.615	92.81
498.832	98.81
499.049	78.81
499.267	86.81
499.484	85.81
499.701	91.81
499.918	93.81
500.135	88.81
500.352	90.81
500.569	68.81
500.786	87.81
501.003	82.81
501.22	90.81
501.437	94.81
501.654	103.81
501.871	107.81
502.088	104.81
502.305	88.81
502.522	79.81
502.739	83.81
502.956	80.81
503.172	86.81
503.389	76.81
503.606	91.81
503.823	87.81
504.04	88.81
504.256	96.81
504.473	92.81
504.69	84.81
504.907	86.81
505.123	89.81
505.34	83.81
505.557	89.81
505.773	90.81
505.99	92.81
506.207	81.81
506.423	82.81
506.64	77.81
506.856	89.81
507.073	77.81
507.289	82.81
507.506	101.81
507.722	100.81
507.939	116.81
508.155	83.81
508.372	90.81
508.588	78.81
508.805	99.81
509.021	104.81
509.238	96.81
509.454	101.81
509.67	107.81
509.887	94.81
510.103	124.81
510.319	202.81
510.536	723.81
510.752	2147.81
510.968	600.81
511.184	154.81
511.401	114.81
511.617	100.81
511.833	88.81
512.049	78.81
512.265	90.81
512.481	67.81
512.698	98.81
512.914	87.81
513.13	99.81
513.346	83.81
513.562	83.81
513.778	89.81
513.994	108.81
514.21	106.81
514.426	110.81
514.642	126.81
514.858	115.81
515.074	171.81
515.29	402.81
515.506	1314.81
515.721	480.81
515.937	128.81
516.153	118.81
516.369	97.81
516.585	89.81
516.801	107.81
