Data from Circ_1986_H10_HRD10591_00014.txt Node
Date: Wed Jan 03 12:15:28 EST 2024
User: Yrep
Spectrometer: HR+D1059
Trigger mode: 1
Integration Time (sec): 1.000000E-1
Scans to average: 1
Electric dark correction enabled: true
Nonlinearity correction enabled: false
Boxcar width: 0
XAxis mode: Wavelengths
Number of Pixels in Spectrum: 2048
>>>>>Begin Spectral Data<<<<<
223.165	-24
223.4	-24
223.635	-24
223.869	-38
224.104	-28
224.338	-28
224.573	-7
224.808	-18
225.042	1
225.277	4
225.511	11
225.746	13
225.98	4
226.215	2
226.449	23
226.683	23
226.918	26
227.152	36
227.387	19
227.621	24
227.856	45
228.09	43
228.324	36
228.559	50
228.793	58
229.027	70
229.262	63
229.496	61
229.73	57
229.964	60
230.199	68
230.433	80
230.667	76
230.901	75
231.136	72
231.37	74
231.604	76
231.838	79
232.072	82
232.306	59
232.541	82
232.775	74
233.009	80
233.243	85
233.477	91
233.711	90
233.945	80
234.179	78
234.413	78
234.647	75
234.881	83
235.115	67
235.349	67
235.583	67
235.817	81
236.051	78
236.285	55
236.519	80
236.753	85
236.987	87
237.221	66
237.455	71
237.689	62
237.922	67
238.156	76
238.39	70
238.624	78
238.858	80
239.091	79
239.325	70
239.559	78
239.793	76
240.027	71
240.26	74
240.494	80
240.728	72
240.961	64
241.195	82
241.429	71
241.662	69
241.896	80
242.13	71
242.363	64
242.597	63
242.83	72
243.064	69
243.298	74
243.531	81
243.765	87
243.998	67
244.232	87
244.465	67
244.699	76
244.932	75
245.166	76
245.399	76
245.633	74
245.866	66
246.099	71
246.333	82
246.566	81
246.8	82
247.033	75
247.266	85
247.5	79
247.733	87
247.966	80
248.2	76
248.433	80
248.666	67
248.899	69
249.133	87
249.366	82
249.599	86
249.832	74
250.066	78
250.299	72
250.532	86
250.765	79
250.998	61
251.231	74
251.465	81
251.698	74
251.931	96
252.164	79
252.397	70
252.63	82
252.863	90
253.096	70
253.329	75
253.562	62
253.795	66
254.028	81
254.261	85
254.494	67
254.727	92
254.96	83
255.193	89
255.426	68
255.659	81
255.892	88
256.124	72
256.357	78
256.59	82
256.823	98
257.056	89
257.289	69
257.521	80
257.754	84
257.987	87
258.22	72
258.452	78
258.685	76
258.918	55
259.151	71
259.383	77
259.616	80
259.849	74
260.081	78
260.314	82
260.547	79
260.779	73
261.012	82
261.244	83
261.477	78
261.71	77
261.942	92
262.175	94
262.407	84
262.64	70
262.872	90
263.105	83
263.337	71
263.57	87
263.802	74
264.035	87
264.267	85
264.499	92
264.732	82
264.964	84
265.197	98
265.429	80
265.661	80
265.894	74
266.126	82
266.358	64
266.591	94
266.823	58
267.055	70
267.287	94
267.52	78
267.752	80
267.984	88
268.216	94
268.448	82
268.681	67
268.913	78
269.145	75
269.377	83
269.609	88
269.841	81
270.073	80
270.306	95
270.538	73
270.77	75
271.002	82
271.234	86
271.466	84
271.698	83
271.93	96
272.162	86
272.394	70
272.626	86
272.858	78
273.09	89
273.322	91
273.553	96
273.785	93
274.017	79
274.249	78
274.481	75
274.713	83
274.945	80
275.176	84
275.408	82
275.64	69
275.872	74
276.104	79
276.335	89
276.567	92
276.799	92
277.031	82
277.262	80
277.494	80
277.726	85
277.957	89
278.189	78
278.421	71
278.652	95
278.884	85
279.115	74
279.347	82
279.579	72
279.81	78
280.042	83
280.273	91
280.505	86
280.736	82
280.968	79
281.199	64
281.431	76
281.662	89
281.894	76
282.125	98
282.356	103
282.588	117
282.819	99
283.051	96
283.282	91
283.513	71
283.745	87
283.976	86
284.207	82
284.439	71
284.67	97
284.901	80
285.132	79
285.364	98
285.595	76
285.826	83
286.057	99
286.288	87
286.52	84
286.751	76
286.982	90
287.213	92
287.444	71
287.675	84
287.906	90
288.138	82
288.369	91
288.6	91
288.831	99
289.062	80
289.293	95
289.524	79
289.755	93
289.986	82
290.217	87
290.448	91
290.679	95
290.91	103
291.141	87
291.371	72
291.602	72
291.833	83
292.064	90
292.295	90
292.526	73
292.757	70
292.987	77
293.218	98
293.449	80
293.68	73
293.91	70
294.141	87
294.372	84
294.603	93
294.833	87
295.064	91
295.295	78
295.525	85
295.756	112
295.987	102
296.217	122
296.448	93
296.679	89
296.909	93
297.14	81
297.37	71
297.601	95
297.831	98
298.062	89
298.292	68
298.523	88
298.753	97
298.984	84
299.214	76
299.445	79
299.675	103
299.905	86
300.136	86
300.366	82
300.597	93
300.827	94
301.057	83
301.288	78
301.518	84
301.748	72
301.979	89
302.209	87
302.439	86
302.669	78
302.9	81
303.13	80
303.36	74
303.59	86
303.82	101
304.051	98
304.281	91
304.511	87
304.741	76
304.971	97
305.201	79
305.431	78
305.661	80
305.891	85
306.121	94
306.352	91
306.582	79
306.812	99
307.042	94
307.272	92
307.502	97
307.731	87
307.961	79
308.191	91
308.421	96
308.651	86
308.881	103
309.111	85
309.341	95
309.571	90
309.8	93
310.03	94
310.26	97
310.49	88
310.72	88
310.949	95
311.179	99
311.409	98
311.639	103
311.868	83
312.098	86
312.328	93
312.557	97
312.787	101
313.017	112
313.246	85
313.476	101
313.706	88
313.935	86
314.165	94
314.394	76
314.624	77
314.853	86
315.083	108
315.312	77
315.542	84
315.771	77
316.001	94
316.23	90
316.46	95
316.689	89
316.919	80
317.148	100
317.377	90
317.607	88
317.836	75
318.065	69
318.295	91
318.524	92
318.753	82
318.983	80
319.212	88
319.441	90
319.67	101
319.9	84
320.129	66
320.358	92
320.587	96
320.816	96
321.046	87
321.275	100
321.504	98
321.733	101
321.962	110
322.191	84
322.42	95
322.649	106
322.878	100
323.108	107
323.337	101
323.566	111
323.795	112
324.024	150
324.253	294
324.482	593
324.71	1202
324.939	1542
325.168	567
325.397	182
325.626	126
325.855	123
326.084	112
326.313	120
326.542	136
326.77	185
326.999	343
327.228	706
327.457	1231
327.686	970
327.914	280
328.143	154
328.372	130
328.6	103
328.829	96
329.058	107
329.287	113
329.515	96
329.744	93
329.972	92
330.201	103
330.43	103
330.658	108
330.887	119
331.115	94
331.344	78
331.572	92
331.801	95
332.03	99
332.258	78
332.486	86
332.715	78
332.943	88
333.172	93
333.4	89
333.629	99
333.857	99
334.085	102
334.314	103
334.542	121
334.771	114
334.999	91
335.227	78
335.455	90
335.684	71
335.912	90
336.14	102
336.369	97
336.597	102
336.825	101
337.053	79
337.281	82
337.51	85
337.738	77
337.966	83
338.194	88
338.422	102
338.65	81
338.878	95
339.106	69
339.334	81
339.562	78
339.79	91
340.018	91
340.246	79
340.474	96
340.702	94
340.93	91
341.158	88
341.386	87
341.614	86
341.842	77
342.07	76
342.298	82
342.526	83
342.754	80
342.981	93
343.209	87
343.437	100
343.665	82
343.893	88
344.12	87
344.348	90
344.576	92
344.804	103
345.031	81
345.259	82
345.487	81
345.714	85
345.942	79
346.17	76
346.397	91
346.625	95
346.853	78
347.08	95
347.308	93
347.535	79
347.763	87
347.99	101
348.218	86
348.445	107
348.673	101
348.9	87
349.128	93
349.355	92
349.583	83
349.81	96
350.037	84
350.265	89
350.492	88
350.72	89
350.947	99
351.174	109
351.402	111
351.629	94
351.856	109
352.083	94
352.311	71
352.538	113
352.765	93
352.992	101
353.22	105
353.447	100
353.674	101
353.901	100
354.128	88
354.355	97
354.583	93
354.81	83
355.037	88
355.264	99
355.491	91
355.718	86
355.945	98
356.172	107
356.399	100
356.626	88
356.853	92
357.08	82
357.307	86
357.534	86
357.761	95
357.988	96
358.215	116
358.441	96
358.668	92
358.895	98
359.122	96
359.349	80
359.576	96
359.802	85
360.029	90
360.256	88
360.483	83
360.709	82
360.936	93
361.163	93
361.39	79
361.616	90
361.843	71
362.07	90
362.296	76
362.523	69
362.749	74
362.976	86
363.203	84
363.429	59
363.656	94
363.882	84
364.109	76
364.335	77
364.562	85
364.788	71
365.015	85
365.241	100
365.468	96
365.694	115
365.92	84
366.147	95
366.373	84
366.599	83
366.826	100
367.052	96
367.278	87
367.505	91
367.731	88
367.957	79
368.184	76
368.41	96
368.636	97
368.862	109
369.089	94
369.315	86
369.541	94
369.767	86
369.993	75
370.219	93
370.445	87
370.672	87
370.898	83
371.124	91
371.35	84
371.576	82
371.802	93
372.028	79
372.254	71
372.48	75
372.706	86
372.932	86
373.158	102
373.384	108
373.61	85
373.835	86
374.061	88
374.287	76
374.513	87
374.739	88
374.965	93
375.191	88
375.416	96
375.642	86
375.868	85
376.094	86
376.319	81
376.545	83
376.771	78
376.997	76
377.222	93
377.448	87
377.674	73
377.899	79
378.125	82
378.35	92
378.576	87
378.802	86
379.027	95
379.253	102
379.478	92
379.704	99
379.929	93
380.155	100
380.38	103
380.606	99
380.831	99
381.057	101
381.282	96
381.507	104
381.733	107
381.958	99
382.184	112
382.409	100
382.634	95
382.86	103
383.085	105
383.31	93
383.535	101
383.761	100
383.986	100
384.211	98
384.436	102
384.662	104
384.887	113
385.112	123
385.337	128
385.562	134
385.787	114
386.013	122
386.238	117
386.463	123
386.688	136
386.913	129
387.138	111
387.363	102
387.588	112
387.813	115
388.038	122
388.263	145
388.488	116
388.713	104
388.938	95
389.163	83
389.387	91
389.612	84
389.837	100
390.062	80
390.287	81
390.512	83
390.736	88
390.961	86
391.186	94
391.411	97
391.636	93
391.86	88
392.085	79
392.31	103
392.534	85
392.759	90
392.984	98
393.208	95
393.433	103
393.658	84
393.882	71
394.107	83
394.331	93
394.556	89
394.78	85
395.005	88
395.229	86
395.454	78
395.678	84
395.903	71
396.127	83
396.352	101
396.576	90
396.801	79
397.025	88
397.249	85
397.474	77
397.698	84
397.922	95
398.147	81
398.371	91
398.595	90
398.82	83
399.044	88
399.268	77
399.492	75
399.717	81
399.941	94
400.165	92
400.389	71
400.613	81
400.837	79
401.062	81
401.286	102
401.51	86
401.734	75
401.958	88
402.182	98
402.406	119
402.63	92
402.854	82
403.078	85
403.302	90
403.526	81
403.75	91
403.974	85
404.198	70
404.422	70
404.645	87
404.869	76
405.093	78
405.317	98
405.541	96
405.765	78
405.988	110
406.212	137
406.436	174
406.66	120
406.883	77
407.107	77
407.331	96
407.555	106
407.778	84
408.002	88
408.226	83
408.449	80
408.673	97
408.896	86
409.12	83
409.344	86
409.567	82
409.791	85
410.014	81
410.238	97
410.461	100
410.685	101
410.908	86
411.132	100
411.355	91
411.578	99
411.802	100
412.025	94
412.249	97
412.472	82
412.695	93
412.919	96
413.142	91
413.365	80
413.589	74
413.812	86
414.035	86
414.258	103
414.482	92
414.705	90
414.928	79
415.151	87
415.374	95
415.597	85
415.821	85
416.044	102
416.267	79
416.49	91
416.713	92
416.936	84
417.159	87
417.382	81
417.605	88
417.828	89
418.051	85
418.274	88
418.497	108
418.72	92
418.943	95
419.166	79
419.389	90
419.611	87
419.834	94
420.057	82
420.28	99
420.503	83
420.726	70
420.948	74
421.171	93
421.394	93
421.617	90
421.839	77
422.062	86
422.285	87
422.507	86
422.73	98
422.953	100
423.175	81
423.398	90
423.621	77
423.843	84
424.066	96
424.288	87
424.511	83
424.733	80
424.956	87
425.178	80
425.401	88
425.623	86
425.846	85
426.068	92
426.291	94
426.513	87
426.735	92
426.958	85
427.18	82
427.402	111
427.625	119
427.847	118
428.069	108
428.292	86
428.514	95
428.736	84
428.958	70
429.181	92
429.403	71
429.625	88
429.847	78
430.069	82
430.292	84
430.514	75
430.736	90
430.958	76
431.18	82
431.402	87
431.624	83
431.846	84
432.068	82
432.29	84
432.512	76
432.734	75
432.956	84
433.178	83
433.4	84
433.622	79
433.844	87
434.066	93
434.287	82
434.509	71
434.731	87
434.953	81
435.175	74
435.397	81
435.618	79
435.84	77
436.062	100
436.284	95
436.505	90
436.727	77
436.949	83
437.17	76
437.392	84
437.614	83
437.835	92
438.057	89
438.278	97
438.5	75
438.721	103
438.943	91
439.165	88
439.386	87
439.608	79
439.829	95
440.05	114
440.272	110
440.493	92
440.715	72
440.936	84
441.158	84
441.379	82
441.6	59
441.822	75
442.043	79
442.264	96
442.486	82
442.707	103
442.928	85
443.149	103
443.371	106
443.592	102
443.813	95
444.034	87
444.255	78
444.476	96
444.698	91
444.919	81
445.14	112
445.361	122
445.582	115
445.803	119
446.024	103
446.245	107
446.466	96
446.687	84
446.908	78
447.129	94
447.35	78
447.571	90
447.792	96
448.013	99
448.234	104
448.455	96
448.675	101
448.896	108
449.117	111
449.338	95
449.559	103
449.779	120
450	101
450.221	89
450.442	86
450.662	80
450.883	84
451.104	100
451.324	94
451.545	80
451.766	89
451.986	93
452.207	80
452.428	97
452.648	95
452.869	85
453.089	93
453.31	103
453.53	79
453.751	85
453.971	101
454.192	90
454.412	82
454.633	91
454.853	87
455.073	84
455.294	85
455.514	81
455.734	84
455.955	91
456.175	94
456.395	70
456.616	86
456.836	87
457.056	91
457.276	78
457.497	100
457.717	93
457.937	76
458.157	86
458.377	80
458.598	81
458.818	106
459.038	123
459.258	102
459.478	76
459.698	71
459.918	82
460.138	80
460.358	74
460.578	94
460.798	88
461.018	85
461.238	77
461.458	70
461.678	82
461.898	71
462.118	69
462.338	83
462.558	69
462.777	86
462.997	75
463.217	84
463.437	81
463.657	74
463.876	87
464.096	82
464.316	89
464.536	80
464.755	92
464.975	91
465.195	125
465.414	118
465.634	90
465.854	86
466.073	76
466.293	69
466.512	92
466.732	83
466.951	89
467.171	89
467.391	90
467.61	89
467.829	83
468.049	95
468.268	94
468.488	82
468.707	74
468.927	80
469.146	85
469.365	78
469.585	81
469.804	82
470.023	70
470.243	94
470.462	85
470.681	98
470.901	96
471.12	72
471.339	88
471.558	83
471.777	80
471.997	77
472.216	101
472.435	113
472.654	96
472.873	86
473.092	94
473.311	77
473.53	80
473.749	84
473.968	92
474.187	90
474.406	69
474.625	99
474.844	95
475.063	87
475.282	69
475.501	79
475.72	96
475.939	90
476.158	80
476.377	80
476.596	89
476.814	84
477.033	82
477.252	85
477.471	71
477.69	75
477.908	74
478.127	74
478.346	86
478.564	94
478.783	88
479.002	90
479.22	74
479.439	90
479.658	94
479.876	91
480.095	81
480.313	91
480.532	88
480.751	84
480.969	89
481.188	128
481.406	109
481.624	101
481.843	78
482.061	88
482.28	82
482.498	74
482.717	75
482.935	86
483.153	86
483.372	82
483.59	80
483.808	89
484.027	78
484.245	95
484.463	89
484.681	100
484.9	90
485.118	99
485.336	82
485.554	87
485.772	98
485.99	99
486.209	106
486.427	99
486.645	88
486.863	99
487.081	102
487.299	94
487.517	98
487.735	89
487.953	67
488.171	97
488.389	93
488.607	92
488.825	83
489.043	86
489.261	91
489.479	87
489.696	91
489.914	95
490.132	80
490.35	98
490.568	78
490.786	95
491.003	79
491.221	88
491.439	83
491.657	67
491.874	94
492.092	86
492.31	93
492.527	80
492.745	76
492.963	101
493.18	81
493.398	93
493.615	91
493.833	84
494.05	67
494.268	90
494.485	99
494.703	82
494.92	102
495.138	70
495.355	82
495.573	87
495.79	97
496.008	95
496.225	94
496.442	100
496.66	66
496.877	86
497.094	86
497.312	94
497.529	91
497.746	86
497.963	87
498.181	76
498.398	108
498.615	99
498.832	98
499.049	97
499.267	81
499.484	64
499.701	95
499.918	76
500.135	98
500.352	83
500.569	66
500.786	80
501.003	89
501.22	84
501.437	92
501.654	81
501.871	95
502.088	81
502.305	97
502.522	94
502.739	83
502.956	90
503.172	92
503.389	82
503.606	92
503.823	91
504.04	92
504.256	82
504.473	77
504.69	85
504.907	100
505.123	76
505.34	92
505.557	88
505.773	90
505.99	88
506.207	94
506.423	93
506.64	89
506.856	93
507.073	81
507.289	84
507.506	101
507.722	101
507.939	107
508.155	97
508.372	83
508.588	84
508.805	88
509.021	101
509.238	100
509.454	84
509.67	92
509.887	98
510.103	114
510.319	168
510.536	537
510.752	1600
510.968	453
511.184	119
511.401	90
511.617	81
511.833	94
512.049	94
512.265	97
512.481	87
512.698	85
512.914	87
513.13	83
513.346	87
513.562	83
513.778	95
513.994	91
514.21	90
514.426	96
514.642	120
514.858	106
515.074	132
515.29	314
515.506	901
515.721	365
515.937	111
516.153	101
516.369	90
516.585	96
516.801	85
517.016	81
517.232	85
517.448	83
517.664	85
517.879	82
518.095	77
518.311	83
518.527	102
518.742	88
518.958	95
519.173	97
519.389	86
519.605	81
519.82	95
520.036	95
520.251	92
520.467	89
520.682	89
520.898	90
521.113	85
521.329	109
521.544	156
521.76	402
521.975	1527
522.19	880
522.406	230
522.621	108
522.836	79
523.052	91
523.267	76
523.482	71
523.698	85
523.913	99
524.128	98
524.343	91
524.559	92
524.774	96
524.989	86
525.204	97
525.419	96
525.634	84
525.849	82
526.064	85
526.28	81
526.495	94
526.71	98
526.925	92
527.14	83
527.355	86
527.57	84
527.785	97
527.999	92
528.214	98
528.429	94
528.644	91
528.859	86
529.074	74
529.289	106
529.503	119
529.718	87
529.933	84
530.148	95
530.363	103
530.577	80
530.792	82
531.007	91
531.221	84
531.436	82
531.651	87
531.865	77
532.08	91
532.295	95
532.509	92
532.724	90
532.938	71
533.153	95
533.367	84
533.582	100
533.796	98
534.011	89
534.225	89
534.44	84
534.654	90
534.868	84
535.083	82
535.297	96
535.511	94
535.726	80
535.94	86
536.154	107
536.369	101
536.583	80
536.797	78
537.011	82
537.225	94
537.44	103
537.654	93
537.868	92
538.082	95
538.296	65
538.51	96
538.724	84
538.938	77
539.153	94
539.367	107
539.581	80
539.795	84
540.009	77
540.222	100
540.436	84
540.65	101
540.864	88
541.078	84
541.292	86
541.506	93
541.72	90
541.934	93
542.147	95
542.361	72
542.575	78
542.789	87
543.002	80
543.216	80
543.43	81
543.644	99
543.857	80
544.071	94
544.285	96
544.498	81
544.712	94
544.925	79
545.139	83
545.352	92
545.566	90
545.779	91
545.993	85
546.206	83
546.42	76
546.633	86
546.847	78
547.06	90
547.274	88
547.487	74
547.7	93
547.914	93
548.127	84
548.34	94
548.554	86
548.767	78
548.98	79
549.193	75
549.407	98
549.62	93
549.833	72
550.046	86
550.259	81
550.473	92
550.686	95
550.899	78
551.112	90
551.325	75
551.538	84
551.751	93
551.964	91
552.177	83
552.39	76
552.603	86
552.816	71
553.029	88
553.242	90
553.455	87
553.667	110
553.88	92
554.093	84
554.306	82
554.519	86
554.732	96
554.944	95
555.157	88
555.37	76
555.583	80
555.795	90
556.008	78
556.221	75
556.433	93
556.646	88
556.859	98
557.071	94
557.284	105
557.496	77
557.709	91
557.921	98
558.134	93
558.346	91
558.559	84
558.771	77
558.984	84
559.196	71
559.409	96
559.621	87
559.833	84
560.046	99
560.258	87
560.47	90
560.683	82
560.895	76
561.107	80
561.32	75
561.532	83
561.744	88
561.956	90
562.168	90
562.381	92
562.593	95
562.805	94
563.017	66
563.229	92
563.441	85
563.653	85
563.865	90
564.077	87
564.289	87
564.501	76
564.713	91
564.925	80
565.137	90
565.349	80
565.561	90
565.773	92
565.985	87
566.197	84
566.408	67
566.62	93
566.832	71
567.044	79
567.255	76
567.467	79
567.679	94
567.891	82
568.102	71
568.314	91
568.526	94
568.737	84
568.949	72
569.161	80
569.372	75
569.584	100
569.795	82
570.007	101
570.218	183
570.43	114
570.641	78
570.853	71
571.064	84
571.276	79
571.487	90
571.698	98
571.91	80
572.121	83
572.333	76
572.544	66
572.755	77
572.966	95
573.178	82
573.389	83
573.6	86
573.811	86
574.023	86
574.234	78
574.445	77
574.656	83
574.867	88
575.078	87
575.289	97
575.501	83
575.712	80
575.923	78
576.134	91
576.345	83
576.556	94
576.767	87
576.978	88
577.188	84
577.399	96
577.61	93
577.821	88
578.032	93
578.243	204
578.454	519
578.665	167
578.875	91
579.086	84
579.297	88
579.508	96
579.718	83
579.929	72
580.14	80
580.35	85
580.561	80
580.772	93
580.982	80
581.193	84
581.403	94
581.614	72
581.825	66
582.035	74
582.246	81
582.456	89
582.667	94
582.877	94
583.087	97
583.298	79
583.508	69
583.719	77
583.929	88
584.139	93
584.35	86
584.56	81
584.77	93
584.981	78
585.191	83
585.401	82
585.611	91
585.821	90
586.032	84
586.242	83
586.452	79
586.662	73
586.872	74
