Data from Circ_1986_H10_HRD10591_00054.txt Node
Date: Wed Jan 03 12:15:36 EST 2024
User: Yrep
Spectrometer: HR+D1059
Trigger mode: 1
Integration Time (sec): 1.000000E-1
Scans to average: 1
Electric dark correction enabled: true
Nonlinearity correction enabled: false
Boxcar width: 0
XAxis mode: Wavelengths
Number of Pixels in Spectrum: 2048
>>>>>Begin Spectral Data<<<<<
223.165	-13.31
223.4	-13.31
223.635	-13.31
223.869	-20.31
224.104	-22.31
224.338	-14.31
224.573	6.69
224.808	-12.31
225.042	-3.31
225.277	-4.31
225.511	0.69
225.746	2.69
225.98	-0.31
226.215	15.69
226.449	7.69
226.683	5.69
226.918	25.69
227.152	25.69
227.387	33.69
227.621	27.69
227.856	25.69
228.09	41.69
228.324	35.69
228.559	50.69
228.793	69.69
229.027	46.69
229.262	60.69
229.496	63.69
229.73	73.69
229.964	65.69
230.199	64.69
230.433	73.69
230.667	83.69
230.901	83.69
231.136	86.69
231.37	76.69
231.604	94.69
231.838	88.69
232.072	94.69
232.306	75.69
232.541	98.69
232.775	88.69
233.009	81.69
233.243	83.69
233.477	69.69
233.711	81.69
233.945	90.69
234.179	76.69
234.413	83.69
234.647	78.69
234.881	75.69
235.115	81.69
235.349	76.69
235.583	93.69
235.817	69.69
236.051	77.69
236.285	43.69
236.519	77.69
236.753	75.69
236.987	84.69
237.221	81.69
237.455	83.69
237.689	81.69
237.922	69.69
238.156	75.69
238.39	70.69
238.624	88.69
238.858	79.69
239.091	76.69
239.325	70.69
239.559	75.69
239.793	68.69
240.027	82.69
240.26	85.69
240.494	77.69
240.728	71.69
240.961	66.69
241.195	76.69
241.429	83.69
241.662	85.69
241.896	69.69
242.13	78.69
242.363	86.69
242.597	60.69
242.83	71.69
243.064	72.69
243.298	66.69
243.531	49.69
243.765	65.69
243.998	65.69
244.232	79.69
244.465	69.69
244.699	85.69
244.932	75.69
245.166	62.69
245.399	79.69
245.633	87.69
245.866	75.69
246.099	81.69
246.333	64.69
246.566	75.69
246.8	79.69
247.033	81.69
247.266	88.69
247.5	82.69
247.733	79.69
247.966	79.69
248.2	76.69
248.433	70.69
248.666	79.69
248.899	77.69
249.133	83.69
249.366	97.69
249.599	91.69
249.832	79.69
250.066	92.69
250.299	63.69
250.532	81.69
250.765	72.69
250.998	81.69
251.231	73.69
251.465	79.69
251.698	61.69
251.931	71.69
252.164	68.69
252.397	72.69
252.63	74.69
252.863	73.69
253.096	89.69
253.329	77.69
253.562	85.69
253.795	79.69
254.028	77.69
254.261	79.69
254.494	73.69
254.727	87.69
254.96	77.69
255.193	79.69
255.426	70.69
255.659	78.69
255.892	71.69
256.124	78.69
256.357	89.69
256.59	77.69
256.823	81.69
257.056	72.69
257.289	97.69
257.521	78.69
257.754	80.69
257.987	90.69
258.22	57.69
258.452	66.69
258.685	60.69
258.918	87.69
259.151	87.69
259.383	78.69
259.616	86.69
259.849	88.69
260.081	84.69
260.314	77.69
260.547	83.69
260.779	88.69
261.012	78.69
261.244	78.69
261.477	85.69
261.71	88.69
261.942	101.69
262.175	95.69
262.407	87.69
262.64	90.69
262.872	87.69
263.105	83.69
263.337	88.69
263.57	72.69
263.802	75.69
264.035	83.69
264.267	81.69
264.499	83.69
264.732	83.69
264.964	83.69
265.197	88.69
265.429	63.69
265.661	70.69
265.894	88.69
266.126	71.69
266.358	70.69
266.591	68.69
266.823	92.69
267.055	78.69
267.287	86.69
267.52	68.69
267.752	86.69
267.984	79.69
268.216	86.69
268.448	81.69
268.681	82.69
268.913	87.69
269.145	65.69
269.377	85.69
269.609	85.69
269.841	81.69
270.073	88.69
270.306	77.69
270.538	86.69
270.77	77.69
271.002	70.69
271.234	79.69
271.466	87.69
271.698	76.69
271.93	89.69
272.162	79.69
272.394	82.69
272.626	94.69
272.858	83.69
273.09	80.69
273.322	91.69
273.553	82.69
273.785	77.69
274.017	86.69
274.249	84.69
274.481	89.69
274.713	77.69
274.945	87.69
275.176	86.69
275.408	93.69
275.64	83.69
275.872	81.69
276.104	102.69
276.335	81.69
276.567	89.69
276.799	94.69
277.031	93.69
277.262	81.69
277.494	90.69
277.726	88.69
277.957	75.69
278.189	87.69
278.421	65.69
278.652	91.69
278.884	87.69
279.115	93.69
279.347	81.69
279.579	96.69
279.81	83.69
280.042	91.69
280.273	73.69
280.505	92.69
280.736	89.69
280.968	87.69
281.199	96.69
281.431	84.69
281.662	78.69
281.894	93.69
282.125	85.69
282.356	91.69
282.588	112.69
282.819	99.69
283.051	95.69
283.282	84.69
283.513	85.69
283.745	79.69
283.976	81.69
284.207	78.69
284.439	75.69
284.67	93.69
284.901	80.69
285.132	84.69
285.364	72.69
285.595	89.69
285.826	77.69
286.057	89.69
286.288	106.69
286.52	93.69
286.751	80.69
286.982	80.69
287.213	76.69
287.444	85.69
287.675	94.69
287.906	90.69
288.138	88.69
288.369	87.69
288.6	88.69
288.831	89.69
289.062	90.69
289.293	91.69
289.524	82.69
289.755	85.69
289.986	88.69
290.217	90.69
290.448	91.69
290.679	76.69
290.91	89.69
291.141	75.69
291.371	85.69
291.602	87.69
291.833	79.69
292.064	90.69
292.295	84.69
292.526	92.69
292.757	82.69
292.987	79.69
293.218	99.69
293.449	80.69
293.68	77.69
293.91	81.69
294.141	72.69
294.372	83.69
294.603	79.69
294.833	87.69
295.064	91.69
295.295	84.69
295.525	81.69
295.756	84.69
295.987	104.69
296.217	108.69
296.448	116.69
296.679	90.69
296.909	83.69
297.14	87.69
297.37	81.69
297.601	87.69
297.831	83.69
298.062	89.69
298.292	82.69
298.523	92.69
298.753	87.69
298.984	85.69
299.214	82.69
299.445	84.69
299.675	84.69
299.905	85.69
300.136	92.69
300.366	81.69
300.597	89.69
300.827	92.69
301.057	95.69
301.288	97.69
301.518	102.69
301.748	99.69
301.979	86.69
302.209	75.69
302.439	89.69
302.669	98.69
302.9	89.69
303.13	103.69
303.36	97.69
303.59	96.69
303.82	96.69
304.051	95.69
304.281	86.69
304.511	83.69
304.741	84.69
304.971	86.69
305.201	71.69
305.431	83.69
305.661	81.69
305.891	85.69
306.121	84.69
306.352	94.69
306.582	95.69
306.812	71.69
307.042	86.69
307.272	86.69
307.502	97.69
307.731	86.69
307.961	90.69
308.191	77.69
308.421	89.69
308.651	88.69
308.881	99.69
309.111	87.69
309.341	94.69
309.571	95.69
309.8	101.69
310.03	100.69
310.26	89.69
310.49	91.69
310.72	95.69
310.949	91.69
311.179	79.69
311.409	88.69
311.639	90.69
311.868	88.69
312.098	86.69
312.328	94.69
312.557	91.69
312.787	103.69
313.017	91.69
313.246	93.69
313.476	92.69
313.706	97.69
313.935	94.69
314.165	83.69
314.394	86.69
314.624	96.69
314.853	91.69
315.083	88.69
315.312	84.69
315.542	81.69
315.771	83.69
316.001	83.69
316.23	92.69
316.46	69.69
316.689	80.69
316.919	85.69
317.148	89.69
317.377	100.69
317.607	91.69
317.836	67.69
318.065	81.69
318.295	94.69
318.524	87.69
318.753	72.69
318.983	91.69
319.212	94.69
319.441	92.69
319.67	105.69
319.9	91.69
320.129	109.69
320.358	86.69
320.587	77.69
320.816	92.69
321.046	86.69
321.275	106.69
321.504	96.69
321.733	85.69
321.962	92.69
322.191	94.69
322.42	79.69
322.649	96.69
322.878	94.69
323.108	107.69
323.337	104.69
323.566	102.69
323.795	143.69
324.024	177.69
324.253	283.69
324.482	631.69
324.71	1299.69
324.939	1703.69
325.168	630.69
325.397	203.69
325.626	137.69
325.855	118.69
326.084	133.69
326.313	121.69
326.542	121.69
326.77	181.69
326.999	358.69
327.228	733.69
327.457	1336.69
327.686	1075.69
327.914	301.69
328.143	173.69
328.372	144.69
328.6	112.69
328.829	101.69
329.058	100.69
329.287	110.69
329.515	83.69
329.744	98.69
329.972	124.69
330.201	146.69
330.43	171.69
330.658	121.69
330.887	100.69
331.115	113.69
331.344	94.69
331.572	97.69
331.801	97.69
332.03	102.69
332.258	101.69
332.486	75.69
332.715	97.69
332.943	101.69
333.172	83.69
333.4	90.69
333.629	110.69
333.857	111.69
334.085	116.69
334.314	136.69
334.542	180.69
334.771	189.69
334.999	107.69
335.227	99.69
335.455	92.69
335.684	98.69
335.912	81.69
336.14	87.69
336.369	92.69
336.597	75.69
336.825	84.69
337.053	84.69
337.281	89.69
337.51	91.69
337.738	93.69
337.966	86.69
338.194	73.69
338.422	75.69
338.65	87.69
338.878	91.69
339.106	91.69
339.334	97.69
339.562	94.69
339.79	95.69
340.018	66.69
340.246	77.69
340.474	112.69
340.702	88.69
340.93	93.69
341.158	100.69
341.386	93.69
341.614	88.69
341.842	88.69
342.07	100.69
342.298	93.69
342.526	91.69
342.754	86.69
342.981	92.69
343.209	83.69
343.437	87.69
343.665	86.69
343.893	92.69
344.12	85.69
344.348	65.69
344.576	95.69
344.804	95.69
345.031	93.69
345.259	88.69
345.487	90.69
345.714	94.69
345.942	77.69
346.17	87.69
346.397	84.69
346.625	93.69
346.853	88.69
347.08	99.69
347.308	75.69
347.535	91.69
347.763	82.69
347.99	103.69
348.218	83.69
348.445	90.69
348.673	99.69
348.9	82.69
349.128	91.69
349.355	77.69
349.583	90.69
349.81	81.69
350.037	92.69
350.265	101.69
350.492	96.69
350.72	99.69
350.947	94.69
351.174	95.69
351.402	91.69
351.629	95.69
351.856	87.69
352.083	101.69
352.311	109.69
352.538	114.69
352.765	108.69
352.992	96.69
353.22	89.69
353.447	98.69
353.674	95.69
353.901	100.69
354.128	88.69
354.355	106.69
354.583	93.69
354.81	90.69
355.037	84.69
355.264	77.69
355.491	77.69
355.718	85.69
355.945	92.69
356.172	85.69
356.399	91.69
356.626	84.69
356.853	87.69
357.08	104.69
357.307	97.69
357.534	83.69
357.761	96.69
357.988	84.69
358.215	99.69
358.441	79.69
358.668	94.69
358.895	94.69
359.122	96.69
359.349	74.69
359.576	85.69
359.802	89.69
360.029	102.69
360.256	94.69
360.483	89.69
360.709	69.69
360.936	96.69
361.163	96.69
361.39	93.69
361.616	83.69
361.843	94.69
362.07	77.69
362.296	79.69
362.523	87.69
362.749	87.69
362.976	94.69
363.203	96.69
363.429	85.69
363.656	81.69
363.882	85.69
364.109	83.69
364.335	71.69
364.562	85.69
364.788	100.69
365.015	90.69
365.241	100.69
365.468	108.69
365.694	97.69
365.92	85.69
366.147	85.69
366.373	86.69
366.599	77.69
366.826	77.69
367.052	85.69
367.278	93.69
367.505	97.69
367.731	83.69
367.957	75.69
368.184	87.69
368.41	96.69
368.636	93.69
368.862	111.69
369.089	99.69
369.315	95.69
369.541	83.69
369.767	92.69
369.993	85.69
370.219	85.69
370.445	80.69
370.672	79.69
370.898	87.69
371.124	92.69
371.35	88.69
371.576	83.69
371.802	83.69
372.028	95.69
372.254	84.69
372.48	91.69
372.706	81.69
372.932	84.69
373.158	77.69
373.384	88.69
373.61	89.69
373.835	87.69
374.061	94.69
374.287	76.69
374.513	82.69
374.739	91.69
374.965	77.69
375.191	69.69
375.416	94.69
375.642	90.69
375.868	86.69
376.094	83.69
376.319	100.69
376.545	85.69
376.771	90.69
376.997	72.69
377.222	70.69
377.448	87.69
377.674	87.69
377.899	91.69
378.125	83.69
378.35	85.69
378.576	94.69
378.802	102.69
379.027	91.69
379.253	98.69
379.478	92.69
379.704	97.69
379.929	72.69
380.155	86.69
380.38	93.69
380.606	93.69
380.831	96.69
381.057	98.69
381.282	83.69
381.507	83.69
381.733	92.69
381.958	85.69
382.184	81.69
382.409	96.69
382.634	100.69
382.86	79.69
383.085	96.69
383.31	92.69
383.535	90.69
383.761	99.69
383.986	90.69
384.211	84.69
384.436	93.69
384.662	84.69
384.887	102.69
385.112	95.69
385.337	105.69
385.562	108.69
385.787	105.69
386.013	109.69
386.238	109.69
386.463	109.69
386.688	111.69
386.913	108.69
387.138	105.69
387.363	103.69
387.588	101.69
387.813	103.69
388.038	87.69
388.263	110.69
388.488	104.69
388.713	98.69
388.938	86.69
389.163	100.69
389.387	89.69
389.612	81.69
389.837	98.69
390.062	98.69
390.287	99.69
390.512	90.69
390.736	96.69
390.961	81.69
391.186	105.69
391.411	87.69
391.636	95.69
391.86	93.69
392.085	92.69
392.31	87.69
392.534	77.69
392.759	82.69
392.984	79.69
393.208	83.69
393.433	80.69
393.658	79.69
393.882	69.69
394.107	71.69
394.331	91.69
394.556	81.69
394.78	59.69
395.005	76.69
395.229	88.69
395.454	83.69
395.678	73.69
395.903	85.69
396.127	82.69
396.352	78.69
396.576	84.69
396.801	81.69
397.025	82.69
397.249	71.69
397.474	91.69
397.698	68.69
397.922	86.69
398.147	71.69
398.371	83.69
398.595	90.69
398.82	89.69
399.044	68.69
399.268	87.69
399.492	77.69
399.717	80.69
399.941	83.69
400.165	87.69
400.389	78.69
400.613	82.69
400.837	87.69
401.062	73.69
401.286	88.69
401.51	83.69
401.734	71.69
401.958	99.69
402.182	111.69
402.406	120.69
402.63	103.69
402.854	77.69
403.078	83.69
403.302	83.69
403.526	85.69
403.75	87.69
403.974	82.69
404.198	85.69
404.422	85.69
404.645	93.69
404.869	79.69
405.093	93.69
405.317	90.69
405.541	87.69
405.765	89.69
405.988	103.69
406.212	143.69
406.436	179.69
406.66	119.69
406.883	93.69
407.107	79.69
407.331	95.69
407.555	98.69
407.778	83.69
408.002	84.69
408.226	72.69
408.449	91.69
408.673	81.69
408.896	103.69
409.12	89.69
409.344	95.69
409.567	80.69
409.791	75.69
410.014	95.69
410.238	100.69
410.461	93.69
410.685	76.69
410.908	87.69
411.132	92.69
411.355	88.69
411.578	96.69
411.802	90.69
412.025	76.69
412.249	75.69
412.472	81.69
412.695	102.69
412.919	92.69
413.142	110.69
413.365	75.69
413.589	81.69
413.812	82.69
414.035	79.69
414.258	67.69
414.482	95.69
414.705	81.69
414.928	87.69
415.151	86.69
415.374	87.69
415.597	81.69
415.821	98.69
416.044	92.69
416.267	84.69
416.49	81.69
416.713	84.69
416.936	82.69
417.159	87.69
417.382	81.69
417.605	74.69
417.828	93.69
418.051	87.69
418.274	95.69
418.497	92.69
418.72	79.69
418.943	95.69
419.166	90.69
419.389	95.69
419.611	87.69
419.834	95.69
420.057	94.69
420.28	98.69
420.503	99.69
420.726	76.69
420.948	75.69
421.171	93.69
421.394	91.69
421.617	78.69
421.839	83.69
422.062	77.69
422.285	94.69
422.507	103.69
422.73	88.69
422.953	95.69
423.175	82.69
423.398	73.69
423.621	75.69
423.843	98.69
424.066	91.69
424.288	79.69
424.511	91.69
424.733	84.69
424.956	105.69
425.178	99.69
425.401	92.69
425.623	92.69
425.846	85.69
426.068	92.69
426.291	81.69
426.513	95.69
426.735	95.69
426.958	92.69
427.18	93.69
427.402	105.69
427.625	125.69
427.847	110.69
428.069	112.69
428.292	92.69
428.514	86.69
428.736	95.69
428.958	82.69
429.181	93.69
429.403	87.69
429.625	79.69
429.847	91.69
430.069	97.69
430.292	94.69
430.514	83.69
430.736	71.69
430.958	85.69
431.18	97.69
431.402	78.69
431.624	71.69
431.846	95.69
432.068	91.69
432.29	91.69
432.512	87.69
432.734	76.69
432.956	93.69
433.178	97.69
433.4	103.69
433.622	84.69
433.844	77.69
434.066	79.69
434.287	84.69
434.509	69.69
434.731	103.69
434.953	83.69
435.175	99.69
435.397	69.69
435.618	96.69
435.84	92.69
436.062	104.69
436.284	95.69
436.505	107.69
436.727	96.69
436.949	91.69
437.17	77.69
437.392	78.69
437.614	106.69
437.835	98.69
438.057	93.69
438.278	101.69
438.5	107.69
438.721	97.69
438.943	87.69
439.165	79.69
439.386	81.69
439.608	84.69
439.829	98.69
440.05	96.69
440.272	103.69
440.493	96.69
440.715	99.69
440.936	94.69
441.158	91.69
441.379	80.69
441.6	92.69
441.822	97.69
442.043	92.69
442.264	85.69
442.486	94.69
442.707	95.69
442.928	97.69
443.149	92.69
443.371	107.69
443.592	97.69
443.813	86.69
444.034	93.69
444.255	93.69
444.476	89.69
444.698	84.69
444.919	71.69
445.14	116.69
445.361	99.69
445.582	119.69
445.803	105.69
446.024	130.69
446.245	127.69
446.466	102.69
446.687	104.69
446.908	71.69
447.129	85.69
447.35	75.69
447.571	85.69
447.792	87.69
448.013	96.69
448.234	94.69
448.455	98.69
448.675	114.69
448.896	102.69
449.117	95.69
449.338	90.69
449.559	120.69
449.779	117.69
450	78.69
450.221	89.69
450.442	88.69
450.662	93.69
450.883	82.69
451.104	93.69
451.324	80.69
451.545	92.69
451.766	81.69
451.986	81.69
452.207	78.69
452.428	80.69
452.648	91.69
452.869	105.69
453.089	104.69
453.31	127.69
453.53	88.69
453.751	88.69
453.971	78.69
454.192	98.69
454.412	96.69
454.633	86.69
454.853	89.69
455.073	98.69
455.294	100.69
455.514	74.69
455.734	91.69
455.955	89.69
456.175	76.69
456.395	87.69
456.616	82.69
456.836	103.69
457.056	75.69
457.276	87.69
457.497	94.69
457.717	75.69
457.937	80.69
458.157	84.69
458.377	80.69
458.598	93.69
458.818	119.69
459.038	120.69
459.258	104.69
459.478	81.69
459.698	80.69
459.918	86.69
460.138	72.69
460.358	63.69
460.578	83.69
460.798	88.69
461.018	82.69
461.238	68.69
461.458	71.69
461.678	80.69
461.898	61.69
462.118	71.69
462.338	73.69
462.558	81.69
462.777	87.69
462.997	91.69
463.217	71.69
463.437	87.69
463.657	81.69
463.876	93.69
464.096	73.69
464.316	73.69
464.536	82.69
464.755	83.69
464.975	92.69
465.195	127.69
465.414	141.69
465.634	93.69
465.854	92.69
466.073	86.69
466.293	86.69
466.512	73.69
466.732	78.69
466.951	94.69
467.171	97.69
467.391	95.69
467.61	97.69
467.829	82.69
468.049	119.69
468.268	126.69
468.488	95.69
468.707	83.69
468.927	84.69
469.146	88.69
469.365	77.69
469.585	91.69
469.804	87.69
470.023	83.69
470.243	76.69
470.462	85.69
470.681	102.69
470.901	91.69
471.12	94.69
471.339	81.69
471.558	96.69
471.777	86.69
471.997	103.69
472.216	153.69
472.435	222.69
472.654	112.69
472.873	93.69
473.092	95.69
473.311	95.69
473.53	89.69
473.749	81.69
473.968	95.69
474.187	105.69
474.406	87.69
474.625	87.69
474.844	89.69
475.063	85.69
475.282	96.69
475.501	83.69
475.72	75.69
475.939	88.69
476.158	86.69
476.377	94.69
476.596	72.69
476.814	106.69
477.033	90.69
477.252	99.69
477.471	82.69
477.69	85.69
477.908	86.69
478.127	100.69
478.346	88.69
478.564	81.69
478.783	90.69
479.002	93.69
479.22	86.69
479.439	92.69
479.658	87.69
479.876	89.69
480.095	100.69
480.313	86.69
480.532	89.69
480.751	103.69
480.969	155.69
481.188	357.69
481.406	239.69
481.624	103.69
481.843	87.69
482.061	89.69
482.28	89.69
482.498	90.69
482.717	85.69
482.935	96.69
483.153	84.69
483.372	72.69
483.59	86.69
483.808	99.69
484.027	93.69
484.245	77.69
484.463	89.69
484.681	96.69
484.9	97.69
485.118	92.69
485.336	87.69
485.554	99.69
485.772	89.69
485.99	86.69
486.209	101.69
486.427	100.69
486.645	103.69
486.863	97.69
487.081	113.69
487.299	97.69
487.517	92.69
487.735	85.69
487.953	92.69
488.171	95.69
488.389	88.69
488.607	99.69
488.825	89.69
489.043	98.69
489.261	80.69
489.479	83.69
489.696	79.69
489.914	84.69
490.132	71.69
490.35	83.69
490.568	88.69
490.786	87.69
491.003	84.69
491.221	88.69
491.439	88.69
491.657	73.69
491.874	85.69
492.092	94.69
492.31	101.69
492.527	82.69
492.745	80.69
492.963	88.69
493.18	100.69
493.398	94.69
493.615	91.69
493.833	75.69
494.05	100.69
494.268	89.69
494.485	82.69
494.703	96.69
494.92	88.69
495.138	96.69
495.355	89.69
495.573	89.69
495.79	87.69
496.008	77.69
496.225	89.69
496.442	96.69
496.66	101.69
496.877	86.69
497.094	89.69
497.312	93.69
497.529	97.69
497.746	95.69
497.963	95.69
498.181	94.69
498.398	109.69
498.615	107.69
498.832	98.69
499.049	82.69
499.267	90.69
499.484	88.69
499.701	77.69
499.918	87.69
500.135	75.69
500.352	88.69
500.569	76.69
500.786	76.69
501.003	96.69
501.22	98.69
501.437	103.69
501.654	103.69
501.871	108.69
502.088	85.69
502.305	80.69
502.522	85.69
502.739	96.69
502.956	89.69
503.172	105.69
503.389	92.69
503.606	84.69
503.823	88.69
504.04	97.69
504.256	80.69
504.473	83.69
504.69	83.69
504.907	85.69
505.123	87.69
505.34	91.69
505.557	81.69
505.773	84.69
505.99	89.69
506.207	85.69
506.423	86.69
506.64	85.69
506.856	79.69
507.073	82.69
507.289	96.69
507.506	96.69
507.722	110.69
507.939	100.69
508.155	99.69
508.372	85.69
508.588	92.69
508.805	99.69
509.021	94.69
509.238	94.69
509.454	93.69
509.67	89.69
509.887	97.69
510.103	122.69
510.319	180.69
510.536	569.69
510.752	1792.69
510.968	516.69
511.184	127.69
511.401	109.69
511.617	111.69
511.833	106.69
512.049	90.69
512.265	96.69
512.481	90.69
512.698	88.69
512.914	87.69
513.13	97.69
513.346	93.69
513.562	100.69
513.778	88.69
513.994	92.69
514.21	98.69
514.426	105.69
514.642	121.69
514.858	110.69
515.074	147.69
515.29	320.69
515.506	1020.69
515.721	379.69
515.937	131.69
516.153	103.69
516.369	89.69
516.585	99.69
516.801	86.69
517.016	95.69
517.232	95.69
517.448	95.69
