Data from Circ_1986_H10_HRD10591_00066.txt Node
Date: Wed Jan 03 12:15:39 EST 2024
User: Yrep
Spectrometer: HR+D1059
Trigger mode: 1
Integration Time (sec): 1.000000E-1
Scans to average: 1
Electric dark correction enabled: true
Nonlinearity correction enabled: false
Boxcar width: 0
XAxis mode: Wavelengths
Number of Pixels in Spectrum: 2048
>>>>>Begin Spectral Data<<<<<
223.165	-18.62
223.4	-18.62
223.635	-18.62
223.869	-20.62
224.104	-15.62
224.338	-0.62
224.573	-16.62
224.808	-18.62
225.042	-15.62
225.277	-0.62
225.511	-5.62
225.746	-8.62
225.98	9.38
226.215	17.38
226.449	17.38
226.683	20.38
226.918	23.38
227.152	33.38
227.387	36.38
227.621	42.38
227.856	38.38
228.09	47.38
228.324	55.38
228.559	58.38
228.793	68.38
229.027	71.38
229.262	73.38
229.496	77.38
229.73	69.38
229.964	88.38
230.199	78.38
230.433	66.38
230.667	71.38
230.901	72.38
231.136	79.38
231.37	74.38
231.604	81.38
231.838	68.38
232.072	77.38
232.306	96.38
232.541	90.38
232.775	84.38
233.009	78.38
233.243	81.38
233.477	86.38
233.711	81.38
233.945	80.38
234.179	78.38
234.413	83.38
234.647	67.38
234.881	81.38
235.115	79.38
235.349	84.38
235.583	83.38
235.817	83.38
236.051	81.38
236.285	77.38
236.519	76.38
236.753	74.38
236.987	80.38
237.221	81.38
237.455	90.38
237.689	89.38
237.922	78.38
238.156	71.38
238.39	81.38
238.624	74.38
238.858	74.38
239.091	89.38
239.325	104.38
239.559	88.38
239.793	75.38
240.027	70.38
240.26	85.38
240.494	87.38
240.728	99.38
240.961	81.38
241.195	72.38
241.429	83.38
241.662	67.38
241.896	85.38
242.13	72.38
242.363	70.38
242.597	85.38
242.83	82.38
243.064	85.38
243.298	76.38
243.531	73.38
243.765	93.38
243.998	81.38
244.232	84.38
244.465	83.38
244.699	77.38
244.932	81.38
245.166	77.38
245.399	81.38
245.633	84.38
245.866	87.38
246.099	78.38
246.333	77.38
246.566	75.38
246.8	70.38
247.033	69.38
247.266	79.38
247.5	73.38
247.733	65.38
247.966	88.38
248.2	81.38
248.433	71.38
248.666	87.38
248.899	85.38
249.133	88.38
249.366	92.38
249.599	105.38
249.832	73.38
250.066	74.38
250.299	78.38
250.532	92.38
250.765	86.38
250.998	73.38
251.231	81.38
251.465	85.38
251.698	78.38
251.931	70.38
252.164	79.38
252.397	75.38
252.63	64.38
252.863	78.38
253.096	73.38
253.329	75.38
253.562	80.38
253.795	71.38
254.028	95.38
254.261	83.38
254.494	88.38
254.727	75.38
254.96	88.38
255.193	91.38
255.426	88.38
255.659	95.38
255.892	81.38
256.124	69.38
256.357	72.38
256.59	84.38
256.823	95.38
257.056	88.38
257.289	90.38
257.521	93.38
257.754	85.38
257.987	83.38
258.22	67.38
258.452	69.38
258.685	79.38
258.918	71.38
259.151	91.38
259.383	87.38
259.616	82.38
259.849	86.38
260.081	85.38
260.314	89.38
260.547	93.38
260.779	58.38
261.012	79.38
261.244	85.38
261.477	94.38
261.71	89.38
261.942	95.38
262.175	98.38
262.407	80.38
262.64	76.38
262.872	90.38
263.105	78.38
263.337	87.38
263.57	80.38
263.802	87.38
264.035	91.38
264.267	89.38
264.499	88.38
264.732	90.38
264.964	82.38
265.197	87.38
265.429	81.38
265.661	91.38
265.894	83.38
266.126	71.38
266.358	89.38
266.591	82.38
266.823	79.38
267.055	82.38
267.287	67.38
267.52	79.38
267.752	87.38
267.984	84.38
268.216	66.38
268.448	85.38
268.681	85.38
268.913	88.38
269.145	96.38
269.377	69.38
269.609	74.38
269.841	75.38
270.073	88.38
270.306	74.38
270.538	77.38
270.77	80.38
271.002	97.38
271.234	82.38
271.466	67.38
271.698	80.38
271.93	89.38
272.162	83.38
272.394	88.38
272.626	85.38
272.858	91.38
273.09	77.38
273.322	90.38
273.553	77.38
273.785	84.38
274.017	92.38
274.249	86.38
274.481	89.38
274.713	86.38
274.945	77.38
275.176	79.38
275.408	85.38
275.64	86.38
275.872	78.38
276.104	98.38
276.335	89.38
276.567	85.38
276.799	106.38
277.031	112.38
277.262	94.38
277.494	98.38
277.726	81.38
277.957	93.38
278.189	81.38
278.421	80.38
278.652	81.38
278.884	100.38
279.115	76.38
279.347	87.38
279.579	75.38
279.81	81.38
280.042	93.38
280.273	93.38
280.505	102.38
280.736	93.38
280.968	85.38
281.199	97.38
281.431	99.38
281.662	86.38
281.894	93.38
282.125	95.38
282.356	112.38
282.588	120.38
282.819	104.38
283.051	92.38
283.282	88.38
283.513	88.38
283.745	96.38
283.976	91.38
284.207	85.38
284.439	92.38
284.67	81.38
284.901	88.38
285.132	93.38
285.364	88.38
285.595	81.38
285.826	80.38
286.057	80.38
286.288	90.38
286.52	74.38
286.751	80.38
286.982	91.38
287.213	74.38
287.444	91.38
287.675	84.38
287.906	86.38
288.138	95.38
288.369	97.38
288.6	80.38
288.831	97.38
289.062	97.38
289.293	85.38
289.524	88.38
289.755	69.38
289.986	98.38
290.217	94.38
290.448	77.38
290.679	96.38
290.91	83.38
291.141	76.38
291.371	80.38
291.602	97.38
291.833	86.38
292.064	83.38
292.295	93.38
292.526	82.38
292.757	65.38
292.987	90.38
293.218	91.38
293.449	86.38
293.68	88.38
293.91	77.38
294.141	95.38
294.372	100.38
294.603	80.38
294.833	85.38
295.064	93.38
295.295	95.38
295.525	96.38
295.756	79.38
295.987	108.38
296.217	120.38
296.448	111.38
296.679	89.38
296.909	93.38
297.14	85.38
297.37	88.38
297.601	89.38
297.831	84.38
298.062	94.38
298.292	72.38
298.523	103.38
298.753	88.38
298.984	80.38
299.214	94.38
299.445	95.38
299.675	93.38
299.905	93.38
300.136	114.38
300.366	95.38
300.597	81.38
300.827	87.38
301.057	81.38
301.288	112.38
301.518	94.38
301.748	87.38
301.979	100.38
302.209	95.38
302.439	95.38
302.669	89.38
302.9	82.38
303.13	89.38
303.36	92.38
303.59	99.38
303.82	95.38
304.051	79.38
304.281	83.38
304.511	73.38
304.741	100.38
304.971	96.38
305.201	73.38
305.431	97.38
305.661	94.38
305.891	88.38
306.121	104.38
306.352	88.38
306.582	97.38
306.812	106.38
307.042	97.38
307.272	85.38
307.502	100.38
307.731	92.38
307.961	79.38
308.191	96.38
308.421	85.38
308.651	80.38
308.881	96.38
309.111	87.38
309.341	98.38
309.571	99.38
309.8	90.38
310.03	62.38
310.26	95.38
310.49	85.38
310.72	86.38
310.949	106.38
311.179	94.38
311.409	71.38
311.639	89.38
311.868	92.38
312.098	87.38
312.328	102.38
312.557	95.38
312.787	106.38
313.017	95.38
313.246	96.38
313.476	81.38
313.706	97.38
313.935	87.38
314.165	86.38
314.394	96.38
314.624	87.38
314.853	90.38
315.083	85.38
315.312	99.38
315.542	96.38
315.771	98.38
316.001	89.38
316.23	85.38
316.46	89.38
316.689	96.38
316.919	99.38
317.148	85.38
317.377	91.38
317.607	91.38
317.836	88.38
318.065	89.38
318.295	79.38
318.524	62.38
318.753	88.38
318.983	100.38
319.212	104.38
319.441	107.38
319.67	94.38
319.9	89.38
320.129	97.38
320.358	74.38
320.587	88.38
320.816	94.38
321.046	112.38
321.275	94.38
321.504	96.38
321.733	97.38
321.962	93.38
322.191	91.38
322.42	107.38
322.649	100.38
322.878	109.38
323.108	108.38
323.337	116.38
323.566	127.38
323.795	134.38
324.024	188.38
324.253	357.38
324.482	703.38
324.71	1427.38
324.939	1902.38
325.168	711.38
325.397	224.38
325.626	156.38
325.855	114.38
326.084	123.38
326.313	121.38
326.542	142.38
326.77	189.38
326.999	400.38
327.228	817.38
327.457	1481.38
327.686	1180.38
327.914	329.38
328.143	183.38
328.372	159.38
328.6	126.38
328.829	111.38
329.058	121.38
329.287	124.38
329.515	105.38
329.744	93.38
329.972	122.38
330.201	165.38
330.43	188.38
330.658	143.38
330.887	122.38
331.115	123.38
331.344	86.38
331.572	93.38
331.801	89.38
332.03	99.38
332.258	90.38
332.486	78.38
332.715	92.38
332.943	87.38
333.172	93.38
333.4	82.38
333.629	96.38
333.857	115.38
334.085	122.38
334.314	152.38
334.542	213.38
334.771	205.38
334.999	120.38
335.227	100.38
335.455	97.38
335.684	100.38
335.912	90.38
336.14	107.38
336.369	90.38
336.597	93.38
336.825	91.38
337.053	88.38
337.281	84.38
337.51	89.38
337.738	90.38
337.966	100.38
338.194	98.38
338.422	99.38
338.65	93.38
338.878	81.38
339.106	86.38
339.334	100.38
339.562	85.38
339.79	92.38
340.018	89.38
340.246	88.38
340.474	89.38
340.702	79.38
340.93	89.38
341.158	92.38
341.386	104.38
341.614	90.38
341.842	89.38
342.07	79.38
342.298	112.38
342.526	85.38
342.754	87.38
342.981	78.38
343.209	79.38
343.437	97.38
343.665	88.38
343.893	101.38
344.12	79.38
344.348	89.38
344.576	81.38
344.804	88.38
345.031	88.38
345.259	82.38
345.487	85.38
345.714	104.38
345.942	95.38
346.17	89.38
346.397	97.38
346.625	100.38
346.853	104.38
347.08	90.38
347.308	105.38
347.535	94.38
347.763	85.38
347.99	90.38
348.218	98.38
348.445	103.38
348.673	97.38
348.9	100.38
349.128	110.38
349.355	93.38
349.583	94.38
349.81	91.38
350.037	92.38
350.265	79.38
350.492	87.38
350.72	102.38
350.947	97.38
351.174	97.38
351.402	113.38
351.629	94.38
351.856	93.38
352.083	100.38
352.311	98.38
352.538	96.38
352.765	101.38
352.992	107.38
353.22	110.38
353.447	111.38
353.674	97.38
353.901	97.38
354.128	96.38
354.355	88.38
354.583	104.38
354.81	80.38
355.037	91.38
355.264	93.38
355.491	91.38
355.718	93.38
355.945	91.38
356.172	102.38
356.399	78.38
356.626	84.38
356.853	83.38
357.08	98.38
357.307	86.38
357.534	106.38
357.761	107.38
357.988	100.38
358.215	99.38
358.441	99.38
358.668	90.38
358.895	90.38
359.122	95.38
359.349	76.38
359.576	91.38
359.802	87.38
360.029	115.38
360.256	89.38
360.483	77.38
360.709	84.38
360.936	83.38
361.163	105.38
361.39	91.38
361.616	77.38
361.843	82.38
362.07	94.38
362.296	93.38
362.523	75.38
362.749	83.38
362.976	80.38
363.203	89.38
363.429	91.38
363.656	106.38
363.882	84.38
364.109	98.38
364.335	93.38
364.562	95.38
364.788	82.38
365.015	102.38
365.241	95.38
365.468	106.38
365.694	104.38
365.92	90.38
366.147	86.38
366.373	89.38
366.599	84.38
366.826	78.38
367.052	84.38
367.278	98.38
367.505	89.38
367.731	89.38
367.957	87.38
368.184	79.38
368.41	88.38
368.636	115.38
368.862	121.38
369.089	103.38
369.315	86.38
369.541	81.38
369.767	83.38
369.993	81.38
370.219	98.38
370.445	90.38
370.672	94.38
370.898	82.38
371.124	79.38
371.35	77.38
371.576	83.38
371.802	91.38
372.028	94.38
372.254	72.38
372.48	93.38
372.706	86.38
372.932	83.38
373.158	101.38
373.384	83.38
373.61	93.38
373.835	91.38
374.061	101.38
374.287	98.38
374.513	87.38
374.739	94.38
374.965	105.38
375.191	83.38
375.416	91.38
375.642	91.38
375.868	83.38
376.094	99.38
376.319	82.38
376.545	74.38
376.771	87.38
376.997	79.38
377.222	82.38
377.448	95.38
377.674	96.38
377.899	77.38
378.125	98.38
378.35	87.38
378.576	95.38
378.802	85.38
379.027	91.38
379.253	85.38
379.478	87.38
379.704	89.38
379.929	111.38
380.155	89.38
380.38	101.38
380.606	90.38
380.831	96.38
381.057	98.38
381.282	89.38
381.507	101.38
381.733	70.38
381.958	96.38
382.184	86.38
382.409	78.38
382.634	101.38
382.86	97.38
383.085	90.38
383.31	97.38
383.535	115.38
383.761	110.38
383.986	101.38
384.211	105.38
384.436	110.38
384.662	107.38
384.887	108.38
385.112	109.38
385.337	112.38
385.562	95.38
385.787	100.38
386.013	97.38
386.238	103.38
386.463	103.38
386.688	101.38
386.913	106.38
387.138	99.38
387.363	97.38
387.588	85.38
387.813	88.38
388.038	102.38
388.263	118.38
388.488	107.38
388.713	111.38
388.938	100.38
389.163	88.38
389.387	99.38
389.612	97.38
389.837	89.38
390.062	87.38
390.287	80.38
390.512	83.38
390.736	90.38
390.961	87.38
391.186	98.38
391.411	94.38
391.636	98.38
391.86	94.38
392.085	84.38
392.31	104.38
392.534	88.38
392.759	88.38
392.984	83.38
393.208	95.38
393.433	95.38
393.658	84.38
393.882	84.38
394.107	71.38
394.331	79.38
394.556	93.38
394.78	93.38
395.005	83.38
395.229	87.38
395.454	71.38
395.678	79.38
395.903	81.38
396.127	102.38
396.352	95.38
396.576	83.38
396.801	85.38
397.025	70.38
397.249	79.38
397.474	96.38
397.698	83.38
397.922	98.38
398.147	88.38
398.371	97.38
398.595	97.38
398.82	87.38
399.044	82.38
399.268	89.38
399.492	75.38
399.717	90.38
399.941	84.38
400.165	98.38
400.389	77.38
400.613	98.38
400.837	86.38
401.062	102.38
401.286	88.38
401.51	97.38
401.734	85.38
401.958	93.38
402.182	109.38
402.406	138.38
402.63	110.38
402.854	87.38
403.078	86.38
403.302	96.38
403.526	83.38
403.75	77.38
403.974	94.38
404.198	77.38
404.422	96.38
404.645	100.38
404.869	80.38
405.093	85.38
405.317	99.38
405.541	105.38
405.765	98.38
405.988	122.38
406.212	155.38
406.436	195.38
406.66	143.38
406.883	103.38
407.107	89.38
407.331	91.38
407.555	98.38
407.778	96.38
408.002	85.38
408.226	89.38
408.449	83.38
408.673	87.38
408.896	87.38
409.12	89.38
409.344	98.38
409.567	95.38
409.791	84.38
410.014	94.38
410.238	95.38
410.461	95.38
410.685	103.38
410.908	95.38
411.132	94.38
411.355	97.38
411.578	96.38
411.802	93.38
412.025	97.38
412.249	96.38
412.472	75.38
412.695	90.38
412.919	81.38
413.142	92.38
413.365	85.38
413.589	73.38
413.812	95.38
414.035	77.38
414.258	104.38
414.482	89.38
414.705	78.38
414.928	94.38
415.151	96.38
415.374	85.38
415.597	90.38
415.821	88.38
416.044	72.38
416.267	84.38
416.49	87.38
416.713	95.38
416.936	85.38
417.159	93.38
417.382	87.38
417.605	90.38
417.828	84.38
418.051	99.38
418.274	81.38
418.497	97.38
418.72	80.38
418.943	104.38
419.166	81.38
419.389	98.38
419.611	89.38
419.834	85.38
420.057	97.38
420.28	75.38
420.503	89.38
420.726	84.38
420.948	84.38
421.171	99.38
421.394	81.38
421.617	87.38
421.839	87.38
422.062	97.38
422.285	81.38
422.507	104.38
422.73	85.38
422.953	88.38
423.175	81.38
423.398	81.38
423.621	90.38
423.843	82.38
424.066	83.38
424.288	79.38
424.511	96.38
424.733	105.38
424.956	97.38
425.178	94.38
425.401	88.38
425.623	89.38
425.846	80.38
426.068	98.38
426.291	90.38
426.513	80.38
426.735	89.38
426.958	96.38
427.18	103.38
427.402	116.38
427.625	165.38
427.847	127.38
428.069	123.38
428.292	94.38
428.514	101.38
428.736	85.38
428.958	72.38
429.181	97.38
429.403	80.38
429.625	81.38
429.847	87.38
430.069	97.38
430.292	95.38
430.514	98.38
430.736	88.38
430.958	91.38
431.18	82.38
431.402	89.38
431.624	81.38
431.846	89.38
432.068	75.38
432.29	65.38
432.512	91.38
432.734	95.38
432.956	82.38
433.178	103.38
433.4	93.38
433.622	80.38
433.844	89.38
434.066	74.38
434.287	85.38
434.509	87.38
434.731	77.38
434.953	82.38
435.175	77.38
435.397	87.38
435.618	104.38
435.84	100.38
436.062	107.38
436.284	110.38
436.505	95.38
436.727	94.38
436.949	86.38
437.17	68.38
437.392	84.38
437.614	80.38
437.835	102.38
438.057	111.38
438.278	105.38
438.5	83.38
438.721	105.38
438.943	105.38
439.165	79.38
439.386	95.38
439.608	94.38
439.829	99.38
440.05	92.38
440.272	126.38
440.493	102.38
440.715	97.38
440.936	89.38
441.158	94.38
441.379	72.38
441.6	98.38
441.822	97.38
442.043	80.38
442.264	96.38
442.486	105.38
442.707	78.38
442.928	79.38
443.149	130.38
443.371	113.38
443.592	105.38
443.813	103.38
444.034	98.38
444.255	93.38
444.476	91.38
444.698	80.38
444.919	79.38
445.14	134.38
445.361	113.38
445.582	101.38
445.803	117.38
446.024	112.38
446.245	115.38
446.466	102.38
446.687	90.38
446.908	83.38
447.129	98.38
447.35	89.38
447.571	86.38
447.792	97.38
448.013	91.38
448.234	101.38
448.455	97.38
448.675	99.38
448.896	93.38
449.117	98.38
449.338	106.38
449.559	106.38
449.779	132.38
450	93.38
450.221	86.38
450.442	89.38
450.662	88.38
450.883	88.38
451.104	109.38
451.324	86.38
451.545	80.38
451.766	84.38
451.986	89.38
452.207	84.38
452.428	95.38
452.648	90.38
452.869	107.38
453.089	102.38
453.31	107.38
453.53	96.38
453.751	87.38
453.971	103.38
454.192	95.38
454.412	103.38
454.633	80.38
454.853	82.38
455.073	83.38
455.294	95.38
455.514	90.38
455.734	73.38
455.955	90.38
456.175	83.38
456.395	90.38
456.616	86.38
456.836	92.38
457.056	85.38
457.276	85.38
457.497	88.38
457.717	89.38
457.937	71.38
458.157	85.38
458.377	94.38
458.598	96.38
458.818	135.38
459.038	133.38
459.258	102.38
459.478	81.38
459.698	84.38
459.918	87.38
460.138	74.38
460.358	73.38
460.578	87.38
460.798	77.38
461.018	93.38
461.238	104.38
461.458	71.38
461.678	73.38
461.898	94.38
462.118	82.38
462.338	82.38
462.558	93.38
462.777	77.38
462.997	91.38
463.217	87.38
463.437	89.38
463.657	77.38
463.876	104.38
464.096	86.38
464.316	91.38
464.536	78.38
464.755	95.38
464.975	114.38
465.195	141.38
465.414	134.38
465.634	100.38
465.854	85.38
466.073	65.38
466.293	74.38
466.512	101.38
466.732	99.38
466.951	92.38
467.171	88.38
467.391	91.38
467.61	110.38
467.829	117.38
468.049	126.38
468.268	122.38
468.488	79.38
468.707	81.38
468.927	89.38
469.146	81.38
469.365	77.38
469.585	83.38
469.804	93.38
470.023	94.38
470.243	87.38
470.462	98.38
470.681	105.38
470.901	81.38
471.12	99.38
471.339	87.38
471.558	99.38
471.777	82.38
471.997	94.38
472.216	166.38
472.435	255.38
472.654	114.38
472.873	83.38
473.092	85.38
473.311	90.38
473.53	94.38
473.749	82.38
473.968	86.38
474.187	90.38
474.406	97.38
474.625	79.38
474.844	94.38
475.063	101.38
475.282	85.38
475.501	93.38
475.72	87.38
475.939	65.38
476.158	77.38
476.377	82.38
476.596	81.38
476.814	93.38
477.033	108.38
477.252	83.38
477.471	93.38
477.69	83.38
477.908	86.38
478.127	62.38
478.346	83.38
478.564	98.38
478.783	83.38
479.002	81.38
479.22	93.38
479.439	110.38
479.658	93.38
479.876	88.38
480.095	80.38
480.313	87.38
480.532	93.38
480.751	90.38
480.969	167.38
481.188	453.38
481.406	265.38
481.624	114.38
481.843	100.38
482.061	88.38
482.28	76.38
482.498	90.38
482.717	94.38
482.935	91.38
483.153	90.38
483.372	90.38
483.59	90.38
483.808	92.38
484.027	95.38
484.245	86.38
484.463	93.38
484.681	98.38
484.9	95.38
485.118	90.38
485.336	90.38
485.554	96.38
485.772	110.38
485.99	111.38
486.209	98.38
486.427	85.38
486.645	93.38
486.863	97.38
487.081	91.38
487.299	103.38
487.517	94.38
487.735	93.38
487.953	90.38
488.171	91.38
488.389	76.38
488.607	97.38
488.825	97.38
489.043	83.38
489.261	90.38
489.479	82.38
489.696	80.38
489.914	92.38
490.132	95.38
490.35	88.38
490.568	93.38
490.786	73.38
491.003	108.38
491.221	100.38
491.439	95.38
491.657	86.38
491.874	89.38
492.092	93.38
492.31	93.38
492.527	81.38
492.745	87.38
492.963	67.38
493.18	74.38
493.398	80.38
493.615	97.38
493.833	94.38
494.05	93.38
494.268	97.38
494.485	87.38
494.703	95.38
494.92	106.38
495.138	96.38
495.355	99.38
495.573	95.38
495.79	82.38
496.008	87.38
496.225	94.38
496.442	105.38
496.66	101.38
496.877	89.38
497.094	87.38
497.312	96.38
497.529	73.38
497.746	82.38
497.963	98.38
498.181	81.38
498.398	90.38
498.615	105.38
498.832	106.38
499.049	93.38
499.267	75.38
499.484	90.38
499.701	97.38
499.918	96.38
500.135	90.38
500.352	104.38
500.569	83.38
500.786	93.38
501.003	99.38
501.22	82.38
501.437	88.38
501.654	99.38
501.871	102.38
502.088	99.38
502.305	77.38
502.522	91.38
502.739	83.38
502.956	81.38
503.172	79.38
503.389	92.38
503.606	105.38
503.823	85.38
504.04	87.38
504.256	71.38
504.473	89.38
504.69	85.38
504.907	94.38
505.123	81.38
505.34	95.38
505.557	101.38
505.773	86.38
505.99	87.38
506.207	88.38
506.423	84.38
506.64	92.38
506.856	103.38
507.073	85.38
507.289	77.38
507.506	105.38
507.722	101.38
507.939	95.38
508.155	95.38
508.372	87.38
508.588	104.38
508.805	99.38
509.021	93.38
509.238	91.38
509.454	84.38
509.67	92.38
509.887	113.38
510.103	133.38
510.319	188.38
510.536	677.38
510.752	2027.38
510.968	545.38
511.184	149.38
511.401	118.38
511.617	95.38
511.833	86.38
512.049	84.38
512.265	95.38
512.481	97.38
512.698	90.38
512.914	79.38
513.13	91.38
513.346	81.38
513.562	97.38
513.778	97.38
513.994	102.38
514.21	86.38
514.426	112.38
514.642	133.38
514.858	123.38
515.074	155.38
515.29	391.38
515.506	1270.38
515.721	465.38
515.937	132.38
516.153	102.38
516.369	88.38
