Data from Circ_1986_H10_HRD10591_00052.txt Node
Date: Wed Jan 03 12:15:36 EST 2024
User: Yrep
Spectrometer: HR+D1059
Trigger mode: 1
Integration Time (sec): 1.000000E-1
Scans to average: 1
Electric dark correction enabled: true
Nonlinearity correction enabled: false
Boxcar width: 0
XAxis mode: Wavelengths
Number of Pixels in Spectrum: 2048
>>>>>Begin Spectral Data<<<<<
223.165	-16.25
223.4	-16.25
223.635	-16.25
223.869	-21.25
224.104	-14.25
224.338	3.75
224.573	-18.25
224.808	-6.25
225.042	-7.25
225.277	-17.25
225.511	-21.25
225.746	8.75
225.98	11.75
226.215	13.75
226.449	26.75
226.683	23.75
226.918	24.75
227.152	8.75
227.387	27.75
227.621	31.75
227.856	35.75
228.09	51.75
228.324	57.75
228.559	71.75
228.793	63.75
229.027	63.75
229.262	46.75
229.496	73.75
229.73	68.75
229.964	72.75
230.199	72.75
230.433	67.75
230.667	63.75
230.901	83.75
231.136	83.75
231.37	90.75
231.604	91.75
231.838	79.75
232.072	104.75
232.306	88.75
232.541	72.75
232.775	88.75
233.009	73.75
233.243	82.75
233.477	86.75
233.711	82.75
233.945	81.75
234.179	88.75
234.413	85.75
234.647	68.75
234.881	85.75
235.115	74.75
235.349	88.75
235.583	75.75
235.817	74.75
236.051	68.75
236.285	66.75
236.519	74.75
236.753	74.75
236.987	85.75
237.221	88.75
237.455	91.75
237.689	75.75
237.922	67.75
238.156	71.75
238.39	61.75
238.624	76.75
238.858	86.75
239.091	88.75
239.325	79.75
239.559	74.75
239.793	79.75
240.027	89.75
240.26	75.75
240.494	74.75
240.728	79.75
240.961	79.75
241.195	78.75
241.429	71.75
241.662	79.75
241.896	80.75
242.13	86.75
242.363	71.75
242.597	72.75
242.83	88.75
243.064	79.75
243.298	81.75
243.531	82.75
243.765	79.75
243.998	81.75
244.232	84.75
244.465	84.75
244.699	84.75
244.932	90.75
245.166	75.75
245.399	86.75
245.633	79.75
245.866	77.75
246.099	69.75
246.333	84.75
246.566	76.75
246.8	73.75
247.033	85.75
247.266	77.75
247.5	71.75
247.733	93.75
247.966	86.75
248.2	68.75
248.433	75.75
248.666	80.75
248.899	91.75
249.133	76.75
249.366	95.75
249.599	95.75
249.832	81.75
250.066	90.75
250.299	91.75
250.532	90.75
250.765	85.75
250.998	77.75
251.231	80.75
251.465	90.75
251.698	88.75
251.931	83.75
252.164	101.75
252.397	76.75
252.63	77.75
252.863	97.75
253.096	68.75
253.329	82.75
253.562	80.75
253.795	77.75
254.028	81.75
254.261	75.75
254.494	78.75
254.727	89.75
254.96	77.75
255.193	74.75
255.426	83.75
255.659	67.75
255.892	101.75
256.124	92.75
256.357	101.75
256.59	80.75
256.823	85.75
257.056	73.75
257.289	84.75
257.521	93.75
257.754	77.75
257.987	80.75
258.22	101.75
258.452	85.75
258.685	81.75
258.918	80.75
259.151	76.75
259.383	76.75
259.616	91.75
259.849	97.75
260.081	87.75
260.314	83.75
260.547	88.75
260.779	75.75
261.012	97.75
261.244	89.75
261.477	88.75
261.71	91.75
261.942	100.75
262.175	115.75
262.407	70.75
262.64	75.75
262.872	87.75
263.105	69.75
263.337	88.75
263.57	88.75
263.802	88.75
264.035	77.75
264.267	85.75
264.499	75.75
264.732	84.75
264.964	75.75
265.197	80.75
265.429	84.75
265.661	84.75
265.894	74.75
266.126	91.75
266.358	97.75
266.591	73.75
266.823	93.75
267.055	86.75
267.287	90.75
267.52	83.75
267.752	92.75
267.984	67.75
268.216	93.75
268.448	89.75
268.681	99.75
268.913	94.75
269.145	81.75
269.377	83.75
269.609	99.75
269.841	98.75
270.073	78.75
270.306	70.75
270.538	87.75
270.77	84.75
271.002	76.75
271.234	89.75
271.466	91.75
271.698	80.75
271.93	67.75
272.162	98.75
272.394	75.75
272.626	69.75
272.858	81.75
273.09	77.75
273.322	79.75
273.553	86.75
273.785	76.75
274.017	92.75
274.249	88.75
274.481	83.75
274.713	101.75
274.945	105.75
275.176	84.75
275.408	90.75
275.64	83.75
275.872	87.75
276.104	95.75
276.335	93.75
276.567	86.75
276.799	103.75
277.031	100.75
277.262	88.75
277.494	108.75
277.726	90.75
277.957	93.75
278.189	78.75
278.421	85.75
278.652	71.75
278.884	89.75
279.115	78.75
279.347	85.75
279.579	83.75
279.81	73.75
280.042	86.75
280.273	87.75
280.505	80.75
280.736	89.75
280.968	80.75
281.199	81.75
281.431	92.75
281.662	97.75
281.894	102.75
282.125	111.75
282.356	105.75
282.588	110.75
282.819	99.75
283.051	88.75
283.282	96.75
283.513	98.75
283.745	99.75
283.976	86.75
284.207	92.75
284.439	88.75
284.67	85.75
284.901	95.75
285.132	86.75
285.364	81.75
285.595	92.75
285.826	99.75
286.057	84.75
286.288	81.75
286.52	97.75
286.751	87.75
286.982	96.75
287.213	85.75
287.444	91.75
287.675	80.75
287.906	88.75
288.138	95.75
288.369	91.75
288.6	101.75
288.831	91.75
289.062	73.75
289.293	88.75
289.524	82.75
289.755	91.75
289.986	75.75
290.217	75.75
290.448	104.75
290.679	80.75
290.91	81.75
291.141	83.75
291.371	98.75
291.602	105.75
291.833	89.75
292.064	83.75
292.295	91.75
292.526	95.75
292.757	93.75
292.987	97.75
293.218	76.75
293.449	97.75
293.68	81.75
293.91	80.75
294.141	82.75
294.372	86.75
294.603	108.75
294.833	72.75
295.064	84.75
295.295	85.75
295.525	83.75
295.756	101.75
295.987	108.75
296.217	101.75
296.448	122.75
296.679	81.75
296.909	85.75
297.14	92.75
297.37	90.75
297.601	89.75
297.831	86.75
298.062	92.75
298.292	84.75
298.523	87.75
298.753	92.75
298.984	97.75
299.214	88.75
299.445	103.75
299.675	81.75
299.905	81.75
300.136	90.75
300.366	87.75
300.597	98.75
300.827	84.75
301.057	108.75
301.288	103.75
301.518	90.75
301.748	95.75
301.979	103.75
302.209	100.75
302.439	100.75
302.669	94.75
302.9	85.75
303.13	103.75
303.36	94.75
303.59	101.75
303.82	101.75
304.051	97.75
304.281	97.75
304.511	90.75
304.741	90.75
304.971	100.75
305.201	92.75
305.431	100.75
305.661	84.75
305.891	93.75
306.121	82.75
306.352	104.75
306.582	85.75
306.812	99.75
307.042	83.75
307.272	88.75
307.502	95.75
307.731	96.75
307.961	95.75
308.191	95.75
308.421	86.75
308.651	95.75
308.881	88.75
309.111	93.75
309.341	88.75
309.571	101.75
309.8	84.75
310.03	93.75
310.26	101.75
310.49	99.75
310.72	109.75
310.949	93.75
311.179	108.75
311.409	99.75
311.639	95.75
311.868	87.75
312.098	84.75
312.328	84.75
312.557	102.75
312.787	96.75
313.017	90.75
313.246	92.75
313.476	99.75
313.706	94.75
313.935	86.75
314.165	96.75
314.394	93.75
314.624	97.75
314.853	89.75
315.083	91.75
315.312	88.75
315.542	77.75
315.771	87.75
316.001	92.75
316.23	88.75
316.46	88.75
316.689	89.75
316.919	91.75
317.148	111.75
317.377	95.75
317.607	107.75
317.836	95.75
318.065	90.75
318.295	91.75
318.524	83.75
318.753	99.75
318.983	92.75
319.212	106.75
319.441	98.75
319.67	93.75
319.9	100.75
320.129	87.75
320.358	86.75
320.587	106.75
320.816	106.75
321.046	95.75
321.275	89.75
321.504	69.75
321.733	91.75
321.962	93.75
322.191	76.75
322.42	101.75
322.649	88.75
322.878	112.75
323.108	113.75
323.337	99.75
323.566	114.75
323.795	145.75
324.024	157.75
324.253	310.75
324.482	633.75
324.71	1251.75
324.939	1650.75
325.168	619.75
325.397	200.75
325.626	124.75
325.855	112.75
326.084	116.75
326.313	127.75
326.542	132.75
326.77	185.75
326.999	359.75
327.228	737.75
327.457	1273.75
327.686	1057.75
327.914	303.75
328.143	177.75
328.372	148.75
328.6	121.75
328.829	118.75
329.058	111.75
329.287	112.75
329.515	98.75
329.744	110.75
329.972	108.75
330.201	149.75
330.43	146.75
330.658	135.75
330.887	125.75
331.115	114.75
331.344	99.75
331.572	101.75
331.801	105.75
332.03	97.75
332.258	100.75
332.486	100.75
332.715	96.75
332.943	89.75
333.172	99.75
333.4	114.75
333.629	116.75
333.857	127.75
334.085	112.75
334.314	129.75
334.542	183.75
334.771	180.75
334.999	91.75
335.227	99.75
335.455	87.75
335.684	99.75
335.912	91.75
336.14	98.75
336.369	104.75
336.597	87.75
336.825	109.75
337.053	94.75
337.281	97.75
337.51	86.75
337.738	109.75
337.966	84.75
338.194	75.75
338.422	91.75
338.65	99.75
338.878	88.75
339.106	97.75
339.334	93.75
339.562	84.75
339.79	88.75
340.018	96.75
340.246	94.75
340.474	84.75
340.702	83.75
340.93	89.75
341.158	87.75
341.386	88.75
341.614	103.75
341.842	99.75
342.07	85.75
342.298	88.75
342.526	84.75
342.754	92.75
342.981	87.75
343.209	83.75
343.437	101.75
343.665	79.75
343.893	91.75
344.12	90.75
344.348	82.75
344.576	89.75
344.804	91.75
345.031	88.75
345.259	95.75
345.487	90.75
345.714	79.75
345.942	104.75
346.17	98.75
346.397	100.75
346.625	111.75
346.853	83.75
347.08	90.75
347.308	87.75
347.535	102.75
347.763	97.75
347.99	96.75
348.218	99.75
348.445	119.75
348.673	98.75
348.9	90.75
349.128	88.75
349.355	77.75
349.583	85.75
349.81	94.75
350.037	94.75
350.265	83.75
350.492	90.75
350.72	98.75
350.947	109.75
351.174	105.75
351.402	100.75
351.629	108.75
351.856	93.75
352.083	92.75
352.311	113.75
352.538	98.75
352.765	103.75
352.992	108.75
353.22	108.75
353.447	109.75
353.674	99.75
353.901	89.75
354.128	91.75
354.355	85.75
354.583	92.75
354.81	96.75
355.037	107.75
355.264	98.75
355.491	95.75
355.718	94.75
355.945	97.75
356.172	98.75
356.399	91.75
356.626	101.75
356.853	90.75
357.08	92.75
357.307	85.75
357.534	99.75
357.761	110.75
357.988	84.75
358.215	92.75
358.441	93.75
358.668	87.75
358.895	92.75
359.122	99.75
359.349	97.75
359.576	89.75
359.802	109.75
360.029	105.75
360.256	92.75
360.483	100.75
360.709	93.75
360.936	97.75
361.163	91.75
361.39	72.75
361.616	92.75
361.843	89.75
362.07	101.75
362.296	99.75
362.523	77.75
362.749	85.75
362.976	99.75
363.203	90.75
363.429	98.75
363.656	110.75
363.882	94.75
364.109	108.75
364.335	92.75
364.562	92.75
364.788	98.75
365.015	95.75
365.241	93.75
365.468	108.75
365.694	104.75
365.92	88.75
366.147	90.75
366.373	93.75
366.599	95.75
366.826	94.75
367.052	84.75
367.278	91.75
367.505	96.75
367.731	87.75
367.957	95.75
368.184	73.75
368.41	95.75
368.636	105.75
368.862	122.75
369.089	94.75
369.315	104.75
369.541	100.75
369.767	91.75
369.993	94.75
370.219	95.75
370.445	90.75
370.672	88.75
370.898	91.75
371.124	93.75
371.35	96.75
371.576	90.75
371.802	83.75
372.028	82.75
372.254	96.75
372.48	98.75
372.706	100.75
372.932	95.75
373.158	93.75
373.384	88.75
373.61	86.75
373.835	69.75
374.061	89.75
374.287	107.75
374.513	97.75
374.739	99.75
374.965	89.75
375.191	99.75
375.416	95.75
375.642	96.75
375.868	84.75
376.094	84.75
376.319	91.75
376.545	109.75
376.771	107.75
376.997	88.75
377.222	84.75
377.448	89.75
377.674	76.75
377.899	102.75
378.125	90.75
378.35	95.75
378.576	92.75
378.802	99.75
379.027	77.75
379.253	72.75
379.478	100.75
379.704	75.75
379.929	72.75
380.155	109.75
380.38	92.75
380.606	108.75
380.831	97.75
381.057	98.75
381.282	99.75
381.507	90.75
381.733	97.75
381.958	90.75
382.184	98.75
382.409	102.75
382.634	93.75
382.86	96.75
383.085	87.75
383.31	99.75
383.535	107.75
383.761	89.75
383.986	92.75
384.211	89.75
384.436	73.75
384.662	90.75
384.887	109.75
385.112	93.75
385.337	107.75
385.562	104.75
385.787	108.75
386.013	109.75
386.238	113.75
386.463	113.75
386.688	102.75
386.913	111.75
387.138	99.75
387.363	98.75
387.588	101.75
387.813	102.75
388.038	111.75
388.263	104.75
388.488	114.75
388.713	91.75
388.938	105.75
389.163	90.75
389.387	89.75
389.612	99.75
389.837	83.75
390.062	98.75
390.287	102.75
390.512	107.75
390.736	97.75
390.961	95.75
391.186	101.75
391.411	90.75
391.636	93.75
391.86	94.75
392.085	100.75
392.31	87.75
392.534	74.75
392.759	84.75
392.984	100.75
393.208	106.75
393.433	88.75
393.658	100.75
393.882	73.75
394.107	98.75
394.331	87.75
394.556	85.75
394.78	92.75
395.005	103.75
395.229	81.75
395.454	96.75
395.678	83.75
395.903	83.75
396.127	87.75
396.352	87.75
396.576	97.75
396.801	77.75
397.025	86.75
397.249	101.75
397.474	85.75
397.698	99.75
397.922	88.75
398.147	81.75
398.371	88.75
398.595	93.75
398.82	89.75
399.044	93.75
399.268	76.75
399.492	95.75
399.717	83.75
399.941	88.75
400.165	96.75
400.389	84.75
400.613	89.75
400.837	79.75
401.062	92.75
401.286	90.75
401.51	104.75
401.734	91.75
401.958	97.75
402.182	117.75
402.406	136.75
402.63	106.75
402.854	79.75
403.078	99.75
403.302	80.75
403.526	93.75
403.75	80.75
403.974	85.75
404.198	87.75
404.422	92.75
404.645	92.75
404.869	93.75
405.093	100.75
405.317	103.75
405.541	97.75
405.765	95.75
405.988	107.75
406.212	146.75
406.436	158.75
406.66	127.75
406.883	90.75
407.107	92.75
407.331	92.75
407.555	101.75
407.778	100.75
408.002	95.75
408.226	83.75
408.449	79.75
408.673	88.75
408.896	111.75
409.12	94.75
409.344	84.75
409.567	83.75
409.791	96.75
410.014	82.75
410.238	106.75
410.461	85.75
410.685	97.75
410.908	92.75
411.132	105.75
411.355	102.75
411.578	85.75
411.802	90.75
412.025	85.75
412.249	97.75
412.472	97.75
412.695	102.75
412.919	79.75
413.142	87.75
413.365	93.75
413.589	90.75
413.812	91.75
414.035	95.75
414.258	94.75
414.482	89.75
414.705	85.75
414.928	98.75
415.151	84.75
415.374	112.75
415.597	101.75
415.821	89.75
416.044	101.75
416.267	83.75
416.49	96.75
416.713	86.75
416.936	102.75
417.159	82.75
417.382	91.75
417.605	91.75
417.828	101.75
418.051	96.75
418.274	80.75
418.497	82.75
418.72	99.75
418.943	84.75
419.166	80.75
419.389	95.75
419.611	95.75
419.834	90.75
420.057	87.75
420.28	95.75
420.503	84.75
420.726	94.75
420.948	92.75
421.171	103.75
421.394	88.75
421.617	90.75
421.839	81.75
422.062	77.75
422.285	99.75
422.507	91.75
422.73	74.75
422.953	83.75
423.175	93.75
423.398	93.75
423.621	91.75
423.843	100.75
424.066	103.75
424.288	107.75
424.511	90.75
424.733	88.75
424.956	97.75
425.178	97.75
425.401	99.75
425.623	95.75
425.846	103.75
426.068	75.75
426.291	96.75
426.513	94.75
426.735	97.75
426.958	89.75
427.18	95.75
427.402	108.75
427.625	129.75
427.847	115.75
428.069	104.75
428.292	88.75
428.514	82.75
428.736	86.75
428.958	83.75
429.181	76.75
429.403	82.75
429.625	94.75
429.847	93.75
430.069	99.75
430.292	87.75
430.514	71.75
430.736	91.75
430.958	82.75
431.18	78.75
431.402	95.75
431.624	90.75
431.846	87.75
432.068	85.75
432.29	81.75
432.512	93.75
432.734	80.75
432.956	91.75
433.178	109.75
433.4	97.75
433.622	66.75
433.844	92.75
434.066	98.75
434.287	100.75
434.509	81.75
434.731	91.75
434.953	66.75
435.175	87.75
435.397	87.75
435.618	79.75
435.84	83.75
436.062	119.75
436.284	107.75
436.505	81.75
436.727	94.75
436.949	92.75
437.17	93.75
437.392	88.75
437.614	104.75
437.835	100.75
438.057	104.75
438.278	117.75
438.5	112.75
438.721	109.75
438.943	94.75
439.165	85.75
439.386	91.75
439.608	92.75
439.829	77.75
440.05	113.75
440.272	119.75
440.493	93.75
440.715	75.75
440.936	84.75
441.158	91.75
441.379	99.75
441.6	90.75
441.822	99.75
442.043	80.75
442.264	91.75
442.486	87.75
442.707	93.75
442.928	99.75
443.149	121.75
443.371	117.75
443.592	96.75
443.813	104.75
444.034	98.75
444.255	77.75
444.476	84.75
444.698	89.75
444.919	89.75
445.14	137.75
445.361	109.75
445.582	103.75
445.803	104.75
446.024	116.75
446.245	115.75
446.466	86.75
446.687	103.75
446.908	95.75
447.129	99.75
447.35	85.75
447.571	91.75
447.792	93.75
448.013	96.75
448.234	88.75
448.455	91.75
448.675	106.75
448.896	112.75
449.117	87.75
449.338	104.75
449.559	111.75
449.779	124.75
450	99.75
450.221	91.75
450.442	90.75
450.662	95.75
450.883	98.75
451.104	87.75
451.324	92.75
451.545	96.75
451.766	91.75
451.986	84.75
452.207	91.75
452.428	81.75
452.648	101.75
452.869	116.75
453.089	104.75
453.31	99.75
453.53	103.75
453.751	99.75
453.971	99.75
454.192	100.75
454.412	92.75
454.633	98.75
454.853	96.75
455.073	91.75
455.294	92.75
455.514	88.75
455.734	77.75
455.955	88.75
456.175	89.75
456.395	84.75
456.616	90.75
456.836	75.75
457.056	84.75
457.276	74.75
457.497	88.75
457.717	79.75
457.937	90.75
458.157	67.75
458.377	93.75
458.598	103.75
458.818	122.75
459.038	103.75
459.258	97.75
459.478	80.75
459.698	97.75
459.918	83.75
460.138	89.75
460.358	89.75
460.578	82.75
460.798	85.75
461.018	87.75
461.238	89.75
461.458	88.75
461.678	84.75
461.898	80.75
462.118	86.75
462.338	101.75
462.558	93.75
462.777	73.75
462.997	89.75
463.217	80.75
463.437	85.75
463.657	95.75
463.876	84.75
464.096	81.75
464.316	87.75
464.536	94.75
464.755	92.75
464.975	92.75
465.195	124.75
465.414	132.75
465.634	73.75
465.854	96.75
466.073	85.75
466.293	100.75
466.512	92.75
466.732	80.75
466.951	86.75
467.171	83.75
467.391	95.75
467.61	86.75
467.829	98.75
468.049	116.75
468.268	127.75
468.488	101.75
468.707	92.75
468.927	80.75
469.146	82.75
469.365	81.75
469.585	85.75
469.804	90.75
470.023	91.75
470.243	98.75
470.462	88.75
470.681	85.75
470.901	90.75
471.12	86.75
471.339	96.75
471.558	85.75
471.777	81.75
471.997	107.75
472.216	145.75
472.435	184.75
472.654	100.75
472.873	89.75
473.092	95.75
473.311	101.75
473.53	82.75
473.749	98.75
473.968	97.75
474.187	100.75
474.406	99.75
474.625	88.75
474.844	83.75
475.063	86.75
475.282	95.75
475.501	93.75
475.72	91.75
475.939	86.75
476.158	91.75
476.377	88.75
476.596	97.75
476.814	89.75
477.033	88.75
477.252	78.75
477.471	91.75
477.69	87.75
477.908	89.75
478.127	88.75
478.346	85.75
478.564	96.75
478.783	97.75
479.002	89.75
479.22	91.75
479.439	101.75
479.658	87.75
479.876	83.75
480.095	83.75
480.313	90.75
480.532	86.75
480.751	100.75
480.969	134.75
481.188	305.75
481.406	214.75
481.624	109.75
481.843	92.75
482.061	91.75
482.28	97.75
482.498	92.75
482.717	77.75
482.935	90.75
483.153	69.75
483.372	87.75
483.59	102.75
483.808	84.75
484.027	95.75
484.245	80.75
484.463	100.75
484.681	98.75
484.9	90.75
485.118	85.75
485.336	89.75
485.554	98.75
485.772	98.75
485.99	104.75
486.209	93.75
486.427	87.75
486.645	100.75
486.863	92.75
487.081	94.75
487.299	119.75
487.517	88.75
487.735	93.75
487.953	96.75
488.171	96.75
488.389	86.75
488.607	92.75
488.825	90.75
489.043	88.75
489.261	99.75
489.479	100.75
489.696	87.75
489.914	82.75
490.132	83.75
490.35	93.75
490.568	98.75
490.786	101.75
491.003	89.75
491.221	93.75
491.439	95.75
491.657	87.75
491.874	94.75
492.092	95.75
492.31	90.75
492.527	92.75
492.745	88.75
492.963	97.75
493.18	101.75
493.398	95.75
493.615	94.75
493.833	88.75
494.05	85.75
494.268	95.75
494.485	89.75
494.703	80.75
494.92	93.75
495.138	95.75
495.355	93.75
495.573	85.75
495.79	93.75
496.008	101.75
496.225	97.75
496.442	100.75
496.66	97.75
496.877	89.75
497.094	103.75
497.312	83.75
497.529	104.75
497.746	84.75
497.963	90.75
498.181	84.75
498.398	89.75
498.615	115.75
498.832	105.75
499.049	74.75
499.267	95.75
499.484	93.75
499.701	85.75
499.918	81.75
500.135	80.75
500.352	89.75
500.569	82.75
500.786	83.75
501.003	96.75
501.22	94.75
501.437	90.75
501.654	87.75
501.871	114.75
502.088	93.75
502.305	103.75
502.522	100.75
502.739	92.75
502.956	95.75
503.172	79.75
503.389	99.75
503.606	112.75
503.823	109.75
504.04	96.75
504.256	88.75
504.473	83.75
504.69	103.75
504.907	95.75
505.123	99.75
505.34	91.75
505.557	76.75
505.773	72.75
505.99	85.75
506.207	95.75
506.423	90.75
506.64	77.75
506.856	83.75
507.073	97.75
507.289	97.75
507.506	89.75
507.722	105.75
507.939	90.75
508.155	91.75
508.372	91.75
508.588	103.75
508.805	97.75
509.021	98.75
509.238	96.75
509.454	95.75
509.67	86.75
509.887	106.75
510.103	121.75
510.319	183.75
510.536	569.75
510.752	1683.75
510.968	489.75
511.184	128.75
511.401	105.75
511.617	91.75
511.833	92.75
512.049	92.75
512.265	84.75
512.481	97.75
512.698	85.75
512.914	81.75
513.13	87.75
513.346	99.75
513.562	103.75
513.778	96.75
513.994	88.75
514.21	105.75
514.426	125.75
514.642	125.75
514.858	120.75
515.074	148.75
515.29	349.75
515.506	975.75
515.721	382.75
515.937	128.75
