Data from Circ_1986_H10_HRD10591_00050.txt Node
Date: Wed Jan 03 12:15:36 EST 2024
User: Yrep
Spectrometer: HR+D1059
Trigger mode: 1
Integration Time (sec): 1.000000E-1
Scans to average: 1
Electric dark correction enabled: true
Nonlinearity correction enabled: false
Boxcar width: 0
XAxis mode: Wavelengths
Number of Pixels in Spectrum: 2048
>>>>>Begin Spectral Data<<<<<
223.165	-10.38
223.4	-10.38
223.635	-10.38
223.869	-21.38
224.104	-5.38
224.338	-20.38
224.573	-22.38
224.808	-11.38
225.042	-3.38
225.277	-6.38
225.511	-8.38
225.746	11.62
225.98	6.62
226.215	20.62
226.449	6.62
226.683	9.62
226.918	31.62
227.152	22.62
227.387	36.62
227.621	39.62
227.856	48.62
228.09	41.62
228.324	51.62
228.559	59.62
228.793	64.62
229.027	44.62
229.262	63.62
229.496	74.62
229.73	89.62
229.964	76.62
230.199	82.62
230.433	88.62
230.667	80.62
230.901	92.62
231.136	86.62
231.37	66.62
231.604	89.62
231.838	76.62
232.072	87.62
232.306	75.62
232.541	72.62
232.775	74.62
233.009	74.62
233.243	86.62
233.477	72.62
233.711	79.62
233.945	95.62
234.179	94.62
234.413	87.62
234.647	78.62
234.881	90.62
235.115	75.62
235.349	79.62
235.583	73.62
235.817	88.62
236.051	84.62
236.285	73.62
236.519	74.62
236.753	92.62
236.987	80.62
237.221	80.62
237.455	90.62
237.689	86.62
237.922	78.62
238.156	87.62
238.39	74.62
238.624	74.62
238.858	84.62
239.091	75.62
239.325	84.62
239.559	101.62
239.793	82.62
240.027	82.62
240.26	74.62
240.494	73.62
240.728	75.62
240.961	72.62
241.195	75.62
241.429	76.62
241.662	82.62
241.896	65.62
242.13	73.62
242.363	70.62
242.597	71.62
242.83	86.62
243.064	74.62
243.298	76.62
243.531	89.62
243.765	80.62
243.998	81.62
244.232	72.62
244.465	78.62
244.699	86.62
244.932	89.62
245.166	74.62
245.399	94.62
245.633	87.62
245.866	73.62
246.099	71.62
246.333	84.62
246.566	72.62
246.8	78.62
247.033	75.62
247.266	65.62
247.5	70.62
247.733	70.62
247.966	74.62
248.2	81.62
248.433	84.62
248.666	91.62
248.899	90.62
249.133	96.62
249.366	88.62
249.599	90.62
249.832	73.62
250.066	80.62
250.299	70.62
250.532	85.62
250.765	74.62
250.998	74.62
251.231	69.62
251.465	76.62
251.698	76.62
251.931	66.62
252.164	74.62
252.397	74.62
252.63	79.62
252.863	84.62
253.096	94.62
253.329	85.62
253.562	73.62
253.795	86.62
254.028	79.62
254.261	95.62
254.494	82.62
254.727	87.62
254.96	82.62
255.193	82.62
255.426	80.62
255.659	91.62
255.892	87.62
256.124	79.62
256.357	69.62
256.59	78.62
256.823	87.62
257.056	88.62
257.289	85.62
257.521	88.62
257.754	67.62
257.987	74.62
258.22	81.62
258.452	70.62
258.685	85.62
258.918	83.62
259.151	86.62
259.383	81.62
259.616	83.62
259.849	84.62
260.081	88.62
260.314	87.62
260.547	93.62
260.779	80.62
261.012	98.62
261.244	88.62
261.477	76.62
261.71	89.62
261.942	101.62
262.175	111.62
262.407	87.62
262.64	83.62
262.872	88.62
263.105	64.62
263.337	66.62
263.57	89.62
263.802	68.62
264.035	76.62
264.267	81.62
264.499	91.62
264.732	88.62
264.964	78.62
265.197	97.62
265.429	87.62
265.661	70.62
265.894	100.62
266.126	73.62
266.358	75.62
266.591	74.62
266.823	84.62
267.055	90.62
267.287	91.62
267.52	82.62
267.752	83.62
267.984	95.62
268.216	81.62
268.448	83.62
268.681	82.62
268.913	79.62
269.145	78.62
269.377	90.62
269.609	91.62
269.841	71.62
270.073	92.62
270.306	86.62
270.538	91.62
270.77	82.62
271.002	80.62
271.234	88.62
271.466	79.62
271.698	86.62
271.93	85.62
272.162	94.62
272.394	98.62
272.626	69.62
272.858	89.62
273.09	84.62
273.322	87.62
273.553	89.62
273.785	92.62
274.017	92.62
274.249	97.62
274.481	88.62
274.713	74.62
274.945	85.62
275.176	94.62
275.408	92.62
275.64	86.62
275.872	100.62
276.104	79.62
276.335	87.62
276.567	95.62
276.799	99.62
277.031	98.62
277.262	95.62
277.494	86.62
277.726	80.62
277.957	74.62
278.189	63.62
278.421	86.62
278.652	81.62
278.884	73.62
279.115	72.62
279.347	92.62
279.579	90.62
279.81	71.62
280.042	84.62
280.273	81.62
280.505	81.62
280.736	79.62
280.968	73.62
281.199	82.62
281.431	87.62
281.662	86.62
281.894	85.62
282.125	92.62
282.356	106.62
282.588	115.62
282.819	109.62
283.051	91.62
283.282	86.62
283.513	96.62
283.745	95.62
283.976	88.62
284.207	76.62
284.439	91.62
284.67	91.62
284.901	80.62
285.132	79.62
285.364	97.62
285.595	98.62
285.826	90.62
286.057	60.62
286.288	80.62
286.52	82.62
286.751	94.62
286.982	94.62
287.213	81.62
287.444	91.62
287.675	100.62
287.906	96.62
288.138	92.62
288.369	83.62
288.6	105.62
288.831	76.62
289.062	85.62
289.293	96.62
289.524	80.62
289.755	89.62
289.986	80.62
290.217	79.62
290.448	85.62
290.679	70.62
290.91	94.62
291.141	92.62
291.371	87.62
291.602	88.62
291.833	80.62
292.064	92.62
292.295	88.62
292.526	90.62
292.757	87.62
292.987	102.62
293.218	97.62
293.449	95.62
293.68	88.62
293.91	84.62
294.141	83.62
294.372	86.62
294.603	82.62
294.833	87.62
295.064	79.62
295.295	88.62
295.525	91.62
295.756	103.62
295.987	112.62
296.217	126.62
296.448	106.62
296.679	80.62
296.909	84.62
297.14	83.62
297.37	102.62
297.601	86.62
297.831	87.62
298.062	83.62
298.292	91.62
298.523	88.62
298.753	90.62
298.984	81.62
299.214	84.62
299.445	81.62
299.675	85.62
299.905	93.62
300.136	102.62
300.366	76.62
300.597	87.62
300.827	98.62
301.057	110.62
301.288	102.62
301.518	87.62
301.748	85.62
301.979	103.62
302.209	88.62
302.439	80.62
302.669	82.62
302.9	80.62
303.13	98.62
303.36	96.62
303.59	90.62
303.82	106.62
304.051	105.62
304.281	101.62
304.511	109.62
304.741	90.62
304.971	94.62
305.201	88.62
305.431	75.62
305.661	82.62
305.891	92.62
306.121	94.62
306.352	108.62
306.582	111.62
306.812	79.62
307.042	83.62
307.272	90.62
307.502	94.62
307.731	79.62
307.961	96.62
308.191	96.62
308.421	90.62
308.651	101.62
308.881	89.62
309.111	91.62
309.341	101.62
309.571	94.62
309.8	80.62
310.03	72.62
310.26	86.62
310.49	85.62
310.72	95.62
310.949	98.62
311.179	105.62
311.409	84.62
311.639	97.62
311.868	87.62
312.098	98.62
312.328	92.62
312.557	104.62
312.787	109.62
313.017	102.62
313.246	80.62
313.476	78.62
313.706	86.62
313.935	95.62
314.165	92.62
314.394	103.62
314.624	98.62
314.853	97.62
315.083	90.62
315.312	103.62
315.542	95.62
315.771	83.62
316.001	80.62
316.23	84.62
316.46	91.62
316.689	95.62
316.919	79.62
317.148	80.62
317.377	90.62
317.607	99.62
317.836	102.62
318.065	76.62
318.295	98.62
318.524	84.62
318.753	95.62
318.983	93.62
319.212	110.62
319.441	115.62
319.67	102.62
319.9	94.62
320.129	102.62
320.358	91.62
320.587	84.62
320.816	88.62
321.046	105.62
321.275	109.62
321.504	106.62
321.733	102.62
321.962	94.62
322.191	98.62
322.42	98.62
322.649	96.62
322.878	109.62
323.108	103.62
323.337	114.62
323.566	143.62
323.795	128.62
324.024	169.62
324.253	342.62
324.482	656.62
324.71	1337.62
324.939	1778.62
325.168	659.62
325.397	214.62
325.626	130.62
325.855	127.62
326.084	119.62
326.313	110.62
326.542	131.62
326.77	206.62
326.999	378.62
327.228	781.62
327.457	1419.62
327.686	1098.62
327.914	336.62
328.143	196.62
328.372	159.62
328.6	107.62
328.829	106.62
329.058	117.62
329.287	114.62
329.515	101.62
329.744	102.62
329.972	124.62
330.201	138.62
330.43	158.62
330.658	135.62
330.887	121.62
331.115	105.62
331.344	98.62
331.572	104.62
331.801	99.62
332.03	96.62
332.258	98.62
332.486	92.62
332.715	109.62
332.943	95.62
333.172	98.62
333.4	106.62
333.629	118.62
333.857	118.62
334.085	127.62
334.314	151.62
334.542	176.62
334.771	172.62
334.999	117.62
335.227	94.62
335.455	94.62
335.684	84.62
335.912	95.62
336.14	94.62
336.369	104.62
336.597	96.62
336.825	97.62
337.053	83.62
337.281	90.62
337.51	104.62
337.738	98.62
337.966	104.62
338.194	93.62
338.422	91.62
338.65	90.62
338.878	81.62
339.106	92.62
339.334	98.62
339.562	85.62
339.79	90.62
340.018	91.62
340.246	103.62
340.474	93.62
340.702	94.62
340.93	103.62
341.158	95.62
341.386	104.62
341.614	99.62
341.842	87.62
342.07	93.62
342.298	78.62
342.526	96.62
342.754	95.62
342.981	79.62
343.209	96.62
343.437	108.62
343.665	82.62
343.893	88.62
344.12	99.62
344.348	102.62
344.576	82.62
344.804	86.62
345.031	94.62
345.259	91.62
345.487	90.62
345.714	88.62
345.942	90.62
346.17	82.62
346.397	83.62
346.625	84.62
346.853	83.62
347.08	90.62
347.308	102.62
347.535	93.62
347.763	98.62
347.99	92.62
348.218	103.62
348.445	92.62
348.673	88.62
348.9	89.62
349.128	97.62
349.355	100.62
349.583	92.62
349.81	89.62
350.037	88.62
350.265	88.62
350.492	108.62
350.72	98.62
350.947	97.62
351.174	100.62
351.402	91.62
351.629	102.62
351.856	106.62
352.083	86.62
352.311	102.62
352.538	104.62
352.765	76.62
352.992	111.62
353.22	106.62
353.447	104.62
353.674	94.62
353.901	97.62
354.128	89.62
354.355	107.62
354.583	88.62
354.81	91.62
355.037	106.62
355.264	98.62
355.491	70.62
355.718	100.62
355.945	79.62
356.172	98.62
356.399	97.62
356.626	98.62
356.853	92.62
357.08	89.62
357.307	93.62
357.534	84.62
357.761	98.62
357.988	106.62
358.215	92.62
358.441	90.62
358.668	78.62
358.895	81.62
359.122	96.62
359.349	105.62
359.576	91.62
359.802	98.62
360.029	103.62
360.256	106.62
360.483	98.62
360.709	88.62
360.936	87.62
361.163	90.62
361.39	81.62
361.616	95.62
361.843	88.62
362.07	80.62
362.296	90.62
362.523	96.62
362.749	87.62
362.976	71.62
363.203	99.62
363.429	82.62
363.656	99.62
363.882	92.62
364.109	95.62
364.335	83.62
364.562	95.62
364.788	80.62
365.015	82.62
365.241	89.62
365.468	95.62
365.694	107.62
365.92	86.62
366.147	106.62
366.373	96.62
366.599	101.62
366.826	106.62
367.052	84.62
367.278	87.62
367.505	97.62
367.731	86.62
367.957	85.62
368.184	99.62
368.41	97.62
368.636	108.62
368.862	118.62
369.089	111.62
369.315	79.62
369.541	91.62
369.767	79.62
369.993	100.62
370.219	97.62
370.445	86.62
370.672	83.62
370.898	98.62
371.124	90.62
371.35	82.62
371.576	80.62
371.802	89.62
372.028	88.62
372.254	86.62
372.48	89.62
372.706	83.62
372.932	80.62
373.158	96.62
373.384	89.62
373.61	99.62
373.835	75.62
374.061	73.62
374.287	92.62
374.513	80.62
374.739	71.62
374.965	87.62
375.191	82.62
375.416	73.62
375.642	82.62
375.868	88.62
376.094	104.62
376.319	86.62
376.545	91.62
376.771	96.62
376.997	98.62
377.222	97.62
377.448	90.62
377.674	107.62
377.899	91.62
378.125	79.62
378.35	98.62
378.576	74.62
378.802	78.62
379.027	82.62
379.253	96.62
379.478	107.62
379.704	83.62
379.929	102.62
380.155	90.62
380.38	94.62
380.606	92.62
380.831	90.62
381.057	100.62
381.282	94.62
381.507	91.62
381.733	100.62
381.958	97.62
382.184	113.62
382.409	101.62
382.634	100.62
382.86	91.62
383.085	101.62
383.31	101.62
383.535	112.62
383.761	98.62
383.986	111.62
384.211	95.62
384.436	97.62
384.662	103.62
384.887	102.62
385.112	118.62
385.337	88.62
385.562	94.62
385.787	94.62
386.013	111.62
386.238	121.62
386.463	101.62
386.688	115.62
386.913	85.62
387.138	118.62
387.363	105.62
387.588	98.62
387.813	112.62
388.038	106.62
388.263	116.62
388.488	107.62
388.713	91.62
388.938	111.62
389.163	101.62
389.387	99.62
389.612	87.62
389.837	84.62
390.062	93.62
390.287	99.62
390.512	82.62
390.736	71.62
390.961	82.62
391.186	102.62
391.411	90.62
391.636	75.62
391.86	80.62
392.085	78.62
392.31	79.62
392.534	90.62
392.759	88.62
392.984	95.62
393.208	96.62
393.433	83.62
393.658	92.62
393.882	70.62
394.107	77.62
394.331	75.62
394.556	76.62
394.78	88.62
395.005	89.62
395.229	84.62
395.454	92.62
395.678	95.62
395.903	93.62
396.127	95.62
396.352	91.62
396.576	64.62
396.801	75.62
397.025	71.62
397.249	92.62
397.474	82.62
397.698	82.62
397.922	89.62
398.147	89.62
398.371	79.62
398.595	84.62
398.82	102.62
399.044	74.62
399.268	85.62
399.492	93.62
399.717	83.62
399.941	75.62
400.165	87.62
400.389	70.62
400.613	80.62
400.837	86.62
401.062	94.62
401.286	79.62
401.51	86.62
401.734	98.62
401.958	97.62
402.182	105.62
402.406	128.62
402.63	106.62
402.854	87.62
403.078	60.62
403.302	90.62
403.526	92.62
403.75	79.62
403.974	97.62
404.198	84.62
404.422	93.62
404.645	96.62
404.869	86.62
405.093	92.62
405.317	88.62
405.541	98.62
405.765	88.62
405.988	114.62
406.212	155.62
406.436	188.62
406.66	122.62
406.883	92.62
407.107	83.62
407.331	89.62
407.555	92.62
407.778	102.62
408.002	94.62
408.226	88.62
408.449	90.62
408.673	81.62
408.896	91.62
409.12	90.62
409.344	82.62
409.567	109.62
409.791	100.62
410.014	91.62
410.238	82.62
410.461	87.62
410.685	90.62
410.908	99.62
411.132	97.62
411.355	91.62
411.578	86.62
411.802	90.62
412.025	80.62
412.249	90.62
412.472	102.62
412.695	103.62
412.919	95.62
413.142	99.62
413.365	81.62
413.589	96.62
413.812	98.62
414.035	99.62
414.258	86.62
414.482	104.62
414.705	98.62
414.928	107.62
415.151	88.62
415.374	86.62
415.597	81.62
415.821	83.62
416.044	76.62
416.267	71.62
416.49	100.62
416.713	92.62
416.936	91.62
417.159	90.62
417.382	85.62
417.605	75.62
417.828	104.62
418.051	97.62
418.274	83.62
418.497	79.62
418.72	83.62
418.943	90.62
419.166	74.62
419.389	92.62
419.611	97.62
419.834	89.62
420.057	94.62
420.28	96.62
420.503	94.62
420.726	85.62
420.948	90.62
421.171	92.62
421.394	88.62
421.617	86.62
421.839	89.62
422.062	86.62
422.285	90.62
422.507	105.62
422.73	91.62
422.953	91.62
423.175	84.62
423.398	72.62
423.621	94.62
423.843	89.62
424.066	81.62
424.288	80.62
424.511	103.62
424.733	94.62
424.956	92.62
425.178	84.62
425.401	92.62
425.623	98.62
425.846	94.62
426.068	90.62
426.291	92.62
426.513	76.62
426.735	102.62
426.958	95.62
427.18	88.62
427.402	129.62
427.625	146.62
427.847	119.62
428.069	113.62
428.292	102.62
428.514	82.62
428.736	85.62
428.958	80.62
429.181	82.62
429.403	92.62
429.625	82.62
429.847	89.62
430.069	96.62
430.292	79.62
430.514	78.62
430.736	99.62
430.958	98.62
431.18	94.62
431.402	81.62
431.624	95.62
431.846	82.62
432.068	85.62
432.29	74.62
432.512	86.62
432.734	91.62
432.956	88.62
433.178	99.62
433.4	98.62
433.622	103.62
433.844	73.62
434.066	94.62
434.287	97.62
434.509	89.62
434.731	84.62
434.953	87.62
435.175	107.62
435.397	89.62
435.618	92.62
435.84	93.62
436.062	104.62
436.284	101.62
436.505	91.62
436.727	95.62
436.949	84.62
437.17	86.62
437.392	80.62
437.614	100.62
437.835	97.62
438.057	115.62
438.278	97.62
438.5	101.62
438.721	106.62
438.943	88.62
439.165	94.62
439.386	97.62
439.608	91.62
439.829	81.62
440.05	123.62
440.272	116.62
440.493	90.62
440.715	84.62
440.936	88.62
441.158	88.62
441.379	91.62
441.6	81.62
441.822	92.62
442.043	93.62
442.264	105.62
442.486	106.62
442.707	90.62
442.928	106.62
443.149	124.62
443.371	120.62
443.592	93.62
443.813	108.62
444.034	89.62
444.255	75.62
444.476	84.62
444.698	91.62
444.919	99.62
445.14	126.62
445.361	118.62
445.582	100.62
445.803	106.62
446.024	121.62
446.245	129.62
446.466	89.62
446.687	84.62
446.908	100.62
447.129	96.62
447.35	104.62
447.571	81.62
447.792	83.62
448.013	95.62
448.234	101.62
448.455	94.62
448.675	85.62
448.896	117.62
449.117	103.62
449.338	82.62
449.559	112.62
449.779	119.62
450	87.62
450.221	94.62
450.442	91.62
450.662	81.62
450.883	103.62
451.104	94.62
451.324	73.62
451.545	89.62
451.766	103.62
451.986	89.62
452.207	83.62
452.428	92.62
452.648	95.62
452.869	115.62
453.089	107.62
453.31	123.62
453.53	97.62
453.751	87.62
453.971	106.62
454.192	107.62
454.412	85.62
454.633	84.62
454.853	92.62
455.073	104.62
455.294	93.62
455.514	98.62
455.734	78.62
455.955	90.62
456.175	92.62
456.395	75.62
456.616	85.62
456.836	90.62
457.056	85.62
457.276	53.62
457.497	74.62
457.717	86.62
457.937	75.62
458.157	91.62
458.377	102.62
458.598	89.62
458.818	122.62
459.038	138.62
459.258	100.62
459.478	84.62
459.698	93.62
459.918	72.62
460.138	91.62
460.358	78.62
460.578	90.62
460.798	86.62
461.018	94.62
461.238	83.62
461.458	97.62
461.678	98.62
461.898	86.62
462.118	94.62
462.338	76.62
462.558	89.62
462.777	83.62
462.997	95.62
463.217	73.62
463.437	82.62
463.657	91.62
463.876	82.62
464.096	79.62
464.316	97.62
464.536	93.62
464.755	102.62
464.975	105.62
465.195	142.62
465.414	132.62
465.634	80.62
465.854	88.62
466.073	93.62
466.293	90.62
466.512	82.62
466.732	87.62
466.951	97.62
467.171	88.62
467.391	96.62
467.61	102.62
467.829	115.62
468.049	105.62
468.268	113.62
468.488	98.62
468.707	110.62
468.927	85.62
469.146	81.62
469.365	81.62
469.585	91.62
469.804	97.62
470.023	91.62
470.243	89.62
470.462	88.62
470.681	100.62
470.901	97.62
471.12	82.62
471.339	83.62
471.558	83.62
471.777	89.62
471.997	107.62
472.216	151.62
472.435	197.62
472.654	113.62
472.873	92.62
473.092	84.62
473.311	86.62
473.53	78.62
473.749	83.62
473.968	88.62
474.187	86.62
474.406	93.62
474.625	80.62
474.844	91.62
475.063	93.62
475.282	86.62
475.501	76.62
475.72	86.62
475.939	90.62
476.158	85.62
476.377	78.62
476.596	87.62
476.814	94.62
477.033	90.62
477.252	104.62
477.471	83.62
477.69	93.62
477.908	95.62
478.127	85.62
478.346	85.62
478.564	81.62
478.783	91.62
479.002	93.62
479.22	87.62
479.439	114.62
479.658	106.62
479.876	88.62
480.095	91.62
480.313	92.62
480.532	97.62
480.751	103.62
480.969	161.62
481.188	314.62
481.406	236.62
481.624	102.62
481.843	98.62
482.061	81.62
482.28	91.62
482.498	83.62
482.717	98.62
482.935	90.62
483.153	100.62
483.372	95.62
483.59	89.62
483.808	98.62
484.027	94.62
484.245	90.62
484.463	86.62
484.681	97.62
484.9	94.62
485.118	82.62
485.336	85.62
485.554	93.62
485.772	92.62
485.99	108.62
486.209	94.62
486.427	91.62
486.645	107.62
486.863	115.62
487.081	103.62
487.299	90.62
487.517	91.62
487.735	83.62
487.953	91.62
488.171	91.62
488.389	90.62
488.607	89.62
488.825	90.62
489.043	76.62
489.261	83.62
489.479	105.62
489.696	97.62
489.914	91.62
490.132	100.62
490.35	91.62
490.568	94.62
490.786	90.62
491.003	92.62
491.221	84.62
491.439	86.62
491.657	88.62
491.874	97.62
492.092	84.62
492.31	86.62
492.527	92.62
492.745	92.62
492.963	74.62
493.18	89.62
493.398	92.62
493.615	105.62
493.833	96.62
494.05	88.62
494.268	87.62
494.485	101.62
494.703	99.62
494.92	94.62
495.138	91.62
495.355	99.62
495.573	91.62
495.79	86.62
496.008	97.62
496.225	80.62
496.442	93.62
496.66	89.62
496.877	90.62
497.094	81.62
497.312	84.62
497.529	90.62
497.746	88.62
497.963	95.62
498.181	91.62
498.398	97.62
498.615	114.62
498.832	81.62
499.049	88.62
499.267	90.62
499.484	94.62
499.701	82.62
499.918	87.62
500.135	81.62
500.352	86.62
500.569	94.62
500.786	92.62
501.003	90.62
501.22	88.62
501.437	112.62
501.654	99.62
501.871	99.62
502.088	93.62
502.305	85.62
502.522	102.62
502.739	84.62
502.956	78.62
503.172	82.62
503.389	75.62
503.606	97.62
503.823	87.62
504.04	100.62
504.256	96.62
504.473	89.62
504.69	99.62
504.907	92.62
505.123	83.62
505.34	87.62
505.557	87.62
505.773	108.62
505.99	95.62
506.207	82.62
506.423	73.62
506.64	88.62
506.856	91.62
507.073	86.62
507.289	79.62
507.506	75.62
507.722	114.62
507.939	106.62
508.155	94.62
508.372	95.62
508.588	80.62
508.805	106.62
509.021	95.62
509.238	88.62
509.454	94.62
509.67	107.62
509.887	92.62
510.103	116.62
510.319	195.62
510.536	633.62
510.752	1957.62
510.968	542.62
511.184	148.62
511.401	105.62
511.617	103.62
511.833	90.62
512.049	75.62
512.265	98.62
512.481	98.62
512.698	95.62
512.914	95.62
513.13	88.62
513.346	84.62
513.562	105.62
513.778	94.62
513.994	104.62
514.21	89.62
514.426	108.62
514.642	104.62
514.858	119.62
515.074	146.62
515.29	361.62
515.506	1168.62
515.721	428.62
515.937	135.62
516.153	100.62
