Data from Circ_1986_H10_HRD10591_00079.txt Node
Date: Wed Jan 03 12:15:41 EST 2024
User: Yrep
Spectrometer: HR+D1059
Trigger mode: 1
Integration Time (sec): 1.000000E-1
Scans to average: 1
Electric dark correction enabled: true
Nonlinearity correction enabled: false
Boxcar width: 0
XAxis mode: Wavelengths
Number of Pixels in Spectrum: 2048
>>>>>Begin Spectral Data<<<<<
223.165	-13.5
223.4	-13.5
223.635	-13.5
223.869	-12.5
224.104	-31.5
224.338	-19.5
224.573	-30.5
224.808	-8.5
225.042	-2.5
225.277	-1.5
225.511	-1.5
225.746	15.5
225.98	10.5
226.215	11.5
226.449	12.5
226.683	24.5
226.918	17.5
227.152	29.5
227.387	29.5
227.621	36.5
227.856	48.5
228.09	49.5
228.324	49.5
228.559	59.5
228.793	62.5
229.027	60.5
229.262	64.5
229.496	65.5
229.73	69.5
229.964	87.5
230.199	77.5
230.433	82.5
230.667	88.5
230.901	84.5
231.136	67.5
231.37	77.5
231.604	89.5
231.838	82.5
232.072	81.5
232.306	85.5
232.541	73.5
232.775	57.5
233.009	71.5
233.243	79.5
233.477	79.5
233.711	78.5
233.945	78.5
234.179	89.5
234.413	81.5
234.647	70.5
234.881	90.5
235.115	79.5
235.349	85.5
235.583	77.5
235.817	74.5
236.051	74.5
236.285	79.5
236.519	69.5
236.753	81.5
236.987	85.5
237.221	90.5
237.455	78.5
237.689	63.5
237.922	68.5
238.156	78.5
238.39	79.5
238.624	74.5
238.858	67.5
239.091	72.5
239.325	64.5
239.559	80.5
239.793	73.5
240.027	70.5
240.26	87.5
240.494	80.5
240.728	74.5
240.961	77.5
241.195	74.5
241.429	65.5
241.662	77.5
241.896	77.5
242.13	65.5
242.363	81.5
242.597	62.5
242.83	75.5
243.064	83.5
243.298	72.5
243.531	72.5
243.765	80.5
243.998	85.5
244.232	80.5
244.465	72.5
244.699	67.5
244.932	77.5
245.166	74.5
245.399	71.5
245.633	67.5
245.866	68.5
246.099	74.5
246.333	86.5
246.566	79.5
246.8	81.5
247.033	76.5
247.266	63.5
247.5	85.5
247.733	81.5
247.966	71.5
248.2	79.5
248.433	77.5
248.666	70.5
248.899	57.5
249.133	82.5
249.366	98.5
249.599	85.5
249.832	85.5
250.066	86.5
250.299	83.5
250.532	80.5
250.765	81.5
250.998	77.5
251.231	89.5
251.465	85.5
251.698	80.5
251.931	77.5
252.164	78.5
252.397	74.5
252.63	70.5
252.863	78.5
253.096	95.5
253.329	82.5
253.562	70.5
253.795	80.5
254.028	78.5
254.261	64.5
254.494	71.5
254.727	80.5
254.96	79.5
255.193	74.5
255.426	74.5
255.659	79.5
255.892	84.5
256.124	81.5
256.357	71.5
256.59	81.5
256.823	85.5
257.056	94.5
257.289	74.5
257.521	80.5
257.754	81.5
257.987	70.5
258.22	87.5
258.452	67.5
258.685	87.5
258.918	85.5
259.151	72.5
259.383	73.5
259.616	73.5
259.849	74.5
260.081	81.5
260.314	88.5
260.547	84.5
260.779	88.5
261.012	92.5
261.244	91.5
261.477	82.5
261.71	96.5
261.942	100.5
262.175	109.5
262.407	77.5
262.64	92.5
262.872	88.5
263.105	74.5
263.337	70.5
263.57	81.5
263.802	77.5
264.035	79.5
264.267	80.5
264.499	74.5
264.732	81.5
264.964	87.5
265.197	71.5
265.429	92.5
265.661	85.5
265.894	77.5
266.126	82.5
266.358	71.5
266.591	75.5
266.823	78.5
267.055	77.5
267.287	84.5
267.52	75.5
267.752	68.5
267.984	69.5
268.216	80.5
268.448	87.5
268.681	87.5
268.913	77.5
269.145	82.5
269.377	79.5
269.609	71.5
269.841	74.5
270.073	80.5
270.306	74.5
270.538	72.5
270.77	89.5
271.002	92.5
271.234	89.5
271.466	83.5
271.698	84.5
271.93	77.5
272.162	77.5
272.394	77.5
272.626	83.5
272.858	85.5
273.09	87.5
273.322	91.5
273.553	82.5
273.785	83.5
274.017	74.5
274.249	93.5
274.481	75.5
274.713	79.5
274.945	85.5
275.176	77.5
275.408	94.5
275.64	83.5
275.872	67.5
276.104	84.5
276.335	83.5
276.567	79.5
276.799	93.5
277.031	103.5
277.262	110.5
277.494	75.5
277.726	78.5
277.957	83.5
278.189	93.5
278.421	75.5
278.652	85.5
278.884	83.5
279.115	81.5
279.347	85.5
279.579	89.5
279.81	79.5
280.042	79.5
280.273	103.5
280.505	93.5
280.736	92.5
280.968	93.5
281.199	84.5
281.431	98.5
281.662	83.5
281.894	87.5
282.125	99.5
282.356	122.5
282.588	117.5
282.819	107.5
283.051	95.5
283.282	89.5
283.513	82.5
283.745	84.5
283.976	89.5
284.207	74.5
284.439	77.5
284.67	85.5
284.901	82.5
285.132	90.5
285.364	81.5
285.595	93.5
285.826	81.5
286.057	97.5
286.288	97.5
286.52	83.5
286.751	82.5
286.982	84.5
287.213	84.5
287.444	83.5
287.675	75.5
287.906	91.5
288.138	80.5
288.369	95.5
288.6	103.5
288.831	105.5
289.062	93.5
289.293	89.5
289.524	87.5
289.755	81.5
289.986	75.5
290.217	88.5
290.448	94.5
290.679	77.5
290.91	92.5
291.141	99.5
291.371	73.5
291.602	90.5
291.833	79.5
292.064	77.5
292.295	89.5
292.526	80.5
292.757	99.5
292.987	91.5
293.218	82.5
293.449	97.5
293.68	74.5
293.91	97.5
294.141	90.5
294.372	91.5
294.603	94.5
294.833	90.5
295.064	80.5
295.295	84.5
295.525	94.5
295.756	97.5
295.987	103.5
296.217	116.5
296.448	117.5
296.679	90.5
296.909	75.5
297.14	87.5
297.37	95.5
297.601	88.5
297.831	83.5
298.062	95.5
298.292	84.5
298.523	94.5
298.753	82.5
298.984	90.5
299.214	82.5
299.445	100.5
299.675	87.5
299.905	85.5
300.136	85.5
300.366	74.5
300.597	91.5
300.827	102.5
301.057	97.5
301.288	114.5
301.518	103.5
301.748	98.5
301.979	87.5
302.209	99.5
302.439	85.5
302.669	105.5
302.9	83.5
303.13	89.5
303.36	103.5
303.59	117.5
303.82	101.5
304.051	98.5
304.281	90.5
304.511	99.5
304.741	89.5
304.971	98.5
305.201	83.5
305.431	90.5
305.661	89.5
305.891	84.5
306.121	94.5
306.352	104.5
306.582	103.5
306.812	99.5
307.042	99.5
307.272	104.5
307.502	97.5
307.731	96.5
307.961	89.5
308.191	78.5
308.421	90.5
308.651	91.5
308.881	80.5
309.111	103.5
309.341	85.5
309.571	93.5
309.8	105.5
310.03	96.5
310.26	86.5
310.49	87.5
310.72	101.5
310.949	101.5
311.179	99.5
311.409	90.5
311.639	75.5
311.868	87.5
312.098	84.5
312.328	89.5
312.557	106.5
312.787	98.5
313.017	87.5
313.246	90.5
313.476	89.5
313.706	102.5
313.935	94.5
314.165	92.5
314.394	84.5
314.624	108.5
314.853	96.5
315.083	77.5
315.312	87.5
315.542	99.5
315.771	102.5
316.001	90.5
316.23	89.5
316.46	90.5
316.689	86.5
316.919	81.5
317.148	86.5
317.377	88.5
317.607	101.5
317.836	102.5
318.065	79.5
318.295	90.5
318.524	86.5
318.753	98.5
318.983	81.5
319.212	93.5
319.441	94.5
319.67	104.5
319.9	97.5
320.129	88.5
320.358	106.5
320.587	101.5
320.816	103.5
321.046	87.5
321.275	98.5
321.504	85.5
321.733	91.5
321.962	105.5
322.191	106.5
322.42	111.5
322.649	89.5
322.878	91.5
323.108	102.5
323.337	109.5
323.566	134.5
323.795	131.5
324.024	180.5
324.253	340.5
324.482	677.5
324.71	1390.5
324.939	1840.5
325.168	682.5
325.397	223.5
325.626	130.5
325.855	115.5
326.084	115.5
326.313	125.5
326.542	141.5
326.77	205.5
326.999	376.5
327.228	774.5
327.457	1440.5
327.686	1130.5
327.914	324.5
328.143	188.5
328.372	170.5
328.6	128.5
328.829	109.5
329.058	118.5
329.287	116.5
329.515	119.5
329.744	106.5
329.972	134.5
330.201	146.5
330.43	179.5
330.658	145.5
330.887	135.5
331.115	122.5
331.344	105.5
331.572	102.5
331.801	104.5
332.03	101.5
332.258	99.5
332.486	88.5
332.715	85.5
332.943	93.5
333.172	94.5
333.4	91.5
333.629	98.5
333.857	106.5
334.085	122.5
334.314	152.5
334.542	217.5
334.771	207.5
334.999	110.5
335.227	91.5
335.455	91.5
335.684	89.5
335.912	101.5
336.14	95.5
336.369	100.5
336.597	79.5
336.825	103.5
337.053	81.5
337.281	89.5
337.51	89.5
337.738	87.5
337.966	77.5
338.194	94.5
338.422	75.5
338.65	89.5
338.878	84.5
339.106	88.5
339.334	94.5
339.562	69.5
339.79	87.5
340.018	97.5
340.246	81.5
340.474	94.5
340.702	86.5
340.93	80.5
341.158	91.5
341.386	97.5
341.614	96.5
341.842	101.5
342.07	88.5
342.298	95.5
342.526	83.5
342.754	77.5
342.981	82.5
343.209	75.5
343.437	97.5
343.665	90.5
343.893	101.5
344.12	84.5
344.348	90.5
344.576	107.5
344.804	90.5
345.031	96.5
345.259	88.5
345.487	102.5
345.714	95.5
345.942	96.5
346.17	103.5
346.397	102.5
346.625	95.5
346.853	93.5
347.08	94.5
347.308	97.5
347.535	95.5
347.763	109.5
347.99	91.5
348.218	99.5
348.445	93.5
348.673	85.5
348.9	99.5
349.128	98.5
349.355	93.5
349.583	92.5
349.81	97.5
350.037	88.5
350.265	96.5
350.492	96.5
350.72	90.5
350.947	99.5
351.174	102.5
351.402	102.5
351.629	100.5
351.856	100.5
352.083	96.5
352.311	98.5
352.538	102.5
352.765	98.5
352.992	127.5
353.22	97.5
353.447	91.5
353.674	90.5
353.901	81.5
354.128	98.5
354.355	81.5
354.583	79.5
354.81	89.5
355.037	81.5
355.264	97.5
355.491	91.5
355.718	98.5
355.945	86.5
356.172	82.5
356.399	83.5
356.626	88.5
356.853	104.5
357.08	87.5
357.307	88.5
357.534	94.5
357.761	94.5
357.988	91.5
358.215	91.5
358.441	86.5
358.668	89.5
358.895	79.5
359.122	87.5
359.349	89.5
359.576	81.5
359.802	95.5
360.029	113.5
360.256	102.5
360.483	99.5
360.709	79.5
360.936	86.5
361.163	75.5
361.39	103.5
361.616	100.5
361.843	84.5
362.07	85.5
362.296	85.5
362.523	97.5
362.749	91.5
362.976	81.5
363.203	71.5
363.429	74.5
363.656	93.5
363.882	91.5
364.109	106.5
364.335	81.5
364.562	93.5
364.788	82.5
365.015	93.5
365.241	90.5
365.468	93.5
365.694	90.5
365.92	96.5
366.147	86.5
366.373	86.5
366.599	98.5
366.826	88.5
367.052	93.5
367.278	82.5
367.505	91.5
367.731	70.5
367.957	95.5
368.184	86.5
368.41	88.5
368.636	94.5
368.862	114.5
369.089	98.5
369.315	85.5
369.541	96.5
369.767	81.5
369.993	88.5
370.219	91.5
370.445	85.5
370.672	88.5
370.898	88.5
371.124	72.5
371.35	84.5
371.576	94.5
371.802	77.5
372.028	64.5
372.254	73.5
372.48	75.5
372.706	82.5
372.932	83.5
373.158	96.5
373.384	94.5
373.61	79.5
373.835	77.5
374.061	95.5
374.287	92.5
374.513	75.5
374.739	77.5
374.965	85.5
375.191	89.5
375.416	81.5
375.642	105.5
375.868	104.5
376.094	95.5
376.319	89.5
376.545	67.5
376.771	85.5
376.997	101.5
377.222	87.5
377.448	94.5
377.674	85.5
377.899	73.5
378.125	72.5
378.35	96.5
378.576	88.5
378.802	79.5
379.027	98.5
379.253	99.5
379.478	90.5
379.704	90.5
379.929	91.5
380.155	96.5
380.38	93.5
380.606	83.5
380.831	96.5
381.057	81.5
381.282	94.5
381.507	99.5
381.733	99.5
381.958	102.5
382.184	96.5
382.409	99.5
382.634	107.5
382.86	88.5
383.085	96.5
383.31	87.5
383.535	101.5
383.761	104.5
383.986	96.5
384.211	100.5
384.436	100.5
384.662	104.5
384.887	88.5
385.112	81.5
385.337	95.5
385.562	98.5
385.787	113.5
386.013	111.5
386.238	114.5
386.463	107.5
386.688	104.5
386.913	97.5
387.138	109.5
387.363	88.5
387.588	82.5
387.813	101.5
388.038	108.5
388.263	111.5
388.488	101.5
388.713	102.5
388.938	105.5
389.163	99.5
389.387	96.5
389.612	85.5
389.837	86.5
390.062	82.5
390.287	94.5
390.512	100.5
390.736	98.5
390.961	83.5
391.186	91.5
391.411	89.5
391.636	77.5
391.86	83.5
392.085	81.5
392.31	86.5
392.534	82.5
392.759	96.5
392.984	81.5
393.208	88.5
393.433	86.5
393.658	89.5
393.882	77.5
394.107	81.5
394.331	64.5
394.556	98.5
394.78	77.5
395.005	80.5
395.229	91.5
395.454	90.5
395.678	86.5
395.903	97.5
396.127	89.5
396.352	89.5
396.576	99.5
396.801	87.5
397.025	74.5
397.249	97.5
397.474	85.5
397.698	81.5
397.922	77.5
398.147	81.5
398.371	77.5
398.595	81.5
398.82	86.5
399.044	87.5
399.268	82.5
399.492	91.5
399.717	84.5
399.941	89.5
400.165	74.5
400.389	73.5
400.613	86.5
400.837	80.5
401.062	71.5
401.286	88.5
401.51	99.5
401.734	81.5
401.958	91.5
402.182	114.5
402.406	114.5
402.63	113.5
402.854	93.5
403.078	95.5
403.302	84.5
403.526	97.5
403.75	86.5
403.974	81.5
404.198	93.5
404.422	87.5
404.645	80.5
404.869	83.5
405.093	100.5
405.317	100.5
405.541	94.5
405.765	97.5
405.988	102.5
406.212	137.5
406.436	172.5
406.66	134.5
406.883	104.5
407.107	98.5
407.331	87.5
407.555	88.5
407.778	90.5
408.002	95.5
408.226	71.5
408.449	78.5
408.673	64.5
408.896	87.5
409.12	88.5
409.344	93.5
409.567	103.5
409.791	83.5
410.014	79.5
410.238	82.5
410.461	91.5
410.685	101.5
410.908	85.5
411.132	104.5
411.355	89.5
411.578	102.5
411.802	76.5
412.025	79.5
412.249	94.5
412.472	78.5
412.695	97.5
412.919	87.5
413.142	89.5
413.365	84.5
413.589	87.5
413.812	78.5
414.035	103.5
414.258	96.5
414.482	100.5
414.705	93.5
414.928	77.5
415.151	85.5
415.374	87.5
415.597	89.5
415.821	77.5
416.044	73.5
416.267	75.5
416.49	78.5
416.713	90.5
416.936	86.5
417.159	80.5
417.382	82.5
417.605	86.5
417.828	86.5
418.051	87.5
418.274	93.5
418.497	93.5
418.72	97.5
418.943	87.5
419.166	79.5
419.389	78.5
419.611	91.5
419.834	84.5
420.057	92.5
420.28	99.5
420.503	96.5
420.726	75.5
420.948	86.5
421.171	84.5
421.394	81.5
421.617	91.5
421.839	77.5
422.062	79.5
422.285	85.5
422.507	106.5
422.73	93.5
422.953	92.5
423.175	88.5
423.398	86.5
423.621	89.5
423.843	93.5
424.066	91.5
424.288	85.5
424.511	81.5
424.733	89.5
424.956	90.5
425.178	103.5
425.401	91.5
425.623	90.5
425.846	101.5
426.068	109.5
426.291	90.5
426.513	93.5
426.735	95.5
426.958	101.5
427.18	91.5
427.402	117.5
427.625	145.5
427.847	124.5
428.069	120.5
428.292	99.5
428.514	103.5
428.736	80.5
428.958	90.5
429.181	73.5
429.403	95.5
429.625	80.5
429.847	96.5
430.069	91.5
430.292	92.5
430.514	89.5
430.736	97.5
430.958	77.5
431.18	97.5
431.402	83.5
431.624	88.5
431.846	77.5
432.068	97.5
432.29	98.5
432.512	90.5
432.734	98.5
432.956	85.5
433.178	105.5
433.4	108.5
433.622	99.5
433.844	96.5
434.066	109.5
434.287	95.5
434.509	79.5
434.731	94.5
434.953	85.5
435.175	70.5
435.397	86.5
435.618	86.5
435.84	91.5
436.062	107.5
436.284	94.5
436.505	81.5
436.727	93.5
436.949	87.5
437.17	72.5
437.392	73.5
437.614	89.5
437.835	90.5
438.057	106.5
438.278	106.5
438.5	107.5
438.721	109.5
438.943	100.5
439.165	91.5
439.386	90.5
439.608	73.5
439.829	98.5
440.05	105.5
440.272	131.5
440.493	98.5
440.715	65.5
440.936	89.5
441.158	102.5
441.379	89.5
441.6	98.5
441.822	93.5
442.043	97.5
442.264	103.5
442.486	93.5
442.707	85.5
442.928	104.5
443.149	104.5
443.371	114.5
443.592	113.5
443.813	111.5
444.034	98.5
444.255	97.5
444.476	81.5
444.698	90.5
444.919	79.5
445.14	132.5
445.361	140.5
445.582	99.5
445.803	125.5
446.024	113.5
446.245	122.5
446.466	105.5
446.687	77.5
446.908	89.5
447.129	86.5
447.35	96.5
447.571	99.5
447.792	88.5
448.013	86.5
448.234	115.5
448.455	98.5
448.675	105.5
448.896	109.5
449.117	99.5
449.338	89.5
449.559	98.5
449.779	113.5
450	92.5
450.221	97.5
450.442	84.5
450.662	94.5
450.883	95.5
451.104	110.5
451.324	92.5
451.545	81.5
451.766	86.5
451.986	75.5
452.207	90.5
452.428	76.5
452.648	109.5
452.869	87.5
453.089	103.5
453.31	104.5
453.53	94.5
453.751	87.5
453.971	98.5
454.192	110.5
454.412	86.5
454.633	78.5
454.853	89.5
455.073	77.5
455.294	97.5
455.514	88.5
455.734	90.5
455.955	89.5
456.175	85.5
456.395	90.5
456.616	81.5
456.836	91.5
457.056	85.5
457.276	98.5
457.497	83.5
457.717	77.5
457.937	74.5
458.157	79.5
458.377	91.5
458.598	99.5
458.818	116.5
459.038	125.5
459.258	103.5
459.478	91.5
459.698	87.5
459.918	81.5
460.138	88.5
460.358	70.5
460.578	92.5
460.798	88.5
461.018	92.5
461.238	94.5
461.458	95.5
461.678	91.5
461.898	74.5
462.118	81.5
462.338	86.5
462.558	88.5
462.777	87.5
462.997	85.5
463.217	85.5
463.437	91.5
463.657	84.5
463.876	100.5
464.096	91.5
464.316	91.5
464.536	83.5
464.755	98.5
464.975	101.5
465.195	143.5
465.414	138.5
465.634	97.5
465.854	91.5
466.073	89.5
466.293	96.5
466.512	79.5
466.732	93.5
466.951	83.5
467.171	81.5
467.391	89.5
467.61	99.5
467.829	113.5
468.049	119.5
468.268	135.5
468.488	85.5
468.707	85.5
468.927	97.5
469.146	90.5
469.365	96.5
469.585	94.5
469.804	98.5
470.023	96.5
470.243	95.5
470.462	91.5
470.681	102.5
470.901	78.5
471.12	74.5
471.339	97.5
471.558	85.5
471.777	97.5
471.997	98.5
472.216	175.5
472.435	266.5
472.654	118.5
472.873	84.5
473.092	85.5
473.311	90.5
473.53	89.5
473.749	87.5
473.968	111.5
474.187	97.5
474.406	94.5
474.625	97.5
474.844	89.5
475.063	68.5
475.282	71.5
475.501	83.5
475.72	72.5
475.939	77.5
476.158	90.5
476.377	83.5
476.596	84.5
476.814	101.5
477.033	87.5
477.252	92.5
477.471	71.5
477.69	86.5
477.908	78.5
478.127	91.5
478.346	82.5
478.564	88.5
478.783	104.5
479.002	84.5
479.22	97.5
479.439	100.5
479.658	112.5
479.876	81.5
480.095	89.5
480.313	94.5
480.532	85.5
480.751	102.5
480.969	170.5
481.188	436.5
481.406	289.5
481.624	102.5
481.843	82.5
482.061	93.5
482.28	88.5
482.498	83.5
482.717	85.5
482.935	89.5
483.153	90.5
483.372	89.5
483.59	92.5
483.808	83.5
484.027	91.5
484.245	100.5
484.463	97.5
484.681	87.5
484.9	94.5
485.118	91.5
485.336	100.5
485.554	87.5
485.772	94.5
485.99	97.5
486.209	97.5
486.427	102.5
486.645	120.5
486.863	105.5
487.081	101.5
487.299	98.5
487.517	88.5
487.735	92.5
487.953	93.5
488.171	92.5
488.389	99.5
488.607	98.5
488.825	93.5
489.043	89.5
489.261	98.5
489.479	87.5
489.696	78.5
489.914	82.5
490.132	93.5
490.35	90.5
490.568	85.5
490.786	99.5
491.003	89.5
491.221	82.5
491.439	85.5
491.657	105.5
491.874	80.5
492.092	93.5
492.31	86.5
492.527	87.5
492.745	92.5
492.963	102.5
493.18	93.5
493.398	95.5
493.615	85.5
493.833	82.5
494.05	93.5
494.268	83.5
494.485	104.5
494.703	95.5
494.92	92.5
495.138	97.5
495.355	100.5
495.573	85.5
495.79	102.5
496.008	89.5
496.225	85.5
496.442	90.5
496.66	97.5
496.877	81.5
497.094	85.5
497.312	84.5
497.529	80.5
497.746	85.5
497.963	89.5
498.181	95.5
498.398	97.5
498.615	106.5
498.832	95.5
499.049	87.5
499.267	74.5
499.484	84.5
499.701	99.5
499.918	96.5
500.135	84.5
500.352	89.5
500.569	76.5
500.786	79.5
501.003	91.5
501.22	74.5
501.437	91.5
501.654	88.5
501.871	96.5
502.088	97.5
502.305	93.5
502.522	92.5
502.739	88.5
502.956	93.5
503.172	90.5
503.389	98.5
503.606	85.5
503.823	113.5
504.04	111.5
504.256	74.5
504.473	90.5
504.69	91.5
504.907	95.5
505.123	96.5
505.34	90.5
505.557	102.5
505.773	94.5
505.99	81.5
506.207	93.5
506.423	90.5
506.64	84.5
506.856	94.5
507.073	91.5
507.289	96.5
507.506	82.5
507.722	101.5
507.939	105.5
508.155	88.5
508.372	99.5
508.588	86.5
508.805	111.5
509.021	86.5
509.238	88.5
509.454	90.5
509.67	92.5
509.887	90.5
510.103	114.5
510.319	200.5
510.536	629.5
510.752	1874.5
510.968	535.5
511.184	149.5
511.401	101.5
511.617	90.5
511.833	91.5
512.049	77.5
512.265	103.5
512.481	90.5
512.698	81.5
512.914	99.5
513.13	85.5
513.346	93.5
513.562	95.5
513.778	105.5
513.994	97.5
514.21	102.5
514.426	110.5
514.642	103.5
514.858	110.5
515.074	136.5
515.29	364.5
515.506	1119.5
515.721	437.5
515.937	138.5
516.153	114.5
516.369	85.5
516.585	83.5
516.801	102.5
517.016	86.5
517.232	91.5
517.448	87.5
517.664	99.5
517.879	97.5
518.095	86.5
518.311	97.5
518.527	85.5
518.742	97.5
518.958	85.5
519.173	100.5
519.389	85.5
519.605	101.5
519.82	87.5
520.036	78.5
520.251	119.5
520.467	103.5
520.682	102.5
520.898	91.5
521.113	111.5
521.329	119.5
521.544	183.5
521.76	456.5
521.975	1913.5
522.19	1155.5
522.406	250.5
522.621	116.5
522.836	97.5
523.052	98.5
523.267	84.5
523.482	83.5
523.698	107.5
523.913	111.5
524.128	109.5
524.343	94.5
524.559	104.5
524.774	75.5
524.989	93.5
525.204	106.5
525.419	84.5
525.634	83.5
525.849	100.5
526.064	90.5
526.28	102.5
526.495	87.5
526.71	80.5
526.925	102.5
527.14	91.5
527.355	96.5
527.57	88.5
527.785	70.5
527.999	93.5
528.214	90.5
528.429	88.5
528.644	89.5
528.859	87.5
529.074	105.5
529.289	122.5
529.503	150.5
529.718	83.5
529.933	90.5
530.148	96.5
530.363	93.5
530.577	93.5
530.792	90.5
531.007	77.5
531.221	85.5
531.436	91.5
531.651	74.5
531.865	82.5
532.08	98.5
532.295	90.5
532.509	97.5
532.724	88.5
532.938	92.5
533.153	88.5
533.367	99.5
533.582	108.5
533.796	101.5
534.011	98.5
534.225	86.5
534.44	83.5
534.654	108.5
534.868	94.5
535.083	89.5
535.297	88.5
535.511	104.5
535.726	90.5
535.94	109.5
536.154	82.5
