Data from Circ_1986_H10_HRD10591_00045.txt Node
Date: Wed Jan 03 12:15:35 EST 2024
User: Yrep
Spectrometer: HR+D1059
Trigger mode: 1
Integration Time (sec): 1.000000E-1
Scans to average: 1
Electric dark correction enabled: true
Nonlinearity correction enabled: false
Boxcar width: 0
XAxis mode: Wavelengths
Number of Pixels in Spectrum: 2048
>>>>>Begin Spectral Data<<<<<
223.165	-12.81
223.4	-12.81
223.635	-12.81
223.869	-27.81
224.104	-20.81
224.338	-16.81
224.573	-11.81
224.808	-8.81
225.042	-6.81
225.277	-6.81
225.511	-10.81
225.746	6.19
225.98	-1.81
226.215	5.19
226.449	25.19
226.683	26.19
226.918	31.19
227.152	31.19
227.387	40.19
227.621	43.19
227.856	40.19
228.09	50.19
228.324	51.19
228.559	59.19
228.793	65.19
229.027	62.19
229.262	76.19
229.496	71.19
229.73	74.19
229.964	72.19
230.199	75.19
230.433	72.19
230.667	89.19
230.901	87.19
231.136	78.19
231.37	65.19
231.604	71.19
231.838	75.19
232.072	89.19
232.306	87.19
232.541	86.19
232.775	91.19
233.009	80.19
233.243	67.19
233.477	58.19
233.711	70.19
233.945	95.19
234.179	99.19
234.413	86.19
234.647	77.19
234.881	78.19
235.115	85.19
235.349	90.19
235.583	78.19
235.817	101.19
236.051	80.19
236.285	83.19
236.519	88.19
236.753	78.19
236.987	76.19
237.221	84.19
237.455	82.19
237.689	72.19
237.922	83.19
238.156	89.19
238.39	75.19
238.624	86.19
238.858	76.19
239.091	74.19
239.325	93.19
239.559	79.19
239.793	86.19
240.027	78.19
240.26	77.19
240.494	87.19
240.728	81.19
240.961	67.19
241.195	93.19
241.429	91.19
241.662	74.19
241.896	81.19
242.13	73.19
242.363	85.19
242.597	82.19
242.83	85.19
243.064	84.19
243.298	85.19
243.531	84.19
243.765	76.19
243.998	73.19
244.232	78.19
244.465	88.19
244.699	87.19
244.932	81.19
245.166	86.19
245.399	81.19
245.633	90.19
245.866	81.19
246.099	67.19
246.333	93.19
246.566	79.19
246.8	82.19
247.033	87.19
247.266	75.19
247.5	87.19
247.733	87.19
247.966	85.19
248.2	90.19
248.433	83.19
248.666	77.19
248.899	82.19
249.133	86.19
249.366	97.19
249.599	89.19
249.832	89.19
250.066	88.19
250.299	90.19
250.532	84.19
250.765	84.19
250.998	82.19
251.231	78.19
251.465	84.19
251.698	70.19
251.931	94.19
252.164	83.19
252.397	77.19
252.63	79.19
252.863	78.19
253.096	78.19
253.329	84.19
253.562	80.19
253.795	88.19
254.028	89.19
254.261	88.19
254.494	83.19
254.727	83.19
254.96	84.19
255.193	92.19
255.426	81.19
255.659	78.19
255.892	74.19
256.124	86.19
256.357	79.19
256.59	87.19
256.823	97.19
257.056	83.19
257.289	88.19
257.521	88.19
257.754	89.19
257.987	86.19
258.22	81.19
258.452	103.19
258.685	73.19
258.918	71.19
259.151	84.19
259.383	83.19
259.616	92.19
259.849	85.19
260.081	79.19
260.314	99.19
260.547	79.19
260.779	91.19
261.012	81.19
261.244	77.19
261.477	85.19
261.71	84.19
261.942	119.19
262.175	114.19
262.407	97.19
262.64	94.19
262.872	85.19
263.105	74.19
263.337	92.19
263.57	71.19
263.802	97.19
264.035	88.19
264.267	83.19
264.499	91.19
264.732	87.19
264.964	78.19
265.197	98.19
265.429	79.19
265.661	75.19
265.894	90.19
266.126	91.19
266.358	96.19
266.591	89.19
266.823	76.19
267.055	91.19
267.287	96.19
267.52	83.19
267.752	93.19
267.984	98.19
268.216	75.19
268.448	101.19
268.681	84.19
268.913	106.19
269.145	78.19
269.377	92.19
269.609	79.19
269.841	86.19
270.073	77.19
270.306	93.19
270.538	84.19
270.77	86.19
271.002	84.19
271.234	85.19
271.466	96.19
271.698	89.19
271.93	94.19
272.162	90.19
272.394	86.19
272.626	94.19
272.858	93.19
273.09	92.19
273.322	78.19
273.553	85.19
273.785	85.19
274.017	91.19
274.249	91.19
274.481	89.19
274.713	88.19
274.945	84.19
275.176	83.19
275.408	101.19
275.64	89.19
275.872	100.19
276.104	92.19
276.335	90.19
276.567	110.19
276.799	111.19
277.031	105.19
277.262	109.19
277.494	92.19
277.726	100.19
277.957	84.19
278.189	87.19
278.421	87.19
278.652	76.19
278.884	96.19
279.115	89.19
279.347	90.19
279.579	96.19
279.81	91.19
280.042	85.19
280.273	93.19
280.505	77.19
280.736	93.19
280.968	87.19
281.199	91.19
281.431	88.19
281.662	93.19
281.894	85.19
282.125	97.19
282.356	105.19
282.588	118.19
282.819	112.19
283.051	86.19
283.282	89.19
283.513	97.19
283.745	99.19
283.976	85.19
284.207	94.19
284.439	83.19
284.67	97.19
284.901	96.19
285.132	86.19
285.364	78.19
285.595	82.19
285.826	104.19
286.057	80.19
286.288	89.19
286.52	96.19
286.751	81.19
286.982	98.19
287.213	85.19
287.444	92.19
287.675	85.19
287.906	99.19
288.138	82.19
288.369	70.19
288.6	94.19
288.831	85.19
289.062	91.19
289.293	97.19
289.524	85.19
289.755	97.19
289.986	98.19
290.217	88.19
290.448	86.19
290.679	78.19
290.91	103.19
291.141	88.19
291.371	87.19
291.602	93.19
291.833	97.19
292.064	95.19
292.295	86.19
292.526	83.19
292.757	95.19
292.987	96.19
293.218	105.19
293.449	91.19
293.68	89.19
293.91	89.19
294.141	88.19
294.372	89.19
294.603	89.19
294.833	101.19
295.064	103.19
295.295	89.19
295.525	85.19
295.756	91.19
295.987	123.19
296.217	128.19
296.448	111.19
296.679	91.19
296.909	86.19
297.14	87.19
297.37	88.19
297.601	110.19
297.831	97.19
298.062	90.19
298.292	91.19
298.523	116.19
298.753	87.19
298.984	92.19
299.214	78.19
299.445	87.19
299.675	93.19
299.905	90.19
300.136	100.19
300.366	86.19
300.597	87.19
300.827	88.19
301.057	107.19
301.288	115.19
301.518	102.19
301.748	113.19
301.979	102.19
302.209	102.19
302.439	108.19
302.669	86.19
302.9	89.19
303.13	90.19
303.36	99.19
303.59	96.19
303.82	111.19
304.051	107.19
304.281	97.19
304.511	90.19
304.741	96.19
304.971	85.19
305.201	84.19
305.431	99.19
305.661	93.19
305.891	93.19
306.121	92.19
306.352	102.19
306.582	118.19
306.812	91.19
307.042	100.19
307.272	111.19
307.502	111.19
307.731	101.19
307.961	102.19
308.191	90.19
308.421	95.19
308.651	92.19
308.881	97.19
309.111	93.19
309.341	100.19
309.571	91.19
309.8	94.19
310.03	109.19
310.26	122.19
310.49	97.19
310.72	91.19
310.949	102.19
311.179	92.19
311.409	94.19
311.639	91.19
311.868	92.19
312.098	94.19
312.328	114.19
312.557	101.19
312.787	103.19
313.017	91.19
313.246	89.19
313.476	104.19
313.706	103.19
313.935	111.19
314.165	101.19
314.394	100.19
314.624	98.19
314.853	90.19
315.083	90.19
315.312	91.19
315.542	92.19
315.771	96.19
316.001	95.19
316.23	97.19
316.46	99.19
316.689	96.19
316.919	86.19
317.148	91.19
317.377	93.19
317.607	107.19
317.836	88.19
318.065	100.19
318.295	98.19
318.524	97.19
318.753	93.19
318.983	97.19
319.212	101.19
319.441	119.19
319.67	106.19
319.9	89.19
320.129	91.19
320.358	94.19
320.587	105.19
320.816	85.19
321.046	89.19
321.275	90.19
321.504	100.19
321.733	92.19
321.962	98.19
322.191	102.19
322.42	95.19
322.649	109.19
322.878	84.19
323.108	111.19
323.337	105.19
323.566	134.19
323.795	144.19
324.024	165.19
324.253	331.19
324.482	682.19
324.71	1401.19
324.939	1823.19
325.168	689.19
325.397	215.19
325.626	142.19
325.855	125.19
326.084	128.19
326.313	137.19
326.542	146.19
326.77	218.19
326.999	406.19
327.228	801.19
327.457	1394.19
327.686	1150.19
327.914	320.19
328.143	184.19
328.372	151.19
328.6	146.19
328.829	123.19
329.058	139.19
329.287	124.19
329.515	104.19
329.744	100.19
329.972	116.19
330.201	147.19
330.43	162.19
330.658	121.19
330.887	136.19
331.115	110.19
331.344	117.19
331.572	102.19
331.801	92.19
332.03	119.19
332.258	108.19
332.486	97.19
332.715	95.19
332.943	87.19
333.172	107.19
333.4	96.19
333.629	103.19
333.857	116.19
334.085	121.19
334.314	143.19
334.542	200.19
334.771	165.19
334.999	103.19
335.227	94.19
335.455	93.19
335.684	106.19
335.912	93.19
336.14	97.19
336.369	92.19
336.597	107.19
336.825	93.19
337.053	97.19
337.281	93.19
337.51	91.19
337.738	97.19
337.966	79.19
338.194	115.19
338.422	87.19
338.65	98.19
338.878	101.19
339.106	100.19
339.334	78.19
339.562	99.19
339.79	106.19
340.018	109.19
340.246	102.19
340.474	105.19
340.702	89.19
340.93	99.19
341.158	104.19
341.386	93.19
341.614	100.19
341.842	90.19
342.07	100.19
342.298	92.19
342.526	95.19
342.754	92.19
342.981	91.19
343.209	99.19
343.437	95.19
343.665	99.19
343.893	100.19
344.12	95.19
344.348	94.19
344.576	88.19
344.804	95.19
345.031	94.19
345.259	86.19
345.487	108.19
345.714	110.19
345.942	95.19
346.17	92.19
346.397	88.19
346.625	98.19
346.853	103.19
347.08	97.19
347.308	89.19
347.535	94.19
347.763	99.19
347.99	105.19
348.218	89.19
348.445	98.19
348.673	106.19
348.9	93.19
349.128	92.19
349.355	86.19
349.583	87.19
349.81	101.19
350.037	93.19
350.265	88.19
350.492	93.19
350.72	96.19
350.947	89.19
351.174	113.19
351.402	121.19
351.629	108.19
351.856	103.19
352.083	108.19
352.311	106.19
352.538	116.19
352.765	98.19
352.992	104.19
353.22	108.19
353.447	107.19
353.674	112.19
353.901	105.19
354.128	101.19
354.355	80.19
354.583	93.19
354.81	84.19
355.037	105.19
355.264	99.19
355.491	99.19
355.718	105.19
355.945	100.19
356.172	104.19
356.399	94.19
356.626	111.19
356.853	103.19
357.08	96.19
357.307	101.19
357.534	90.19
357.761	89.19
357.988	102.19
358.215	108.19
358.441	97.19
358.668	87.19
358.895	87.19
359.122	94.19
359.349	91.19
359.576	94.19
359.802	97.19
360.029	106.19
360.256	118.19
360.483	96.19
360.709	82.19
360.936	86.19
361.163	88.19
361.39	97.19
361.616	86.19
361.843	108.19
362.07	102.19
362.296	103.19
362.523	93.19
362.749	88.19
362.976	96.19
363.203	91.19
363.429	99.19
363.656	91.19
363.882	85.19
364.109	93.19
364.335	86.19
364.562	80.19
364.788	82.19
365.015	110.19
365.241	103.19
365.468	101.19
365.694	102.19
365.92	101.19
366.147	96.19
366.373	93.19
366.599	85.19
366.826	98.19
367.052	88.19
367.278	98.19
367.505	103.19
367.731	105.19
367.957	95.19
368.184	96.19
368.41	100.19
368.636	105.19
368.862	109.19
369.089	106.19
369.315	78.19
369.541	93.19
369.767	108.19
369.993	93.19
370.219	92.19
370.445	89.19
370.672	95.19
370.898	85.19
371.124	82.19
371.35	105.19
371.576	85.19
371.802	94.19
372.028	83.19
372.254	94.19
372.48	108.19
372.706	98.19
372.932	84.19
373.158	86.19
373.384	86.19
373.61	93.19
373.835	108.19
374.061	87.19
374.287	94.19
374.513	90.19
374.739	100.19
374.965	98.19
375.191	110.19
375.416	87.19
375.642	90.19
375.868	103.19
376.094	95.19
376.319	90.19
376.545	100.19
376.771	107.19
376.997	84.19
377.222	79.19
377.448	96.19
377.674	93.19
377.899	93.19
378.125	101.19
378.35	87.19
378.576	98.19
378.802	97.19
379.027	88.19
379.253	105.19
379.478	106.19
379.704	101.19
379.929	92.19
380.155	73.19
380.38	98.19
380.606	93.19
380.831	99.19
381.057	100.19
381.282	91.19
381.507	99.19
381.733	109.19
381.958	79.19
382.184	99.19
382.409	106.19
382.634	108.19
382.86	106.19
383.085	101.19
383.31	102.19
383.535	109.19
383.761	104.19
383.986	120.19
384.211	105.19
384.436	97.19
384.662	111.19
384.887	111.19
385.112	93.19
385.337	113.19
385.562	102.19
385.787	120.19
386.013	109.19
386.238	120.19
386.463	107.19
386.688	103.19
386.913	110.19
387.138	110.19
387.363	111.19
387.588	106.19
387.813	103.19
388.038	118.19
388.263	129.19
388.488	133.19
388.713	113.19
388.938	101.19
389.163	100.19
389.387	96.19
389.612	93.19
389.837	103.19
390.062	106.19
390.287	114.19
390.512	102.19
390.736	102.19
390.961	95.19
391.186	96.19
391.411	87.19
391.636	91.19
391.86	89.19
392.085	91.19
392.31	87.19
392.534	82.19
392.759	97.19
392.984	98.19
393.208	95.19
393.433	85.19
393.658	85.19
393.882	92.19
394.107	98.19
394.331	85.19
394.556	85.19
394.78	80.19
395.005	69.19
395.229	93.19
395.454	79.19
395.678	95.19
395.903	95.19
396.127	97.19
396.352	85.19
396.576	84.19
396.801	90.19
397.025	88.19
397.249	94.19
397.474	100.19
397.698	89.19
397.922	82.19
398.147	66.19
398.371	85.19
398.595	86.19
398.82	75.19
399.044	93.19
399.268	87.19
399.492	87.19
399.717	106.19
399.941	94.19
400.165	94.19
400.389	98.19
400.613	91.19
400.837	78.19
401.062	90.19
401.286	88.19
401.51	93.19
401.734	73.19
401.958	101.19
402.182	129.19
402.406	148.19
402.63	101.19
402.854	88.19
403.078	100.19
403.302	102.19
403.526	88.19
403.75	102.19
403.974	106.19
404.198	73.19
404.422	97.19
404.645	86.19
404.869	84.19
405.093	98.19
405.317	101.19
405.541	106.19
405.765	95.19
405.988	105.19
406.212	179.19
406.436	205.19
406.66	138.19
406.883	99.19
407.107	83.19
407.331	101.19
407.555	100.19
407.778	100.19
408.002	99.19
408.226	84.19
408.449	101.19
408.673	99.19
408.896	94.19
409.12	98.19
409.344	90.19
409.567	100.19
409.791	94.19
410.014	93.19
410.238	102.19
410.461	89.19
410.685	88.19
410.908	106.19
411.132	107.19
411.355	91.19
411.578	91.19
411.802	94.19
412.025	97.19
412.249	91.19
412.472	99.19
412.695	104.19
412.919	98.19
413.142	94.19
413.365	92.19
413.589	90.19
413.812	88.19
414.035	88.19
414.258	87.19
414.482	72.19
414.705	79.19
414.928	90.19
415.151	106.19
415.374	91.19
415.597	105.19
415.821	106.19
416.044	91.19
416.267	89.19
416.49	97.19
416.713	88.19
416.936	85.19
417.159	91.19
417.382	88.19
417.605	99.19
417.828	103.19
418.051	79.19
418.274	89.19
418.497	83.19
418.72	88.19
418.943	94.19
419.166	84.19
419.389	93.19
419.611	102.19
419.834	109.19
420.057	91.19
420.28	89.19
420.503	103.19
420.726	82.19
420.948	77.19
421.171	86.19
421.394	91.19
421.617	93.19
421.839	96.19
422.062	90.19
422.285	92.19
422.507	105.19
422.73	85.19
422.953	84.19
423.175	103.19
423.398	80.19
423.621	97.19
423.843	90.19
424.066	85.19
424.288	92.19
424.511	99.19
424.733	89.19
424.956	108.19
425.178	110.19
425.401	108.19
425.623	104.19
425.846	78.19
426.068	88.19
426.291	91.19
426.513	103.19
426.735	91.19
426.958	101.19
427.18	108.19
427.402	127.19
427.625	157.19
427.847	139.19
428.069	121.19
428.292	100.19
428.514	91.19
428.736	91.19
428.958	99.19
429.181	85.19
429.403	90.19
429.625	93.19
429.847	101.19
430.069	102.19
430.292	101.19
430.514	98.19
430.736	104.19
430.958	91.19
431.18	91.19
431.402	83.19
431.624	97.19
431.846	108.19
432.068	97.19
432.29	89.19
432.512	81.19
432.734	95.19
432.956	102.19
433.178	99.19
433.4	104.19
433.622	100.19
433.844	102.19
434.066	72.19
434.287	102.19
434.509	100.19
434.731	93.19
434.953	83.19
435.175	89.19
435.397	84.19
435.618	99.19
435.84	93.19
436.062	110.19
436.284	109.19
436.505	101.19
436.727	109.19
436.949	84.19
437.17	97.19
437.392	93.19
437.614	84.19
437.835	116.19
438.057	98.19
438.278	108.19
438.5	103.19
438.721	111.19
438.943	102.19
439.165	93.19
439.386	87.19
439.608	86.19
439.829	106.19
440.05	106.19
440.272	130.19
440.493	89.19
440.715	91.19
440.936	99.19
441.158	93.19
441.379	79.19
441.6	81.19
441.822	96.19
442.043	90.19
442.264	93.19
442.486	95.19
442.707	93.19
442.928	98.19
443.149	104.19
443.371	116.19
443.592	95.19
443.813	106.19
444.034	114.19
444.255	96.19
444.476	91.19
444.698	83.19
444.919	95.19
445.14	120.19
445.361	121.19
445.582	109.19
445.803	122.19
446.024	115.19
446.245	133.19
446.466	107.19
446.687	89.19
446.908	83.19
447.129	110.19
447.35	88.19
447.571	99.19
447.792	93.19
448.013	102.19
448.234	109.19
448.455	89.19
448.675	104.19
448.896	106.19
449.117	110.19
449.338	85.19
449.559	117.19
449.779	118.19
450	90.19
450.221	93.19
450.442	108.19
450.662	97.19
450.883	98.19
451.104	95.19
451.324	97.19
451.545	92.19
451.766	86.19
451.986	81.19
452.207	82.19
452.428	95.19
452.648	100.19
452.869	100.19
453.089	111.19
453.31	111.19
453.53	101.19
453.751	97.19
453.971	102.19
454.192	103.19
454.412	89.19
454.633	85.19
454.853	107.19
455.073	91.19
455.294	86.19
455.514	101.19
455.734	71.19
455.955	76.19
456.175	86.19
456.395	85.19
456.616	85.19
456.836	88.19
457.056	94.19
457.276	86.19
457.497	97.19
457.717	85.19
457.937	97.19
458.157	87.19
458.377	87.19
458.598	113.19
458.818	147.19
459.038	157.19
459.258	102.19
459.478	90.19
459.698	84.19
459.918	89.19
460.138	74.19
460.358	78.19
460.578	86.19
460.798	98.19
461.018	94.19
461.238	94.19
461.458	84.19
461.678	93.19
461.898	86.19
462.118	81.19
462.338	85.19
462.558	83.19
462.777	89.19
462.997	89.19
463.217	84.19
463.437	91.19
463.657	92.19
463.876	87.19
464.096	86.19
464.316	75.19
464.536	92.19
464.755	93.19
464.975	100.19
465.195	151.19
465.414	147.19
465.634	89.19
465.854	98.19
466.073	77.19
466.293	85.19
466.512	99.19
466.732	86.19
466.951	86.19
467.171	93.19
467.391	94.19
467.61	87.19
467.829	119.19
468.049	117.19
468.268	118.19
468.488	94.19
468.707	81.19
468.927	87.19
469.146	88.19
469.365	87.19
469.585	103.19
469.804	110.19
470.023	85.19
470.243	92.19
470.462	110.19
470.681	111.19
470.901	98.19
471.12	87.19
471.339	91.19
471.558	100.19
471.777	90.19
471.997	100.19
472.216	149.19
472.435	223.19
472.654	109.19
472.873	93.19
473.092	87.19
473.311	90.19
473.53	91.19
473.749	86.19
473.968	94.19
474.187	92.19
474.406	83.19
474.625	90.19
474.844	87.19
475.063	91.19
475.282	94.19
475.501	86.19
475.72	109.19
475.939	97.19
476.158	81.19
476.377	86.19
476.596	82.19
476.814	106.19
477.033	94.19
477.252	89.19
477.471	87.19
477.69	81.19
477.908	75.19
478.127	99.19
478.346	91.19
478.564	90.19
478.783	99.19
479.002	94.19
479.22	85.19
479.439	106.19
479.658	101.19
479.876	96.19
480.095	105.19
480.313	91.19
480.532	101.19
480.751	99.19
480.969	151.19
481.188	305.19
481.406	207.19
481.624	108.19
481.843	101.19
482.061	91.19
482.28	91.19
482.498	84.19
482.717	72.19
482.935	81.19
483.153	88.19
483.372	70.19
483.59	93.19
483.808	89.19
484.027	89.19
484.245	99.19
484.463	106.19
484.681	94.19
484.9	96.19
485.118	106.19
485.336	99.19
485.554	106.19
485.772	106.19
485.99	108.19
486.209	124.19
486.427	106.19
486.645	117.19
486.863	106.19
487.081	89.19
487.299	103.19
487.517	99.19
487.735	98.19
487.953	99.19
488.171	95.19
488.389	104.19
488.607	92.19
488.825	89.19
489.043	79.19
489.261	77.19
489.479	103.19
489.696	93.19
489.914	100.19
490.132	74.19
490.35	101.19
490.568	72.19
490.786	93.19
491.003	95.19
491.221	89.19
491.439	97.19
491.657	84.19
491.874	104.19
492.092	97.19
492.31	110.19
492.527	93.19
492.745	75.19
492.963	87.19
493.18	89.19
493.398	95.19
493.615	83.19
493.833	98.19
494.05	95.19
494.268	97.19
494.485	78.19
494.703	90.19
494.92	101.19
495.138	91.19
495.355	101.19
495.573	84.19
495.79	91.19
496.008	87.19
496.225	88.19
496.442	79.19
496.66	94.19
496.877	98.19
497.094	97.19
497.312	87.19
497.529	95.19
497.746	105.19
497.963	87.19
498.181	103.19
498.398	97.19
498.615	119.19
498.832	115.19
499.049	105.19
499.267	90.19
499.484	91.19
499.701	93.19
499.918	77.19
500.135	87.19
500.352	97.19
500.569	91.19
500.786	89.19
501.003	85.19
501.22	85.19
501.437	107.19
501.654	95.19
501.871	108.19
502.088	115.19
502.305	97.19
502.522	86.19
502.739	98.19
502.956	99.19
503.172	94.19
503.389	99.19
503.606	106.19
503.823	94.19
504.04	86.19
504.256	102.19
504.473	96.19
504.69	89.19
504.907	101.19
505.123	98.19
505.34	89.19
505.557	95.19
505.773	89.19
505.99	87.19
506.207	88.19
506.423	91.19
506.64	93.19
506.856	97.19
507.073	102.19
507.289	87.19
507.506	89.19
507.722	106.19
507.939	109.19
508.155	94.19
508.372	101.19
508.588	99.19
508.805	99.19
509.021	101.19
509.238	89.19
509.454	102.19
509.67	109.19
509.887	110.19
510.103	139.19
510.319	212.19
510.536	702.19
510.752	2139.19
510.968	578.19
511.184	138.19
511.401	107.19
511.617	101.19
511.833	115.19
512.049	85.19
512.265	87.19
512.481	87.19
512.698	91.19
512.914	101.19
513.13	81.19
513.346	99.19
513.562	92.19
513.778	100.19
513.994	97.19
514.21	108.19
514.426	108.19
