Data from Circ_1986_H10_HRD10591_00003.txt Node
Date: Wed Jan 03 12:15:26 EST 2024
User: Yrep
Spectrometer: HR+D1059
Trigger mode: 1
Integration Time (sec): 1.000000E-1
Scans to average: 1
Electric dark correction enabled: true
Nonlinearity correction enabled: false
Boxcar width: 0
XAxis mode: Wavelengths
Number of Pixels in Spectrum: 2048
>>>>>Begin Spectral Data<<<<<
223.165	-8.69
223.4	-8.69
223.635	-8.69
223.869	-23.69
224.104	-19.69
224.338	-23.69
224.573	-12.69
224.808	-19.69
225.042	-11.69
225.277	0.31
225.511	7.31
225.746	-1.69
225.98	23.31
226.215	8.31
226.449	9.31
226.683	24.31
226.918	23.31
227.152	25.31
227.387	41.31
227.621	26.31
227.856	38.31
228.09	58.31
228.324	62.31
228.559	46.31
228.793	47.31
229.027	62.31
229.262	69.31
229.496	66.31
229.73	74.31
229.964	73.31
230.199	60.31
230.433	79.31
230.667	75.31
230.901	75.31
231.136	65.31
231.37	75.31
231.604	70.31
231.838	77.31
232.072	89.31
232.306	82.31
232.541	84.31
232.775	77.31
233.009	68.31
233.243	84.31
233.477	77.31
233.711	80.31
233.945	83.31
234.179	77.31
234.413	72.31
234.647	80.31
234.881	80.31
235.115	79.31
235.349	77.31
235.583	74.31
235.817	67.31
236.051	69.31
236.285	69.31
236.519	71.31
236.753	85.31
236.987	90.31
237.221	74.31
237.455	77.31
237.689	71.31
237.922	89.31
238.156	73.31
238.39	71.31
238.624	86.31
238.858	72.31
239.091	82.31
239.325	68.31
239.559	79.31
239.793	77.31
240.027	83.31
240.26	86.31
240.494	66.31
240.728	79.31
240.961	61.31
241.195	61.31
241.429	83.31
241.662	69.31
241.896	68.31
242.13	68.31
242.363	75.31
242.597	69.31
242.83	82.31
243.064	74.31
243.298	54.31
243.531	81.31
243.765	66.31
243.998	71.31
244.232	67.31
244.465	83.31
244.699	75.31
244.932	80.31
245.166	81.31
245.399	64.31
245.633	65.31
245.866	88.31
246.099	70.31
246.333	71.31
246.566	76.31
246.8	67.31
247.033	77.31
247.266	85.31
247.5	63.31
247.733	82.31
247.966	79.31
248.2	84.31
248.433	70.31
248.666	66.31
248.899	87.31
249.133	81.31
249.366	93.31
249.599	81.31
249.832	86.31
250.066	77.31
250.299	78.31
250.532	73.31
250.765	69.31
250.998	74.31
251.231	67.31
251.465	77.31
251.698	70.31
251.931	85.31
252.164	83.31
252.397	79.31
252.63	79.31
252.863	80.31
253.096	71.31
253.329	67.31
253.562	71.31
253.795	73.31
254.028	81.31
254.261	81.31
254.494	77.31
254.727	81.31
254.96	73.31
255.193	80.31
255.426	83.31
255.659	83.31
255.892	98.31
256.124	73.31
256.357	72.31
256.59	74.31
256.823	79.31
257.056	101.31
257.289	74.31
257.521	78.31
257.754	79.31
257.987	72.31
258.22	75.31
258.452	87.31
258.685	91.31
258.918	72.31
259.151	73.31
259.383	81.31
259.616	80.31
259.849	74.31
260.081	81.31
260.314	85.31
260.547	97.31
260.779	76.31
261.012	82.31
261.244	81.31
261.477	85.31
261.71	93.31
261.942	97.31
262.175	101.31
262.407	96.31
262.64	87.31
262.872	81.31
263.105	82.31
263.337	84.31
263.57	72.31
263.802	71.31
264.035	79.31
264.267	78.31
264.499	76.31
264.732	81.31
264.964	82.31
265.197	75.31
265.429	87.31
265.661	86.31
265.894	68.31
266.126	83.31
266.358	79.31
266.591	98.31
266.823	79.31
267.055	84.31
267.287	73.31
267.52	79.31
267.752	74.31
267.984	81.31
268.216	86.31
268.448	70.31
268.681	79.31
268.913	90.31
269.145	81.31
269.377	74.31
269.609	91.31
269.841	83.31
270.073	80.31
270.306	83.31
270.538	81.31
270.77	86.31
271.002	93.31
271.234	82.31
271.466	77.31
271.698	85.31
271.93	89.31
272.162	67.31
272.394	79.31
272.626	80.31
272.858	83.31
273.09	79.31
273.322	81.31
273.553	81.31
273.785	87.31
274.017	78.31
274.249	79.31
274.481	80.31
274.713	82.31
274.945	83.31
275.176	81.31
275.408	97.31
275.64	83.31
275.872	80.31
276.104	85.31
276.335	82.31
276.567	78.31
276.799	88.31
277.031	95.31
277.262	81.31
277.494	89.31
277.726	77.31
277.957	95.31
278.189	91.31
278.421	90.31
278.652	88.31
278.884	102.31
279.115	104.31
279.347	95.31
279.579	94.31
279.81	74.31
280.042	84.31
280.273	99.31
280.505	98.31
280.736	78.31
280.968	91.31
281.199	93.31
281.431	66.31
281.662	83.31
281.894	70.31
282.125	98.31
282.356	93.31
282.588	114.31
282.819	91.31
283.051	81.31
283.282	89.31
283.513	97.31
283.745	74.31
283.976	94.31
284.207	82.31
284.439	79.31
284.67	84.31
284.901	81.31
285.132	79.31
285.364	100.31
285.595	89.31
285.826	91.31
286.057	88.31
286.288	82.31
286.52	88.31
286.751	81.31
286.982	85.31
287.213	78.31
287.444	89.31
287.675	83.31
287.906	81.31
288.138	99.31
288.369	98.31
288.6	73.31
288.831	80.31
289.062	96.31
289.293	78.31
289.524	81.31
289.755	88.31
289.986	87.31
290.217	98.31
290.448	85.31
290.679	97.31
290.91	95.31
291.141	74.31
291.371	82.31
291.602	81.31
291.833	98.31
292.064	91.31
292.295	83.31
292.526	91.31
292.757	88.31
292.987	92.31
293.218	89.31
293.449	91.31
293.68	90.31
293.91	94.31
294.141	94.31
294.372	97.31
294.603	85.31
294.833	81.31
295.064	79.31
295.295	90.31
295.525	91.31
295.756	98.31
295.987	90.31
296.217	101.31
296.448	100.31
296.679	101.31
296.909	99.31
297.14	93.31
297.37	96.31
297.601	85.31
297.831	68.31
298.062	85.31
298.292	81.31
298.523	89.31
298.753	77.31
298.984	94.31
299.214	91.31
299.445	90.31
299.675	83.31
299.905	91.31
300.136	84.31
300.366	94.31
300.597	87.31
300.827	93.31
301.057	72.31
301.288	94.31
301.518	94.31
301.748	94.31
301.979	91.31
302.209	105.31
302.439	74.31
302.669	90.31
302.9	74.31
303.13	94.31
303.36	87.31
303.59	103.31
303.82	93.31
304.051	80.31
304.281	100.31
304.511	86.31
304.741	93.31
304.971	69.31
305.201	79.31
305.431	82.31
305.661	86.31
305.891	90.31
306.121	88.31
306.352	100.31
306.582	78.31
306.812	88.31
307.042	85.31
307.272	101.31
307.502	81.31
307.731	95.31
307.961	95.31
308.191	94.31
308.421	88.31
308.651	84.31
308.881	86.31
309.111	93.31
309.341	91.31
309.571	97.31
309.8	94.31
310.03	81.31
310.26	90.31
310.49	86.31
310.72	85.31
310.949	97.31
311.179	93.31
311.409	85.31
311.639	85.31
311.868	111.31
312.098	81.31
312.328	98.31
312.557	92.31
312.787	98.31
313.017	81.31
313.246	91.31
313.476	83.31
313.706	85.31
313.935	99.31
314.165	94.31
314.394	85.31
314.624	93.31
314.853	97.31
315.083	92.31
315.312	86.31
315.542	98.31
315.771	113.31
316.001	91.31
316.23	93.31
316.46	91.31
316.689	89.31
316.919	87.31
317.148	90.31
317.377	95.31
317.607	87.31
317.836	78.31
318.065	93.31
318.295	87.31
318.524	82.31
318.753	86.31
318.983	85.31
319.212	73.31
319.441	116.31
319.67	88.31
319.9	85.31
320.129	96.31
320.358	96.31
320.587	90.31
320.816	86.31
321.046	98.31
321.275	75.31
321.504	84.31
321.733	87.31
321.962	102.31
322.191	94.31
322.42	89.31
322.649	101.31
322.878	107.31
323.108	111.31
323.337	107.31
323.566	112.31
323.795	113.31
324.024	158.31
324.253	279.31
324.482	535.31
324.71	1078.31
324.939	1393.31
325.168	539.31
325.397	177.31
325.626	121.31
325.855	123.31
326.084	99.31
326.313	97.31
326.542	126.31
326.77	189.31
326.999	345.31
327.228	635.31
327.457	1126.31
327.686	890.31
327.914	273.31
328.143	161.31
328.372	111.31
328.6	93.31
328.829	96.31
329.058	114.31
329.287	105.31
329.515	97.31
329.744	103.31
329.972	98.31
330.201	106.31
330.43	100.31
330.658	119.31
330.887	100.31
331.115	104.31
331.344	98.31
331.572	90.31
331.801	90.31
332.03	97.31
332.258	102.31
332.486	78.31
332.715	80.31
332.943	86.31
333.172	96.31
333.4	89.31
333.629	89.31
333.857	106.31
334.085	87.31
334.314	85.31
334.542	92.31
334.771	99.31
334.999	95.31
335.227	90.31
335.455	95.31
335.684	95.31
335.912	99.31
336.14	91.31
336.369	90.31
336.597	96.31
336.825	96.31
337.053	81.31
337.281	86.31
337.51	83.31
337.738	111.31
337.966	91.31
338.194	86.31
338.422	96.31
338.65	79.31
338.878	106.31
339.106	78.31
339.334	88.31
339.562	99.31
339.79	85.31
340.018	87.31
340.246	85.31
340.474	97.31
340.702	81.31
340.93	88.31
341.158	101.31
341.386	98.31
341.614	89.31
341.842	93.31
342.07	90.31
342.298	91.31
342.526	98.31
342.754	85.31
342.981	86.31
343.209	91.31
343.437	105.31
343.665	96.31
343.893	95.31
344.12	93.31
344.348	88.31
344.576	93.31
344.804	86.31
345.031	103.31
345.259	91.31
345.487	79.31
345.714	87.31
345.942	91.31
346.17	99.31
346.397	93.31
346.625	84.31
346.853	73.31
347.08	79.31
347.308	83.31
347.535	92.31
347.763	101.31
347.99	104.31
348.218	82.31
348.445	86.31
348.673	91.31
348.9	98.31
349.128	93.31
349.355	97.31
349.583	87.31
349.81	88.31
350.037	95.31
350.265	98.31
350.492	109.31
350.72	99.31
350.947	107.31
351.174	87.31
351.402	96.31
351.629	106.31
351.856	101.31
352.083	103.31
352.311	89.31
352.538	108.31
352.765	104.31
352.992	99.31
353.22	111.31
353.447	98.31
353.674	90.31
353.901	94.31
354.128	88.31
354.355	88.31
354.583	107.31
354.81	89.31
355.037	105.31
355.264	96.31
355.491	90.31
355.718	100.31
355.945	93.31
356.172	95.31
356.399	99.31
356.626	108.31
356.853	87.31
357.08	90.31
357.307	102.31
357.534	108.31
357.761	93.31
357.988	84.31
358.215	99.31
358.441	111.31
358.668	98.31
358.895	101.31
359.122	82.31
359.349	97.31
359.576	112.31
359.802	83.31
360.029	93.31
360.256	89.31
360.483	79.31
360.709	80.31
360.936	99.31
361.163	95.31
361.39	99.31
361.616	96.31
361.843	84.31
362.07	83.31
362.296	88.31
362.523	82.31
362.749	90.31
362.976	88.31
363.203	81.31
363.429	77.31
363.656	102.31
363.882	81.31
364.109	104.31
364.335	102.31
364.562	103.31
364.788	85.31
365.015	81.31
365.241	82.31
365.468	105.31
365.694	99.31
365.92	95.31
366.147	78.31
366.373	87.31
366.599	90.31
366.826	87.31
367.052	86.31
367.278	90.31
367.505	101.31
367.731	95.31
367.957	94.31
368.184	98.31
368.41	104.31
368.636	106.31
368.862	104.31
369.089	101.31
369.315	90.31
369.541	91.31
369.767	86.31
369.993	88.31
370.219	95.31
370.445	105.31
370.672	78.31
370.898	69.31
371.124	91.31
371.35	79.31
371.576	94.31
371.802	92.31
372.028	93.31
372.254	90.31
372.48	81.31
372.706	102.31
372.932	89.31
373.158	89.31
373.384	85.31
373.61	87.31
373.835	87.31
374.061	90.31
374.287	89.31
374.513	79.31
374.739	91.31
374.965	85.31
375.191	93.31
375.416	99.31
375.642	89.31
375.868	89.31
376.094	91.31
376.319	95.31
376.545	84.31
376.771	85.31
376.997	111.31
377.222	89.31
377.448	107.31
377.674	98.31
377.899	107.31
378.125	111.31
378.35	103.31
378.576	99.31
378.802	97.31
379.027	102.31
379.253	106.31
379.478	116.31
379.704	101.31
379.929	109.31
380.155	102.31
380.38	106.31
380.606	94.31
380.831	102.31
381.057	110.31
381.282	105.31
381.507	109.31
381.733	104.31
381.958	117.31
382.184	115.31
382.409	106.31
382.634	98.31
382.86	109.31
383.085	115.31
383.31	127.31
383.535	129.31
383.761	127.31
383.986	125.31
384.211	121.31
384.436	118.31
384.662	125.31
384.887	134.31
385.112	150.31
385.337	132.31
385.562	148.31
385.787	130.31
386.013	125.31
386.238	162.31
386.463	127.31
386.688	117.31
386.913	127.31
387.138	131.31
387.363	127.31
387.588	116.31
387.813	105.31
388.038	130.31
388.263	152.31
388.488	132.31
388.713	104.31
388.938	91.31
389.163	89.31
389.387	93.31
389.612	99.31
389.837	97.31
390.062	86.31
390.287	102.31
390.512	100.31
390.736	60.31
390.961	87.31
391.186	86.31
391.411	94.31
391.636	90.31
391.86	68.31
392.085	90.31
392.31	90.31
392.534	90.31
392.759	84.31
392.984	89.31
393.208	90.31
393.433	89.31
393.658	73.31
393.882	95.31
394.107	95.31
394.331	99.31
394.556	102.31
394.78	93.31
395.005	100.31
395.229	81.31
395.454	80.31
395.678	74.31
395.903	94.31
396.127	73.31
396.352	93.31
396.576	99.31
396.801	87.31
397.025	87.31
397.249	91.31
397.474	103.31
397.698	81.31
397.922	85.31
398.147	102.31
398.371	85.31
398.595	74.31
398.82	99.31
399.044	84.31
399.268	82.31
399.492	83.31
399.717	96.31
399.941	99.31
400.165	80.31
400.389	89.31
400.613	87.31
400.837	92.31
401.062	79.31
401.286	90.31
401.51	88.31
401.734	83.31
401.958	86.31
402.182	107.31
402.406	115.31
402.63	94.31
402.854	97.31
403.078	84.31
403.302	86.31
403.526	85.31
403.75	79.31
403.974	96.31
404.198	91.31
404.422	72.31
404.645	104.31
404.869	78.31
405.093	89.31
405.317	97.31
405.541	99.31
405.765	96.31
405.988	102.31
406.212	125.31
406.436	159.31
406.66	113.31
406.883	90.31
407.107	76.31
407.331	86.31
407.555	78.31
407.778	85.31
408.002	81.31
408.226	95.31
408.449	85.31
408.673	101.31
408.896	89.31
409.12	91.31
409.344	92.31
409.567	100.31
409.791	80.31
410.014	95.31
410.238	92.31
410.461	82.31
410.685	94.31
410.908	108.31
411.132	100.31
411.355	75.31
411.578	78.31
411.802	102.31
412.025	89.31
412.249	98.31
412.472	91.31
412.695	93.31
412.919	104.31
413.142	89.31
413.365	99.31
413.589	93.31
413.812	84.31
414.035	95.31
414.258	81.31
414.482	97.31
414.705	85.31
414.928	94.31
415.151	95.31
415.374	99.31
415.597	95.31
415.821	81.31
416.044	97.31
416.267	91.31
416.49	95.31
416.713	100.31
416.936	90.31
417.159	102.31
417.382	106.31
417.605	90.31
417.828	93.31
418.051	89.31
418.274	93.31
418.497	82.31
418.72	83.31
418.943	104.31
419.166	98.31
419.389	82.31
419.611	101.31
419.834	96.31
420.057	96.31
420.28	83.31
420.503	86.31
420.726	89.31
420.948	96.31
421.171	80.31
421.394	95.31
421.617	73.31
421.839	82.31
422.062	75.31
422.285	90.31
422.507	101.31
422.73	86.31
422.953	89.31
423.175	91.31
423.398	88.31
423.621	92.31
423.843	89.31
424.066	91.31
424.288	91.31
424.511	89.31
424.733	85.31
424.956	100.31
425.178	74.31
425.401	104.31
425.623	80.31
425.846	93.31
426.068	74.31
426.291	87.31
426.513	77.31
426.735	91.31
426.958	93.31
427.18	99.31
427.402	119.31
427.625	111.31
427.847	110.31
428.069	86.31
428.292	79.31
428.514	87.31
428.736	87.31
428.958	73.31
429.181	96.31
429.403	90.31
429.625	87.31
429.847	84.31
430.069	79.31
430.292	91.31
430.514	88.31
430.736	73.31
430.958	94.31
431.18	87.31
431.402	82.31
431.624	88.31
431.846	79.31
432.068	66.31
432.29	93.31
432.512	93.31
432.734	98.31
432.956	93.31
433.178	91.31
433.4	104.31
433.622	91.31
433.844	82.31
434.066	101.31
434.287	87.31
434.509	88.31
434.731	89.31
434.953	69.31
435.175	83.31
435.397	77.31
435.618	93.31
435.84	92.31
436.062	106.31
436.284	104.31
436.505	82.31
436.727	89.31
436.949	97.31
437.17	84.31
437.392	93.31
437.614	91.31
437.835	98.31
438.057	102.31
438.278	107.31
438.5	93.31
438.721	103.31
438.943	95.31
439.165	80.31
439.386	99.31
439.608	96.31
439.829	83.31
440.05	105.31
440.272	110.31
440.493	87.31
440.715	75.31
440.936	87.31
441.158	80.31
441.379	84.31
441.6	78.31
441.822	90.31
442.043	81.31
442.264	85.31
442.486	98.31
442.707	86.31
442.928	85.31
443.149	113.31
443.371	103.31
443.592	74.31
443.813	98.31
444.034	84.31
444.255	90.31
444.476	102.31
444.698	92.31
444.919	87.31
445.14	122.31
445.361	121.31
445.582	110.31
445.803	114.31
446.024	103.31
446.245	113.31
446.466	92.31
446.687	91.31
446.908	94.31
447.129	93.31
447.35	80.31
447.571	77.31
447.792	80.31
448.013	91.31
448.234	91.31
448.455	88.31
448.675	96.31
448.896	97.31
449.117	88.31
449.338	80.31
449.559	105.31
449.779	108.31
450	86.31
450.221	93.31
450.442	79.31
450.662	88.31
450.883	97.31
451.104	103.31
451.324	96.31
451.545	77.31
451.766	79.31
451.986	89.31
452.207	102.31
452.428	85.31
452.648	102.31
452.869	104.31
453.089	97.31
453.31	103.31
453.53	94.31
453.751	83.31
453.971	90.31
454.192	88.31
454.412	97.31
454.633	81.31
454.853	78.31
455.073	67.31
455.294	96.31
455.514	88.31
455.734	90.31
455.955	103.31
456.175	72.31
456.395	85.31
456.616	88.31
456.836	81.31
457.056	87.31
457.276	95.31
457.497	81.31
457.717	86.31
457.937	80.31
458.157	77.31
458.377	72.31
458.598	96.31
458.818	123.31
459.038	117.31
459.258	107.31
459.478	90.31
459.698	81.31
459.918	82.31
460.138	84.31
460.358	90.31
460.578	75.31
460.798	73.31
461.018	72.31
461.238	81.31
461.458	89.31
461.678	92.31
461.898	77.31
462.118	70.31
462.338	88.31
462.558	88.31
462.777	87.31
462.997	85.31
463.217	84.31
463.437	78.31
463.657	85.31
463.876	91.31
464.096	90.31
464.316	89.31
464.536	104.31
464.755	70.31
464.975	101.31
465.195	112.31
465.414	114.31
465.634	95.31
465.854	80.31
466.073	91.31
466.293	86.31
466.512	88.31
466.732	89.31
466.951	89.31
467.171	75.31
467.391	72.31
467.61	75.31
467.829	103.31
468.049	77.31
468.268	90.31
468.488	82.31
468.707	81.31
468.927	69.31
469.146	82.31
469.365	73.31
469.585	78.31
469.804	89.31
470.023	91.31
470.243	79.31
470.462	94.31
470.681	109.31
470.901	75.31
471.12	85.31
471.339	87.31
471.558	85.31
471.777	89.31
471.997	91.31
472.216	89.31
472.435	94.31
472.654	69.31
472.873	86.31
473.092	90.31
473.311	90.31
473.53	91.31
473.749	81.31
473.968	91.31
474.187	79.31
474.406	84.31
474.625	89.31
474.844	85.31
475.063	88.31
475.282	81.31
475.501	92.31
475.72	81.31
475.939	88.31
476.158	79.31
476.377	93.31
476.596	85.31
476.814	79.31
477.033	90.31
477.252	69.31
477.471	100.31
477.69	72.31
477.908	96.31
478.127	89.31
478.346	87.31
478.564	77.31
478.783	92.31
479.002	96.31
479.22	98.31
479.439	104.31
479.658	95.31
479.876	99.31
480.095	75.31
480.313	80.31
480.532	107.31
480.751	96.31
480.969	83.31
481.188	112.31
481.406	103.31
481.624	89.31
481.843	84.31
482.061	88.31
482.28	72.31
482.498	78.31
482.717	81.31
482.935	91.31
483.153	74.31
483.372	83.31
483.59	83.31
483.808	91.31
484.027	90.31
484.245	82.31
484.463	102.31
484.681	103.31
484.9	87.31
485.118	103.31
485.336	114.31
485.554	103.31
485.772	102.31
485.99	110.31
486.209	112.31
486.427	103.31
486.645	101.31
486.863	120.31
487.081	98.31
487.299	93.31
487.517	110.31
487.735	86.31
487.953	83.31
488.171	81.31
488.389	94.31
488.607	97.31
488.825	89.31
489.043	83.31
489.261	96.31
489.479	92.31
489.696	86.31
489.914	102.31
490.132	87.31
490.35	87.31
490.568	89.31
490.786	98.31
491.003	96.31
491.221	89.31
491.439	89.31
491.657	110.31
491.874	104.31
492.092	95.31
492.31	95.31
492.527	96.31
492.745	81.31
492.963	90.31
493.18	96.31
493.398	88.31
493.615	85.31
493.833	83.31
494.05	96.31
494.268	85.31
494.485	88.31
494.703	82.31
494.92	87.31
495.138	90.31
495.355	86.31
495.573	93.31
495.79	78.31
496.008	90.31
496.225	77.31
496.442	106.31
496.66	98.31
496.877	91.31
497.094	98.31
497.312	80.31
497.529	91.31
497.746	96.31
497.963	85.31
498.181	87.31
498.398	94.31
498.615	94.31
498.832	102.31
499.049	83.31
499.267	95.31
499.484	85.31
499.701	85.31
499.918	94.31
500.135	89.31
500.352	86.31
500.569	89.31
500.786	79.31
501.003	79.31
501.22	88.31
501.437	100.31
501.654	93.31
501.871	99.31
502.088	81.31
502.305	89.31
502.522	85.31
502.739	84.31
502.956	84.31
503.172	75.31
503.389	95.31
503.606	89.31
503.823	99.31
504.04	92.31
504.256	88.31
504.473	100.31
504.69	81.31
504.907	93.31
505.123	87.31
505.34	89.31
505.557	88.31
505.773	101.31
505.99	86.31
506.207	91.31
506.423	85.31
506.64	74.31
506.856	83.31
507.073	93.31
507.289	81.31
507.506	87.31
507.722	94.31
507.939	90.31
508.155	99.31
508.372	95.31
508.588	92.31
508.805	86.31
509.021	95.31
509.238	70.31
509.454	82.31
509.67	97.31
509.887	89.31
510.103	112.31
510.319	162.31
510.536	458.31
510.752	1299.31
510.968	388.31
511.184	101.31
511.401	90.31
511.617	98.31
511.833	108.31
512.049	87.31
512.265	87.31
512.481	96.31
512.698	93.31
512.914	81.31
513.13	76.31
513.346	83.31
513.562	113.31
513.778	99.31
513.994	78.31
514.21	102.31
514.426	97.31
514.642	107.31
514.858	101.31
515.074	124.31
515.29	274.31
515.506	767.31
515.721	314.31
515.937	115.31
516.153	98.31
516.369	101.31
516.585	92.31
516.801	84.31
