Data from Circ_1986_H10_HRD10591_00036.txt Node
Date: Wed Jan 03 12:15:33 EST 2024
User: Yrep
Spectrometer: HR+D1059
Trigger mode: 1
Integration Time (sec): 1.000000E-1
Scans to average: 1
Electric dark correction enabled: true
Nonlinearity correction enabled: false
Boxcar width: 0
XAxis mode: Wavelengths
Number of Pixels in Spectrum: 2048
>>>>>Begin Spectral Data<<<<<
223.165	-8
223.4	-8
223.635	-8
223.869	-7
224.104	-21
224.338	-6
224.573	-21
224.808	-12
225.042	-2
225.277	-13
225.511	5
225.746	-5
225.98	1
226.215	5
226.449	13
226.683	16
226.918	23
227.152	32
227.387	38
227.621	46
227.856	48
228.09	46
228.324	55
228.559	56
228.793	71
229.027	70
229.262	78
229.496	74
229.73	72
229.964	94
230.199	70
230.433	77
230.667	74
230.901	75
231.136	84
231.37	94
231.604	86
231.838	72
232.072	77
232.306	93
232.541	72
232.775	77
233.009	83
233.243	67
233.477	80
233.711	96
233.945	94
234.179	96
234.413	92
234.647	83
234.881	100
235.115	82
235.349	64
235.583	83
235.817	91
236.051	81
236.285	84
236.519	78
236.753	84
236.987	77
237.221	101
237.455	90
237.689	90
237.922	84
238.156	82
238.39	82
238.624	77
238.858	72
239.091	84
239.325	64
239.559	86
239.793	73
240.027	80
240.26	67
240.494	76
240.728	72
240.961	79
241.195	70
241.429	74
241.662	82
241.896	80
242.13	83
242.363	61
242.597	83
242.83	94
243.064	85
243.298	82
243.531	78
243.765	74
243.998	83
244.232	76
244.465	94
244.699	77
244.932	89
245.166	72
245.399	89
245.633	66
245.866	93
246.099	84
246.333	78
246.566	80
246.8	86
247.033	84
247.266	86
247.5	74
247.733	84
247.966	74
248.2	84
248.433	69
248.666	82
248.899	88
249.133	84
249.366	101
249.599	90
249.832	98
250.066	80
250.299	84
250.532	73
250.765	74
250.998	71
251.231	80
251.465	80
251.698	89
251.931	82
252.164	78
252.397	82
252.63	92
252.863	91
253.096	82
253.329	77
253.562	90
253.795	87
254.028	74
254.261	82
254.494	73
254.727	88
254.96	90
255.193	85
255.426	87
255.659	92
255.892	99
256.124	84
256.357	76
256.59	85
256.823	73
257.056	90
257.289	75
257.521	73
257.754	82
257.987	76
258.22	73
258.452	87
258.685	85
258.918	95
259.151	81
259.383	82
259.616	82
259.849	81
260.081	85
260.314	90
260.547	78
260.779	81
261.012	83
261.244	82
261.477	89
261.71	92
261.942	102
262.175	105
262.407	96
262.64	92
262.872	82
263.105	83
263.337	91
263.57	84
263.802	100
264.035	85
264.267	96
264.499	86
264.732	80
264.964	68
265.197	65
265.429	85
265.661	86
265.894	86
266.126	96
266.358	78
266.591	93
266.823	80
267.055	85
267.287	94
267.52	88
267.752	73
267.984	74
268.216	91
268.448	82
268.681	90
268.913	91
269.145	78
269.377	86
269.609	76
269.841	95
270.073	81
270.306	92
270.538	91
270.77	98
271.002	88
271.234	88
271.466	78
271.698	81
271.93	83
272.162	81
272.394	83
272.626	82
272.858	72
273.09	88
273.322	88
273.553	76
273.785	92
274.017	105
274.249	84
274.481	96
274.713	97
274.945	78
275.176	99
275.408	96
275.64	80
275.872	102
276.104	85
276.335	93
276.567	91
276.799	106
277.031	94
277.262	100
277.494	92
277.726	89
277.957	88
278.189	89
278.421	99
278.652	86
278.884	88
279.115	78
279.347	82
279.579	76
279.81	65
280.042	100
280.273	91
280.505	97
280.736	94
280.968	85
281.199	87
281.431	87
281.662	94
281.894	94
282.125	95
282.356	106
282.588	129
282.819	106
283.051	85
283.282	82
283.513	93
283.745	104
283.976	102
284.207	95
284.439	89
284.67	67
284.901	75
285.132	86
285.364	92
285.595	98
285.826	88
286.057	88
286.288	89
286.52	90
286.751	87
286.982	108
287.213	82
287.444	84
287.675	86
287.906	98
288.138	91
288.369	88
288.6	77
288.831	88
289.062	95
289.293	88
289.524	85
289.755	94
289.986	85
290.217	73
290.448	83
290.679	83
290.91	71
291.141	88
291.371	80
291.602	82
291.833	82
292.064	102
292.295	93
292.526	89
292.757	84
292.987	93
293.218	100
293.449	87
293.68	73
293.91	92
294.141	109
294.372	90
294.603	102
294.833	88
295.064	96
295.295	88
295.525	85
295.756	90
295.987	110
296.217	119
296.448	116
296.679	82
296.909	97
297.14	99
297.37	85
297.601	92
297.831	105
298.062	81
298.292	100
298.523	99
298.753	83
298.984	90
299.214	88
299.445	80
299.675	105
299.905	93
300.136	81
300.366	85
300.597	92
300.827	82
301.057	85
301.288	96
301.518	109
301.748	74
301.979	107
302.209	87
302.439	90
302.669	93
302.9	81
303.13	100
303.36	86
303.59	102
303.82	116
304.051	89
304.281	99
304.511	96
304.741	98
304.971	88
305.201	87
305.431	78
305.661	103
305.891	91
306.121	98
306.352	98
306.582	103
306.812	83
307.042	100
307.272	94
307.502	103
307.731	92
307.961	96
308.191	88
308.421	93
308.651	89
308.881	98
309.111	92
309.341	90
309.571	99
309.8	92
310.03	96
310.26	93
310.49	101
310.72	93
310.949	104
311.179	80
311.409	89
311.639	96
311.868	92
312.098	104
312.328	107
312.557	106
312.787	104
313.017	112
313.246	95
313.476	106
313.706	99
313.935	98
314.165	96
314.394	101
314.624	84
314.853	89
315.083	84
315.312	86
315.542	74
315.771	86
316.001	100
316.23	103
316.46	106
316.689	102
316.919	81
317.148	91
317.377	106
317.607	80
317.836	100
318.065	82
318.295	102
318.524	85
318.753	89
318.983	95
319.212	101
319.441	103
319.67	93
319.9	91
320.129	95
320.358	96
320.587	86
320.816	105
321.046	106
321.275	88
321.504	92
321.733	92
321.962	101
322.191	105
322.42	97
322.649	97
322.878	119
323.108	114
323.337	119
323.566	110
323.795	120
324.024	186
324.253	326
324.482	660
324.71	1358
324.939	1768
325.168	669
325.397	212
325.626	131
325.855	118
326.084	113
326.313	116
326.542	145
326.77	211
326.999	380
327.228	772
327.457	1340
327.686	1120
327.914	316
328.143	178
328.372	148
328.6	123
328.829	125
329.058	116
329.287	125
329.515	114
329.744	93
329.972	107
330.201	136
330.43	172
330.658	128
330.887	130
331.115	116
331.344	94
331.572	85
331.801	97
332.03	96
332.258	107
332.486	81
332.715	107
332.943	96
333.172	95
333.4	103
333.629	105
333.857	112
334.085	129
334.314	134
334.542	186
334.771	154
334.999	110
335.227	101
335.455	100
335.684	95
335.912	94
336.14	99
336.369	96
336.597	109
336.825	108
337.053	94
337.281	105
337.51	88
337.738	99
337.966	85
338.194	91
338.422	93
338.65	99
338.878	92
339.106	91
339.334	91
339.562	90
339.79	89
340.018	94
340.246	97
340.474	94
340.702	83
340.93	89
341.158	113
341.386	98
341.614	102
341.842	97
342.07	97
342.298	88
342.526	101
342.754	92
342.981	100
343.209	85
343.437	99
343.665	78
343.893	78
344.12	92
344.348	90
344.576	97
344.804	77
345.031	77
345.259	106
345.487	92
345.714	96
345.942	101
346.17	96
346.397	107
346.625	100
346.853	84
347.08	91
347.308	97
347.535	104
347.763	85
347.99	100
348.218	95
348.445	118
348.673	93
348.9	105
349.128	107
349.355	91
349.583	91
349.81	101
350.037	92
350.265	96
350.492	101
350.72	105
350.947	104
351.174	104
351.402	102
351.629	104
351.856	107
352.083	91
352.311	116
352.538	109
352.765	85
352.992	107
353.22	95
353.447	92
353.674	94
353.901	106
354.128	68
354.355	101
354.583	98
354.81	108
355.037	89
355.264	102
355.491	97
355.718	85
355.945	98
356.172	97
356.399	88
356.626	94
356.853	103
357.08	86
357.307	92
357.534	107
357.761	102
357.988	104
358.215	91
358.441	96
358.668	99
358.895	105
359.122	114
359.349	92
359.576	92
359.802	85
360.029	92
360.256	84
360.483	101
360.709	99
360.936	88
361.163	88
361.39	90
361.616	101
361.843	84
362.07	100
362.296	94
362.523	91
362.749	93
362.976	91
363.203	84
363.429	80
363.656	88
363.882	88
364.109	108
364.335	91
364.562	105
364.788	95
365.015	95
365.241	110
365.468	114
365.694	95
365.92	89
366.147	97
366.373	87
366.599	92
366.826	91
367.052	76
367.278	94
367.505	84
367.731	88
367.957	99
368.184	96
368.41	90
368.636	105
368.862	127
369.089	107
369.315	102
369.541	89
369.767	91
369.993	100
370.219	91
370.445	96
370.672	95
370.898	76
371.124	101
371.35	88
371.576	86
371.802	94
372.028	63
372.254	89
372.48	87
372.706	89
372.932	98
373.158	95
373.384	74
373.61	90
373.835	95
374.061	97
374.287	90
374.513	88
374.739	97
374.965	101
375.191	89
375.416	96
375.642	96
375.868	98
376.094	88
376.319	90
376.545	81
376.771	76
376.997	75
377.222	80
377.448	91
377.674	86
377.899	99
378.125	89
378.35	92
378.576	84
378.802	85
379.027	88
379.253	90
379.478	84
379.704	92
379.929	97
380.155	98
380.38	89
380.606	89
380.831	116
381.057	95
381.282	105
381.507	116
381.733	87
381.958	93
382.184	94
382.409	105
382.634	106
382.86	104
383.085	107
383.31	108
383.535	113
383.761	100
383.986	96
384.211	104
384.436	88
384.662	101
384.887	101
385.112	105
385.337	121
385.562	103
385.787	105
386.013	115
386.238	109
386.463	90
386.688	116
386.913	94
387.138	107
387.363	112
387.588	106
387.813	98
388.038	113
388.263	123
388.488	105
388.713	108
388.938	94
389.163	95
389.387	91
389.612	92
389.837	93
390.062	101
390.287	98
390.512	84
390.736	90
390.961	96
391.186	97
391.411	102
391.636	96
391.86	88
392.085	81
392.31	88
392.534	101
392.759	96
392.984	89
393.208	83
393.433	88
393.658	88
393.882	74
394.107	93
394.331	88
394.556	105
394.78	93
395.005	94
395.229	99
395.454	92
395.678	97
395.903	97
396.127	77
396.352	90
396.576	99
396.801	93
397.025	100
397.249	103
397.474	94
397.698	86
397.922	93
398.147	67
398.371	93
398.595	94
398.82	88
399.044	96
399.268	76
399.492	80
399.717	75
399.941	95
400.165	94
400.389	100
400.613	88
400.837	101
401.062	89
401.286	94
401.51	96
401.734	87
401.958	108
402.182	118
402.406	133
402.63	124
402.854	97
403.078	93
403.302	76
403.526	83
403.75	82
403.974	82
404.198	102
404.422	90
404.645	107
404.869	92
405.093	91
405.317	91
405.541	92
405.765	103
405.988	109
406.212	142
406.436	203
406.66	125
406.883	94
407.107	89
407.331	96
407.555	83
407.778	89
408.002	101
408.226	82
408.449	82
408.673	93
408.896	100
409.12	99
409.344	88
409.567	96
409.791	88
410.014	91
410.238	87
410.461	90
410.685	100
410.908	102
411.132	108
411.355	86
411.578	61
411.802	86
412.025	86
412.249	105
412.472	97
412.695	97
412.919	91
413.142	98
413.365	98
413.589	92
413.812	101
414.035	94
414.258	86
414.482	89
414.705	106
414.928	88
415.151	97
415.374	89
415.597	90
415.821	89
416.044	91
416.267	89
416.49	91
416.713	78
416.936	87
417.159	102
417.382	91
417.605	102
417.828	94
418.051	92
418.274	79
418.497	82
418.72	79
418.943	104
419.166	105
419.389	92
419.611	91
419.834	91
420.057	83
420.28	75
420.503	99
420.726	92
420.948	78
421.171	93
421.394	103
421.617	91
421.839	104
422.062	100
422.285	95
422.507	81
422.73	86
422.953	85
423.175	75
423.398	106
423.621	86
423.843	86
424.066	94
424.288	73
424.511	90
424.733	92
424.956	100
425.178	94
425.401	105
425.623	98
425.846	94
426.068	78
426.291	99
426.513	92
426.735	98
426.958	88
427.18	94
427.402	123
427.625	147
427.847	135
428.069	123
428.292	88
428.514	90
428.736	89
428.958	97
429.181	73
429.403	95
429.625	94
429.847	87
430.069	96
430.292	91
430.514	86
430.736	92
430.958	83
431.18	73
431.402	87
431.624	86
431.846	85
432.068	71
432.29	82
432.512	86
432.734	94
432.956	95
433.178	82
433.4	103
433.622	98
433.844	91
434.066	105
434.287	99
434.509	102
434.731	95
434.953	93
435.175	101
435.397	83
435.618	87
435.84	104
436.062	114
436.284	109
436.505	92
436.727	99
436.949	89
437.17	74
437.392	86
437.614	87
437.835	100
438.057	114
438.278	110
438.5	91
438.721	118
438.943	90
439.165	87
439.386	88
439.608	89
439.829	93
440.05	106
440.272	139
440.493	104
440.715	97
440.936	94
441.158	94
441.379	85
441.6	94
441.822	100
442.043	89
442.264	89
442.486	87
442.707	94
442.928	89
443.149	122
443.371	125
443.592	117
443.813	94
444.034	89
444.255	97
444.476	91
444.698	77
444.919	86
445.14	138
445.361	116
445.582	115
445.803	115
446.024	122
446.245	118
446.466	105
446.687	84
446.908	84
447.129	94
447.35	90
447.571	106
447.792	90
448.013	80
448.234	101
448.455	90
448.675	117
448.896	114
449.117	91
449.338	96
449.559	118
449.779	123
450	107
450.221	107
450.442	98
450.662	75
450.883	95
451.104	105
451.324	100
451.545	82
451.766	98
451.986	98
452.207	89
452.428	98
452.648	104
452.869	94
453.089	99
453.31	116
453.53	85
453.751	106
453.971	97
454.192	98
454.412	88
454.633	86
454.853	88
455.073	92
455.294	100
455.514	98
455.734	104
455.955	76
456.175	104
456.395	112
456.616	91
456.836	98
457.056	93
457.276	78
457.497	70
457.717	87
457.937	90
458.157	91
458.377	94
458.598	99
458.818	131
459.038	138
459.258	107
459.478	106
459.698	96
459.918	84
460.138	76
460.358	95
460.578	88
460.798	104
461.018	82
461.238	80
461.458	92
461.678	81
461.898	92
462.118	90
462.338	79
462.558	86
462.777	76
462.997	78
463.217	92
463.437	80
463.657	83
463.876	91
464.096	93
464.316	99
464.536	88
464.755	96
464.975	92
465.195	144
465.414	135
465.634	103
465.854	85
466.073	101
466.293	85
466.512	84
466.732	84
466.951	101
467.171	75
467.391	97
467.61	102
467.829	98
468.049	100
468.268	117
468.488	102
468.707	96
468.927	84
469.146	88
469.365	88
469.585	97
469.804	94
470.023	89
470.243	88
470.462	103
470.681	97
470.901	94
471.12	90
471.339	93
471.558	88
471.777	91
471.997	74
472.216	124
472.435	206
472.654	102
472.873	94
473.092	75
473.311	91
473.53	88
473.749	87
473.968	94
474.187	92
474.406	90
474.625	94
474.844	93
475.063	94
475.282	81
475.501	86
475.72	96
475.939	82
476.158	88
476.377	81
476.596	93
476.814	91
477.033	87
477.252	92
477.471	82
477.69	85
477.908	98
478.127	96
478.346	96
478.564	90
478.783	98
479.002	96
479.22	94
479.439	114
479.658	104
479.876	106
480.095	86
480.313	87
480.532	105
480.751	107
480.969	138
481.188	288
481.406	213
481.624	104
481.843	100
482.061	98
482.28	90
482.498	89
482.717	83
482.935	86
483.153	97
483.372	95
483.59	82
483.808	93
484.027	100
484.245	88
484.463	89
484.681	87
484.9	80
485.118	103
485.336	92
485.554	89
485.772	80
485.99	124
486.209	112
486.427	82
486.645	103
486.863	104
487.081	98
487.299	100
487.517	105
487.735	86
487.953	101
488.171	99
488.389	97
488.607	102
488.825	99
489.043	89
489.261	68
489.479	80
489.696	96
489.914	82
490.132	88
490.35	88
490.568	78
490.786	80
491.003	84
491.221	85
491.439	96
491.657	78
491.874	84
492.092	93
492.31	97
492.527	91
492.745	91
492.963	94
493.18	92
493.398	101
493.615	96
493.833	105
494.05	87
494.268	96
494.485	92
494.703	91
494.92	80
495.138	95
495.355	88
495.573	98
495.79	104
496.008	98
496.225	91
496.442	81
496.66	86
496.877	93
497.094	96
497.312	102
497.529	95
497.746	84
497.963	99
498.181	90
498.398	90
498.615	97
498.832	92
499.049	83
499.267	83
499.484	85
499.701	76
499.918	99
500.135	82
500.352	90
500.569	97
500.786	88
501.003	91
501.22	82
501.437	76
501.654	96
501.871	93
502.088	90
502.305	99
502.522	87
502.739	80
502.956	82
503.172	103
503.389	95
503.606	102
503.823	100
504.04	101
504.256	100
504.473	76
504.69	96
504.907	103
505.123	98
505.34	99
505.557	93
505.773	98
505.99	84
506.207	91
506.423	93
506.64	76
506.856	92
507.073	94
507.289	77
507.506	98
507.722	89
507.939	93
508.155	85
508.372	91
508.588	97
508.805	88
509.021	89
509.238	113
509.454	107
509.67	105
509.887	103
510.103	122
510.319	180
510.536	630
510.752	1867
510.968	515
511.184	131
511.401	120
511.617	85
511.833	96
512.049	88
512.265	103
512.481	91
512.698	75
512.914	86
513.13	88
513.346	90
513.562	98
513.778	104
513.994	90
514.21	98
514.426	113
514.642	109
514.858	120
515.074	174
515.29	358
515.506	1120
515.721	424
515.937	127
516.153	94
516.369	102
516.585	95
516.801	97
517.016	89
517.232	89
517.448	99
517.664	82
517.879	84
518.095	81
518.311	87
518.527	75
518.742	94
518.958	90
519.173	99
519.389	99
519.605	86
519.82	92
520.036	100
520.251	108
520.467	112
520.682	99
520.898	104
521.113	109
521.329	110
521.544	181
521.76	449
521.975	1874
522.19	1098
522.406	246
522.621	105
522.836	105
523.052	99
523.267	102
523.482	82
523.698	113
523.913	113
524.128	98
524.343	95
524.559	96
524.774	97
524.989	91
525.204	95
525.419	89
525.634	105
525.849	83
526.064	102
526.28	97
526.495	94
526.71	93
526.925	87
527.14	83
527.355	90
527.57	82
527.785	87
527.999	111
528.214	106
528.429	98
528.644	88
528.859	93
529.074	114
529.289	103
529.503	145
529.718	92
529.933	100
530.148	86
530.363	85
530.577	88
530.792	96
531.007	81
531.221	86
531.436	102
531.651	86
531.865	97
532.08	96
532.295	96
532.509	91
532.724	97
532.938	92
533.153	96
533.367	91
533.582	93
533.796	98
534.011	96
534.225	97
534.44	92
534.654	100
534.868	96
535.083	101
535.297	93
535.511	82
535.726	102
535.94	88
536.154	107
536.369	93
536.583	90
536.797	92
537.011	88
537.225	100
537.44	94
537.654	92
537.868	98
538.082	85
538.296	87
538.51	103
538.724	85
538.938	84
539.153	99
539.367	91
539.581	98
539.795	94
540.009	85
540.222	77
540.436	93
540.65	89
540.864	88
541.078	91
541.292	107
541.506	98
541.72	88
541.934	89
542.147	96
542.361	89
542.575	91
542.789	81
543.002	85
543.216	94
543.43	102
543.644	96
543.857	79
544.071	88
544.285	92
544.498	98
544.712	80
544.925	103
545.139	86
545.352	105
545.566	97
545.779	101
545.993	97
546.206	92
546.42	98
546.633	98
546.847	79
547.06	88
547.274	89
547.487	81
547.7	81
547.914	88
548.127	76
548.34	88
548.554	93
548.767	89
548.98	76
549.193	98
549.407	99
549.62	100
549.833	92
550.046	88
550.259	79
550.473	76
550.686	91
550.899	90
551.112	90
551.325	95
551.538	80
551.751	104
551.964	84
552.177	106
552.39	94
552.603	87
552.816	87
553.029	99
553.242	97
553.455	97
553.667	97
553.88	102
554.093	83
554.306	94
554.519	85
554.732	100
554.944	91
555.157	96
555.37	85
555.583	92
555.795	98
556.008	107
556.221	104
556.433	102
556.646	90
556.859	93
557.071	87
557.284	99
557.496	92
557.709	88
557.921	91
558.134	83
558.346	103
558.559	85
558.771	97
558.984	89
559.196	94
559.409	84
559.621	88
559.833	94
560.046	93
560.258	99
560.47	91
560.683	89
560.895	82
561.107	97
561.32	89
561.532	80
561.744	90
561.956	105
562.168	98
562.381	92
562.593	96
562.805	105
563.017	103
563.229	81
563.441	89
563.653	76
563.865	88
564.077	72
564.289	92
564.501	92
564.713	89
564.925	97
565.137	101
565.349	92
565.561	90
565.773	91
565.985	82
566.197	82
566.408	91
566.62	80
566.832	98
567.044	92
567.255	88
567.467	87
567.679	91
567.891	86
568.102	87
568.314	87
568.526	93
568.737	82
568.949	95
569.161	67
569.372	97
569.584	93
569.795	92
570.007	115
570.218	202
570.43	133
570.641	86
570.853	102
571.064	92
571.276	75
571.487	89
571.698	90
571.91	88
572.121	90
572.333	80
572.544	77
572.755	76
572.966	92
573.178	80
573.389	105
573.6	108
573.811	95
574.023	93
574.234	101
574.445	97
574.656	84
574.867	87
575.078	82
575.289	95
575.501	104
575.712	85
575.923	88
576.134	97
576.345	94
576.556	93
576.767	91
576.978	87
577.188	88
577.399	90
577.61	86
577.821	100
578.032	98
578.243	233
578.454	583
578.665	184
578.875	106
579.086	86
579.297	105
579.508	81
579.718	106
579.929	93
580.14	85
580.35	88
580.561	91
580.772	84
580.982	82
581.193	96
581.403	88
581.614	80
581.825	77
582.035	80
582.246	84
582.456	82
582.667	97
582.877	72
583.087	76
583.298	94
583.508	90
583.719	100
583.929	86
