Data from Circ_1986_H10_HRD10591_00093.txt Node
Date: Wed Jan 03 12:15:44 EST 2024
User: Yrep
Spectrometer: HR+D1059
Trigger mode: 1
Integration Time (sec): 1.000000E-1
Scans to average: 1
Electric dark correction enabled: true
Nonlinearity correction enabled: false
Boxcar width: 0
XAxis mode: Wavelengths
Number of Pixels in Spectrum: 2048
>>>>>Begin Spectral Data<<<<<
223.165	-21.44
223.4	-21.44
223.635	-21.44
223.869	-20.44
224.104	-3.44
224.338	2.56
224.573	-6.44
224.808	-7.44
225.042	-17.44
225.277	-12.44
225.511	-11.44
225.746	-8.44
225.98	17.56
226.215	4.56
226.449	19.56
226.683	19.56
226.918	23.56
227.152	21.56
227.387	39.56
227.621	42.56
227.856	40.56
228.09	56.56
228.324	45.56
228.559	65.56
228.793	67.56
229.027	62.56
229.262	58.56
229.496	82.56
229.73	82.56
229.964	70.56
230.199	73.56
230.433	82.56
230.667	93.56
230.901	78.56
231.136	73.56
231.37	81.56
231.604	74.56
231.838	85.56
232.072	81.56
232.306	85.56
232.541	70.56
232.775	89.56
233.009	87.56
233.243	87.56
233.477	82.56
233.711	81.56
233.945	89.56
234.179	85.56
234.413	73.56
234.647	81.56
234.881	85.56
235.115	84.56
235.349	78.56
235.583	80.56
235.817	73.56
236.051	84.56
236.285	82.56
236.519	87.56
236.753	76.56
236.987	81.56
237.221	97.56
237.455	83.56
237.689	79.56
237.922	85.56
238.156	90.56
238.39	63.56
238.624	89.56
238.858	90.56
239.091	70.56
239.325	79.56
239.559	75.56
239.793	82.56
240.027	94.56
240.26	91.56
240.494	81.56
240.728	73.56
240.961	83.56
241.195	89.56
241.429	73.56
241.662	97.56
241.896	84.56
242.13	84.56
242.363	80.56
242.597	83.56
242.83	85.56
243.064	71.56
243.298	81.56
243.531	76.56
243.765	77.56
243.998	88.56
244.232	90.56
244.465	92.56
244.699	89.56
244.932	72.56
245.166	87.56
245.399	83.56
245.633	77.56
245.866	82.56
246.099	76.56
246.333	90.56
246.566	84.56
246.8	79.56
247.033	69.56
247.266	69.56
247.5	86.56
247.733	75.56
247.966	73.56
248.2	81.56
248.433	93.56
248.666	77.56
248.899	99.56
249.133	87.56
249.366	99.56
249.599	83.56
249.832	77.56
250.066	84.56
250.299	103.56
250.532	90.56
250.765	82.56
250.998	90.56
251.231	87.56
251.465	73.56
251.698	76.56
251.931	77.56
252.164	67.56
252.397	83.56
252.63	92.56
252.863	77.56
253.096	89.56
253.329	89.56
253.562	77.56
253.795	75.56
254.028	73.56
254.261	93.56
254.494	79.56
254.727	87.56
254.96	85.56
255.193	88.56
255.426	87.56
255.659	88.56
255.892	93.56
256.124	92.56
256.357	88.56
256.59	92.56
256.823	83.56
257.056	83.56
257.289	103.56
257.521	92.56
257.754	76.56
257.987	82.56
258.22	86.56
258.452	74.56
258.685	100.56
258.918	89.56
259.151	70.56
259.383	73.56
259.616	85.56
259.849	90.56
260.081	97.56
260.314	85.56
260.547	82.56
260.779	88.56
261.012	87.56
261.244	82.56
261.477	84.56
261.71	100.56
261.942	105.56
262.175	101.56
262.407	97.56
262.64	88.56
262.872	83.56
263.105	83.56
263.337	91.56
263.57	81.56
263.802	87.56
264.035	75.56
264.267	90.56
264.499	105.56
264.732	89.56
264.964	83.56
265.197	82.56
265.429	90.56
265.661	81.56
265.894	87.56
266.126	92.56
266.358	94.56
266.591	86.56
266.823	90.56
267.055	87.56
267.287	98.56
267.52	89.56
267.752	81.56
267.984	87.56
268.216	90.56
268.448	85.56
268.681	90.56
268.913	88.56
269.145	81.56
269.377	90.56
269.609	108.56
269.841	86.56
270.073	79.56
270.306	85.56
270.538	93.56
270.77	92.56
271.002	98.56
271.234	77.56
271.466	75.56
271.698	89.56
271.93	85.56
272.162	99.56
272.394	98.56
272.626	95.56
272.858	77.56
273.09	78.56
273.322	85.56
273.553	89.56
273.785	87.56
274.017	76.56
274.249	75.56
274.481	89.56
274.713	84.56
274.945	98.56
275.176	94.56
275.408	74.56
275.64	82.56
275.872	94.56
276.104	97.56
276.335	79.56
276.567	99.56
276.799	106.56
277.031	102.56
277.262	87.56
277.494	91.56
277.726	102.56
277.957	85.56
278.189	86.56
278.421	86.56
278.652	95.56
278.884	80.56
279.115	85.56
279.347	91.56
279.579	95.56
279.81	97.56
280.042	104.56
280.273	99.56
280.505	85.56
280.736	93.56
280.968	74.56
281.199	94.56
281.431	91.56
281.662	89.56
281.894	105.56
282.125	89.56
282.356	110.56
282.588	121.56
282.819	104.56
283.051	109.56
283.282	106.56
283.513	91.56
283.745	92.56
283.976	93.56
284.207	103.56
284.439	78.56
284.67	95.56
284.901	100.56
285.132	87.56
285.364	85.56
285.595	88.56
285.826	83.56
286.057	83.56
286.288	84.56
286.52	100.56
286.751	96.56
286.982	94.56
287.213	100.56
287.444	82.56
287.675	90.56
287.906	90.56
288.138	106.56
288.369	95.56
288.6	100.56
288.831	91.56
289.062	95.56
289.293	86.56
289.524	103.56
289.755	89.56
289.986	94.56
290.217	101.56
290.448	94.56
290.679	88.56
290.91	81.56
291.141	98.56
291.371	84.56
291.602	93.56
291.833	100.56
292.064	98.56
292.295	92.56
292.526	103.56
292.757	75.56
292.987	81.56
293.218	89.56
293.449	91.56
293.68	93.56
293.91	82.56
294.141	93.56
294.372	91.56
294.603	93.56
294.833	87.56
295.064	83.56
295.295	98.56
295.525	112.56
295.756	98.56
295.987	106.56
296.217	131.56
296.448	133.56
296.679	95.56
296.909	86.56
297.14	100.56
297.37	97.56
297.601	89.56
297.831	94.56
298.062	104.56
298.292	95.56
298.523	94.56
298.753	73.56
298.984	93.56
299.214	81.56
299.445	101.56
299.675	90.56
299.905	91.56
300.136	103.56
300.366	98.56
300.597	96.56
300.827	96.56
301.057	104.56
301.288	100.56
301.518	108.56
301.748	96.56
301.979	123.56
302.209	95.56
302.439	109.56
302.669	91.56
302.9	97.56
303.13	93.56
303.36	102.56
303.59	98.56
303.82	109.56
304.051	97.56
304.281	100.56
304.511	90.56
304.741	91.56
304.971	101.56
305.201	87.56
305.431	98.56
305.661	93.56
305.891	101.56
306.121	91.56
306.352	93.56
306.582	105.56
306.812	100.56
307.042	106.56
307.272	102.56
307.502	105.56
307.731	117.56
307.961	86.56
308.191	77.56
308.421	96.56
308.651	93.56
308.881	110.56
309.111	104.56
309.341	96.56
309.571	99.56
309.8	101.56
310.03	102.56
310.26	76.56
310.49	93.56
310.72	86.56
310.949	94.56
311.179	90.56
311.409	102.56
311.639	94.56
311.868	84.56
312.098	89.56
312.328	93.56
312.557	104.56
312.787	107.56
313.017	103.56
313.246	93.56
313.476	97.56
313.706	94.56
313.935	108.56
314.165	105.56
314.394	93.56
314.624	106.56
314.853	97.56
315.083	93.56
315.312	106.56
315.542	103.56
315.771	97.56
316.001	100.56
316.23	97.56
316.46	115.56
316.689	66.56
316.919	85.56
317.148	101.56
317.377	102.56
317.607	93.56
317.836	93.56
318.065	117.56
318.295	88.56
318.524	94.56
318.753	84.56
318.983	87.56
319.212	106.56
319.441	99.56
319.67	109.56
319.9	91.56
320.129	91.56
320.358	92.56
320.587	89.56
320.816	89.56
321.046	86.56
321.275	95.56
321.504	94.56
321.733	93.56
321.962	106.56
322.191	115.56
322.42	109.56
322.649	103.56
322.878	109.56
323.108	123.56
323.337	112.56
323.566	135.56
323.795	125.56
324.024	182.56
324.253	383.56
324.482	795.56
324.71	1637.56
324.939	2202.56
325.168	794.56
325.397	254.56
325.626	145.56
325.855	111.56
326.084	127.56
326.313	138.56
326.542	139.56
326.77	228.56
326.999	437.56
327.228	922.56
327.457	1722.56
327.686	1352.56
327.914	361.56
328.143	203.56
328.372	179.56
328.6	139.56
328.829	115.56
329.058	131.56
329.287	116.56
329.515	109.56
329.744	111.56
329.972	140.56
330.201	181.56
330.43	217.56
330.658	165.56
330.887	149.56
331.115	132.56
331.344	105.56
331.572	105.56
331.801	107.56
332.03	94.56
332.258	100.56
332.486	94.56
332.715	93.56
332.943	109.56
333.172	107.56
333.4	106.56
333.629	114.56
333.857	107.56
334.085	142.56
334.314	193.56
334.542	261.56
334.771	220.56
334.999	120.56
335.227	101.56
335.455	97.56
335.684	89.56
335.912	101.56
336.14	95.56
336.369	98.56
336.597	100.56
336.825	98.56
337.053	94.56
337.281	81.56
337.51	90.56
337.738	97.56
337.966	94.56
338.194	96.56
338.422	99.56
338.65	104.56
338.878	85.56
339.106	96.56
339.334	86.56
339.562	81.56
339.79	92.56
340.018	83.56
340.246	92.56
340.474	86.56
340.702	85.56
340.93	98.56
341.158	98.56
341.386	105.56
341.614	107.56
341.842	87.56
342.07	88.56
342.298	104.56
342.526	89.56
342.754	81.56
342.981	104.56
343.209	92.56
343.437	78.56
343.665	93.56
343.893	108.56
344.12	93.56
344.348	87.56
344.576	100.56
344.804	88.56
345.031	111.56
345.259	117.56
345.487	109.56
345.714	99.56
345.942	93.56
346.17	94.56
346.397	103.56
346.625	86.56
346.853	87.56
347.08	93.56
347.308	100.56
347.535	100.56
347.763	94.56
347.99	94.56
348.218	97.56
348.445	108.56
348.673	94.56
348.9	105.56
349.128	84.56
349.355	93.56
349.583	101.56
349.81	101.56
350.037	107.56
350.265	80.56
350.492	92.56
350.72	95.56
350.947	92.56
351.174	108.56
351.402	98.56
351.629	105.56
351.856	114.56
352.083	99.56
352.311	110.56
352.538	113.56
352.765	106.56
352.992	109.56
353.22	100.56
353.447	107.56
353.674	103.56
353.901	90.56
354.128	90.56
354.355	116.56
354.583	106.56
354.81	87.56
355.037	107.56
355.264	99.56
355.491	101.56
355.718	106.56
355.945	111.56
356.172	93.56
356.399	107.56
356.626	94.56
356.853	97.56
357.08	100.56
357.307	84.56
357.534	103.56
357.761	94.56
357.988	84.56
358.215	93.56
358.441	88.56
358.668	102.56
358.895	97.56
359.122	102.56
359.349	104.56
359.576	99.56
359.802	96.56
360.029	113.56
360.256	102.56
360.483	97.56
360.709	93.56
360.936	99.56
361.163	91.56
361.39	93.56
361.616	79.56
361.843	91.56
362.07	101.56
362.296	89.56
362.523	94.56
362.749	100.56
362.976	78.56
363.203	93.56
363.429	93.56
363.656	110.56
363.882	101.56
364.109	90.56
364.335	107.56
364.562	91.56
364.788	91.56
365.015	102.56
365.241	92.56
365.468	104.56
365.694	100.56
365.92	99.56
366.147	98.56
366.373	98.56
366.599	98.56
366.826	81.56
367.052	90.56
367.278	97.56
367.505	103.56
367.731	85.56
367.957	90.56
368.184	94.56
368.41	99.56
368.636	103.56
368.862	108.56
369.089	93.56
369.315	93.56
369.541	104.56
369.767	89.56
369.993	89.56
370.219	102.56
370.445	87.56
370.672	88.56
370.898	91.56
371.124	79.56
371.35	91.56
371.576	90.56
371.802	75.56
372.028	70.56
372.254	98.56
372.48	99.56
372.706	87.56
372.932	102.56
373.158	93.56
373.384	79.56
373.61	76.56
373.835	105.56
374.061	86.56
374.287	90.56
374.513	94.56
374.739	97.56
374.965	111.56
375.191	85.56
375.416	95.56
375.642	99.56
375.868	113.56
376.094	105.56
376.319	102.56
376.545	90.56
376.771	92.56
376.997	89.56
377.222	98.56
377.448	85.56
377.674	97.56
377.899	76.56
378.125	106.56
378.35	95.56
378.576	98.56
378.802	87.56
379.027	87.56
379.253	91.56
379.478	86.56
379.704	101.56
379.929	105.56
380.155	90.56
380.38	88.56
380.606	92.56
380.831	96.56
381.057	100.56
381.282	89.56
381.507	85.56
381.733	108.56
381.958	103.56
382.184	100.56
382.409	100.56
382.634	109.56
382.86	100.56
383.085	87.56
383.31	101.56
383.535	118.56
383.761	99.56
383.986	115.56
384.211	100.56
384.436	91.56
384.662	95.56
384.887	93.56
385.112	92.56
385.337	109.56
385.562	109.56
385.787	118.56
386.013	124.56
386.238	134.56
386.463	107.56
386.688	117.56
386.913	101.56
387.138	111.56
387.363	109.56
387.588	92.56
387.813	95.56
388.038	91.56
388.263	98.56
388.488	105.56
388.713	111.56
388.938	108.56
389.163	98.56
389.387	100.56
389.612	105.56
389.837	86.56
390.062	93.56
390.287	83.56
390.512	88.56
390.736	86.56
390.961	82.56
391.186	114.56
391.411	102.56
391.636	95.56
391.86	99.56
392.085	85.56
392.31	79.56
392.534	100.56
392.759	98.56
392.984	83.56
393.208	92.56
393.433	87.56
393.658	97.56
393.882	101.56
394.107	96.56
394.331	97.56
394.556	84.56
394.78	83.56
395.005	89.56
395.229	107.56
395.454	94.56
395.678	81.56
395.903	93.56
396.127	89.56
396.352	90.56
396.576	93.56
396.801	92.56
397.025	79.56
397.249	100.56
397.474	83.56
397.698	91.56
397.922	78.56
398.147	89.56
398.371	93.56
398.595	86.56
398.82	84.56
399.044	90.56
399.268	75.56
399.492	86.56
399.717	88.56
399.941	93.56
400.165	98.56
400.389	87.56
400.613	71.56
400.837	93.56
401.062	93.56
401.286	93.56
401.51	90.56
401.734	85.56
401.958	93.56
402.182	123.56
402.406	145.56
402.63	97.56
402.854	94.56
403.078	98.56
403.302	82.56
403.526	104.56
403.75	97.56
403.974	90.56
404.198	95.56
404.422	96.56
404.645	88.56
404.869	99.56
405.093	111.56
405.317	97.56
405.541	105.56
405.765	111.56
405.988	106.56
406.212	161.56
406.436	203.56
406.66	130.56
406.883	98.56
407.107	96.56
407.331	98.56
407.555	98.56
407.778	95.56
408.002	106.56
408.226	92.56
408.449	84.56
408.673	94.56
408.896	91.56
409.12	103.56
409.344	83.56
409.567	86.56
409.791	92.56
410.014	93.56
410.238	101.56
410.461	82.56
410.685	90.56
410.908	102.56
411.132	115.56
411.355	107.56
411.578	99.56
411.802	92.56
412.025	78.56
412.249	87.56
412.472	101.56
412.695	90.56
412.919	95.56
413.142	98.56
413.365	112.56
413.589	99.56
413.812	104.56
414.035	89.56
414.258	95.56
414.482	93.56
414.705	88.56
414.928	94.56
415.151	105.56
415.374	87.56
415.597	89.56
415.821	90.56
416.044	89.56
416.267	76.56
416.49	81.56
416.713	83.56
416.936	93.56
417.159	104.56
417.382	97.56
417.605	84.56
417.828	90.56
418.051	86.56
418.274	97.56
418.497	87.56
418.72	88.56
418.943	92.56
419.166	91.56
419.389	84.56
419.611	83.56
419.834	80.56
420.057	96.56
420.28	107.56
420.503	90.56
420.726	83.56
420.948	94.56
421.171	113.56
421.394	93.56
421.617	94.56
421.839	79.56
422.062	91.56
422.285	85.56
422.507	101.56
422.73	98.56
422.953	112.56
423.175	92.56
423.398	85.56
423.621	85.56
423.843	98.56
424.066	94.56
424.288	90.56
424.511	86.56
424.733	92.56
424.956	93.56
425.178	106.56
425.401	97.56
425.623	102.56
425.846	74.56
426.068	96.56
426.291	94.56
426.513	101.56
426.735	101.56
426.958	103.56
427.18	101.56
427.402	135.56
427.625	169.56
427.847	153.56
428.069	132.56
428.292	109.56
428.514	97.56
428.736	93.56
428.958	86.56
429.181	97.56
429.403	98.56
429.625	83.56
429.847	96.56
430.069	96.56
430.292	105.56
430.514	81.56
430.736	90.56
430.958	93.56
431.18	79.56
431.402	78.56
431.624	100.56
431.846	95.56
432.068	94.56
432.29	99.56
432.512	99.56
432.734	104.56
432.956	95.56
433.178	83.56
433.4	107.56
433.622	100.56
433.844	107.56
434.066	78.56
434.287	77.56
434.509	92.56
434.731	85.56
434.953	92.56
435.175	86.56
435.397	89.56
435.618	97.56
435.84	113.56
436.062	131.56
436.284	116.56
436.505	93.56
436.727	111.56
436.949	108.56
437.17	96.56
437.392	72.56
437.614	95.56
437.835	99.56
438.057	105.56
438.278	104.56
438.5	111.56
438.721	121.56
438.943	103.56
439.165	85.56
439.386	102.56
439.608	97.56
439.829	108.56
440.05	118.56
440.272	126.56
440.493	127.56
440.715	103.56
440.936	94.56
441.158	86.56
441.379	94.56
441.6	107.56
441.822	92.56
442.043	87.56
442.264	103.56
442.486	112.56
442.707	106.56
442.928	96.56
443.149	111.56
443.371	126.56
443.592	114.56
443.813	107.56
444.034	101.56
444.255	100.56
444.476	102.56
444.698	83.56
444.919	95.56
445.14	131.56
445.361	132.56
445.582	110.56
445.803	139.56
446.024	128.56
446.245	122.56
446.466	107.56
446.687	85.56
446.908	87.56
447.129	98.56
447.35	87.56
447.571	99.56
447.792	83.56
448.013	90.56
448.234	100.56
448.455	106.56
448.675	117.56
448.896	116.56
449.117	99.56
449.338	124.56
449.559	135.56
449.779	137.56
450	97.56
450.221	83.56
450.442	86.56
450.662	97.56
450.883	110.56
451.104	117.56
451.324	114.56
451.545	101.56
451.766	70.56
451.986	90.56
452.207	85.56
452.428	91.56
452.648	102.56
452.869	111.56
453.089	97.56
453.31	104.56
453.53	99.56
453.751	82.56
453.971	90.56
454.192	90.56
454.412	91.56
454.633	77.56
454.853	85.56
455.073	99.56
455.294	92.56
455.514	97.56
455.734	91.56
455.955	90.56
456.175	81.56
456.395	83.56
456.616	77.56
456.836	93.56
457.056	82.56
457.276	93.56
457.497	77.56
457.717	89.56
457.937	99.56
458.157	86.56
458.377	91.56
458.598	102.56
458.818	134.56
459.038	144.56
459.258	101.56
459.478	85.56
459.698	93.56
459.918	87.56
460.138	83.56
460.358	85.56
460.578	86.56
460.798	91.56
461.018	87.56
461.238	93.56
461.458	79.56
461.678	86.56
461.898	95.56
462.118	84.56
462.338	87.56
462.558	96.56
462.777	75.56
462.997	93.56
463.217	87.56
463.437	98.56
463.657	85.56
463.876	92.56
464.096	89.56
464.316	99.56
464.536	105.56
464.755	92.56
464.975	95.56
465.195	143.56
465.414	135.56
465.634	100.56
465.854	98.56
466.073	97.56
466.293	90.56
466.512	88.56
466.732	97.56
466.951	100.56
467.171	94.56
467.391	99.56
467.61	122.56
467.829	104.56
468.049	135.56
468.268	147.56
468.488	113.56
468.707	97.56
468.927	98.56
469.146	92.56
469.365	87.56
469.585	90.56
469.804	92.56
470.023	90.56
470.243	109.56
470.462	87.56
470.681	106.56
470.901	90.56
471.12	81.56
471.339	81.56
471.558	85.56
471.777	99.56
471.997	98.56
472.216	202.56
472.435	318.56
472.654	134.56
472.873	105.56
473.092	93.56
473.311	87.56
473.53	93.56
473.749	98.56
473.968	96.56
474.187	110.56
474.406	99.56
474.625	99.56
474.844	80.56
475.063	95.56
475.282	99.56
475.501	89.56
475.72	97.56
475.939	100.56
476.158	71.56
476.377	92.56
476.596	76.56
476.814	86.56
477.033	91.56
477.252	78.56
477.471	95.56
477.69	83.56
477.908	86.56
478.127	97.56
478.346	89.56
478.564	92.56
478.783	81.56
479.002	97.56
479.22	85.56
479.439	106.56
479.658	103.56
479.876	92.56
480.095	98.56
480.313	88.56
480.532	108.56
480.751	106.56
480.969	186.56
481.188	547.56
481.406	335.56
481.624	118.56
481.843	87.56
482.061	89.56
482.28	71.56
482.498	84.56
482.717	89.56
482.935	87.56
483.153	94.56
483.372	100.56
483.59	89.56
483.808	79.56
484.027	105.56
484.245	101.56
484.463	84.56
484.681	110.56
484.9	108.56
485.118	98.56
485.336	101.56
485.554	91.56
485.772	90.56
485.99	101.56
486.209	100.56
486.427	102.56
486.645	115.56
486.863	102.56
487.081	87.56
487.299	118.56
487.517	105.56
487.735	92.56
487.953	91.56
488.171	82.56
488.389	96.56
488.607	111.56
488.825	90.56
489.043	101.56
489.261	101.56
489.479	87.56
489.696	91.56
489.914	97.56
490.132	92.56
490.35	91.56
490.568	104.56
490.786	102.56
491.003	92.56
491.221	97.56
491.439	98.56
491.657	102.56
491.874	93.56
492.092	97.56
492.31	97.56
492.527	90.56
492.745	89.56
492.963	89.56
493.18	94.56
493.398	97.56
493.615	108.56
493.833	101.56
494.05	97.56
494.268	92.56
494.485	99.56
494.703	86.56
494.92	99.56
495.138	100.56
495.355	103.56
495.573	90.56
495.79	85.56
496.008	103.56
496.225	82.56
496.442	83.56
496.66	91.56
496.877	92.56
497.094	92.56
497.312	98.56
497.529	95.56
497.746	101.56
497.963	98.56
498.181	99.56
498.398	98.56
498.615	105.56
498.832	99.56
499.049	93.56
499.267	106.56
499.484	96.56
499.701	94.56
499.918	77.56
500.135	85.56
500.352	94.56
500.569	97.56
500.786	85.56
501.003	93.56
501.22	82.56
501.437	91.56
501.654	101.56
501.871	103.56
502.088	81.56
502.305	107.56
502.522	91.56
502.739	102.56
502.956	90.56
503.172	97.56
503.389	81.56
503.606	96.56
503.823	91.56
504.04	86.56
504.256	78.56
504.473	95.56
504.69	92.56
504.907	93.56
505.123	101.56
505.34	89.56
505.557	106.56
505.773	88.56
505.99	95.56
506.207	93.56
506.423	88.56
506.64	103.56
506.856	97.56
507.073	109.56
507.289	100.56
507.506	99.56
507.722	99.56
507.939	121.56
508.155	87.56
508.372	97.56
508.588	96.56
508.805	98.56
509.021	99.56
509.238	102.56
509.454	92.56
509.67	96.56
509.887	95.56
510.103	126.56
510.319	193.56
510.536	633.56
510.752	1883.56
510.968	510.56
511.184	124.56
511.401	103.56
511.617	100.56
511.833	109.56
512.049	90.56
512.265	91.56
512.481	98.56
512.698	85.56
512.914	87.56
513.13	102.56
513.346	101.56
513.562	96.56
513.778	106.56
513.994	95.56
514.21	105.56
514.426	114.56
