Data from Circ_1986_H10_HRD10591_00022.txt Node
Date: Wed Jan 03 12:15:30 EST 2024
User: Yrep
Spectrometer: HR+D1059
Trigger mode: 1
Integration Time (sec): 1.000000E-1
Scans to average: 1
Electric dark correction enabled: true
Nonlinearity correction enabled: false
Boxcar width: 0
XAxis mode: Wavelengths
Number of Pixels in Spectrum: 2048
>>>>>Begin Spectral Data<<<<<
223.165	-22.44
223.4	-22.44
223.635	-22.44
223.869	-21.44
224.104	-2.44
224.338	-13.44
224.573	-21.44
224.808	-17.44
225.042	-1.44
225.277	3.56
225.511	-12.44
225.746	-3.44
225.98	-3.44
226.215	8.56
226.449	29.56
226.683	25.56
226.918	21.56
227.152	30.56
227.387	22.56
227.621	31.56
227.856	53.56
228.09	35.56
228.324	39.56
228.559	60.56
228.793	46.56
229.027	59.56
229.262	55.56
229.496	78.56
229.73	75.56
229.964	77.56
230.199	65.56
230.433	66.56
230.667	80.56
230.901	81.56
231.136	79.56
231.37	61.56
231.604	66.56
231.838	72.56
232.072	81.56
232.306	95.56
232.541	79.56
232.775	60.56
233.009	66.56
233.243	81.56
233.477	73.56
233.711	77.56
233.945	85.56
234.179	81.56
234.413	80.56
234.647	77.56
234.881	81.56
235.115	89.56
235.349	88.56
235.583	78.56
235.817	78.56
236.051	77.56
236.285	83.56
236.519	79.56
236.753	62.56
236.987	73.56
237.221	84.56
237.455	82.56
237.689	76.56
237.922	76.56
238.156	84.56
238.39	76.56
238.624	82.56
238.858	78.56
239.091	78.56
239.325	71.56
239.559	69.56
239.793	90.56
240.027	68.56
240.26	64.56
240.494	64.56
240.728	71.56
240.961	69.56
241.195	69.56
241.429	92.56
241.662	72.56
241.896	53.56
242.13	67.56
242.363	72.56
242.597	86.56
242.83	71.56
243.064	71.56
243.298	79.56
243.531	65.56
243.765	72.56
243.998	70.56
244.232	81.56
244.465	76.56
244.699	70.56
244.932	82.56
245.166	78.56
245.399	70.56
245.633	66.56
245.866	91.56
246.099	77.56
246.333	67.56
246.566	71.56
246.8	73.56
247.033	67.56
247.266	71.56
247.5	76.56
247.733	84.56
247.966	84.56
248.2	80.56
248.433	63.56
248.666	70.56
248.899	95.56
249.133	85.56
249.366	88.56
249.599	79.56
249.832	76.56
250.066	86.56
250.299	80.56
250.532	87.56
250.765	74.56
250.998	66.56
251.231	85.56
251.465	87.56
251.698	84.56
251.931	64.56
252.164	79.56
252.397	58.56
252.63	84.56
252.863	85.56
253.096	88.56
253.329	84.56
253.562	84.56
253.795	71.56
254.028	61.56
254.261	80.56
254.494	74.56
254.727	81.56
254.96	85.56
255.193	85.56
255.426	76.56
255.659	83.56
255.892	76.56
256.124	83.56
256.357	82.56
256.59	72.56
256.823	77.56
257.056	86.56
257.289	86.56
257.521	73.56
257.754	75.56
257.987	81.56
258.22	84.56
258.452	75.56
258.685	80.56
258.918	77.56
259.151	76.56
259.383	99.56
259.616	79.56
259.849	84.56
260.081	71.56
260.314	77.56
260.547	72.56
260.779	79.56
261.012	75.56
261.244	78.56
261.477	84.56
261.71	87.56
261.942	101.56
262.175	100.56
262.407	79.56
262.64	62.56
262.872	86.56
263.105	76.56
263.337	76.56
263.57	92.56
263.802	74.56
264.035	83.56
264.267	79.56
264.499	77.56
264.732	75.56
264.964	87.56
265.197	86.56
265.429	80.56
265.661	76.56
265.894	92.56
266.126	75.56
266.358	85.56
266.591	85.56
266.823	81.56
267.055	83.56
267.287	73.56
267.52	70.56
267.752	81.56
267.984	82.56
268.216	85.56
268.448	83.56
268.681	89.56
268.913	80.56
269.145	77.56
269.377	94.56
269.609	71.56
269.841	93.56
270.073	85.56
270.306	87.56
270.538	79.56
270.77	81.56
271.002	73.56
271.234	89.56
271.466	85.56
271.698	92.56
271.93	88.56
272.162	83.56
272.394	95.56
272.626	80.56
272.858	82.56
273.09	75.56
273.322	86.56
273.553	91.56
273.785	72.56
274.017	89.56
274.249	81.56
274.481	69.56
274.713	81.56
274.945	73.56
275.176	80.56
275.408	87.56
275.64	92.56
275.872	73.56
276.104	92.56
276.335	83.56
276.567	82.56
276.799	112.56
277.031	84.56
277.262	85.56
277.494	95.56
277.726	75.56
277.957	89.56
278.189	70.56
278.421	82.56
278.652	77.56
278.884	94.56
279.115	90.56
279.347	78.56
279.579	81.56
279.81	78.56
280.042	84.56
280.273	83.56
280.505	82.56
280.736	69.56
280.968	85.56
281.199	78.56
281.431	77.56
281.662	92.56
281.894	85.56
282.125	87.56
282.356	93.56
282.588	129.56
282.819	108.56
283.051	89.56
283.282	75.56
283.513	87.56
283.745	75.56
283.976	86.56
284.207	77.56
284.439	82.56
284.67	87.56
284.901	75.56
285.132	79.56
285.364	75.56
285.595	99.56
285.826	95.56
286.057	91.56
286.288	90.56
286.52	86.56
286.751	83.56
286.982	82.56
287.213	78.56
287.444	69.56
287.675	79.56
287.906	101.56
288.138	102.56
288.369	91.56
288.6	85.56
288.831	79.56
289.062	79.56
289.293	87.56
289.524	70.56
289.755	83.56
289.986	72.56
290.217	82.56
290.448	80.56
290.679	87.56
290.91	81.56
291.141	80.56
291.371	88.56
291.602	95.56
291.833	83.56
292.064	79.56
292.295	67.56
292.526	87.56
292.757	85.56
292.987	76.56
293.218	81.56
293.449	78.56
293.68	87.56
293.91	95.56
294.141	79.56
294.372	83.56
294.603	90.56
294.833	84.56
295.064	79.56
295.295	88.56
295.525	98.56
295.756	84.56
295.987	98.56
296.217	110.56
296.448	104.56
296.679	94.56
296.909	79.56
297.14	73.56
297.37	75.56
297.601	87.56
297.831	80.56
298.062	90.56
298.292	83.56
298.523	96.56
298.753	93.56
298.984	80.56
299.214	96.56
299.445	85.56
299.675	97.56
299.905	83.56
300.136	88.56
300.366	79.56
300.597	84.56
300.827	84.56
301.057	85.56
301.288	106.56
301.518	89.56
301.748	75.56
301.979	85.56
302.209	80.56
302.439	87.56
302.669	75.56
302.9	76.56
303.13	76.56
303.36	88.56
303.59	96.56
303.82	90.56
304.051	83.56
304.281	100.56
304.511	84.56
304.741	101.56
304.971	85.56
305.201	72.56
305.431	88.56
305.661	83.56
305.891	93.56
306.121	101.56
306.352	87.56
306.582	99.56
306.812	86.56
307.042	92.56
307.272	88.56
307.502	71.56
307.731	86.56
307.961	88.56
308.191	95.56
308.421	69.56
308.651	83.56
308.881	90.56
309.111	96.56
309.341	85.56
309.571	87.56
309.8	96.56
310.03	101.56
310.26	100.56
310.49	79.56
310.72	91.56
310.949	70.56
311.179	88.56
311.409	88.56
311.639	81.56
311.868	94.56
312.098	74.56
312.328	95.56
312.557	85.56
312.787	85.56
313.017	99.56
313.246	100.56
313.476	98.56
313.706	92.56
313.935	88.56
314.165	94.56
314.394	92.56
314.624	88.56
314.853	101.56
315.083	85.56
315.312	95.56
315.542	97.56
315.771	89.56
316.001	88.56
316.23	93.56
316.46	79.56
316.689	88.56
316.919	82.56
317.148	85.56
317.377	95.56
317.607	84.56
317.836	87.56
318.065	95.56
318.295	89.56
318.524	77.56
318.753	84.56
318.983	94.56
319.212	100.56
319.441	104.56
319.67	109.56
319.9	79.56
320.129	77.56
320.358	85.56
320.587	107.56
320.816	108.56
321.046	97.56
321.275	78.56
321.504	88.56
321.733	86.56
321.962	92.56
322.191	102.56
322.42	96.56
322.649	103.56
322.878	102.56
323.108	107.56
323.337	114.56
323.566	114.56
323.795	127.56
324.024	168.56
324.253	296.56
324.482	624.56
324.71	1300.56
324.939	1656.56
325.168	643.56
325.397	184.56
325.626	134.56
325.855	103.56
326.084	108.56
326.313	107.56
326.542	130.56
326.77	190.56
326.999	352.56
327.228	731.56
327.457	1305.56
327.686	1028.56
327.914	279.56
328.143	147.56
328.372	135.56
328.6	116.56
328.829	102.56
329.058	97.56
329.287	109.56
329.515	91.56
329.744	86.56
329.972	95.56
330.201	101.56
330.43	117.56
330.658	112.56
330.887	129.56
331.115	105.56
331.344	93.56
331.572	92.56
331.801	96.56
332.03	96.56
332.258	96.56
332.486	84.56
332.715	83.56
332.943	82.56
333.172	97.56
333.4	91.56
333.629	99.56
333.857	99.56
334.085	93.56
334.314	102.56
334.542	99.56
334.771	117.56
334.999	95.56
335.227	86.56
335.455	88.56
335.684	85.56
335.912	93.56
336.14	89.56
336.369	100.56
336.597	92.56
336.825	90.56
337.053	89.56
337.281	106.56
337.51	97.56
337.738	81.56
337.966	100.56
338.194	94.56
338.422	98.56
338.65	91.56
338.878	85.56
339.106	83.56
339.334	88.56
339.562	81.56
339.79	100.56
340.018	93.56
340.246	88.56
340.474	92.56
340.702	83.56
340.93	79.56
341.158	94.56
341.386	88.56
341.614	94.56
341.842	91.56
342.07	86.56
342.298	83.56
342.526	82.56
342.754	84.56
342.981	99.56
343.209	78.56
343.437	87.56
343.665	92.56
343.893	85.56
344.12	91.56
344.348	79.56
344.576	88.56
344.804	67.56
345.031	91.56
345.259	103.56
345.487	71.56
345.714	77.56
345.942	84.56
346.17	94.56
346.397	82.56
346.625	100.56
346.853	91.56
347.08	102.56
347.308	96.56
347.535	86.56
347.763	79.56
347.99	90.56
348.218	94.56
348.445	100.56
348.673	95.56
348.9	94.56
349.128	79.56
349.355	89.56
349.583	95.56
349.81	95.56
350.037	102.56
350.265	77.56
350.492	84.56
350.72	85.56
350.947	85.56
351.174	92.56
351.402	93.56
351.629	92.56
351.856	80.56
352.083	95.56
352.311	102.56
352.538	109.56
352.765	103.56
352.992	101.56
353.22	100.56
353.447	101.56
353.674	89.56
353.901	92.56
354.128	97.56
354.355	91.56
354.583	92.56
354.81	94.56
355.037	102.56
355.264	95.56
355.491	97.56
355.718	101.56
355.945	94.56
356.172	100.56
356.399	91.56
356.626	92.56
356.853	96.56
357.08	102.56
357.307	77.56
357.534	101.56
357.761	81.56
357.988	92.56
358.215	101.56
358.441	91.56
358.668	90.56
358.895	85.56
359.122	81.56
359.349	73.56
359.576	84.56
359.802	92.56
360.029	100.56
360.256	88.56
360.483	77.56
360.709	84.56
360.936	91.56
361.163	79.56
361.39	86.56
361.616	89.56
361.843	86.56
362.07	85.56
362.296	90.56
362.523	83.56
362.749	66.56
362.976	93.56
363.203	92.56
363.429	76.56
363.656	79.56
363.882	80.56
364.109	88.56
364.335	78.56
364.562	79.56
364.788	87.56
365.015	93.56
365.241	87.56
365.468	108.56
365.694	73.56
365.92	84.56
366.147	96.56
366.373	84.56
366.599	89.56
366.826	92.56
367.052	83.56
367.278	91.56
367.505	75.56
367.731	96.56
367.957	92.56
368.184	84.56
368.41	95.56
368.636	93.56
368.862	115.56
369.089	94.56
369.315	99.56
369.541	96.56
369.767	86.56
369.993	77.56
370.219	80.56
370.445	100.56
370.672	94.56
370.898	78.56
371.124	73.56
371.35	89.56
371.576	88.56
371.802	79.56
372.028	76.56
372.254	97.56
372.48	89.56
372.706	84.56
372.932	81.56
373.158	83.56
373.384	83.56
373.61	72.56
373.835	83.56
374.061	87.56
374.287	100.56
374.513	74.56
374.739	94.56
374.965	93.56
375.191	92.56
375.416	95.56
375.642	84.56
375.868	77.56
376.094	87.56
376.319	84.56
376.545	88.56
376.771	82.56
376.997	86.56
377.222	93.56
377.448	91.56
377.674	87.56
377.899	83.56
378.125	95.56
378.35	96.56
378.576	82.56
378.802	101.56
379.027	84.56
379.253	83.56
379.478	97.56
379.704	90.56
379.929	97.56
380.155	87.56
380.38	87.56
380.606	83.56
380.831	97.56
381.057	97.56
381.282	99.56
381.507	83.56
381.733	87.56
381.958	113.56
382.184	97.56
382.409	94.56
382.634	94.56
382.86	112.56
383.085	111.56
383.31	93.56
383.535	105.56
383.761	95.56
383.986	98.56
384.211	88.56
384.436	94.56
384.662	95.56
384.887	122.56
385.112	115.56
385.337	99.56
385.562	113.56
385.787	116.56
386.013	117.56
386.238	134.56
386.463	112.56
386.688	115.56
386.913	101.56
387.138	129.56
387.363	108.56
387.588	112.56
387.813	105.56
388.038	118.56
388.263	117.56
388.488	116.56
388.713	92.56
388.938	95.56
389.163	97.56
389.387	84.56
389.612	119.56
389.837	94.56
390.062	90.56
390.287	105.56
390.512	86.56
390.736	87.56
390.961	80.56
391.186	93.56
391.411	86.56
391.636	99.56
391.86	84.56
392.085	87.56
392.31	79.56
392.534	81.56
392.759	77.56
392.984	83.56
393.208	76.56
393.433	97.56
393.658	96.56
393.882	82.56
394.107	69.56
394.331	81.56
394.556	77.56
394.78	81.56
395.005	79.56
395.229	78.56
395.454	80.56
395.678	81.56
395.903	87.56
396.127	89.56
396.352	94.56
396.576	88.56
396.801	79.56
397.025	81.56
397.249	82.56
397.474	79.56
397.698	93.56
397.922	81.56
398.147	79.56
398.371	93.56
398.595	79.56
398.82	80.56
399.044	95.56
399.268	84.56
399.492	71.56
399.717	91.56
399.941	85.56
400.165	70.56
400.389	85.56
400.613	97.56
400.837	71.56
401.062	97.56
401.286	89.56
401.51	95.56
401.734	82.56
401.958	100.56
402.182	119.56
402.406	128.56
402.63	92.56
402.854	81.56
403.078	82.56
403.302	98.56
403.526	95.56
403.75	82.56
403.974	95.56
404.198	83.56
404.422	92.56
404.645	85.56
404.869	85.56
405.093	70.56
405.317	89.56
405.541	87.56
405.765	90.56
405.988	105.56
406.212	147.56
406.436	158.56
406.66	119.56
406.883	103.56
407.107	81.56
407.331	80.56
407.555	81.56
407.778	83.56
408.002	84.56
408.226	87.56
408.449	99.56
408.673	89.56
408.896	80.56
409.12	89.56
409.344	88.56
409.567	84.56
409.791	76.56
410.014	87.56
410.238	94.56
410.461	93.56
410.685	85.56
410.908	87.56
411.132	85.56
411.355	96.56
411.578	93.56
411.802	78.56
412.025	72.56
412.249	90.56
412.472	94.56
412.695	96.56
412.919	81.56
413.142	87.56
413.365	79.56
413.589	86.56
413.812	97.56
414.035	100.56
414.258	93.56
414.482	86.56
414.705	88.56
414.928	84.56
415.151	97.56
415.374	91.56
415.597	93.56
415.821	87.56
416.044	89.56
416.267	103.56
416.49	83.56
416.713	80.56
416.936	80.56
417.159	79.56
417.382	81.56
417.605	94.56
417.828	93.56
418.051	89.56
418.274	82.56
418.497	81.56
418.72	79.56
418.943	93.56
419.166	80.56
419.389	86.56
419.611	99.56
419.834	82.56
420.057	78.56
420.28	96.56
420.503	96.56
420.726	86.56
420.948	90.56
421.171	85.56
421.394	80.56
421.617	85.56
421.839	88.56
422.062	100.56
422.285	104.56
422.507	106.56
422.73	87.56
422.953	93.56
423.175	82.56
423.398	75.56
423.621	81.56
423.843	94.56
424.066	66.56
424.288	75.56
424.511	96.56
424.733	93.56
424.956	99.56
425.178	88.56
425.401	94.56
425.623	102.56
425.846	100.56
426.068	89.56
426.291	94.56
426.513	89.56
426.735	84.56
426.958	84.56
427.18	100.56
427.402	124.56
427.625	125.56
427.847	108.56
428.069	97.56
428.292	88.56
428.514	97.56
428.736	83.56
428.958	91.56
429.181	86.56
429.403	78.56
429.625	82.56
429.847	90.56
430.069	88.56
430.292	80.56
430.514	79.56
430.736	87.56
430.958	75.56
431.18	68.56
431.402	92.56
431.624	100.56
431.846	88.56
432.068	92.56
432.29	85.56
432.512	94.56
432.734	89.56
432.956	71.56
433.178	86.56
433.4	90.56
433.622	93.56
433.844	80.56
434.066	78.56
434.287	79.56
434.509	85.56
434.731	79.56
434.953	79.56
435.175	95.56
435.397	81.56
435.618	90.56
435.84	90.56
436.062	102.56
436.284	104.56
436.505	94.56
436.727	96.56
436.949	95.56
437.17	88.56
437.392	92.56
437.614	81.56
437.835	104.56
438.057	103.56
438.278	80.56
438.5	89.56
438.721	104.56
438.943	91.56
439.165	96.56
439.386	77.56
439.608	91.56
439.829	86.56
440.05	98.56
440.272	117.56
440.493	96.56
440.715	75.56
440.936	79.56
441.158	80.56
441.379	81.56
441.6	84.56
441.822	92.56
442.043	85.56
442.264	93.56
442.486	95.56
442.707	96.56
442.928	75.56
443.149	123.56
443.371	121.56
443.592	95.56
443.813	102.56
444.034	100.56
444.255	79.56
444.476	76.56
444.698	81.56
444.919	87.56
445.14	126.56
445.361	113.56
445.582	107.56
445.803	107.56
446.024	116.56
446.245	116.56
446.466	86.56
446.687	92.56
446.908	86.56
447.129	72.56
447.35	87.56
447.571	100.56
447.792	88.56
448.013	82.56
448.234	97.56
448.455	95.56
448.675	96.56
448.896	103.56
449.117	95.56
449.338	102.56
449.559	109.56
449.779	120.56
450	91.56
450.221	89.56
450.442	86.56
450.662	87.56
450.883	105.56
451.104	91.56
451.324	84.56
451.545	87.56
451.766	82.56
451.986	86.56
452.207	79.56
452.428	85.56
452.648	87.56
452.869	101.56
453.089	97.56
453.31	100.56
453.53	87.56
453.751	78.56
453.971	94.56
454.192	88.56
454.412	100.56
454.633	71.56
454.853	87.56
455.073	65.56
455.294	89.56
455.514	95.56
455.734	86.56
455.955	69.56
456.175	77.56
456.395	94.56
456.616	94.56
456.836	76.56
457.056	93.56
457.276	79.56
457.497	73.56
457.717	78.56
457.937	85.56
458.157	92.56
458.377	82.56
458.598	89.56
458.818	124.56
459.038	108.56
459.258	101.56
459.478	88.56
459.698	87.56
459.918	84.56
460.138	84.56
460.358	87.56
460.578	89.56
460.798	96.56
461.018	88.56
461.238	77.56
461.458	77.56
461.678	62.56
461.898	80.56
462.118	72.56
462.338	83.56
462.558	87.56
462.777	84.56
462.997	91.56
463.217	79.56
463.437	85.56
463.657	70.56
463.876	91.56
464.096	103.56
464.316	82.56
464.536	84.56
464.755	86.56
464.975	87.56
465.195	132.56
465.414	117.56
465.634	73.56
465.854	73.56
466.073	87.56
466.293	94.56
466.512	102.56
466.732	84.56
466.951	87.56
467.171	81.56
467.391	100.56
467.61	97.56
467.829	91.56
468.049	112.56
468.268	96.56
468.488	83.56
468.707	87.56
468.927	72.56
469.146	72.56
469.365	73.56
469.585	90.56
469.804	87.56
470.023	89.56
470.243	78.56
470.462	89.56
470.681	96.56
470.901	94.56
471.12	80.56
471.339	87.56
471.558	92.56
471.777	87.56
471.997	95.56
472.216	103.56
472.435	139.56
472.654	91.56
472.873	92.56
473.092	83.56
473.311	91.56
473.53	83.56
473.749	82.56
473.968	102.56
474.187	98.56
474.406	80.56
474.625	86.56
474.844	80.56
475.063	86.56
475.282	76.56
475.501	76.56
475.72	70.56
475.939	78.56
476.158	76.56
476.377	75.56
476.596	84.56
476.814	103.56
477.033	89.56
477.252	89.56
477.471	86.56
477.69	85.56
477.908	72.56
478.127	78.56
478.346	73.56
478.564	75.56
478.783	105.56
479.002	92.56
479.22	104.56
479.439	90.56
479.658	98.56
479.876	92.56
480.095	93.56
480.313	87.56
480.532	98.56
480.751	84.56
480.969	121.56
481.188	184.56
481.406	145.56
481.624	109.56
481.843	84.56
482.061	81.56
482.28	94.56
482.498	75.56
482.717	81.56
482.935	71.56
483.153	83.56
483.372	92.56
483.59	82.56
483.808	83.56
484.027	83.56
484.245	86.56
484.463	95.56
484.681	91.56
484.9	83.56
485.118	80.56
485.336	87.56
485.554	87.56
485.772	102.56
485.99	93.56
486.209	105.56
486.427	103.56
486.645	110.56
486.863	102.56
487.081	96.56
487.299	87.56
487.517	105.56
487.735	84.56
487.953	95.56
488.171	82.56
488.389	75.56
488.607	95.56
488.825	86.56
489.043	102.56
489.261	85.56
489.479	72.56
489.696	84.56
489.914	95.56
490.132	75.56
490.35	84.56
490.568	83.56
490.786	87.56
491.003	93.56
491.221	90.56
491.439	88.56
491.657	81.56
491.874	99.56
492.092	79.56
492.31	84.56
492.527	85.56
492.745	90.56
492.963	95.56
493.18	86.56
493.398	87.56
493.615	75.56
493.833	90.56
494.05	92.56
494.268	88.56
494.485	96.56
494.703	80.56
494.92	81.56
495.138	81.56
495.355	83.56
495.573	96.56
495.79	79.56
496.008	87.56
496.225	79.56
496.442	96.56
496.66	98.56
496.877	73.56
497.094	91.56
497.312	93.56
497.529	85.56
497.746	93.56
497.963	91.56
498.181	85.56
498.398	89.56
498.615	90.56
498.832	90.56
499.049	101.56
499.267	101.56
499.484	97.56
499.701	76.56
499.918	85.56
500.135	81.56
500.352	81.56
500.569	77.56
500.786	84.56
501.003	94.56
501.22	89.56
501.437	80.56
501.654	103.56
501.871	83.56
502.088	82.56
502.305	92.56
502.522	86.56
502.739	83.56
502.956	91.56
503.172	96.56
503.389	85.56
503.606	86.56
503.823	87.56
504.04	88.56
504.256	87.56
504.473	96.56
504.69	96.56
504.907	82.56
505.123	81.56
505.34	81.56
505.557	82.56
505.773	74.56
505.99	80.56
506.207	81.56
506.423	95.56
506.64	81.56
506.856	83.56
507.073	85.56
507.289	89.56
507.506	85.56
507.722	106.56
507.939	93.56
508.155	85.56
508.372	95.56
508.588	97.56
508.805	89.56
509.021	73.56
509.238	97.56
509.454	93.56
509.67	92.56
509.887	101.56
510.103	100.56
510.319	186.56
510.536	563.56
510.752	1692.56
510.968	479.56
511.184	133.56
511.401	115.56
511.617	100.56
511.833	91.56
512.049	91.56
512.265	83.56
512.481	89.56
512.698	81.56
512.914	99.56
513.13	81.56
513.346	84.56
513.562	90.56
513.778	87.56
513.994	95.56
514.21	103.56
514.426	97.56
514.642	98.56
514.858	107.56
515.074	139.56
515.29	328.56
515.506	960.56
515.721	344.56
515.937	126.56
516.153	92.56
516.369	96.56
516.585	88.56
516.801	92.56
517.016	94.56
517.232	70.56
