Data from Circ_1986_H10_HRD10591_00033.txt Node
Date: Wed Jan 03 12:15:32 EST 2024
User: Yrep
Spectrometer: HR+D1059
Trigger mode: 1
Integration Time (sec): 1.000000E-1
Scans to average: 1
Electric dark correction enabled: true
Nonlinearity correction enabled: false
Boxcar width: 0
XAxis mode: Wavelengths
Number of Pixels in Spectrum: 2048
>>>>>Begin Spectral Data<<<<<
223.165	-15.81
223.4	-15.81
223.635	-15.81
223.869	-18.81
224.104	-20.81
224.338	-18.81
224.573	-1.81
224.808	-10.81
225.042	-20.81
225.277	-12.81
225.511	-3.81
225.746	6.19
225.98	4.19
226.215	16.19
226.449	14.19
226.683	29.19
226.918	21.19
227.152	33.19
227.387	40.19
227.621	26.19
227.856	32.19
228.09	41.19
228.324	40.19
228.559	41.19
228.793	163.19
229.027	430.19
229.262	487.19
229.496	575.19
229.73	707.19
229.964	784.19
230.199	521.19
230.433	459.19
230.667	456.19
230.901	457.19
231.136	460.19
231.37	442.19
231.604	434.19
231.838	467.19
232.072	471.19
232.306	445.19
232.541	448.19
232.775	481.19
233.009	492.19
233.243	482.19
233.477	475.19
233.711	482.19
233.945	495.19
234.179	499.19
234.413	497.19
234.647	501.19
234.881	512.19
235.115	519.19
235.349	541.19
235.583	551.19
235.817	561.19
236.051	611.19
236.285	593.19
236.519	617.19
236.753	675.19
236.987	860.19
237.221	1271.19
237.455	1400.19
237.689	880.19
237.922	738.19
238.156	703.19
238.39	670.19
238.624	615.19
238.858	634.19
239.091	658.19
239.325	644.19
239.559	675.19
239.793	699.19
240.027	753.19
240.26	893.19
240.494	916.19
240.728	927.19
240.961	864.19
241.195	827.19
241.429	799.19
241.662	767.19
241.896	801.19
242.13	779.19
242.363	796.19
242.597	792.19
242.83	833.19
243.064	814.19
243.298	832.19
243.531	831.19
243.765	852.19
243.998	880.19
244.232	859.19
244.465	894.19
244.699	926.19
244.932	899.19
245.166	923.19
245.399	927.19
245.633	928.19
245.866	934.19
246.099	934.19
246.333	917.19
246.566	971.19
246.8	984.19
247.033	1043.19
247.266	1044.19
247.5	1096.19
247.733	1181.19
247.966	1134.19
248.2	1138.19
248.433	1122.19
248.666	1204.19
248.899	1329.19
249.133	1427.19
249.366	1378.19
249.599	1310.19
249.832	1230.19
250.066	1302.19
250.299	1362.19
250.532	1527.19
250.765	1688.19
250.998	1764.19
251.231	1691.19
251.465	1540.19
251.698	1470.19
251.931	1441.19
252.164	1422.19
252.397	1436.19
252.63	1475.19
252.863	1542.19
253.096	1650.19
253.329	1684.19
253.562	1620.19
253.795	1558.19
254.028	1556.19
254.261	1605.19
254.494	1787.19
254.727	2044.19
254.96	2160.19
255.193	1962.19
255.426	1785.19
255.659	1763.19
255.892	1912.19
256.124	2099.19
256.357	1980.19
256.59	1843.19
256.823	1732.19
257.056	1639.19
257.289	1604.19
257.521	1596.19
257.754	1580.19
257.987	1579.19
258.22	1551.19
258.452	1576.19
258.685	1533.19
258.918	1582.19
259.151	1636.19
259.383	1662.19
259.616	1685.19
259.849	1747.19
260.081	1916.19
260.314	2042.19
260.547	1937.19
260.779	1839.19
261.012	1730.19
261.244	1708.19
261.477	1681.19
261.71	1698.19
261.942	1726.19
262.175	1743.19
262.407	1710.19
262.64	1623.19
262.872	1659.19
263.105	1659.19
263.337	1618.19
263.57	1649.19
263.802	1669.19
264.035	1627.19
264.267	1651.19
264.499	1667.19
264.732	1700.19
264.964	1709.19
265.197	1671.19
265.429	1675.19
265.661	1715.19
265.894	1696.19
266.126	1727.19
266.358	1768.19
266.591	1788.19
266.823	1872.19
267.055	1820.19
267.287	1881.19
267.52	1847.19
267.752	1832.19
267.984	1839.19
268.216	1894.19
268.448	1915.19
268.681	1973.19
268.913	2085.19
269.145	2195.19
269.377	2325.19
269.609	2247.19
269.841	2177.19
270.073	2285.19
270.306	2516.19
270.538	2631.19
270.77	2576.19
271.002	2459.19
271.234	2387.19
271.466	2483.19
271.698	2629.19
271.93	2628.19
272.162	2631.19
272.394	2611.19
272.626	2458.19
272.858	2280.19
273.09	2271.19
273.322	2220.19
273.553	2187.19
273.785	2167.19
274.017	2214.19
274.249	2228.19
274.481	2263.19
274.713	2226.19
274.945	2247.19
275.176	2240.19
275.408	2212.19
275.64	2220.19
275.872	2237.19
276.104	2291.19
276.335	2275.19
276.567	2359.19
276.799	2461.19
277.031	2699.19
277.262	2779.19
277.494	2689.19
277.726	2546.19
277.957	2467.19
278.189	2415.19
278.421	2388.19
278.652	2363.19
278.884	2339.19
279.115	2412.19
279.347	2372.19
279.579	2277.19
279.81	2357.19
280.042	2335.19
280.273	2443.19
280.505	2415.19
280.736	2403.19
280.968	2368.19
281.199	2437.19
281.431	2473.19
281.662	2462.19
281.894	2443.19
282.125	2491.19
282.356	2670.19
282.588	2747.19
282.819	2580.19
283.051	2536.19
283.282	2482.19
283.513	2513.19
283.745	2570.19
283.976	2638.19
284.207	2575.19
284.439	2568.19
284.67	2568.19
284.901	2591.19
285.132	2583.19
285.364	2615.19
285.595	2591.19
285.826	2607.19
286.057	2633.19
286.288	2621.19
286.52	2583.19
286.751	2623.19
286.982	2622.19
287.213	2684.19
287.444	2651.19
287.675	2765.19
287.906	2851.19
288.138	2840.19
288.369	2846.19
288.6	2851.19
288.831	2850.19
289.062	2838.19
289.293	2788.19
289.524	2757.19
289.755	2827.19
289.986	2821.19
290.217	2778.19
290.448	2812.19
290.679	2823.19
290.91	2782.19
291.141	2755.19
291.371	2783.19
291.602	2742.19
291.833	2708.19
292.064	2732.19
292.295	2756.19
292.526	2783.19
292.757	2790.19
292.987	2763.19
293.218	2731.19
293.449	2833.19
293.68	2779.19
293.91	2787.19
294.141	2811.19
294.372	2775.19
294.603	2796.19
294.833	2774.19
295.064	2835.19
295.295	2832.19
295.525	2880.19
295.756	2875.19
295.987	2937.19
296.217	3044.19
296.448	3010.19
296.679	2892.19
296.909	2887.19
297.14	2897.19
297.37	2991.19
297.601	2950.19
297.831	2989.19
298.062	3001.19
298.292	2993.19
298.523	3065.19
298.753	3012.19
298.984	2992.19
299.214	3076.19
299.445	3029.19
299.675	3068.19
299.905	3106.19
300.136	3030.19
300.366	3096.19
300.597	3110.19
300.827	3170.19
301.057	3243.19
301.288	3291.19
301.518	3229.19
301.748	3260.19
301.979	3342.19
302.209	3291.19
302.439	3271.19
302.669	3217.19
302.9	3297.19
303.13	3192.19
303.36	3292.19
303.59	3263.19
303.82	3334.19
304.051	3219.19
304.281	3272.19
304.511	3235.19
304.741	3184.19
304.971	3221.19
305.201	3181.19
305.431	3196.19
305.661	3246.19
305.891	3243.19
306.121	3136.19
306.352	3190.19
306.582	3242.19
306.812	3153.19
307.042	3199.19
307.272	3214.19
307.502	3218.19
307.731	3157.19
307.961	3174.19
308.191	3200.19
308.421	3189.19
308.651	3199.19
308.881	3235.19
309.111	3221.19
309.341	3208.19
309.571	3332.19
309.8	3350.19
310.03	3403.19
310.26	3423.19
310.49	3390.19
310.72	3540.19
310.949	3567.19
311.179	3574.19
311.409	3512.19
311.639	3505.19
311.868	3505.19
312.098	3510.19
312.328	3596.19
312.557	3651.19
312.787	3743.19
313.017	3700.19
313.246	3666.19
313.476	3520.19
313.706	3679.19
313.935	3705.19
314.165	3756.19
314.394	3822.19
314.624	3739.19
314.853	3642.19
315.083	3675.19
315.312	3625.19
315.542	3565.19
315.771	3545.19
316.001	3563.19
316.23	3547.19
316.46	3531.19
316.689	3624.19
316.919	3645.19
317.148	3583.19
317.377	3603.19
317.607	3563.19
317.836	3521.19
318.065	3550.19
318.295	3556.19
318.524	3517.19
318.753	3551.19
318.983	3525.19
319.212	3549.19
319.441	3632.19
319.67	3638.19
319.9	3579.19
320.129	3594.19
320.358	3594.19
320.587	3604.19
320.816	3622.19
321.046	3669.19
321.275	3672.19
321.504	3719.19
321.733	3714.19
321.962	3765.19
322.191	3852.19
322.42	3905.19
322.649	3960.19
322.878	3997.19
323.108	4082.19
323.337	4228.19
323.566	4387.19
323.795	4610.19
324.024	5035.19
324.253	6332.19
324.482	9035.19
324.71	13602.19
324.939	15525.19
325.168	10286.19
325.397	5846.19
325.626	4872.19
325.855	4612.19
326.084	4507.19
326.313	4477.19
326.542	4623.19
326.77	5107.19
326.999	6145.19
327.228	8630.19
327.457	12659.19
327.686	11952.19
327.914	6560.19
328.143	5499.19
328.372	5295.19
328.6	5028.19
328.829	4923.19
329.058	5004.19
329.287	5007.19
329.515	4828.19
329.744	4737.19
329.972	4959.19
330.201	5309.19
330.43	5634.19
330.658	5480.19
330.887	5458.19
331.115	5106.19
331.344	4769.19
331.572	4728.19
331.801	4865.19
332.03	4850.19
332.258	4822.19
332.486	4873.19
332.715	4968.19
332.943	5088.19
333.172	5228.19
333.4	5432.19
333.629	5614.19
333.857	5837.19
334.085	5891.19
334.314	6166.19
334.542	6565.19
334.771	6337.19
334.999	5623.19
335.227	5241.19
335.455	5120.19
335.684	4987.19
335.912	4927.19
336.14	4882.19
336.369	4792.19
336.597	4863.19
336.825	4805.19
337.053	4724.19
337.281	4653.19
337.51	4566.19
337.738	4591.19
337.966	4555.19
338.194	4511.19
338.422	4476.19
338.65	4414.19
338.878	4422.19
339.106	4393.19
339.334	4422.19
339.562	4274.19
339.79	4273.19
340.018	4221.19
340.246	4278.19
340.474	4269.19
340.702	4224.19
340.93	4269.19
341.158	4225.19
341.386	4207.19
341.614	4196.19
341.842	4265.19
342.07	4224.19
342.298	4170.19
342.526	4102.19
342.754	4202.19
342.981	4178.19
343.209	4255.19
343.437	4583.19
343.665	4747.19
343.893	5027.19
344.12	5055.19
344.348	4794.19
344.576	4625.19
344.804	4550.19
345.031	4419.19
345.259	4415.19
345.487	4252.19
345.714	4130.19
345.942	4051.19
346.17	4057.19
346.397	4022.19
346.625	4064.19
346.853	3993.19
347.08	4001.19
347.308	4072.19
347.535	4052.19
347.763	4183.19
347.99	4034.19
348.218	4122.19
348.445	4098.19
348.673	4038.19
348.9	3975.19
349.128	4016.19
349.355	3949.19
349.583	3922.19
349.81	3972.19
350.037	3881.19
350.265	3848.19
350.492	3878.19
350.72	3934.19
350.947	3915.19
351.174	3957.19
351.402	4017.19
351.629	4017.19
351.856	3990.19
352.083	4002.19
352.311	4007.19
352.538	4034.19
352.765	4024.19
352.992	3952.19
353.22	3915.19
353.447	3957.19
353.674	3884.19
353.901	3825.19
354.128	3779.19
354.355	3749.19
354.583	3840.19
354.81	3895.19
355.037	3852.19
355.264	3857.19
355.491	3772.19
355.718	3787.19
355.945	3815.19
356.172	3787.19
356.399	3856.19
356.626	3838.19
356.853	3903.19
357.08	3845.19
357.307	3810.19
357.534	3835.19
357.761	3811.19
357.988	3842.19
358.215	3825.19
358.441	3831.19
358.668	3858.19
358.895	3907.19
359.122	3879.19
359.349	3997.19
359.576	4027.19
359.802	4211.19
360.029	4254.19
360.256	4326.19
360.483	4175.19
360.709	4037.19
360.936	4048.19
361.163	4047.19
361.39	4027.19
361.616	4004.19
361.843	3995.19
362.07	3989.19
362.296	4034.19
362.523	3999.19
362.749	4035.19
362.976	3891.19
363.203	3878.19
363.429	3917.19
363.656	3946.19
363.882	3927.19
364.109	3864.19
364.335	3878.19
364.562	3891.19
364.788	3927.19
365.015	3895.19
365.241	3910.19
365.468	3904.19
365.694	4014.19
365.92	3984.19
366.147	3883.19
366.373	3895.19
366.599	3899.19
366.826	3879.19
367.052	3916.19
367.278	3918.19
367.505	3942.19
367.731	3924.19
367.957	3905.19
368.184	3931.19
368.41	4015.19
368.636	4056.19
368.862	4033.19
369.089	4036.19
369.315	4028.19
369.541	4007.19
369.767	4082.19
369.993	4031.19
370.219	4057.19
370.445	4118.19
370.672	4078.19
370.898	4135.19
371.124	4103.19
371.35	4156.19
371.576	4156.19
371.802	4146.19
372.028	4116.19
372.254	4164.19
372.48	4264.19
372.706	4314.19
372.932	4357.19
373.158	4253.19
373.384	4237.19
373.61	4128.19
373.835	4188.19
374.061	4257.19
374.287	4313.19
374.513	4375.19
374.739	4526.19
374.965	4648.19
375.191	4579.19
375.416	4544.19
375.642	4367.19
375.868	4389.19
376.094	4256.19
376.319	4255.19
376.545	4230.19
376.771	4230.19
376.997	4255.19
377.222	4201.19
377.448	4220.19
377.674	4146.19
377.899	4187.19
378.125	4124.19
378.35	4101.19
378.576	4103.19
378.802	4161.19
379.027	4140.19
379.253	4108.19
379.478	4075.19
379.704	4093.19
379.929	4133.19
380.155	4174.19
380.38	4167.19
380.606	4246.19
380.831	4177.19
381.057	4188.19
381.282	4191.19
381.507	4246.19
381.733	4325.19
381.958	4242.19
382.184	4345.19
382.409	4366.19
382.634	4411.19
382.86	4396.19
383.085	4469.19
383.31	4563.19
383.535	4622.19
383.761	4604.19
383.986	4697.19
384.211	4836.19
384.436	4880.19
384.662	4908.19
384.887	4982.19
385.112	4970.19
385.337	5006.19
385.562	5092.19
385.787	5116.19
386.013	5093.19
386.238	5158.19
386.463	5114.19
386.688	5203.19
386.913	5041.19
387.138	5021.19
387.363	5013.19
387.588	4893.19
387.813	5021.19
388.038	5009.19
388.263	5041.19
388.488	5069.19
388.713	4987.19
388.938	5001.19
389.163	4966.19
389.387	4946.19
389.612	4908.19
389.837	4909.19
390.062	4845.19
390.287	4978.19
390.512	4904.19
390.736	4990.19
390.961	5035.19
391.186	5177.19
391.411	5349.19
391.636	5380.19
391.86	5502.19
392.085	5598.19
392.31	5482.19
392.534	5401.19
392.759	5252.19
392.984	5234.19
393.208	5171.19
393.433	5223.19
393.658	5190.19
393.882	5192.19
394.107	5201.19
394.331	5273.19
394.556	5259.19
394.78	5402.19
395.005	5379.19
395.229	5437.19
395.454	5516.19
395.678	5652.19
395.903	5625.19
396.127	5606.19
396.352	5490.19
396.576	5302.19
396.801	5293.19
397.025	5349.19
397.249	5493.19
397.474	5646.19
397.698	5614.19
397.922	5821.19
398.147	5904.19
398.371	5901.19
398.595	6111.19
398.82	6364.19
399.044	6930.19
399.268	7645.19
399.492	8664.19
399.717	9337.19
399.941	9083.19
400.165	8447.19
400.389	7807.19
400.613	7010.19
400.837	6542.19
401.062	6445.19
401.286	6304.19
401.51	6275.19
401.734	6231.19
401.958	6394.19
402.182	6491.19
402.406	6602.19
402.63	6656.19
402.854	6787.19
403.078	6874.19
403.302	6974.19
403.526	7108.19
403.75	7254.19
403.974	7199.19
404.198	7223.19
404.422	7227.19
404.645	7297.19
404.869	7356.19
405.093	7524.19
405.317	7901.19
405.541	7879.19
405.765	7298.19
405.988	7070.19
406.212	7176.19
406.436	7245.19
406.66	7486.19
406.883	7411.19
407.107	7991.19
407.331	8464.19
407.555	9040.19
407.778	8684.19
408.002	7996.19
408.226	7630.19
408.449	7517.19
408.673	7418.19
408.896	7515.19
409.12	7634.19
409.344	7281.19
409.567	6975.19
409.791	6884.19
410.014	6802.19
410.238	6738.19
410.461	6696.19
410.685	6823.19
410.908	6870.19
411.132	7000.19
411.355	7216.19
411.578	6785.19
411.802	6567.19
412.025	6671.19
412.249	6831.19
412.472	7155.19
412.695	7356.19
412.919	6850.19
413.142	6581.19
413.365	6514.19
413.589	6436.19
413.812	6299.19
414.035	6164.19
414.258	6296.19
414.482	6208.19
414.705	6355.19
414.928	6225.19
415.151	6278.19
415.374	6194.19
415.597	6191.19
415.821	6098.19
416.044	6052.19
416.267	6149.19
416.49	6081.19
416.713	5995.19
416.936	6173.19
417.159	6141.19
417.382	6136.19
417.605	6242.19
417.828	6363.19
418.051	6446.19
418.274	6327.19
418.497	6152.19
418.72	6325.19
418.943	6348.19
419.166	6737.19
419.389	7095.19
419.611	7025.19
419.834	6811.19
420.057	6736.19
420.28	6743.19
420.503	6523.19
420.726	6482.19
420.948	6568.19
421.171	6905.19
421.394	6798.19
421.617	6433.19
421.839	6372.19
422.062	6398.19
422.285	6560.19
422.507	7159.19
422.73	7558.19
422.953	7132.19
423.175	6651.19
423.398	6723.19
423.621	6791.19
423.843	6990.19
424.066	7000.19
424.288	6848.19
424.511	7117.19
424.733	7507.19
424.956	7910.19
425.178	7312.19
425.401	7515.19
425.623	7522.19
425.846	6598.19
426.068	6394.19
426.291	6312.19
426.513	6285.19
426.735	6403.19
426.958	6807.19
427.18	7475.19
427.402	8603.19
427.625	8705.19
427.847	7553.19
428.069	6972.19
428.292	6312.19
428.514	5973.19
428.736	5795.19
428.958	5841.19
429.181	5613.19
429.403	5603.19
429.625	5764.19
429.847	6059.19
430.069	6596.19
430.292	6150.19
430.514	5667.19
430.736	5655.19
430.958	5572.19
431.18	5514.19
431.402	5530.19
431.624	5505.19
431.846	5595.19
432.068	5491.19
432.29	5594.19
432.512	5592.19
432.734	5720.19
432.956	5634.19
433.178	5714.19
433.4	5653.19
433.622	5571.19
433.844	5583.19
434.066	5590.19
434.287	5666.19
434.509	5989.19
434.731	6136.19
434.953	6258.19
435.175	6342.19
435.397	6496.19
435.618	6299.19
435.84	6676.19
436.062	7498.19
436.284	7378.19
436.505	6383.19
436.727	6065.19
436.949	5763.19
437.17	5682.19
437.392	5574.19
437.614	5709.19
437.835	6080.19
438.057	6819.19
438.278	7540.19
438.5	7433.19
438.721	8245.19
438.943	7217.19
439.165	6166.19
439.386	5947.19
439.608	6051.19
439.829	6095.19
440.05	6300.19
440.272	6649.19
440.493	6118.19
440.715	5943.19
440.936	5936.19
441.158	5988.19
441.379	6020.19
441.6	6360.19
441.822	6556.19
442.043	6933.19
442.264	7657.19
442.486	7457.19
442.707	6614.19
442.928	6465.19
443.149	6532.19
443.371	6792.19
443.592	7302.19
443.813	8223.19
444.034	8197.19
444.255	7231.19
444.476	7058.19
444.698	7349.19
444.919	7379.19
445.14	7202.19
445.361	6976.19
445.582	7005.19
445.803	7465.19
446.024	8043.19
446.245	7763.19
446.466	7005.19
446.687	6192.19
446.908	5891.19
447.129	5626.19
447.35	5546.19
447.571	5487.19
447.792	5335.19
448.013	5421.19
448.234	5533.19
448.455	6246.19
448.675	7406.19
448.896	7773.19
449.117	6428.19
449.338	6570.19
449.559	7774.19
449.779	7986.19
450	6174.19
450.221	5583.19
450.442	5328.19
450.662	5273.19
450.883	5301.19
451.104	5408.19
451.324	5231.19
451.545	5127.19
451.766	5062.19
451.986	4930.19
452.207	4896.19
452.428	4910.19
452.648	4919.19
452.869	4871.19
453.089	4951.19
453.31	5085.19
453.53	4919.19
453.751	4825.19
453.971	4890.19
454.192	4966.19
454.412	4752.19
454.633	4689.19
454.853	4732.19
455.073	4751.19
455.294	5104.19
455.514	5554.19
455.734	5138.19
455.955	4689.19
456.175	4546.19
456.395	4540.19
456.616	4484.19
456.836	4524.19
457.056	4512.19
457.276	4393.19
457.497	4624.19
457.717	4616.19
457.937	4616.19
458.157	4685.19
458.377	4783.19
458.598	5035.19
458.818	5592.19
459.038	6299.19
459.258	6260.19
459.478	5669.19
459.698	5569.19
459.918	5707.19
460.138	5869.19
460.358	6115.19
460.578	6134.19
460.798	6160.19
461.018	6122.19
461.238	6045.19
461.458	5983.19
461.678	6009.19
461.898	6134.19
462.118	6115.19
462.338	6446.19
462.558	6597.19
462.777	6896.19
462.997	7479.19
463.217	7909.19
463.437	7668.19
463.657	7173.19
463.876	6961.19
464.096	6913.19
464.316	6930.19
464.536	6944.19
464.755	6708.19
464.975	6673.19
465.195	6644.19
465.414	6499.19
465.634	5860.19
465.854	5622.19
466.073	5430.19
466.293	5263.19
466.512	5119.19
466.732	5006.19
466.951	5117.19
467.171	5027.19
467.391	5184.19
467.61	5228.19
467.829	5171.19
468.049	5167.19
468.268	5077.19
468.488	4896.19
468.707	4859.19
468.927	4890.19
469.146	4841.19
469.365	4961.19
469.585	4899.19
469.804	5126.19
470.023	5264.19
470.243	5259.19
470.462	5284.19
470.681	5424.19
470.901	5280.19
471.12	5217.19
471.339	5114.19
471.558	5165.19
471.777	5054.19
471.997	5079.19
472.216	5176.19
472.435	5691.19
472.654	5242.19
472.873	5017.19
473.092	4867.19
473.311	4889.19
473.53	4930.19
473.749	4981.19
473.968	5418.19
474.187	6419.19
474.406	6008.19
474.625	5204.19
474.844	4939.19
475.063	4919.19
475.282	4929.19
475.501	4982.19
475.72	4958.19
475.939	4964.19
476.158	5123.19
476.377	5042.19
476.596	5075.19
476.814	5243.19
477.033	5187.19
477.252	5319.19
477.471	5343.19
477.69	5461.19
477.908	5570.19
478.127	5793.19
478.346	5807.19
478.564	5869.19
478.783	5947.19
479.002	6236.19
479.22	6108.19
479.439	6166.19
479.658	6365.19
479.876	6332.19
480.095	6522.19
480.313	6956.19
480.532	6941.19
480.751	6741.19
480.969	6956.19
481.188	7705.19
481.406	7509.19
481.624	6627.19
481.843	6284.19
482.061	6078.19
482.28	5871.19
482.498	5885.19
482.717	5883.19
482.935	5723.19
483.153	5739.19
483.372	5772.19
483.59	5727.19
483.808	5902.19
484.027	5832.19
484.245	5776.19
484.463	5807.19
484.681	5882.19
484.9	5957.19
485.118	5951.19
485.336	6065.19
485.554	6149.19
485.772	6079.19
485.99	6143.19
486.209	6161.19
486.427	6154.19
486.645	6268.19
486.863	6299.19
487.081	6293.19
487.299	6182.19
487.517	6206.19
487.735	6213.19
487.953	6241.19
