Data from Circ_1986_H10_HRD10591_00042.txt Node
Date: Wed Jan 03 12:15:34 EST 2024
User: Yrep
Spectrometer: HR+D1059
Trigger mode: 1
Integration Time (sec): 1.000000E-1
Scans to average: 1
Electric dark correction enabled: true
Nonlinearity correction enabled: false
Boxcar width: 0
XAxis mode: Wavelengths
Number of Pixels in Spectrum: 2048
>>>>>Begin Spectral Data<<<<<
223.165	-14.62
223.4	-14.62
223.635	-14.62
223.869	-31.62
224.104	-18.62
224.338	-20.62
224.573	-5.62
224.808	-9.62
225.042	-7.62
225.277	-9.62
225.511	-11.62
225.746	-0.62
225.98	4.38
226.215	20.38
226.449	15.38
226.683	28.38
226.918	24.38
227.152	37.38
227.387	41.38
227.621	29.38
227.856	47.38
228.09	56.38
228.324	52.38
228.559	57.38
228.793	67.38
229.027	57.38
229.262	68.38
229.496	71.38
229.73	89.38
229.964	83.38
230.199	80.38
230.433	74.38
230.667	87.38
230.901	89.38
231.136	59.38
231.37	83.38
231.604	91.38
231.838	71.38
232.072	71.38
232.306	81.38
232.541	76.38
232.775	81.38
233.009	85.38
233.243	91.38
233.477	80.38
233.711	93.38
233.945	87.38
234.179	91.38
234.413	81.38
234.647	87.38
234.881	84.38
235.115	81.38
235.349	82.38
235.583	77.38
235.817	79.38
236.051	85.38
236.285	89.38
236.519	97.38
236.753	85.38
236.987	77.38
237.221	79.38
237.455	78.38
237.689	85.38
237.922	87.38
238.156	89.38
238.39	67.38
238.624	79.38
238.858	77.38
239.091	87.38
239.325	85.38
239.559	97.38
239.793	83.38
240.027	79.38
240.26	88.38
240.494	77.38
240.728	90.38
240.961	72.38
241.195	72.38
241.429	84.38
241.662	73.38
241.896	75.38
242.13	89.38
242.363	79.38
242.597	79.38
242.83	89.38
243.064	69.38
243.298	80.38
243.531	82.38
243.765	90.38
243.998	79.38
244.232	90.38
244.465	96.38
244.699	90.38
244.932	81.38
245.166	75.38
245.399	81.38
245.633	75.38
245.866	83.38
246.099	76.38
246.333	71.38
246.566	82.38
246.8	74.38
247.033	81.38
247.266	71.38
247.5	77.38
247.733	81.38
247.966	81.38
248.2	67.38
248.433	78.38
248.666	71.38
248.899	71.38
249.133	84.38
249.366	100.38
249.599	99.38
249.832	71.38
250.066	81.38
250.299	84.38
250.532	84.38
250.765	89.38
250.998	83.38
251.231	73.38
251.465	72.38
251.698	86.38
251.931	87.38
252.164	87.38
252.397	81.38
252.63	92.38
252.863	90.38
253.096	71.38
253.329	90.38
253.562	94.38
253.795	84.38
254.028	88.38
254.261	78.38
254.494	97.38
254.727	92.38
254.96	85.38
255.193	91.38
255.426	88.38
255.659	86.38
255.892	88.38
256.124	86.38
256.357	89.38
256.59	71.38
256.823	86.38
257.056	79.38
257.289	89.38
257.521	79.38
257.754	77.38
257.987	89.38
258.22	87.38
258.452	82.38
258.685	81.38
258.918	83.38
259.151	89.38
259.383	72.38
259.616	81.38
259.849	85.38
260.081	91.38
260.314	98.38
260.547	74.38
260.779	94.38
261.012	73.38
261.244	90.38
261.477	89.38
261.71	91.38
261.942	99.38
262.175	103.38
262.407	88.38
262.64	94.38
262.872	102.38
263.105	91.38
263.337	87.38
263.57	76.38
263.802	96.38
264.035	89.38
264.267	73.38
264.499	95.38
264.732	91.38
264.964	87.38
265.197	78.38
265.429	86.38
265.661	95.38
265.894	62.38
266.126	84.38
266.358	92.38
266.591	78.38
266.823	64.38
267.055	69.38
267.287	95.38
267.52	90.38
267.752	92.38
267.984	78.38
268.216	70.38
268.448	77.38
268.681	77.38
268.913	102.38
269.145	94.38
269.377	94.38
269.609	71.38
269.841	78.38
270.073	84.38
270.306	88.38
270.538	94.38
270.77	95.38
271.002	89.38
271.234	90.38
271.466	76.38
271.698	78.38
271.93	86.38
272.162	92.38
272.394	94.38
272.626	78.38
272.858	101.38
273.09	84.38
273.322	93.38
273.553	85.38
273.785	102.38
274.017	90.38
274.249	83.38
274.481	83.38
274.713	78.38
274.945	93.38
275.176	83.38
275.408	78.38
275.64	90.38
275.872	89.38
276.104	98.38
276.335	84.38
276.567	98.38
276.799	98.38
277.031	83.38
277.262	107.38
277.494	85.38
277.726	89.38
277.957	97.38
278.189	94.38
278.421	85.38
278.652	92.38
278.884	100.38
279.115	86.38
279.347	92.38
279.579	99.38
279.81	85.38
280.042	97.38
280.273	87.38
280.505	93.38
280.736	90.38
280.968	91.38
281.199	93.38
281.431	85.38
281.662	89.38
281.894	83.38
282.125	93.38
282.356	105.38
282.588	102.38
282.819	108.38
283.051	85.38
283.282	99.38
283.513	91.38
283.745	86.38
283.976	79.38
284.207	86.38
284.439	78.38
284.67	103.38
284.901	94.38
285.132	95.38
285.364	93.38
285.595	94.38
285.826	95.38
286.057	101.38
286.288	84.38
286.52	77.38
286.751	83.38
286.982	95.38
287.213	83.38
287.444	94.38
287.675	85.38
287.906	90.38
288.138	93.38
288.369	84.38
288.6	102.38
288.831	85.38
289.062	87.38
289.293	97.38
289.524	84.38
289.755	77.38
289.986	90.38
290.217	86.38
290.448	75.38
290.679	84.38
290.91	88.38
291.141	87.38
291.371	90.38
291.602	96.38
291.833	85.38
292.064	95.38
292.295	83.38
292.526	87.38
292.757	91.38
292.987	92.38
293.218	79.38
293.449	90.38
293.68	91.38
293.91	82.38
294.141	94.38
294.372	98.38
294.603	83.38
294.833	93.38
295.064	86.38
295.295	98.38
295.525	91.38
295.756	99.38
295.987	106.38
296.217	115.38
296.448	114.38
296.679	97.38
296.909	105.38
297.14	97.38
297.37	98.38
297.601	97.38
297.831	94.38
298.062	94.38
298.292	103.38
298.523	104.38
298.753	105.38
298.984	77.38
299.214	83.38
299.445	91.38
299.675	96.38
299.905	107.38
300.136	85.38
300.366	82.38
300.597	95.38
300.827	89.38
301.057	92.38
301.288	81.38
301.518	89.38
301.748	81.38
301.979	97.38
302.209	91.38
302.439	87.38
302.669	83.38
302.9	86.38
303.13	87.38
303.36	103.38
303.59	94.38
303.82	99.38
304.051	92.38
304.281	88.38
304.511	97.38
304.741	86.38
304.971	97.38
305.201	87.38
305.431	94.38
305.661	102.38
305.891	106.38
306.121	83.38
306.352	101.38
306.582	90.38
306.812	87.38
307.042	95.38
307.272	98.38
307.502	97.38
307.731	83.38
307.961	107.38
308.191	91.38
308.421	83.38
308.651	101.38
308.881	97.38
309.111	91.38
309.341	102.38
309.571	94.38
309.8	99.38
310.03	97.38
310.26	90.38
310.49	106.38
310.72	98.38
310.949	96.38
311.179	105.38
311.409	88.38
311.639	100.38
311.868	99.38
312.098	87.38
312.328	98.38
312.557	90.38
312.787	89.38
313.017	100.38
313.246	94.38
313.476	87.38
313.706	91.38
313.935	88.38
314.165	89.38
314.394	104.38
314.624	96.38
314.853	98.38
315.083	89.38
315.312	77.38
315.542	92.38
315.771	92.38
316.001	84.38
316.23	111.38
316.46	87.38
316.689	82.38
316.919	100.38
317.148	81.38
317.377	98.38
317.607	98.38
317.836	100.38
318.065	98.38
318.295	93.38
318.524	91.38
318.753	87.38
318.983	98.38
319.212	101.38
319.441	97.38
319.67	103.38
319.9	88.38
320.129	90.38
320.358	104.38
320.587	94.38
320.816	104.38
321.046	91.38
321.275	89.38
321.504	102.38
321.733	101.38
321.962	94.38
322.191	103.38
322.42	107.38
322.649	103.38
322.878	120.38
323.108	116.38
323.337	98.38
323.566	111.38
323.795	126.38
324.024	147.38
324.253	295.38
324.482	573.38
324.71	1165.38
324.939	1530.38
325.168	590.38
325.397	213.38
325.626	132.38
325.855	128.38
326.084	118.38
326.313	123.38
326.542	122.38
326.77	179.38
326.999	333.38
327.228	663.38
327.457	1191.38
327.686	913.38
327.914	295.38
328.143	169.38
328.372	141.38
328.6	129.38
328.829	115.38
329.058	108.38
329.287	97.38
329.515	119.38
329.744	111.38
329.972	108.38
330.201	114.38
330.43	157.38
330.658	133.38
330.887	125.38
331.115	111.38
331.344	95.38
331.572	99.38
331.801	102.38
332.03	98.38
332.258	97.38
332.486	95.38
332.715	91.38
332.943	90.38
333.172	97.38
333.4	91.38
333.629	92.38
333.857	94.38
334.085	116.38
334.314	134.38
334.542	159.38
334.771	158.38
334.999	102.38
335.227	97.38
335.455	107.38
335.684	114.38
335.912	94.38
336.14	99.38
336.369	93.38
336.597	97.38
336.825	94.38
337.053	101.38
337.281	85.38
337.51	85.38
337.738	96.38
337.966	107.38
338.194	97.38
338.422	91.38
338.65	100.38
338.878	105.38
339.106	111.38
339.334	94.38
339.562	91.38
339.79	86.38
340.018	99.38
340.246	95.38
340.474	92.38
340.702	93.38
340.93	86.38
341.158	63.38
341.386	78.38
341.614	100.38
341.842	95.38
342.07	96.38
342.298	105.38
342.526	103.38
342.754	97.38
342.981	90.38
343.209	86.38
343.437	101.38
343.665	95.38
343.893	102.38
344.12	103.38
344.348	84.38
344.576	87.38
344.804	97.38
345.031	90.38
345.259	92.38
345.487	94.38
345.714	87.38
345.942	97.38
346.17	77.38
346.397	101.38
346.625	92.38
346.853	85.38
347.08	83.38
347.308	98.38
347.535	97.38
347.763	104.38
347.99	103.38
348.218	105.38
348.445	108.38
348.673	91.38
348.9	76.38
349.128	91.38
349.355	96.38
349.583	89.38
349.81	101.38
350.037	97.38
350.265	97.38
350.492	91.38
350.72	103.38
350.947	100.38
351.174	100.38
351.402	100.38
351.629	117.38
351.856	95.38
352.083	97.38
352.311	100.38
352.538	104.38
352.765	102.38
352.992	103.38
353.22	109.38
353.447	118.38
353.674	93.38
353.901	113.38
354.128	95.38
354.355	95.38
354.583	92.38
354.81	89.38
355.037	102.38
355.264	109.38
355.491	93.38
355.718	89.38
355.945	91.38
356.172	97.38
356.399	102.38
356.626	95.38
356.853	83.38
357.08	101.38
357.307	99.38
357.534	104.38
357.761	93.38
357.988	97.38
358.215	99.38
358.441	93.38
358.668	102.38
358.895	91.38
359.122	98.38
359.349	91.38
359.576	93.38
359.802	100.38
360.029	113.38
360.256	97.38
360.483	97.38
360.709	92.38
360.936	88.38
361.163	90.38
361.39	82.38
361.616	98.38
361.843	89.38
362.07	89.38
362.296	90.38
362.523	89.38
362.749	90.38
362.976	87.38
363.203	99.38
363.429	87.38
363.656	93.38
363.882	98.38
364.109	99.38
364.335	101.38
364.562	101.38
364.788	89.38
365.015	95.38
365.241	87.38
365.468	102.38
365.694	100.38
365.92	90.38
366.147	107.38
366.373	99.38
366.599	92.38
366.826	93.38
367.052	83.38
367.278	103.38
367.505	98.38
367.731	91.38
367.957	101.38
368.184	81.38
368.41	99.38
368.636	84.38
368.862	115.38
369.089	93.38
369.315	91.38
369.541	86.38
369.767	90.38
369.993	93.38
370.219	95.38
370.445	90.38
370.672	98.38
370.898	83.38
371.124	96.38
371.35	82.38
371.576	87.38
371.802	89.38
372.028	96.38
372.254	92.38
372.48	83.38
372.706	76.38
372.932	85.38
373.158	98.38
373.384	91.38
373.61	100.38
373.835	89.38
374.061	99.38
374.287	94.38
374.513	87.38
374.739	103.38
374.965	98.38
375.191	99.38
375.416	110.38
375.642	99.38
375.868	84.38
376.094	93.38
376.319	86.38
376.545	93.38
376.771	100.38
376.997	95.38
377.222	96.38
377.448	99.38
377.674	95.38
377.899	85.38
378.125	101.38
378.35	98.38
378.576	89.38
378.802	88.38
379.027	93.38
379.253	101.38
379.478	95.38
379.704	91.38
379.929	104.38
380.155	94.38
380.38	93.38
380.606	117.38
380.831	87.38
381.057	92.38
381.282	95.38
381.507	102.38
381.733	101.38
381.958	105.38
382.184	94.38
382.409	114.38
382.634	94.38
382.86	85.38
383.085	93.38
383.31	101.38
383.535	101.38
383.761	95.38
383.986	96.38
384.211	101.38
384.436	93.38
384.662	85.38
384.887	92.38
385.112	114.38
385.337	118.38
385.562	109.38
385.787	115.38
386.013	118.38
386.238	122.38
386.463	100.38
386.688	105.38
386.913	105.38
387.138	122.38
387.363	106.38
387.588	98.38
387.813	103.38
388.038	96.38
388.263	112.38
388.488	117.38
388.713	91.38
388.938	85.38
389.163	92.38
389.387	108.38
389.612	106.38
389.837	90.38
390.062	93.38
390.287	100.38
390.512	83.38
390.736	91.38
390.961	86.38
391.186	95.38
391.411	99.38
391.636	93.38
391.86	89.38
392.085	93.38
392.31	85.38
392.534	86.38
392.759	76.38
392.984	83.38
393.208	87.38
393.433	99.38
393.658	97.38
393.882	89.38
394.107	94.38
394.331	91.38
394.556	85.38
394.78	92.38
395.005	95.38
395.229	98.38
395.454	86.38
395.678	92.38
395.903	89.38
396.127	88.38
396.352	90.38
396.576	88.38
396.801	89.38
397.025	86.38
397.249	90.38
397.474	97.38
397.698	85.38
397.922	100.38
398.147	92.38
398.371	89.38
398.595	92.38
398.82	86.38
399.044	91.38
399.268	110.38
399.492	87.38
399.717	93.38
399.941	87.38
400.165	79.38
400.389	89.38
400.613	92.38
400.837	87.38
401.062	87.38
401.286	86.38
401.51	100.38
401.734	88.38
401.958	100.38
402.182	110.38
402.406	135.38
402.63	95.38
402.854	93.38
403.078	96.38
403.302	83.38
403.526	73.38
403.75	86.38
403.974	79.38
404.198	82.38
404.422	85.38
404.645	90.38
404.869	86.38
405.093	78.38
405.317	95.38
405.541	81.38
405.765	84.38
405.988	115.38
406.212	130.38
406.436	172.38
406.66	111.38
406.883	95.38
407.107	92.38
407.331	97.38
407.555	93.38
407.778	85.38
408.002	77.38
408.226	101.38
408.449	89.38
408.673	93.38
408.896	89.38
409.12	104.38
409.344	83.38
409.567	96.38
409.791	93.38
410.014	101.38
410.238	101.38
410.461	81.38
410.685	95.38
410.908	92.38
411.132	100.38
411.355	94.38
411.578	82.38
411.802	83.38
412.025	101.38
412.249	87.38
412.472	111.38
412.695	99.38
412.919	97.38
413.142	100.38
413.365	85.38
413.589	85.38
413.812	87.38
414.035	90.38
414.258	101.38
414.482	91.38
414.705	99.38
414.928	87.38
415.151	94.38
415.374	82.38
415.597	98.38
415.821	99.38
416.044	104.38
416.267	104.38
416.49	95.38
416.713	88.38
416.936	100.38
417.159	91.38
417.382	101.38
417.605	97.38
417.828	93.38
418.051	83.38
418.274	93.38
418.497	89.38
418.72	84.38
418.943	102.38
419.166	83.38
419.389	98.38
419.611	94.38
419.834	83.38
420.057	84.38
420.28	97.38
420.503	90.38
420.726	91.38
420.948	97.38
421.171	98.38
421.394	90.38
421.617	93.38
421.839	91.38
422.062	87.38
422.285	89.38
422.507	81.38
422.73	95.38
422.953	97.38
423.175	94.38
423.398	90.38
423.621	90.38
423.843	98.38
424.066	73.38
424.288	96.38
424.511	82.38
424.733	106.38
424.956	107.38
425.178	94.38
425.401	104.38
425.623	94.38
425.846	81.38
426.068	89.38
426.291	95.38
426.513	77.38
426.735	89.38
426.958	89.38
427.18	101.38
427.402	117.38
427.625	145.38
427.847	112.38
428.069	101.38
428.292	79.38
428.514	92.38
428.736	94.38
428.958	83.38
429.181	89.38
429.403	101.38
429.625	83.38
429.847	85.38
430.069	103.38
430.292	100.38
430.514	82.38
430.736	88.38
430.958	99.38
431.18	85.38
431.402	81.38
431.624	92.38
431.846	83.38
432.068	92.38
432.29	72.38
432.512	91.38
432.734	93.38
432.956	93.38
433.178	88.38
433.4	90.38
433.622	88.38
433.844	94.38
434.066	97.38
434.287	93.38
434.509	86.38
434.731	88.38
434.953	85.38
435.175	90.38
435.397	99.38
435.618	92.38
435.84	103.38
436.062	115.38
436.284	116.38
436.505	103.38
436.727	95.38
436.949	85.38
437.17	88.38
437.392	96.38
437.614	76.38
437.835	107.38
438.057	94.38
438.278	102.38
438.5	101.38
438.721	106.38
438.943	97.38
439.165	83.38
439.386	80.38
439.608	78.38
439.829	100.38
440.05	105.38
440.272	115.38
440.493	94.38
440.715	86.38
440.936	82.38
441.158	81.38
441.379	95.38
441.6	93.38
441.822	98.38
442.043	77.38
442.264	83.38
442.486	83.38
442.707	101.38
442.928	97.38
443.149	114.38
443.371	126.38
443.592	95.38
443.813	98.38
444.034	105.38
444.255	98.38
444.476	93.38
444.698	83.38
444.919	83.38
445.14	128.38
445.361	112.38
445.582	107.38
445.803	130.38
446.024	101.38
446.245	110.38
446.466	109.38
446.687	99.38
446.908	86.38
447.129	96.38
447.35	97.38
447.571	91.38
447.792	89.38
448.013	102.38
448.234	99.38
448.455	97.38
448.675	98.38
448.896	99.38
449.117	99.38
449.338	102.38
449.559	108.38
449.779	123.38
450	93.38
450.221	99.38
450.442	81.38
450.662	92.38
450.883	86.38
451.104	103.38
451.324	95.38
451.545	94.38
451.766	97.38
451.986	89.38
452.207	85.38
452.428	79.38
452.648	101.38
452.869	105.38
453.089	98.38
453.31	109.38
453.53	81.38
453.751	87.38
453.971	91.38
454.192	97.38
454.412	97.38
454.633	95.38
454.853	97.38
455.073	93.38
455.294	95.38
455.514	92.38
455.734	90.38
455.955	83.38
456.175	87.38
456.395	82.38
456.616	86.38
456.836	97.38
457.056	87.38
457.276	84.38
457.497	94.38
457.717	89.38
457.937	93.38
458.157	93.38
458.377	79.38
458.598	97.38
458.818	118.38
459.038	131.38
459.258	108.38
459.478	82.38
459.698	83.38
459.918	90.38
460.138	106.38
460.358	88.38
460.578	102.38
460.798	85.38
461.018	92.38
461.238	97.38
461.458	95.38
461.678	77.38
461.898	95.38
462.118	78.38
462.338	98.38
462.558	90.38
462.777	102.38
462.997	97.38
463.217	101.38
463.437	91.38
463.657	90.38
463.876	89.38
464.096	100.38
464.316	77.38
464.536	102.38
464.755	92.38
464.975	110.38
465.195	144.38
465.414	137.38
465.634	107.38
465.854	93.38
466.073	87.38
466.293	104.38
466.512	95.38
466.732	87.38
466.951	84.38
467.171	103.38
467.391	103.38
467.61	99.38
467.829	97.38
468.049	108.38
468.268	125.38
468.488	93.38
468.707	82.38
468.927	92.38
469.146	64.38
469.365	83.38
469.585	77.38
469.804	85.38
470.023	96.38
470.243	93.38
470.462	92.38
470.681	88.38
470.901	76.38
471.12	97.38
471.339	103.38
471.558	94.38
471.777	94.38
471.997	109.38
472.216	136.38
472.435	185.38
472.654	109.38
472.873	88.38
473.092	91.38
473.311	89.38
473.53	81.38
473.749	90.38
473.968	85.38
474.187	102.38
474.406	95.38
474.625	93.38
474.844	86.38
475.063	85.38
475.282	76.38
475.501	87.38
475.72	94.38
475.939	98.38
476.158	83.38
476.377	83.38
476.596	96.38
476.814	88.38
477.033	86.38
477.252	91.38
477.471	72.38
477.69	91.38
477.908	94.38
478.127	76.38
478.346	87.38
478.564	87.38
478.783	103.38
479.002	95.38
479.22	94.38
479.439	87.38
479.658	90.38
479.876	105.38
480.095	91.38
480.313	87.38
480.532	100.38
480.751	90.38
480.969	141.38
481.188	273.38
481.406	201.38
481.624	90.38
481.843	99.38
482.061	87.38
482.28	90.38
482.498	87.38
482.717	87.38
482.935	84.38
483.153	113.38
483.372	98.38
483.59	105.38
483.808	102.38
484.027	81.38
484.245	95.38
484.463	89.38
484.681	90.38
484.9	98.38
485.118	87.38
485.336	103.38
485.554	99.38
485.772	97.38
485.99	114.38
486.209	105.38
486.427	104.38
486.645	117.38
486.863	99.38
487.081	101.38
487.299	98.38
487.517	93.38
487.735	94.38
487.953	105.38
488.171	75.38
488.389	97.38
488.607	88.38
488.825	75.38
489.043	87.38
489.261	96.38
489.479	85.38
489.696	89.38
489.914	100.38
490.132	79.38
490.35	93.38
490.568	102.38
490.786	99.38
491.003	90.38
491.221	87.38
491.439	93.38
491.657	98.38
491.874	98.38
492.092	88.38
492.31	101.38
492.527	91.38
492.745	83.38
492.963	92.38
493.18	99.38
493.398	87.38
493.615	82.38
493.833	82.38
494.05	89.38
494.268	81.38
494.485	82.38
494.703	89.38
494.92	83.38
495.138	103.38
495.355	91.38
495.573	93.38
495.79	94.38
496.008	86.38
496.225	99.38
496.442	90.38
496.66	99.38
496.877	102.38
497.094	93.38
497.312	90.38
497.529	91.38
497.746	94.38
497.963	86.38
498.181	92.38
498.398	108.38
498.615	109.38
498.832	99.38
499.049	87.38
499.267	95.38
499.484	76.38
499.701	97.38
499.918	91.38
500.135	78.38
500.352	85.38
500.569	83.38
500.786	86.38
501.003	82.38
501.22	90.38
501.437	90.38
501.654	93.38
501.871	95.38
502.088	91.38
502.305	95.38
502.522	97.38
502.739	101.38
502.956	89.38
503.172	80.38
503.389	98.38
503.606	97.38
503.823	100.38
504.04	102.38
504.256	85.38
504.473	90.38
504.69	93.38
504.907	91.38
505.123	94.38
505.34	93.38
505.557	96.38
505.773	95.38
505.99	82.38
506.207	77.38
506.423	97.38
506.64	90.38
506.856	97.38
507.073	103.38
507.289	86.38
507.506	90.38
507.722	98.38
507.939	101.38
508.155	94.38
508.372	94.38
508.588	100.38
508.805	99.38
509.021	100.38
509.238	86.38
509.454	101.38
509.67	106.38
509.887	110.38
510.103	110.38
510.319	176.38
510.536	543.38
510.752	1627.38
510.968	476.38
511.184	129.38
511.401	106.38
511.617	89.38
511.833	89.38
512.049	109.38
512.265	89.38
512.481	89.38
512.698	91.38
512.914	98.38
513.13	109.38
513.346	97.38
513.562	93.38
513.778	87.38
513.994	111.38
514.21	106.38
514.426	106.38
514.642	118.38
514.858	118.38
515.074	155.38
515.29	324.38
515.506	947.38
515.721	361.38
