Data from Circ_1986_H10_HRD10591_00098.txt Node
Date: Wed Jan 03 12:15:45 EST 2024
User: Yrep
Spectrometer: HR+D1059
Trigger mode: 1
Integration Time (sec): 1.000000E-1
Scans to average: 1
Electric dark correction enabled: true
Nonlinearity correction enabled: false
Boxcar width: 0
XAxis mode: Wavelengths
Number of Pixels in Spectrum: 2048
>>>>>Begin Spectral Data<<<<<
223.165	-17.5
223.4	-17.5
223.635	-17.5
223.869	-15.5
224.104	-30.5
224.338	-12.5
224.573	-3.5
224.808	-6.5
225.042	0.5
225.277	-23.5
225.511	2.5
225.746	-1.5
225.98	8.5
226.215	3.5
226.449	14.5
226.683	3.5
226.918	30.5
227.152	47.5
227.387	41.5
227.621	37.5
227.856	34.5
228.09	47.5
228.324	37.5
228.559	62.5
228.793	54.5
229.027	65.5
229.262	63.5
229.496	81.5
229.73	79.5
229.964	77.5
230.199	70.5
230.433	75.5
230.667	79.5
230.901	87.5
231.136	69.5
231.37	58.5
231.604	86.5
231.838	72.5
232.072	90.5
232.306	75.5
232.541	84.5
232.775	81.5
233.009	73.5
233.243	87.5
233.477	91.5
233.711	96.5
233.945	74.5
234.179	65.5
234.413	79.5
234.647	74.5
234.881	63.5
235.115	78.5
235.349	77.5
235.583	80.5
235.817	74.5
236.051	72.5
236.285	70.5
236.519	67.5
236.753	85.5
236.987	82.5
237.221	66.5
237.455	86.5
237.689	82.5
237.922	71.5
238.156	96.5
238.39	74.5
238.624	72.5
238.858	74.5
239.091	80.5
239.325	78.5
239.559	74.5
239.793	80.5
240.027	75.5
240.26	81.5
240.494	75.5
240.728	81.5
240.961	77.5
241.195	90.5
241.429	53.5
241.662	58.5
241.896	81.5
242.13	75.5
242.363	74.5
242.597	81.5
242.83	74.5
243.064	68.5
243.298	68.5
243.531	70.5
243.765	75.5
243.998	67.5
244.232	86.5
244.465	103.5
244.699	79.5
244.932	83.5
245.166	81.5
245.399	72.5
245.633	81.5
245.866	76.5
246.099	69.5
246.333	96.5
246.566	56.5
246.8	61.5
247.033	81.5
247.266	67.5
247.5	63.5
247.733	78.5
247.966	83.5
248.2	70.5
248.433	71.5
248.666	81.5
248.899	82.5
249.133	82.5
249.366	95.5
249.599	81.5
249.832	95.5
250.066	75.5
250.299	70.5
250.532	87.5
250.765	80.5
250.998	77.5
251.231	62.5
251.465	79.5
251.698	89.5
251.931	85.5
252.164	86.5
252.397	69.5
252.63	76.5
252.863	74.5
253.096	84.5
253.329	79.5
253.562	89.5
253.795	77.5
254.028	66.5
254.261	94.5
254.494	94.5
254.727	81.5
254.96	81.5
255.193	80.5
255.426	98.5
255.659	83.5
255.892	101.5
256.124	88.5
256.357	79.5
256.59	81.5
256.823	61.5
257.056	96.5
257.289	85.5
257.521	75.5
257.754	99.5
257.987	84.5
258.22	91.5
258.452	98.5
258.685	93.5
258.918	89.5
259.151	77.5
259.383	84.5
259.616	75.5
259.849	80.5
260.081	81.5
260.314	77.5
260.547	71.5
260.779	81.5
261.012	84.5
261.244	83.5
261.477	86.5
261.71	98.5
261.942	88.5
262.175	105.5
262.407	93.5
262.64	73.5
262.872	82.5
263.105	73.5
263.337	81.5
263.57	89.5
263.802	98.5
264.035	75.5
264.267	87.5
264.499	70.5
264.732	89.5
264.964	90.5
265.197	81.5
265.429	81.5
265.661	82.5
265.894	86.5
266.126	78.5
266.358	72.5
266.591	62.5
266.823	85.5
267.055	91.5
267.287	90.5
267.52	87.5
267.752	83.5
267.984	75.5
268.216	83.5
268.448	86.5
268.681	68.5
268.913	95.5
269.145	85.5
269.377	65.5
269.609	82.5
269.841	84.5
270.073	89.5
270.306	77.5
270.538	83.5
270.77	78.5
271.002	89.5
271.234	98.5
271.466	73.5
271.698	81.5
271.93	83.5
272.162	71.5
272.394	75.5
272.626	83.5
272.858	83.5
273.09	83.5
273.322	89.5
273.553	85.5
273.785	85.5
274.017	95.5
274.249	89.5
274.481	88.5
274.713	79.5
274.945	77.5
275.176	78.5
275.408	65.5
275.64	87.5
275.872	93.5
276.104	86.5
276.335	81.5
276.567	84.5
276.799	102.5
277.031	88.5
277.262	101.5
277.494	97.5
277.726	97.5
277.957	87.5
278.189	78.5
278.421	84.5
278.652	70.5
278.884	89.5
279.115	79.5
279.347	93.5
279.579	87.5
279.81	77.5
280.042	93.5
280.273	104.5
280.505	86.5
280.736	82.5
280.968	86.5
281.199	78.5
281.431	84.5
281.662	93.5
281.894	90.5
282.125	100.5
282.356	102.5
282.588	114.5
282.819	103.5
283.051	81.5
283.282	87.5
283.513	88.5
283.745	86.5
283.976	91.5
284.207	86.5
284.439	91.5
284.67	87.5
284.901	85.5
285.132	87.5
285.364	86.5
285.595	70.5
285.826	83.5
286.057	82.5
286.288	86.5
286.52	94.5
286.751	90.5
286.982	90.5
287.213	89.5
287.444	84.5
287.675	85.5
287.906	100.5
288.138	98.5
288.369	96.5
288.6	78.5
288.831	88.5
289.062	90.5
289.293	82.5
289.524	88.5
289.755	85.5
289.986	71.5
290.217	78.5
290.448	86.5
290.679	105.5
290.91	81.5
291.141	74.5
291.371	93.5
291.602	83.5
291.833	90.5
292.064	77.5
292.295	90.5
292.526	93.5
292.757	79.5
292.987	85.5
293.218	72.5
293.449	80.5
293.68	91.5
293.91	85.5
294.141	92.5
294.372	77.5
294.603	97.5
294.833	101.5
295.064	94.5
295.295	81.5
295.525	97.5
295.756	87.5
295.987	93.5
296.217	109.5
296.448	108.5
296.679	87.5
296.909	96.5
297.14	79.5
297.37	98.5
297.601	92.5
297.831	88.5
298.062	84.5
298.292	78.5
298.523	75.5
298.753	88.5
298.984	81.5
299.214	97.5
299.445	82.5
299.675	88.5
299.905	90.5
300.136	79.5
300.366	77.5
300.597	95.5
300.827	90.5
301.057	86.5
301.288	104.5
301.518	82.5
301.748	89.5
301.979	111.5
302.209	91.5
302.439	60.5
302.669	104.5
302.9	97.5
303.13	88.5
303.36	81.5
303.59	93.5
303.82	108.5
304.051	92.5
304.281	89.5
304.511	105.5
304.741	103.5
304.971	89.5
305.201	91.5
305.431	94.5
305.661	85.5
305.891	84.5
306.121	89.5
306.352	92.5
306.582	98.5
306.812	86.5
307.042	94.5
307.272	79.5
307.502	99.5
307.731	101.5
307.961	96.5
308.191	87.5
308.421	102.5
308.651	86.5
308.881	89.5
309.111	92.5
309.341	89.5
309.571	103.5
309.8	99.5
310.03	94.5
310.26	98.5
310.49	96.5
310.72	92.5
310.949	99.5
311.179	115.5
311.409	96.5
311.639	103.5
311.868	94.5
312.098	102.5
312.328	98.5
312.557	93.5
312.787	95.5
313.017	102.5
313.246	92.5
313.476	93.5
313.706	95.5
313.935	90.5
314.165	73.5
314.394	90.5
314.624	91.5
314.853	102.5
315.083	90.5
315.312	98.5
315.542	80.5
315.771	89.5
316.001	93.5
316.23	94.5
316.46	90.5
316.689	85.5
316.919	71.5
317.148	99.5
317.377	78.5
317.607	91.5
317.836	80.5
318.065	88.5
318.295	90.5
318.524	80.5
318.753	88.5
318.983	95.5
319.212	84.5
319.441	98.5
319.67	97.5
319.9	85.5
320.129	91.5
320.358	89.5
320.587	91.5
320.816	109.5
321.046	86.5
321.275	80.5
321.504	101.5
321.733	105.5
321.962	94.5
322.191	98.5
322.42	101.5
322.649	104.5
322.878	117.5
323.108	115.5
323.337	125.5
323.566	109.5
323.795	149.5
324.024	177.5
324.253	326.5
324.482	687.5
324.71	1432.5
324.939	1987.5
325.168	723.5
325.397	218.5
325.626	131.5
325.855	116.5
326.084	128.5
326.313	123.5
326.542	155.5
326.77	210.5
326.999	400.5
327.228	846.5
327.457	1557.5
327.686	1269.5
327.914	325.5
328.143	190.5
328.372	170.5
328.6	130.5
328.829	122.5
329.058	114.5
329.287	124.5
329.515	111.5
329.744	120.5
329.972	130.5
330.201	169.5
330.43	224.5
330.658	164.5
330.887	138.5
331.115	115.5
331.344	109.5
331.572	89.5
331.801	99.5
332.03	102.5
332.258	85.5
332.486	99.5
332.715	92.5
332.943	96.5
333.172	88.5
333.4	113.5
333.629	112.5
333.857	107.5
334.085	141.5
334.314	176.5
334.542	277.5
334.771	258.5
334.999	113.5
335.227	95.5
335.455	85.5
335.684	105.5
335.912	110.5
336.14	98.5
336.369	86.5
336.597	106.5
336.825	96.5
337.053	101.5
337.281	88.5
337.51	86.5
337.738	83.5
337.966	84.5
338.194	85.5
338.422	89.5
338.65	88.5
338.878	88.5
339.106	94.5
339.334	88.5
339.562	82.5
339.79	85.5
340.018	83.5
340.246	97.5
340.474	74.5
340.702	84.5
340.93	94.5
341.158	86.5
341.386	90.5
341.614	85.5
341.842	83.5
342.07	88.5
342.298	96.5
342.526	82.5
342.754	88.5
342.981	72.5
343.209	87.5
343.437	96.5
343.665	85.5
343.893	79.5
344.12	94.5
344.348	98.5
344.576	89.5
344.804	85.5
345.031	81.5
345.259	90.5
345.487	102.5
345.714	101.5
345.942	93.5
346.17	90.5
346.397	89.5
346.625	87.5
346.853	94.5
347.08	100.5
347.308	77.5
347.535	89.5
347.763	100.5
347.99	94.5
348.218	102.5
348.445	111.5
348.673	92.5
348.9	98.5
349.128	91.5
349.355	96.5
349.583	90.5
349.81	85.5
350.037	78.5
350.265	110.5
350.492	76.5
350.72	96.5
350.947	88.5
351.174	95.5
351.402	93.5
351.629	100.5
351.856	98.5
352.083	103.5
352.311	97.5
352.538	98.5
352.765	92.5
352.992	119.5
353.22	100.5
353.447	89.5
353.674	98.5
353.901	98.5
354.128	97.5
354.355	91.5
354.583	91.5
354.81	92.5
355.037	89.5
355.264	91.5
355.491	88.5
355.718	93.5
355.945	110.5
356.172	105.5
356.399	98.5
356.626	98.5
356.853	84.5
357.08	112.5
357.307	81.5
357.534	99.5
357.761	96.5
357.988	94.5
358.215	86.5
358.441	80.5
358.668	90.5
358.895	77.5
359.122	87.5
359.349	84.5
359.576	90.5
359.802	84.5
360.029	89.5
360.256	109.5
360.483	94.5
360.709	88.5
360.936	89.5
361.163	91.5
361.39	100.5
361.616	93.5
361.843	90.5
362.07	86.5
362.296	79.5
362.523	66.5
362.749	88.5
362.976	85.5
363.203	94.5
363.429	93.5
363.656	86.5
363.882	89.5
364.109	84.5
364.335	105.5
364.562	111.5
364.788	87.5
365.015	109.5
365.241	91.5
365.468	108.5
365.694	107.5
365.92	89.5
366.147	80.5
366.373	78.5
366.599	78.5
366.826	88.5
367.052	89.5
367.278	91.5
367.505	94.5
367.731	97.5
367.957	84.5
368.184	95.5
368.41	104.5
368.636	98.5
368.862	104.5
369.089	104.5
369.315	93.5
369.541	91.5
369.767	97.5
369.993	96.5
370.219	98.5
370.445	84.5
370.672	86.5
370.898	100.5
371.124	71.5
371.35	89.5
371.576	85.5
371.802	96.5
372.028	83.5
372.254	70.5
372.48	81.5
372.706	87.5
372.932	87.5
373.158	83.5
373.384	91.5
373.61	85.5
373.835	97.5
374.061	99.5
374.287	95.5
374.513	107.5
374.739	86.5
374.965	90.5
375.191	88.5
375.416	89.5
375.642	83.5
375.868	98.5
376.094	95.5
376.319	87.5
376.545	103.5
376.771	93.5
376.997	85.5
377.222	90.5
377.448	93.5
377.674	83.5
377.899	98.5
378.125	95.5
378.35	96.5
378.576	94.5
378.802	91.5
379.027	85.5
379.253	82.5
379.478	103.5
379.704	90.5
379.929	97.5
380.155	75.5
380.38	82.5
380.606	81.5
380.831	81.5
381.057	108.5
381.282	106.5
381.507	95.5
381.733	83.5
381.958	92.5
382.184	93.5
382.409	94.5
382.634	93.5
382.86	99.5
383.085	97.5
383.31	92.5
383.535	109.5
383.761	93.5
383.986	89.5
384.211	106.5
384.436	85.5
384.662	90.5
384.887	96.5
385.112	106.5
385.337	107.5
385.562	104.5
385.787	102.5
386.013	111.5
386.238	111.5
386.463	101.5
386.688	113.5
386.913	96.5
387.138	104.5
387.363	98.5
387.588	105.5
387.813	99.5
388.038	99.5
388.263	96.5
388.488	104.5
388.713	77.5
388.938	94.5
389.163	93.5
389.387	89.5
389.612	89.5
389.837	110.5
390.062	93.5
390.287	90.5
390.512	78.5
390.736	103.5
390.961	89.5
391.186	86.5
391.411	83.5
391.636	95.5
391.86	75.5
392.085	87.5
392.31	91.5
392.534	80.5
392.759	86.5
392.984	84.5
393.208	87.5
393.433	81.5
393.658	90.5
393.882	86.5
394.107	83.5
394.331	86.5
394.556	96.5
394.78	83.5
395.005	85.5
395.229	90.5
395.454	70.5
395.678	96.5
395.903	86.5
396.127	90.5
396.352	71.5
396.576	83.5
396.801	93.5
397.025	98.5
397.249	99.5
397.474	93.5
397.698	79.5
397.922	85.5
398.147	73.5
398.371	78.5
398.595	82.5
398.82	70.5
399.044	83.5
399.268	93.5
399.492	91.5
399.717	95.5
399.941	90.5
400.165	91.5
400.389	93.5
400.613	94.5
400.837	87.5
401.062	80.5
401.286	91.5
401.51	90.5
401.734	81.5
401.958	88.5
402.182	111.5
402.406	129.5
402.63	102.5
402.854	91.5
403.078	84.5
403.302	79.5
403.526	86.5
403.75	76.5
403.974	79.5
404.198	84.5
404.422	85.5
404.645	95.5
404.869	81.5
405.093	104.5
405.317	98.5
405.541	102.5
405.765	95.5
405.988	112.5
406.212	141.5
406.436	174.5
406.66	120.5
406.883	111.5
407.107	89.5
407.331	98.5
407.555	87.5
407.778	103.5
408.002	90.5
408.226	75.5
408.449	88.5
408.673	89.5
408.896	94.5
409.12	86.5
409.344	89.5
409.567	86.5
409.791	82.5
410.014	84.5
410.238	87.5
410.461	73.5
410.685	100.5
410.908	97.5
411.132	109.5
411.355	96.5
411.578	85.5
411.802	77.5
412.025	82.5
412.249	85.5
412.472	96.5
412.695	98.5
412.919	91.5
413.142	73.5
413.365	86.5
413.589	89.5
413.812	92.5
414.035	85.5
414.258	103.5
414.482	89.5
414.705	90.5
414.928	85.5
415.151	86.5
415.374	95.5
415.597	78.5
415.821	68.5
416.044	89.5
416.267	98.5
416.49	88.5
416.713	103.5
416.936	87.5
417.159	71.5
417.382	84.5
417.605	103.5
417.828	99.5
418.051	96.5
418.274	101.5
418.497	81.5
418.72	88.5
418.943	97.5
419.166	91.5
419.389	89.5
419.611	79.5
419.834	81.5
420.057	85.5
420.28	85.5
420.503	78.5
420.726	74.5
420.948	84.5
421.171	86.5
421.394	89.5
421.617	83.5
421.839	81.5
422.062	79.5
422.285	85.5
422.507	79.5
422.73	92.5
422.953	79.5
423.175	87.5
423.398	88.5
423.621	91.5
423.843	72.5
424.066	84.5
424.288	74.5
424.511	80.5
424.733	100.5
424.956	94.5
425.178	88.5
425.401	90.5
425.623	99.5
425.846	95.5
426.068	92.5
426.291	97.5
426.513	86.5
426.735	98.5
426.958	102.5
427.18	103.5
427.402	121.5
427.625	163.5
427.847	144.5
428.069	121.5
428.292	80.5
428.514	95.5
428.736	82.5
428.958	84.5
429.181	89.5
429.403	84.5
429.625	93.5
429.847	95.5
430.069	88.5
430.292	82.5
430.514	71.5
430.736	78.5
430.958	74.5
431.18	93.5
431.402	100.5
431.624	85.5
431.846	84.5
432.068	86.5
432.29	92.5
432.512	83.5
432.734	71.5
432.956	87.5
433.178	91.5
433.4	105.5
433.622	89.5
433.844	79.5
434.066	88.5
434.287	93.5
434.509	89.5
434.731	75.5
434.953	83.5
435.175	100.5
435.397	99.5
435.618	100.5
435.84	97.5
436.062	119.5
436.284	104.5
436.505	92.5
436.727	100.5
436.949	107.5
437.17	80.5
437.392	82.5
437.614	92.5
437.835	94.5
438.057	103.5
438.278	102.5
438.5	93.5
438.721	120.5
438.943	89.5
439.165	84.5
439.386	102.5
439.608	92.5
439.829	96.5
440.05	112.5
440.272	146.5
440.493	99.5
440.715	79.5
440.936	82.5
441.158	80.5
441.379	76.5
441.6	88.5
441.822	96.5
442.043	98.5
442.264	87.5
442.486	93.5
442.707	83.5
442.928	105.5
443.149	116.5
443.371	120.5
443.592	95.5
443.813	95.5
444.034	104.5
444.255	79.5
444.476	83.5
444.698	84.5
444.919	91.5
445.14	120.5
445.361	108.5
445.582	117.5
445.803	120.5
446.024	134.5
446.245	134.5
446.466	113.5
446.687	95.5
446.908	81.5
447.129	85.5
447.35	90.5
447.571	89.5
447.792	89.5
448.013	78.5
448.234	93.5
448.455	108.5
448.675	97.5
448.896	112.5
449.117	96.5
449.338	104.5
449.559	103.5
449.779	108.5
450	91.5
450.221	82.5
450.442	93.5
450.662	90.5
450.883	97.5
451.104	88.5
451.324	83.5
451.545	84.5
451.766	88.5
451.986	100.5
452.207	82.5
452.428	90.5
452.648	96.5
452.869	100.5
453.089	110.5
453.31	97.5
453.53	89.5
453.751	94.5
453.971	96.5
454.192	121.5
454.412	91.5
454.633	94.5
454.853	76.5
455.073	87.5
455.294	82.5
455.514	96.5
455.734	93.5
455.955	93.5
456.175	85.5
456.395	91.5
456.616	81.5
456.836	83.5
457.056	79.5
457.276	90.5
457.497	81.5
457.717	92.5
457.937	82.5
458.157	96.5
458.377	85.5
458.598	94.5
458.818	129.5
459.038	138.5
459.258	90.5
459.478	95.5
459.698	102.5
459.918	86.5
460.138	77.5
460.358	86.5
460.578	85.5
460.798	88.5
461.018	98.5
461.238	90.5
461.458	98.5
461.678	87.5
461.898	94.5
462.118	94.5
462.338	97.5
462.558	93.5
462.777	91.5
462.997	89.5
463.217	90.5
463.437	81.5
463.657	83.5
463.876	78.5
464.096	93.5
464.316	82.5
464.536	82.5
464.755	90.5
464.975	98.5
465.195	144.5
465.414	145.5
465.634	91.5
465.854	85.5
466.073	82.5
466.293	95.5
466.512	83.5
466.732	68.5
466.951	89.5
467.171	91.5
467.391	85.5
467.61	100.5
467.829	109.5
468.049	133.5
468.268	165.5
468.488	100.5
468.707	101.5
468.927	99.5
469.146	81.5
469.365	100.5
469.585	95.5
469.804	90.5
470.023	73.5
470.243	98.5
470.462	99.5
470.681	101.5
470.901	89.5
471.12	72.5
471.339	90.5
471.558	89.5
471.777	83.5
471.997	118.5
472.216	187.5
472.435	347.5
472.654	129.5
472.873	85.5
473.092	95.5
473.311	85.5
473.53	89.5
473.749	99.5
473.968	103.5
474.187	97.5
474.406	86.5
474.625	97.5
474.844	84.5
475.063	76.5
475.282	96.5
475.501	77.5
475.72	90.5
475.939	84.5
476.158	77.5
476.377	84.5
476.596	91.5
476.814	90.5
477.033	95.5
477.252	88.5
477.471	79.5
477.69	84.5
477.908	79.5
478.127	97.5
478.346	97.5
478.564	85.5
478.783	94.5
479.002	93.5
479.22	83.5
479.439	84.5
479.658	106.5
479.876	92.5
480.095	82.5
480.313	92.5
480.532	84.5
480.751	107.5
480.969	201.5
481.188	581.5
481.406	325.5
481.624	115.5
481.843	87.5
482.061	89.5
482.28	84.5
482.498	83.5
482.717	95.5
482.935	105.5
483.153	86.5
483.372	89.5
483.59	92.5
483.808	86.5
484.027	75.5
484.245	89.5
484.463	104.5
484.681	93.5
484.9	93.5
485.118	95.5
485.336	80.5
485.554	95.5
485.772	90.5
485.99	87.5
486.209	87.5
486.427	115.5
486.645	99.5
486.863	112.5
487.081	106.5
487.299	85.5
487.517	93.5
487.735	87.5
487.953	84.5
488.171	89.5
488.389	96.5
488.607	101.5
488.825	94.5
489.043	85.5
489.261	83.5
489.479	81.5
489.696	101.5
489.914	91.5
490.132	89.5
490.35	97.5
490.568	84.5
490.786	97.5
491.003	103.5
491.221	86.5
491.439	100.5
491.657	81.5
491.874	85.5
492.092	109.5
492.31	96.5
492.527	102.5
492.745	92.5
492.963	100.5
493.18	81.5
493.398	86.5
493.615	86.5
493.833	94.5
494.05	82.5
494.268	83.5
494.485	85.5
494.703	77.5
494.92	100.5
495.138	101.5
495.355	82.5
495.573	86.5
495.79	84.5
496.008	102.5
496.225	99.5
496.442	83.5
496.66	89.5
496.877	89.5
497.094	88.5
497.312	92.5
497.529	90.5
497.746	92.5
497.963	81.5
498.181	81.5
498.398	80.5
498.615	102.5
498.832	96.5
499.049	93.5
499.267	93.5
499.484	84.5
499.701	99.5
499.918	95.5
500.135	87.5
500.352	85.5
500.569	90.5
500.786	95.5
501.003	90.5
501.22	80.5
501.437	72.5
501.654	84.5
501.871	103.5
502.088	103.5
502.305	100.5
502.522	102.5
502.739	99.5
502.956	87.5
503.172	83.5
503.389	99.5
503.606	95.5
503.823	88.5
504.04	113.5
504.256	87.5
504.473	93.5
504.69	77.5
504.907	87.5
505.123	68.5
505.34	90.5
505.557	95.5
505.773	91.5
505.99	90.5
506.207	89.5
506.423	90.5
506.64	79.5
506.856	86.5
507.073	82.5
507.289	88.5
507.506	91.5
507.722	103.5
507.939	89.5
508.155	96.5
508.372	81.5
508.588	81.5
508.805	75.5
509.021	77.5
509.238	90.5
509.454	81.5
509.67	89.5
509.887	104.5
510.103	123.5
510.319	181.5
510.536	598.5
510.752	1815.5
510.968	498.5
511.184	140.5
511.401	98.5
511.617	93.5
511.833	85.5
512.049	100.5
512.265	87.5
512.481	84.5
512.698	97.5
512.914	88.5
513.13	88.5
513.346	97.5
513.562	87.5
513.778	93.5
513.994	85.5
514.21	82.5
514.426	111.5
514.642	134.5
514.858	117.5
515.074	152.5
515.29	338.5
515.506	1099.5
515.721	396.5
515.937	137.5
516.153	107.5
516.369	89.5
516.585	101.5
516.801	88.5
517.016	92.5
517.232	82.5
517.448	99.5
517.664	103.5
517.879	84.5
518.095	101.5
518.311	80.5
518.527	91.5
518.742	78.5
518.958	87.5
519.173	81.5
519.389	87.5
519.605	89.5
519.82	86.5
520.036	87.5
520.251	122.5
520.467	99.5
520.682	104.5
520.898	101.5
521.113	108.5
521.329	125.5
521.544	175.5
521.76	420.5
521.975	1819.5
522.19	1084.5
522.406	229.5
522.621	105.5
522.836	88.5
523.052	89.5
523.267	97.5
523.482	85.5
523.698	87.5
523.913	112.5
524.128	95.5
524.343	83.5
524.559	95.5
524.774	96.5
524.989	108.5
525.204	97.5
525.419	100.5
525.634	89.5
525.849	81.5
526.064	85.5
526.28	83.5
526.495	78.5
526.71	77.5
526.925	83.5
527.14	83.5
527.355	82.5
527.57	97.5
527.785	99.5
527.999	93.5
528.214	88.5
528.429	100.5
528.644	78.5
528.859	100.5
529.074	87.5
529.289	114.5
529.503	151.5
529.718	102.5
529.933	87.5
530.148	89.5
530.363	84.5
530.577	82.5
530.792	86.5
531.007	90.5
531.221	93.5
531.436	95.5
531.651	86.5
531.865	87.5
532.08	97.5
532.295	105.5
532.509	78.5
532.724	90.5
532.938	95.5
533.153	99.5
533.367	89.5
533.582	105.5
533.796	79.5
534.011	72.5
534.225	78.5
534.44	86.5
534.654	98.5
534.868	106.5
535.083	90.5
535.297	95.5
535.511	96.5
535.726	107.5
535.94	90.5
536.154	101.5
536.369	73.5
