Data from Circ_1986_H10_HRD10591_00010.txt Node
Date: Wed Jan 03 12:15:28 EST 2024
User: Yrep
Spectrometer: HR+D1059
Trigger mode: 1
Integration Time (sec): 1.000000E-1
Scans to average: 1
Electric dark correction enabled: true
Nonlinearity correction enabled: false
Boxcar width: 0
XAxis mode: Wavelengths
Number of Pixels in Spectrum: 2048
>>>>>Begin Spectral Data<<<<<
223.165	-17.69
223.4	-17.69
223.635	-17.69
223.869	-14.69
224.104	-12.69
224.338	-0.69
224.573	-8.69
224.808	-11.69
225.042	-16.69
225.277	-12.69
225.511	-4.69
225.746	-0.69
225.98	-10.69
226.215	11.31
226.449	13.31
226.683	27.31
226.918	19.31
227.152	40.31
227.387	39.31
227.621	40.31
227.856	44.31
228.09	41.31
228.324	56.31
228.559	45.31
228.793	57.31
229.027	56.31
229.262	71.31
229.496	62.31
229.73	72.31
229.964	79.31
230.199	68.31
230.433	75.31
230.667	77.31
230.901	72.31
231.136	88.31
231.37	68.31
231.604	68.31
231.838	89.31
232.072	63.31
232.306	89.31
232.541	80.31
232.775	83.31
233.009	75.31
233.243	68.31
233.477	85.31
233.711	75.31
233.945	87.31
234.179	86.31
234.413	80.31
234.647	81.31
234.881	91.31
235.115	66.31
235.349	81.31
235.583	87.31
235.817	84.31
236.051	88.31
236.285	86.31
236.519	68.31
236.753	82.31
236.987	81.31
237.221	72.31
237.455	72.31
237.689	67.31
237.922	62.31
238.156	64.31
238.39	83.31
238.624	81.31
238.858	83.31
239.091	69.31
239.325	82.31
239.559	73.31
239.793	81.31
240.027	82.31
240.26	57.31
240.494	78.31
240.728	64.31
240.961	70.31
241.195	83.31
241.429	75.31
241.662	63.31
241.896	74.31
242.13	79.31
242.363	86.31
242.597	64.31
242.83	65.31
243.064	76.31
243.298	75.31
243.531	87.31
243.765	90.31
243.998	56.31
244.232	84.31
244.465	85.31
244.699	71.31
244.932	72.31
245.166	70.31
245.399	66.31
245.633	82.31
245.866	66.31
246.099	86.31
246.333	70.31
246.566	70.31
246.8	80.31
247.033	81.31
247.266	75.31
247.5	74.31
247.733	78.31
247.966	90.31
248.2	85.31
248.433	70.31
248.666	73.31
248.899	67.31
249.133	76.31
249.366	89.31
249.599	93.31
249.832	93.31
250.066	75.31
250.299	77.31
250.532	64.31
250.765	75.31
250.998	76.31
251.231	78.31
251.465	81.31
251.698	67.31
251.931	77.31
252.164	87.31
252.397	63.31
252.63	79.31
252.863	89.31
253.096	83.31
253.329	81.31
253.562	88.31
253.795	94.31
254.028	82.31
254.261	77.31
254.494	93.31
254.727	80.31
254.96	76.31
255.193	63.31
255.426	75.31
255.659	70.31
255.892	77.31
256.124	85.31
256.357	82.31
256.59	72.31
256.823	77.31
257.056	83.31
257.289	77.31
257.521	82.31
257.754	83.31
257.987	68.31
258.22	93.31
258.452	75.31
258.685	68.31
258.918	75.31
259.151	77.31
259.383	71.31
259.616	71.31
259.849	76.31
260.081	79.31
260.314	70.31
260.547	76.31
260.779	76.31
261.012	81.31
261.244	80.31
261.477	92.31
261.71	79.31
261.942	87.31
262.175	94.31
262.407	76.31
262.64	83.31
262.872	83.31
263.105	68.31
263.337	76.31
263.57	76.31
263.802	87.31
264.035	76.31
264.267	85.31
264.499	86.31
264.732	70.31
264.964	70.31
265.197	78.31
265.429	92.31
265.661	77.31
265.894	88.31
266.126	71.31
266.358	76.31
266.591	69.31
266.823	81.31
267.055	82.31
267.287	72.31
267.52	85.31
267.752	86.31
267.984	91.31
268.216	81.31
268.448	78.31
268.681	87.31
268.913	90.31
269.145	70.31
269.377	71.31
269.609	86.31
269.841	83.31
270.073	79.31
270.306	90.31
270.538	77.31
270.77	79.31
271.002	80.31
271.234	81.31
271.466	76.31
271.698	83.31
271.93	97.31
272.162	86.31
272.394	81.31
272.626	83.31
272.858	95.31
273.09	87.31
273.322	67.31
273.553	88.31
273.785	75.31
274.017	72.31
274.249	80.31
274.481	88.31
274.713	95.31
274.945	79.31
275.176	73.31
275.408	90.31
275.64	76.31
275.872	91.31
276.104	83.31
276.335	89.31
276.567	89.31
276.799	92.31
277.031	81.31
277.262	80.31
277.494	64.31
277.726	82.31
277.957	68.31
278.189	87.31
278.421	80.31
278.652	81.31
278.884	80.31
279.115	71.31
279.347	85.31
279.579	82.31
279.81	97.31
280.042	89.31
280.273	80.31
280.505	93.31
280.736	90.31
280.968	88.31
281.199	70.31
281.431	81.31
281.662	93.31
281.894	87.31
282.125	89.31
282.356	87.31
282.588	100.31
282.819	104.31
283.051	89.31
283.282	80.31
283.513	91.31
283.745	87.31
283.976	88.31
284.207	85.31
284.439	85.31
284.67	81.31
284.901	88.31
285.132	91.31
285.364	81.31
285.595	93.31
285.826	90.31
286.057	94.31
286.288	84.31
286.52	92.31
286.751	91.31
286.982	82.31
287.213	91.31
287.444	72.31
287.675	88.31
287.906	89.31
288.138	100.31
288.369	91.31
288.6	88.31
288.831	79.31
289.062	104.31
289.293	78.31
289.524	75.31
289.755	77.31
289.986	86.31
290.217	92.31
290.448	95.31
290.679	90.31
290.91	89.31
291.141	85.31
291.371	99.31
291.602	91.31
291.833	79.31
292.064	78.31
292.295	84.31
292.526	75.31
292.757	97.31
292.987	88.31
293.218	85.31
293.449	88.31
293.68	89.31
293.91	94.31
294.141	94.31
294.372	87.31
294.603	84.31
294.833	75.31
295.064	85.31
295.295	79.31
295.525	94.31
295.756	94.31
295.987	101.31
296.217	102.31
296.448	109.31
296.679	86.31
296.909	91.31
297.14	82.31
297.37	82.31
297.601	88.31
297.831	84.31
298.062	85.31
298.292	101.31
298.523	102.31
298.753	81.31
298.984	71.31
299.214	88.31
299.445	90.31
299.675	85.31
299.905	79.31
300.136	93.31
300.366	77.31
300.597	97.31
300.827	82.31
301.057	108.31
301.288	83.31
301.518	84.31
301.748	81.31
301.979	91.31
302.209	81.31
302.439	86.31
302.669	81.31
302.9	78.31
303.13	91.31
303.36	102.31
303.59	95.31
303.82	91.31
304.051	85.31
304.281	91.31
304.511	77.31
304.741	79.31
304.971	79.31
305.201	86.31
305.431	84.31
305.661	92.31
305.891	87.31
306.121	81.31
306.352	94.31
306.582	104.31
306.812	97.31
307.042	85.31
307.272	88.31
307.502	80.31
307.731	99.31
307.961	91.31
308.191	79.31
308.421	90.31
308.651	100.31
308.881	94.31
309.111	87.31
309.341	95.31
309.571	83.31
309.8	96.31
310.03	104.31
310.26	88.31
310.49	93.31
310.72	98.31
310.949	97.31
311.179	93.31
311.409	95.31
311.639	94.31
311.868	91.31
312.098	82.31
312.328	101.31
312.557	102.31
312.787	96.31
313.017	100.31
313.246	82.31
313.476	79.31
313.706	90.31
313.935	95.31
314.165	94.31
314.394	99.31
314.624	83.31
314.853	88.31
315.083	91.31
315.312	94.31
315.542	97.31
315.771	81.31
316.001	102.31
316.23	88.31
316.46	92.31
316.689	96.31
316.919	85.31
317.148	85.31
317.377	96.31
317.607	87.31
317.836	85.31
318.065	89.31
318.295	87.31
318.524	91.31
318.753	86.31
318.983	76.31
319.212	96.31
319.441	102.31
319.67	81.31
319.9	86.31
320.129	83.31
320.358	93.31
320.587	86.31
320.816	96.31
321.046	93.31
321.275	100.31
321.504	96.31
321.733	85.31
321.962	87.31
322.191	102.31
322.42	84.31
322.649	82.31
322.878	95.31
323.108	101.31
323.337	130.31
323.566	109.31
323.795	110.31
324.024	167.31
324.253	279.31
324.482	565.31
324.71	1143.31
324.939	1477.31
325.168	579.31
325.397	209.31
325.626	132.31
325.855	87.31
326.084	112.31
326.313	125.31
326.542	128.31
326.77	193.31
326.999	348.31
327.228	663.31
327.457	1193.31
327.686	959.31
327.914	269.31
328.143	141.31
328.372	124.31
328.6	118.31
328.829	98.31
329.058	109.31
329.287	110.31
329.515	88.31
329.744	102.31
329.972	114.31
330.201	100.31
330.43	114.31
330.658	108.31
330.887	129.31
331.115	109.31
331.344	91.31
331.572	104.31
331.801	96.31
332.03	97.31
332.258	91.31
332.486	95.31
332.715	99.31
332.943	92.31
333.172	84.31
333.4	90.31
333.629	99.31
333.857	108.31
334.085	99.31
334.314	114.31
334.542	102.31
334.771	116.31
334.999	99.31
335.227	105.31
335.455	96.31
335.684	92.31
335.912	89.31
336.14	105.31
336.369	91.31
336.597	83.31
336.825	97.31
337.053	92.31
337.281	86.31
337.51	88.31
337.738	108.31
337.966	92.31
338.194	76.31
338.422	95.31
338.65	83.31
338.878	95.31
339.106	82.31
339.334	92.31
339.562	84.31
339.79	99.31
340.018	77.31
340.246	84.31
340.474	82.31
340.702	90.31
340.93	77.31
341.158	85.31
341.386	97.31
341.614	88.31
341.842	82.31
342.07	78.31
342.298	88.31
342.526	81.31
342.754	96.31
342.981	92.31
343.209	94.31
343.437	98.31
343.665	79.31
343.893	89.31
344.12	89.31
344.348	80.31
344.576	86.31
344.804	87.31
345.031	89.31
345.259	83.31
345.487	93.31
345.714	86.31
345.942	84.31
346.17	105.31
346.397	89.31
346.625	86.31
346.853	94.31
347.08	82.31
347.308	101.31
347.535	87.31
347.763	83.31
347.99	76.31
348.218	96.31
348.445	85.31
348.673	104.31
348.9	97.31
349.128	98.31
349.355	101.31
349.583	99.31
349.81	92.31
350.037	98.31
350.265	87.31
350.492	91.31
350.72	86.31
350.947	90.31
351.174	97.31
351.402	94.31
351.629	98.31
351.856	97.31
352.083	97.31
352.311	87.31
352.538	103.31
352.765	116.31
352.992	110.31
353.22	102.31
353.447	94.31
353.674	96.31
353.901	72.31
354.128	92.31
354.355	99.31
354.583	91.31
354.81	88.31
355.037	99.31
355.264	85.31
355.491	85.31
355.718	96.31
355.945	101.31
356.172	71.31
356.399	86.31
356.626	97.31
356.853	97.31
357.08	104.31
357.307	88.31
357.534	107.31
357.761	79.31
357.988	100.31
358.215	92.31
358.441	97.31
358.668	103.31
358.895	92.31
359.122	75.31
359.349	99.31
359.576	91.31
359.802	82.31
360.029	101.31
360.256	101.31
360.483	87.31
360.709	93.31
360.936	89.31
361.163	101.31
361.39	93.31
361.616	86.31
361.843	79.31
362.07	85.31
362.296	89.31
362.523	92.31
362.749	97.31
362.976	93.31
363.203	79.31
363.429	76.31
363.656	95.31
363.882	77.31
364.109	97.31
364.335	96.31
364.562	79.31
364.788	88.31
365.015	90.31
365.241	97.31
365.468	105.31
365.694	88.31
365.92	85.31
366.147	81.31
366.373	99.31
366.599	80.31
366.826	89.31
367.052	78.31
367.278	93.31
367.505	75.31
367.731	86.31
367.957	92.31
368.184	83.31
368.41	102.31
368.636	99.31
368.862	92.31
369.089	93.31
369.315	86.31
369.541	78.31
369.767	88.31
369.993	74.31
370.219	83.31
370.445	96.31
370.672	92.31
370.898	93.31
371.124	91.31
371.35	89.31
371.576	87.31
371.802	78.31
372.028	75.31
372.254	83.31
372.48	71.31
372.706	70.31
372.932	87.31
373.158	82.31
373.384	89.31
373.61	88.31
373.835	86.31
374.061	86.31
374.287	91.31
374.513	83.31
374.739	83.31
374.965	93.31
375.191	91.31
375.416	98.31
375.642	87.31
375.868	77.31
376.094	80.31
376.319	87.31
376.545	98.31
376.771	90.31
376.997	83.31
377.222	95.31
377.448	84.31
377.674	84.31
377.899	99.31
378.125	94.31
378.35	98.31
378.576	102.31
378.802	86.31
379.027	95.31
379.253	101.31
379.478	96.31
379.704	103.31
379.929	96.31
380.155	96.31
380.38	97.31
380.606	90.31
380.831	91.31
381.057	94.31
381.282	98.31
381.507	99.31
381.733	100.31
381.958	95.31
382.184	107.31
382.409	110.31
382.634	116.31
382.86	117.31
383.085	104.31
383.31	110.31
383.535	96.31
383.761	115.31
383.986	93.31
384.211	110.31
384.436	118.31
384.662	113.31
384.887	112.31
385.112	117.31
385.337	137.31
385.562	101.31
385.787	111.31
386.013	126.31
386.238	131.31
386.463	114.31
386.688	119.31
386.913	122.31
387.138	126.31
387.363	111.31
387.588	118.31
387.813	112.31
388.038	126.31
388.263	128.31
388.488	116.31
388.713	101.31
388.938	107.31
389.163	79.31
389.387	76.31
389.612	92.31
389.837	91.31
390.062	91.31
390.287	84.31
390.512	86.31
390.736	83.31
390.961	103.31
391.186	70.31
391.411	93.31
391.636	94.31
391.86	85.31
392.085	79.31
392.31	81.31
392.534	95.31
392.759	82.31
392.984	77.31
393.208	86.31
393.433	90.31
393.658	96.31
393.882	85.31
394.107	82.31
394.331	81.31
394.556	105.31
394.78	82.31
395.005	99.31
395.229	83.31
395.454	93.31
395.678	89.31
395.903	89.31
396.127	91.31
396.352	83.31
396.576	78.31
396.801	88.31
397.025	84.31
397.249	95.31
397.474	82.31
397.698	78.31
397.922	92.31
398.147	81.31
398.371	94.31
398.595	90.31
398.82	72.31
399.044	92.31
399.268	79.31
399.492	72.31
399.717	82.31
399.941	81.31
400.165	81.31
400.389	98.31
400.613	75.31
400.837	82.31
401.062	99.31
401.286	81.31
401.51	85.31
401.734	76.31
401.958	104.31
402.182	101.31
402.406	128.31
402.63	99.31
402.854	85.31
403.078	84.31
403.302	81.31
403.526	88.31
403.75	86.31
403.974	84.31
404.198	77.31
404.422	96.31
404.645	97.31
404.869	93.31
405.093	85.31
405.317	69.31
405.541	77.31
405.765	107.31
405.988	110.31
406.212	130.31
406.436	171.31
406.66	114.31
406.883	85.31
407.107	79.31
407.331	88.31
407.555	88.31
407.778	93.31
408.002	98.31
408.226	83.31
408.449	80.31
408.673	91.31
408.896	83.31
409.12	84.31
409.344	92.31
409.567	96.31
409.791	91.31
410.014	90.31
410.238	88.31
410.461	86.31
410.685	85.31
410.908	102.31
411.132	95.31
411.355	98.31
411.578	79.31
411.802	88.31
412.025	97.31
412.249	86.31
412.472	95.31
412.695	93.31
412.919	85.31
413.142	82.31
413.365	80.31
413.589	92.31
413.812	94.31
414.035	91.31
414.258	76.31
414.482	93.31
414.705	92.31
414.928	98.31
415.151	91.31
415.374	103.31
415.597	81.31
415.821	83.31
416.044	92.31
416.267	79.31
416.49	77.31
416.713	81.31
416.936	98.31
417.159	100.31
417.382	84.31
417.605	82.31
417.828	76.31
418.051	90.31
418.274	99.31
418.497	95.31
418.72	85.31
418.943	79.31
419.166	80.31
419.389	75.31
419.611	84.31
419.834	79.31
420.057	87.31
420.28	85.31
420.503	79.31
420.726	87.31
420.948	94.31
421.171	86.31
421.394	88.31
421.617	92.31
421.839	81.31
422.062	102.31
422.285	85.31
422.507	85.31
422.73	93.31
422.953	84.31
423.175	92.31
423.398	93.31
423.621	82.31
423.843	91.31
424.066	88.31
424.288	100.31
424.511	91.31
424.733	84.31
424.956	90.31
425.178	73.31
425.401	96.31
425.623	87.31
425.846	81.31
426.068	85.31
426.291	94.31
426.513	83.31
426.735	84.31
426.958	83.31
427.18	72.31
427.402	119.31
427.625	116.31
427.847	100.31
428.069	87.31
428.292	84.31
428.514	67.31
428.736	91.31
428.958	86.31
429.181	87.31
429.403	85.31
429.625	91.31
429.847	87.31
430.069	80.31
430.292	95.31
430.514	93.31
430.736	78.31
430.958	83.31
431.18	73.31
431.402	87.31
431.624	99.31
431.846	90.31
432.068	88.31
432.29	87.31
432.512	77.31
432.734	64.31
432.956	98.31
433.178	102.31
433.4	87.31
433.622	94.31
433.844	82.31
434.066	79.31
434.287	86.31
434.509	83.31
434.731	86.31
434.953	92.31
435.175	87.31
435.397	75.31
435.618	89.31
435.84	91.31
436.062	86.31
436.284	109.31
436.505	78.31
436.727	88.31
436.949	92.31
437.17	94.31
437.392	77.31
437.614	86.31
437.835	100.31
438.057	98.31
438.278	101.31
438.5	103.31
438.721	108.31
438.943	91.31
439.165	88.31
439.386	90.31
439.608	87.31
439.829	100.31
440.05	100.31
440.272	113.31
440.493	83.31
440.715	78.31
440.936	79.31
441.158	87.31
441.379	76.31
441.6	95.31
441.822	101.31
442.043	83.31
442.264	91.31
442.486	79.31
442.707	93.31
442.928	92.31
443.149	107.31
443.371	109.31
443.592	102.31
443.813	103.31
444.034	84.31
444.255	86.31
444.476	87.31
444.698	88.31
444.919	73.31
445.14	115.31
445.361	104.31
445.582	103.31
445.803	101.31
446.024	110.31
446.245	119.31
446.466	103.31
446.687	68.31
446.908	91.31
447.129	81.31
447.35	95.31
447.571	79.31
447.792	86.31
448.013	83.31
448.234	92.31
448.455	94.31
448.675	91.31
448.896	95.31
449.117	94.31
449.338	98.31
449.559	109.31
449.779	103.31
450	89.31
450.221	80.31
450.442	91.31
450.662	77.31
450.883	95.31
451.104	96.31
451.324	93.31
451.545	93.31
451.766	77.31
451.986	80.31
452.207	87.31
452.428	97.31
452.648	89.31
452.869	100.31
453.089	99.31
453.31	100.31
453.53	83.31
453.751	79.31
453.971	95.31
454.192	86.31
454.412	95.31
454.633	73.31
454.853	85.31
455.073	88.31
455.294	77.31
455.514	85.31
455.734	83.31
455.955	103.31
456.175	88.31
456.395	75.31
456.616	84.31
456.836	77.31
457.056	83.31
457.276	77.31
457.497	88.31
457.717	83.31
457.937	70.31
458.157	87.31
458.377	89.31
458.598	106.31
458.818	122.31
459.038	131.31
459.258	102.31
459.478	81.31
459.698	91.31
459.918	80.31
460.138	73.31
460.358	85.31
460.578	76.31
460.798	77.31
461.018	91.31
461.238	91.31
461.458	68.31
461.678	88.31
461.898	79.31
462.118	83.31
462.338	91.31
462.558	94.31
462.777	89.31
462.997	77.31
463.217	75.31
463.437	75.31
463.657	88.31
463.876	85.31
464.096	85.31
464.316	87.31
464.536	80.31
464.755	85.31
464.975	93.31
465.195	141.31
465.414	121.31
465.634	95.31
465.854	87.31
466.073	76.31
466.293	78.31
466.512	85.31
466.732	87.31
466.951	99.31
467.171	92.31
467.391	88.31
467.61	86.31
467.829	83.31
468.049	82.31
468.268	93.31
468.488	85.31
468.707	91.31
468.927	73.31
469.146	86.31
469.365	79.31
469.585	85.31
469.804	89.31
470.023	81.31
470.243	93.31
470.462	80.31
470.681	88.31
470.901	91.31
471.12	81.31
471.339	80.31
471.558	88.31
471.777	85.31
471.997	101.31
472.216	101.31
472.435	118.31
472.654	78.31
472.873	86.31
473.092	80.31
473.311	79.31
473.53	80.31
473.749	80.31
473.968	87.31
474.187	103.31
474.406	86.31
474.625	85.31
474.844	81.31
475.063	86.31
475.282	94.31
475.501	72.31
475.72	81.31
475.939	88.31
476.158	64.31
476.377	84.31
476.596	79.31
476.814	91.31
477.033	80.31
477.252	85.31
477.471	79.31
477.69	91.31
477.908	88.31
478.127	84.31
478.346	84.31
478.564	75.31
478.783	100.31
479.002	73.31
479.22	84.31
479.439	82.31
479.658	75.31
479.876	85.31
480.095	83.31
480.313	83.31
480.532	86.31
480.751	87.31
480.969	93.31
481.188	116.31
481.406	105.31
481.624	87.31
481.843	84.31
482.061	89.31
482.28	86.31
482.498	87.31
482.717	84.31
482.935	83.31
483.153	94.31
483.372	84.31
483.59	85.31
483.808	79.31
484.027	92.31
484.245	88.31
484.463	93.31
484.681	88.31
484.9	87.31
485.118	103.31
485.336	100.31
485.554	102.31
485.772	97.31
485.99	105.31
486.209	109.31
486.427	102.31
486.645	108.31
486.863	103.31
487.081	83.31
487.299	89.31
487.517	86.31
487.735	89.31
487.953	79.31
488.171	87.31
488.389	87.31
488.607	89.31
488.825	83.31
489.043	88.31
489.261	86.31
489.479	104.31
489.696	90.31
489.914	79.31
490.132	95.31
490.35	84.31
490.568	86.31
490.786	73.31
491.003	83.31
491.221	79.31
491.439	63.31
491.657	83.31
491.874	90.31
492.092	103.31
492.31	86.31
492.527	85.31
492.745	84.31
492.963	97.31
493.18	81.31
493.398	91.31
493.615	75.31
493.833	97.31
494.05	77.31
494.268	86.31
494.485	81.31
494.703	86.31
494.92	79.31
495.138	78.31
495.355	95.31
495.573	100.31
495.79	90.31
496.008	101.31
496.225	88.31
496.442	93.31
496.66	98.31
496.877	80.31
497.094	100.31
497.312	82.31
497.529	78.31
497.746	82.31
497.963	70.31
498.181	93.31
498.398	104.31
498.615	103.31
498.832	107.31
499.049	89.31
499.267	92.31
499.484	85.31
499.701	95.31
499.918	78.31
500.135	79.31
500.352	86.31
500.569	87.31
500.786	85.31
501.003	88.31
501.22	93.31
501.437	100.31
501.654	96.31
501.871	104.31
502.088	85.31
502.305	96.31
502.522	86.31
502.739	97.31
502.956	81.31
503.172	83.31
503.389	83.31
503.606	104.31
503.823	89.31
504.04	85.31
504.256	95.31
504.473	82.31
504.69	78.31
504.907	103.31
505.123	98.31
505.34	91.31
505.557	70.31
505.773	81.31
505.99	91.31
506.207	97.31
506.423	79.31
506.64	93.31
506.856	95.31
507.073	89.31
507.289	89.31
507.506	100.31
507.722	109.31
507.939	96.31
508.155	86.31
508.372	77.31
508.588	97.31
508.805	99.31
509.021	85.31
509.238	93.31
509.454	113.31
509.67	94.31
509.887	113.31
510.103	118.31
510.319	170.31
510.536	536.31
510.752	1552.31
510.968	440.31
511.184	116.31
511.401	81.31
511.617	87.31
511.833	83.31
512.049	94.31
512.265	92.31
512.481	85.31
512.698	93.31
512.914	87.31
513.13	86.31
513.346	81.31
513.562	79.31
513.778	86.31
513.994	87.31
514.21	98.31
514.426	110.31
514.642	91.31
514.858	99.31
515.074	129.31
515.29	305.31
515.506	875.31
515.721	340.31
515.937	131.31
516.153	107.31
516.369	100.31
516.585	91.31
516.801	80.31
517.016	87.31
