Data from Circ_1986_H10_HRD10591_00065.txt Node
Date: Wed Jan 03 12:15:39 EST 2024
User: Yrep
Spectrometer: HR+D1059
Trigger mode: 1
Integration Time (sec): 1.000000E-1
Scans to average: 1
Electric dark correction enabled: true
Nonlinearity correction enabled: false
Boxcar width: 0
XAxis mode: Wavelengths
Number of Pixels in Spectrum: 2048
>>>>>Begin Spectral Data<<<<<
223.165	-11.06
223.4	-11.06
223.635	-11.06
223.869	-15.06
224.104	-17.06
224.338	-22.06
224.573	-19.06
224.808	-10.06
225.042	0.94
225.277	-11.06
225.511	-15.06
225.746	-8.06
225.98	13.94
226.215	13.94
226.449	21.94
226.683	17.94
226.918	24.94
227.152	34.94
227.387	26.94
227.621	34.94
227.856	38.94
228.09	49.94
228.324	53.94
228.559	37.94
228.793	65.94
229.027	49.94
229.262	62.94
229.496	77.94
229.73	71.94
229.964	78.94
230.199	64.94
230.433	77.94
230.667	59.94
230.901	71.94
231.136	61.94
231.37	76.94
231.604	77.94
231.838	71.94
232.072	75.94
232.306	79.94
232.541	69.94
232.775	80.94
233.009	81.94
233.243	73.94
233.477	85.94
233.711	85.94
233.945	75.94
234.179	82.94
234.413	75.94
234.647	74.94
234.881	83.94
235.115	77.94
235.349	62.94
235.583	85.94
235.817	73.94
236.051	73.94
236.285	91.94
236.519	80.94
236.753	79.94
236.987	71.94
237.221	81.94
237.455	85.94
237.689	97.94
237.922	79.94
238.156	61.94
238.39	57.94
238.624	79.94
238.858	68.94
239.091	65.94
239.325	68.94
239.559	84.94
239.793	83.94
240.027	75.94
240.26	76.94
240.494	77.94
240.728	70.94
240.961	81.94
241.195	100.94
241.429	72.94
241.662	68.94
241.896	60.94
242.13	73.94
242.363	70.94
242.597	78.94
242.83	68.94
243.064	69.94
243.298	64.94
243.531	86.94
243.765	62.94
243.998	69.94
244.232	89.94
244.465	83.94
244.699	79.94
244.932	66.94
245.166	71.94
245.399	91.94
245.633	90.94
245.866	72.94
246.099	65.94
246.333	87.94
246.566	70.94
246.8	83.94
247.033	78.94
247.266	85.94
247.5	68.94
247.733	84.94
247.966	85.94
248.2	71.94
248.433	66.94
248.666	78.94
248.899	64.94
249.133	72.94
249.366	91.94
249.599	75.94
249.832	90.94
250.066	73.94
250.299	79.94
250.532	73.94
250.765	95.94
250.998	77.94
251.231	72.94
251.465	78.94
251.698	73.94
251.931	77.94
252.164	77.94
252.397	79.94
252.63	69.94
252.863	70.94
253.096	84.94
253.329	77.94
253.562	67.94
253.795	73.94
254.028	76.94
254.261	77.94
254.494	78.94
254.727	82.94
254.96	64.94
255.193	71.94
255.426	88.94
255.659	81.94
255.892	71.94
256.124	81.94
256.357	81.94
256.59	61.94
256.823	61.94
257.056	79.94
257.289	79.94
257.521	95.94
257.754	76.94
257.987	81.94
258.22	73.94
258.452	93.94
258.685	88.94
258.918	80.94
259.151	72.94
259.383	68.94
259.616	81.94
259.849	66.94
260.081	70.94
260.314	85.94
260.547	77.94
260.779	86.94
261.012	94.94
261.244	84.94
261.477	76.94
261.71	96.94
261.942	92.94
262.175	97.94
262.407	105.94
262.64	80.94
262.872	79.94
263.105	77.94
263.337	87.94
263.57	79.94
263.802	70.94
264.035	74.94
264.267	83.94
264.499	87.94
264.732	84.94
264.964	84.94
265.197	80.94
265.429	83.94
265.661	81.94
265.894	85.94
266.126	89.94
266.358	85.94
266.591	86.94
266.823	78.94
267.055	82.94
267.287	91.94
267.52	72.94
267.752	83.94
267.984	85.94
268.216	87.94
268.448	87.94
268.681	76.94
268.913	82.94
269.145	75.94
269.377	80.94
269.609	89.94
269.841	95.94
270.073	77.94
270.306	79.94
270.538	94.94
270.77	72.94
271.002	76.94
271.234	71.94
271.466	81.94
271.698	93.94
271.93	85.94
272.162	75.94
272.394	85.94
272.626	79.94
272.858	96.94
273.09	89.94
273.322	85.94
273.553	69.94
273.785	79.94
274.017	83.94
274.249	73.94
274.481	79.94
274.713	85.94
274.945	79.94
275.176	86.94
275.408	84.94
275.64	75.94
275.872	79.94
276.104	102.94
276.335	67.94
276.567	84.94
276.799	119.94
277.031	98.94
277.262	100.94
277.494	94.94
277.726	72.94
277.957	78.94
278.189	79.94
278.421	93.94
278.652	67.94
278.884	81.94
279.115	87.94
279.347	76.94
279.579	84.94
279.81	82.94
280.042	92.94
280.273	94.94
280.505	99.94
280.736	86.94
280.968	87.94
281.199	85.94
281.431	79.94
281.662	79.94
281.894	85.94
282.125	68.94
282.356	111.94
282.588	130.94
282.819	107.94
283.051	85.94
283.282	84.94
283.513	91.94
283.745	95.94
283.976	84.94
284.207	79.94
284.439	80.94
284.67	80.94
284.901	77.94
285.132	72.94
285.364	85.94
285.595	86.94
285.826	92.94
286.057	90.94
286.288	87.94
286.52	91.94
286.751	89.94
286.982	85.94
287.213	75.94
287.444	70.94
287.675	79.94
287.906	84.94
288.138	75.94
288.369	92.94
288.6	88.94
288.831	80.94
289.062	78.94
289.293	75.94
289.524	94.94
289.755	93.94
289.986	75.94
290.217	81.94
290.448	81.94
290.679	87.94
290.91	82.94
291.141	86.94
291.371	79.94
291.602	72.94
291.833	91.94
292.064	93.94
292.295	82.94
292.526	81.94
292.757	71.94
292.987	91.94
293.218	79.94
293.449	84.94
293.68	65.94
293.91	72.94
294.141	92.94
294.372	83.94
294.603	79.94
294.833	74.94
295.064	76.94
295.295	76.94
295.525	89.94
295.756	96.94
295.987	107.94
296.217	127.94
296.448	115.94
296.679	82.94
296.909	79.94
297.14	80.94
297.37	82.94
297.601	87.94
297.831	89.94
298.062	81.94
298.292	89.94
298.523	85.94
298.753	83.94
298.984	93.94
299.214	84.94
299.445	87.94
299.675	81.94
299.905	83.94
300.136	83.94
300.366	91.94
300.597	100.94
300.827	77.94
301.057	88.94
301.288	84.94
301.518	87.94
301.748	81.94
301.979	94.94
302.209	82.94
302.439	80.94
302.669	95.94
302.9	85.94
303.13	80.94
303.36	79.94
303.59	99.94
303.82	110.94
304.051	95.94
304.281	96.94
304.511	82.94
304.741	94.94
304.971	83.94
305.201	84.94
305.431	93.94
305.661	82.94
305.891	81.94
306.121	95.94
306.352	89.94
306.582	104.94
306.812	87.94
307.042	92.94
307.272	91.94
307.502	108.94
307.731	89.94
307.961	102.94
308.191	91.94
308.421	83.94
308.651	87.94
308.881	94.94
309.111	99.94
309.341	101.94
309.571	104.94
309.8	105.94
310.03	79.94
310.26	96.94
310.49	101.94
310.72	95.94
310.949	97.94
311.179	104.94
311.409	89.94
311.639	86.94
311.868	97.94
312.098	102.94
312.328	100.94
312.557	87.94
312.787	98.94
313.017	95.94
313.246	87.94
313.476	89.94
313.706	97.94
313.935	98.94
314.165	91.94
314.394	105.94
314.624	92.94
314.853	86.94
315.083	85.94
315.312	100.94
315.542	91.94
315.771	78.94
316.001	87.94
316.23	86.94
316.46	86.94
316.689	96.94
316.919	81.94
317.148	95.94
317.377	79.94
317.607	93.94
317.836	107.94
318.065	95.94
318.295	95.94
318.524	78.94
318.753	94.94
318.983	79.94
319.212	98.94
319.441	119.94
319.67	87.94
319.9	77.94
320.129	95.94
320.358	86.94
320.587	85.94
320.816	94.94
321.046	104.94
321.275	100.94
321.504	92.94
321.733	94.94
321.962	92.94
322.191	114.94
322.42	111.94
322.649	99.94
322.878	106.94
323.108	97.94
323.337	111.94
323.566	124.94
323.795	145.94
324.024	180.94
324.253	327.94
324.482	687.94
324.71	1389.94
324.939	1840.94
325.168	664.94
325.397	201.94
325.626	118.94
325.855	114.94
326.084	122.94
326.313	117.94
326.542	130.94
326.77	206.94
326.999	396.94
327.228	785.94
327.457	1419.94
327.686	1165.94
327.914	318.94
328.143	191.94
328.372	155.94
328.6	128.94
328.829	95.94
329.058	119.94
329.287	116.94
329.515	97.94
329.744	101.94
329.972	124.94
330.201	152.94
330.43	187.94
330.658	138.94
330.887	121.94
331.115	111.94
331.344	97.94
331.572	93.94
331.801	85.94
332.03	99.94
332.258	96.94
332.486	83.94
332.715	95.94
332.943	104.94
333.172	90.94
333.4	98.94
333.629	92.94
333.857	108.94
334.085	116.94
334.314	141.94
334.542	202.94
334.771	207.94
334.999	110.94
335.227	100.94
335.455	87.94
335.684	76.94
335.912	75.94
336.14	98.94
336.369	92.94
336.597	85.94
336.825	95.94
337.053	84.94
337.281	87.94
337.51	95.94
337.738	84.94
337.966	91.94
338.194	80.94
338.422	99.94
338.65	86.94
338.878	81.94
339.106	93.94
339.334	94.94
339.562	79.94
339.79	95.94
340.018	88.94
340.246	89.94
340.474	88.94
340.702	78.94
340.93	87.94
341.158	85.94
341.386	85.94
341.614	88.94
341.842	101.94
342.07	105.94
342.298	83.94
342.526	87.94
342.754	81.94
342.981	89.94
343.209	75.94
343.437	98.94
343.665	87.94
343.893	85.94
344.12	79.94
344.348	87.94
344.576	81.94
344.804	87.94
345.031	79.94
345.259	89.94
345.487	83.94
345.714	82.94
345.942	98.94
346.17	92.94
346.397	91.94
346.625	87.94
346.853	90.94
347.08	87.94
347.308	92.94
347.535	88.94
347.763	96.94
347.99	92.94
348.218	106.94
348.445	99.94
348.673	97.94
348.9	95.94
349.128	80.94
349.355	91.94
349.583	86.94
349.81	96.94
350.037	92.94
350.265	86.94
350.492	88.94
350.72	96.94
350.947	99.94
351.174	100.94
351.402	102.94
351.629	104.94
351.856	107.94
352.083	93.94
352.311	76.94
352.538	105.94
352.765	101.94
352.992	101.94
353.22	108.94
353.447	100.94
353.674	93.94
353.901	97.94
354.128	84.94
354.355	81.94
354.583	97.94
354.81	97.94
355.037	93.94
355.264	87.94
355.491	92.94
355.718	87.94
355.945	82.94
356.172	89.94
356.399	88.94
356.626	100.94
356.853	91.94
357.08	93.94
357.307	99.94
357.534	84.94
357.761	76.94
357.988	99.94
358.215	105.94
358.441	91.94
358.668	87.94
358.895	75.94
359.122	83.94
359.349	83.94
359.576	94.94
359.802	102.94
360.029	87.94
360.256	95.94
360.483	96.94
360.709	88.94
360.936	94.94
361.163	95.94
361.39	85.94
361.616	92.94
361.843	67.94
362.07	70.94
362.296	88.94
362.523	81.94
362.749	83.94
362.976	81.94
363.203	100.94
363.429	81.94
363.656	99.94
363.882	86.94
364.109	81.94
364.335	93.94
364.562	87.94
364.788	91.94
365.015	89.94
365.241	86.94
365.468	96.94
365.694	93.94
365.92	91.94
366.147	84.94
366.373	93.94
366.599	98.94
366.826	86.94
367.052	78.94
367.278	92.94
367.505	88.94
367.731	79.94
367.957	84.94
368.184	88.94
368.41	82.94
368.636	99.94
368.862	93.94
369.089	93.94
369.315	94.94
369.541	94.94
369.767	95.94
369.993	97.94
370.219	79.94
370.445	89.94
370.672	79.94
370.898	73.94
371.124	80.94
371.35	82.94
371.576	92.94
371.802	70.94
372.028	83.94
372.254	79.94
372.48	88.94
372.706	77.94
372.932	83.94
373.158	88.94
373.384	98.94
373.61	77.94
373.835	99.94
374.061	92.94
374.287	87.94
374.513	75.94
374.739	93.94
374.965	72.94
375.191	77.94
375.416	84.94
375.642	90.94
375.868	83.94
376.094	88.94
376.319	92.94
376.545	70.94
376.771	89.94
376.997	94.94
377.222	82.94
377.448	97.94
377.674	83.94
377.899	91.94
378.125	75.94
378.35	93.94
378.576	85.94
378.802	93.94
379.027	87.94
379.253	93.94
379.478	94.94
379.704	93.94
379.929	106.94
380.155	94.94
380.38	94.94
380.606	96.94
380.831	89.94
381.057	83.94
381.282	99.94
381.507	87.94
381.733	93.94
381.958	85.94
382.184	86.94
382.409	88.94
382.634	97.94
382.86	101.94
383.085	96.94
383.31	96.94
383.535	91.94
383.761	92.94
383.986	98.94
384.211	110.94
384.436	88.94
384.662	86.94
384.887	87.94
385.112	94.94
385.337	103.94
385.562	108.94
385.787	82.94
386.013	101.94
386.238	110.94
386.463	102.94
386.688	105.94
386.913	107.94
387.138	87.94
387.363	98.94
387.588	83.94
387.813	95.94
388.038	102.94
388.263	101.94
388.488	88.94
388.713	86.94
388.938	84.94
389.163	102.94
389.387	82.94
389.612	95.94
389.837	98.94
390.062	89.94
390.287	90.94
390.512	86.94
390.736	94.94
390.961	93.94
391.186	99.94
391.411	91.94
391.636	96.94
391.86	87.94
392.085	71.94
392.31	87.94
392.534	81.94
392.759	68.94
392.984	77.94
393.208	72.94
393.433	96.94
393.658	84.94
393.882	83.94
394.107	83.94
394.331	96.94
394.556	85.94
394.78	76.94
395.005	94.94
395.229	86.94
395.454	88.94
395.678	87.94
395.903	92.94
396.127	87.94
396.352	91.94
396.576	95.94
396.801	75.94
397.025	83.94
397.249	92.94
397.474	94.94
397.698	69.94
397.922	81.94
398.147	78.94
398.371	93.94
398.595	85.94
398.82	93.94
399.044	80.94
399.268	88.94
399.492	80.94
399.717	91.94
399.941	87.94
400.165	83.94
400.389	85.94
400.613	90.94
400.837	79.94
401.062	82.94
401.286	75.94
401.51	84.94
401.734	85.94
401.958	94.94
402.182	109.94
402.406	160.94
402.63	111.94
402.854	80.94
403.078	84.94
403.302	67.94
403.526	81.94
403.75	81.94
403.974	75.94
404.198	80.94
404.422	81.94
404.645	96.94
404.869	81.94
405.093	92.94
405.317	96.94
405.541	88.94
405.765	97.94
405.988	108.94
406.212	140.94
406.436	183.94
406.66	134.94
406.883	96.94
407.107	86.94
407.331	103.94
407.555	84.94
407.778	82.94
408.002	97.94
408.226	79.94
408.449	80.94
408.673	76.94
408.896	83.94
409.12	75.94
409.344	75.94
409.567	61.94
409.791	90.94
410.014	83.94
410.238	90.94
410.461	82.94
410.685	80.94
410.908	85.94
411.132	95.94
411.355	105.94
411.578	77.94
411.802	88.94
412.025	70.94
412.249	84.94
412.472	85.94
412.695	95.94
412.919	85.94
413.142	89.94
413.365	88.94
413.589	85.94
413.812	87.94
414.035	95.94
414.258	76.94
414.482	91.94
414.705	92.94
414.928	86.94
415.151	71.94
415.374	86.94
415.597	83.94
415.821	85.94
416.044	95.94
416.267	85.94
416.49	96.94
416.713	83.94
416.936	89.94
417.159	99.94
417.382	88.94
417.605	81.94
417.828	97.94
418.051	88.94
418.274	92.94
418.497	75.94
418.72	77.94
418.943	88.94
419.166	85.94
419.389	85.94
419.611	97.94
419.834	97.94
420.057	91.94
420.28	88.94
420.503	95.94
420.726	94.94
420.948	77.94
421.171	92.94
421.394	80.94
421.617	77.94
421.839	80.94
422.062	86.94
422.285	86.94
422.507	92.94
422.73	94.94
422.953	79.94
423.175	94.94
423.398	86.94
423.621	79.94
423.843	80.94
424.066	93.94
424.288	96.94
424.511	83.94
424.733	80.94
424.956	85.94
425.178	88.94
425.401	92.94
425.623	100.94
425.846	99.94
426.068	88.94
426.291	88.94
426.513	103.94
426.735	92.94
426.958	85.94
427.18	96.94
427.402	120.94
427.625	140.94
427.847	135.94
428.069	113.94
428.292	101.94
428.514	82.94
428.736	91.94
428.958	99.94
429.181	88.94
429.403	83.94
429.625	98.94
429.847	83.94
430.069	78.94
430.292	88.94
430.514	76.94
430.736	77.94
430.958	71.94
431.18	70.94
431.402	86.94
431.624	81.94
431.846	83.94
432.068	84.94
432.29	75.94
432.512	85.94
432.734	92.94
432.956	85.94
433.178	85.94
433.4	89.94
433.622	92.94
433.844	86.94
434.066	85.94
434.287	99.94
434.509	83.94
434.731	95.94
434.953	95.94
435.175	86.94
435.397	105.94
435.618	76.94
435.84	85.94
436.062	111.94
436.284	108.94
436.505	109.94
436.727	98.94
436.949	95.94
437.17	91.94
437.392	76.94
437.614	100.94
437.835	99.94
438.057	109.94
438.278	97.94
438.5	96.94
438.721	105.94
438.943	94.94
439.165	73.94
439.386	93.94
439.608	96.94
439.829	95.94
440.05	106.94
440.272	143.94
440.493	99.94
440.715	83.94
440.936	101.94
441.158	91.94
441.379	91.94
441.6	87.94
441.822	76.94
442.043	88.94
442.264	96.94
442.486	88.94
442.707	84.94
442.928	86.94
443.149	109.94
443.371	119.94
443.592	112.94
443.813	103.94
444.034	97.94
444.255	87.94
444.476	87.94
444.698	93.94
444.919	92.94
445.14	135.94
445.361	126.94
445.582	111.94
445.803	109.94
446.024	124.94
446.245	121.94
446.466	105.94
446.687	79.94
446.908	82.94
447.129	78.94
447.35	91.94
447.571	83.94
447.792	81.94
448.013	98.94
448.234	104.94
448.455	82.94
448.675	100.94
448.896	111.94
449.117	94.94
449.338	89.94
449.559	111.94
449.779	108.94
450	100.94
450.221	89.94
450.442	71.94
450.662	83.94
450.883	93.94
451.104	101.94
451.324	82.94
451.545	89.94
451.766	93.94
451.986	76.94
452.207	97.94
452.428	98.94
452.648	93.94
452.869	102.94
453.089	103.94
453.31	100.94
453.53	89.94
453.751	82.94
453.971	93.94
454.192	101.94
454.412	79.94
454.633	72.94
454.853	73.94
455.073	88.94
455.294	77.94
455.514	93.94
455.734	80.94
455.955	76.94
456.175	77.94
456.395	96.94
456.616	86.94
456.836	79.94
457.056	87.94
457.276	82.94
457.497	87.94
457.717	86.94
457.937	84.94
458.157	72.94
458.377	94.94
458.598	104.94
458.818	100.94
459.038	124.94
459.258	102.94
459.478	78.94
459.698	81.94
459.918	80.94
460.138	69.94
460.358	76.94
460.578	91.94
460.798	85.94
461.018	79.94
461.238	63.94
461.458	75.94
461.678	72.94
461.898	79.94
462.118	77.94
462.338	71.94
462.558	77.94
462.777	72.94
462.997	67.94
463.217	83.94
463.437	95.94
463.657	70.94
463.876	104.94
464.096	81.94
464.316	86.94
464.536	97.94
464.755	87.94
464.975	95.94
465.195	128.94
465.414	123.94
465.634	87.94
465.854	111.94
466.073	93.94
466.293	88.94
466.512	81.94
466.732	76.94
466.951	89.94
467.171	95.94
467.391	94.94
467.61	93.94
467.829	96.94
468.049	117.94
468.268	123.94
468.488	82.94
468.707	81.94
468.927	83.94
469.146	96.94
469.365	89.94
469.585	92.94
469.804	99.94
470.023	94.94
470.243	86.94
470.462	88.94
470.681	96.94
470.901	95.94
471.12	76.94
471.339	80.94
471.558	81.94
471.777	78.94
471.997	105.94
472.216	163.94
472.435	250.94
472.654	117.94
472.873	85.94
473.092	93.94
473.311	81.94
473.53	78.94
473.749	88.94
473.968	94.94
474.187	96.94
474.406	93.94
474.625	81.94
474.844	91.94
475.063	80.94
475.282	102.94
475.501	69.94
475.72	83.94
475.939	93.94
476.158	84.94
476.377	77.94
476.596	83.94
476.814	77.94
477.033	85.94
477.252	87.94
477.471	97.94
477.69	92.94
477.908	98.94
478.127	88.94
478.346	92.94
478.564	75.94
478.783	86.94
479.002	81.94
479.22	88.94
479.439	99.94
479.658	99.94
479.876	97.94
480.095	84.94
480.313	88.94
480.532	95.94
480.751	111.94
480.969	157.94
481.188	420.94
481.406	260.94
481.624	103.94
481.843	93.94
482.061	87.94
482.28	83.94
482.498	67.94
482.717	84.94
482.935	89.94
483.153	91.94
483.372	83.94
483.59	93.94
483.808	80.94
484.027	89.94
484.245	79.94
484.463	85.94
484.681	67.94
484.9	84.94
485.118	96.94
485.336	83.94
485.554	90.94
485.772	103.94
485.99	113.94
486.209	88.94
486.427	107.94
486.645	105.94
486.863	98.94
487.081	101.94
487.299	96.94
487.517	92.94
487.735	82.94
487.953	99.94
488.171	91.94
488.389	94.94
488.607	96.94
488.825	100.94
489.043	76.94
489.261	83.94
489.479	93.94
489.696	79.94
489.914	81.94
490.132	81.94
490.35	83.94
490.568	83.94
490.786	88.94
491.003	82.94
491.221	78.94
491.439	83.94
491.657	87.94
491.874	86.94
492.092	86.94
492.31	87.94
492.527	68.94
492.745	72.94
492.963	83.94
493.18	91.94
493.398	70.94
493.615	86.94
493.833	79.94
494.05	82.94
494.268	86.94
494.485	99.94
494.703	85.94
494.92	91.94
495.138	95.94
495.355	87.94
495.573	99.94
495.79	87.94
496.008	82.94
496.225	89.94
496.442	83.94
496.66	84.94
496.877	79.94
497.094	83.94
497.312	100.94
497.529	100.94
497.746	91.94
497.963	95.94
498.181	77.94
498.398	92.94
498.615	101.94
498.832	100.94
499.049	95.94
499.267	70.94
499.484	93.94
499.701	92.94
499.918	93.94
500.135	85.94
500.352	90.94
500.569	87.94
500.786	84.94
501.003	97.94
501.22	90.94
501.437	94.94
501.654	78.94
501.871	105.94
502.088	96.94
502.305	100.94
502.522	92.94
502.739	85.94
502.956	84.94
503.172	96.94
503.389	94.94
503.606	93.94
503.823	79.94
504.04	73.94
504.256	92.94
504.473	79.94
504.69	91.94
504.907	87.94
505.123	97.94
505.34	99.94
505.557	95.94
505.773	86.94
505.99	85.94
506.207	87.94
506.423	73.94
506.64	86.94
506.856	89.94
507.073	95.94
507.289	94.94
507.506	86.94
507.722	89.94
507.939	102.94
508.155	103.94
508.372	89.94
508.588	82.94
508.805	102.94
509.021	100.94
509.238	96.94
509.454	96.94
509.67	96.94
509.887	94.94
510.103	128.94
510.319	174.94
510.536	624.94
510.752	1933.94
510.968	517.94
511.184	139.94
511.401	102.94
511.617	81.94
511.833	83.94
512.049	89.94
512.265	93.94
512.481	89.94
512.698	94.94
512.914	93.94
513.13	78.94
513.346	79.94
513.562	92.94
513.778	96.94
513.994	88.94
514.21	100.94
514.426	101.94
514.642	110.94
514.858	112.94
515.074	148.94
515.29	390.94
515.506	1191.94
515.721	434.94
515.937	125.94
516.153	102.94
516.369	89.94
516.585	91.94
516.801	104.94
517.016	69.94
517.232	87.94
