Data from Circ_1986_H10_HRD10591_00084.txt Node
Date: Wed Jan 03 12:15:42 EST 2024
User: Yrep
Spectrometer: HR+D1059
Trigger mode: 1
Integration Time (sec): 1.000000E-1
Scans to average: 1
Electric dark correction enabled: true
Nonlinearity correction enabled: false
Boxcar width: 0
XAxis mode: Wavelengths
Number of Pixels in Spectrum: 2048
>>>>>Begin Spectral Data<<<<<
223.165	-10.06
223.4	-10.06
223.635	-10.06
223.869	-16.06
224.104	-13.06
224.338	-26.06
224.573	-23.06
224.808	-10.06
225.042	-7.06
225.277	-19.06
225.511	-8.06
225.746	0.94
225.98	18.94
226.215	16.94
226.449	19.94
226.683	24.94
226.918	23.94
227.152	26.94
227.387	29.94
227.621	37.94
227.856	39.94
228.09	61.94
228.324	53.94
228.559	58.94
228.793	68.94
229.027	78.94
229.262	68.94
229.496	70.94
229.73	72.94
229.964	94.94
230.199	74.94
230.433	56.94
230.667	82.94
230.901	79.94
231.136	58.94
231.37	80.94
231.604	84.94
231.838	84.94
232.072	92.94
232.306	76.94
232.541	107.94
232.775	82.94
233.009	76.94
233.243	72.94
233.477	84.94
233.711	68.94
233.945	83.94
234.179	62.94
234.413	88.94
234.647	78.94
234.881	76.94
235.115	92.94
235.349	73.94
235.583	83.94
235.817	63.94
236.051	65.94
236.285	71.94
236.519	74.94
236.753	78.94
236.987	74.94
237.221	71.94
237.455	90.94
237.689	96.94
237.922	92.94
238.156	76.94
238.39	80.94
238.624	70.94
238.858	84.94
239.091	88.94
239.325	71.94
239.559	67.94
239.793	73.94
240.027	86.94
240.26	70.94
240.494	72.94
240.728	75.94
240.961	67.94
241.195	68.94
241.429	75.94
241.662	72.94
241.896	75.94
242.13	73.94
242.363	82.94
242.597	83.94
242.83	79.94
243.064	80.94
243.298	73.94
243.531	75.94
243.765	88.94
243.998	83.94
244.232	74.94
244.465	89.94
244.699	73.94
244.932	84.94
245.166	80.94
245.399	77.94
245.633	68.94
245.866	78.94
246.099	85.94
246.333	84.94
246.566	88.94
246.8	69.94
247.033	73.94
247.266	72.94
247.5	81.94
247.733	73.94
247.966	80.94
248.2	94.94
248.433	79.94
248.666	81.94
248.899	78.94
249.133	67.94
249.366	99.94
249.599	74.94
249.832	65.94
250.066	94.94
250.299	82.94
250.532	61.94
250.765	92.94
250.998	78.94
251.231	78.94
251.465	83.94
251.698	73.94
251.931	70.94
252.164	79.94
252.397	101.94
252.63	82.94
252.863	79.94
253.096	84.94
253.329	86.94
253.562	85.94
253.795	70.94
254.028	83.94
254.261	92.94
254.494	66.94
254.727	74.94
254.96	72.94
255.193	83.94
255.426	73.94
255.659	71.94
255.892	88.94
256.124	83.94
256.357	80.94
256.59	91.94
256.823	90.94
257.056	81.94
257.289	86.94
257.521	79.94
257.754	88.94
257.987	89.94
258.22	82.94
258.452	88.94
258.685	90.94
258.918	94.94
259.151	95.94
259.383	89.94
259.616	99.94
259.849	93.94
260.081	71.94
260.314	83.94
260.547	76.94
260.779	86.94
261.012	98.94
261.244	91.94
261.477	74.94
261.71	82.94
261.942	100.94
262.175	107.94
262.407	73.94
262.64	81.94
262.872	88.94
263.105	94.94
263.337	87.94
263.57	90.94
263.802	91.94
264.035	73.94
264.267	83.94
264.499	82.94
264.732	82.94
264.964	76.94
265.197	94.94
265.429	93.94
265.661	91.94
265.894	81.94
266.126	81.94
266.358	85.94
266.591	86.94
266.823	78.94
267.055	74.94
267.287	89.94
267.52	74.94
267.752	94.94
267.984	95.94
268.216	72.94
268.448	84.94
268.681	92.94
268.913	79.94
269.145	94.94
269.377	75.94
269.609	66.94
269.841	79.94
270.073	94.94
270.306	81.94
270.538	86.94
270.77	84.94
271.002	87.94
271.234	97.94
271.466	86.94
271.698	91.94
271.93	82.94
272.162	88.94
272.394	95.94
272.626	98.94
272.858	74.94
273.09	90.94
273.322	85.94
273.553	82.94
273.785	89.94
274.017	75.94
274.249	75.94
274.481	79.94
274.713	87.94
274.945	81.94
275.176	97.94
275.408	90.94
275.64	94.94
275.872	72.94
276.104	77.94
276.335	82.94
276.567	76.94
276.799	103.94
277.031	87.94
277.262	84.94
277.494	85.94
277.726	86.94
277.957	73.94
278.189	78.94
278.421	89.94
278.652	91.94
278.884	86.94
279.115	83.94
279.347	90.94
279.579	103.94
279.81	95.94
280.042	88.94
280.273	107.94
280.505	102.94
280.736	92.94
280.968	86.94
281.199	86.94
281.431	81.94
281.662	86.94
281.894	94.94
282.125	88.94
282.356	101.94
282.588	128.94
282.819	104.94
283.051	101.94
283.282	85.94
283.513	90.94
283.745	102.94
283.976	100.94
284.207	103.94
284.439	95.94
284.67	87.94
284.901	91.94
285.132	81.94
285.364	90.94
285.595	88.94
285.826	85.94
286.057	98.94
286.288	85.94
286.52	82.94
286.751	84.94
286.982	97.94
287.213	88.94
287.444	86.94
287.675	81.94
287.906	87.94
288.138	80.94
288.369	92.94
288.6	82.94
288.831	90.94
289.062	106.94
289.293	89.94
289.524	98.94
289.755	90.94
289.986	76.94
290.217	90.94
290.448	91.94
290.679	84.94
290.91	89.94
291.141	78.94
291.371	92.94
291.602	90.94
291.833	97.94
292.064	86.94
292.295	98.94
292.526	96.94
292.757	89.94
292.987	97.94
293.218	81.94
293.449	87.94
293.68	97.94
293.91	83.94
294.141	85.94
294.372	91.94
294.603	87.94
294.833	82.94
295.064	85.94
295.295	89.94
295.525	94.94
295.756	99.94
295.987	102.94
296.217	125.94
296.448	116.94
296.679	86.94
296.909	96.94
297.14	97.94
297.37	91.94
297.601	79.94
297.831	78.94
298.062	96.94
298.292	84.94
298.523	95.94
298.753	98.94
298.984	69.94
299.214	78.94
299.445	82.94
299.675	94.94
299.905	96.94
300.136	92.94
300.366	81.94
300.597	102.94
300.827	88.94
301.057	97.94
301.288	94.94
301.518	82.94
301.748	91.94
301.979	106.94
302.209	99.94
302.439	102.94
302.669	87.94
302.9	88.94
303.13	92.94
303.36	98.94
303.59	105.94
303.82	97.94
304.051	82.94
304.281	84.94
304.511	80.94
304.741	84.94
304.971	89.94
305.201	87.94
305.431	85.94
305.661	96.94
305.891	85.94
306.121	98.94
306.352	96.94
306.582	87.94
306.812	99.94
307.042	91.94
307.272	87.94
307.502	94.94
307.731	87.94
307.961	99.94
308.191	88.94
308.421	93.94
308.651	86.94
308.881	82.94
309.111	75.94
309.341	104.94
309.571	93.94
309.8	98.94
310.03	97.94
310.26	101.94
310.49	95.94
310.72	102.94
310.949	111.94
311.179	94.94
311.409	85.94
311.639	83.94
311.868	92.94
312.098	100.94
312.328	105.94
312.557	106.94
312.787	107.94
313.017	97.94
313.246	83.94
313.476	83.94
313.706	90.94
313.935	98.94
314.165	114.94
314.394	90.94
314.624	100.94
314.853	99.94
315.083	83.94
315.312	113.94
315.542	87.94
315.771	88.94
316.001	90.94
316.23	94.94
316.46	99.94
316.689	83.94
316.919	92.94
317.148	70.94
317.377	87.94
317.607	82.94
317.836	95.94
318.065	85.94
318.295	96.94
318.524	86.94
318.753	96.94
318.983	98.94
319.212	87.94
319.441	86.94
319.67	105.94
319.9	107.94
320.129	91.94
320.358	76.94
320.587	82.94
320.816	89.94
321.046	103.94
321.275	99.94
321.504	93.94
321.733	101.94
321.962	83.94
322.191	100.94
322.42	98.94
322.649	104.94
322.878	101.94
323.108	110.94
323.337	104.94
323.566	122.94
323.795	134.94
324.024	183.94
324.253	316.94
324.482	662.94
324.71	1324.94
324.939	1728.94
325.168	638.94
325.397	193.94
325.626	126.94
325.855	130.94
326.084	111.94
326.313	126.94
326.542	138.94
326.77	179.94
326.999	355.94
327.228	766.94
327.457	1354.94
327.686	1091.94
327.914	320.94
328.143	190.94
328.372	143.94
328.6	124.94
328.829	110.94
329.058	119.94
329.287	111.94
329.515	97.94
329.744	92.94
329.972	111.94
330.201	146.94
330.43	179.94
330.658	137.94
330.887	145.94
331.115	111.94
331.344	106.94
331.572	106.94
331.801	108.94
332.03	95.94
332.258	97.94
332.486	103.94
332.715	90.94
332.943	90.94
333.172	99.94
333.4	97.94
333.629	85.94
333.857	121.94
334.085	121.94
334.314	156.94
334.542	208.94
334.771	200.94
334.999	107.94
335.227	106.94
335.455	83.94
335.684	82.94
335.912	101.94
336.14	96.94
336.369	104.94
336.597	91.94
336.825	84.94
337.053	94.94
337.281	85.94
337.51	94.94
337.738	103.94
337.966	80.94
338.194	99.94
338.422	103.94
338.65	99.94
338.878	88.94
339.106	85.94
339.334	83.94
339.562	81.94
339.79	96.94
340.018	82.94
340.246	87.94
340.474	95.94
340.702	95.94
340.93	92.94
341.158	94.94
341.386	88.94
341.614	99.94
341.842	101.94
342.07	95.94
342.298	101.94
342.526	78.94
342.754	85.94
342.981	98.94
343.209	103.94
343.437	97.94
343.665	94.94
343.893	90.94
344.12	89.94
344.348	86.94
344.576	86.94
344.804	95.94
345.031	93.94
345.259	92.94
345.487	91.94
345.714	83.94
345.942	102.94
346.17	90.94
346.397	91.94
346.625	86.94
346.853	84.94
347.08	72.94
347.308	86.94
347.535	98.94
347.763	93.94
347.99	90.94
348.218	97.94
348.445	103.94
348.673	96.94
348.9	86.94
349.128	91.94
349.355	92.94
349.583	94.94
349.81	93.94
350.037	89.94
350.265	83.94
350.492	90.94
350.72	123.94
350.947	100.94
351.174	112.94
351.402	107.94
351.629	91.94
351.856	92.94
352.083	113.94
352.311	108.94
352.538	114.94
352.765	109.94
352.992	104.94
353.22	121.94
353.447	83.94
353.674	95.94
353.901	97.94
354.128	95.94
354.355	98.94
354.583	104.94
354.81	86.94
355.037	104.94
355.264	92.94
355.491	98.94
355.718	90.94
355.945	96.94
356.172	98.94
356.399	90.94
356.626	86.94
356.853	97.94
357.08	102.94
357.307	88.94
357.534	98.94
357.761	98.94
357.988	104.94
358.215	105.94
358.441	100.94
358.668	76.94
358.895	94.94
359.122	78.94
359.349	84.94
359.576	90.94
359.802	92.94
360.029	112.94
360.256	95.94
360.483	90.94
360.709	80.94
360.936	95.94
361.163	106.94
361.39	96.94
361.616	83.94
361.843	102.94
362.07	96.94
362.296	101.94
362.523	79.94
362.749	82.94
362.976	88.94
363.203	80.94
363.429	73.94
363.656	84.94
363.882	89.94
364.109	101.94
364.335	96.94
364.562	84.94
364.788	93.94
365.015	91.94
365.241	91.94
365.468	90.94
365.694	99.94
365.92	100.94
366.147	86.94
366.373	91.94
366.599	102.94
366.826	96.94
367.052	87.94
367.278	83.94
367.505	94.94
367.731	97.94
367.957	86.94
368.184	83.94
368.41	94.94
368.636	116.94
368.862	130.94
369.089	103.94
369.315	106.94
369.541	79.94
369.767	90.94
369.993	94.94
370.219	94.94
370.445	98.94
370.672	80.94
370.898	87.94
371.124	89.94
371.35	83.94
371.576	97.94
371.802	69.94
372.028	104.94
372.254	82.94
372.48	87.94
372.706	90.94
372.932	91.94
373.158	95.94
373.384	95.94
373.61	80.94
373.835	95.94
374.061	92.94
374.287	94.94
374.513	81.94
374.739	92.94
374.965	102.94
375.191	78.94
375.416	90.94
375.642	82.94
375.868	101.94
376.094	92.94
376.319	90.94
376.545	82.94
376.771	96.94
376.997	100.94
377.222	83.94
377.448	82.94
377.674	90.94
377.899	91.94
378.125	98.94
378.35	97.94
378.576	85.94
378.802	94.94
379.027	94.94
379.253	99.94
379.478	105.94
379.704	87.94
379.929	88.94
380.155	82.94
380.38	95.94
380.606	99.94
380.831	92.94
381.057	104.94
381.282	95.94
381.507	107.94
381.733	85.94
381.958	83.94
382.184	102.94
382.409	105.94
382.634	99.94
382.86	88.94
383.085	102.94
383.31	78.94
383.535	98.94
383.761	85.94
383.986	105.94
384.211	100.94
384.436	88.94
384.662	97.94
384.887	100.94
385.112	106.94
385.337	88.94
385.562	97.94
385.787	104.94
386.013	99.94
386.238	106.94
386.463	96.94
386.688	109.94
386.913	92.94
387.138	84.94
387.363	114.94
387.588	108.94
387.813	89.94
388.038	112.94
388.263	94.94
388.488	104.94
388.713	92.94
388.938	79.94
389.163	80.94
389.387	89.94
389.612	92.94
389.837	87.94
390.062	96.94
390.287	90.94
390.512	106.94
390.736	98.94
390.961	90.94
391.186	87.94
391.411	105.94
391.636	86.94
391.86	81.94
392.085	87.94
392.31	87.94
392.534	77.94
392.759	96.94
392.984	95.94
393.208	83.94
393.433	99.94
393.658	95.94
393.882	77.94
394.107	90.94
394.331	97.94
394.556	85.94
394.78	69.94
395.005	90.94
395.229	99.94
395.454	86.94
395.678	82.94
395.903	92.94
396.127	91.94
396.352	84.94
396.576	82.94
396.801	85.94
397.025	82.94
397.249	91.94
397.474	79.94
397.698	79.94
397.922	89.94
398.147	72.94
398.371	88.94
398.595	92.94
398.82	85.94
399.044	75.94
399.268	75.94
399.492	90.94
399.717	87.94
399.941	92.94
400.165	90.94
400.389	81.94
400.613	76.94
400.837	88.94
401.062	96.94
401.286	79.94
401.51	92.94
401.734	93.94
401.958	103.94
402.182	128.94
402.406	137.94
402.63	96.94
402.854	82.94
403.078	80.94
403.302	94.94
403.526	92.94
403.75	79.94
403.974	86.94
404.198	81.94
404.422	79.94
404.645	82.94
404.869	90.94
405.093	96.94
405.317	98.94
405.541	92.94
405.765	94.94
405.988	105.94
406.212	148.94
406.436	184.94
406.66	129.94
406.883	105.94
407.107	89.94
407.331	105.94
407.555	79.94
407.778	94.94
408.002	85.94
408.226	90.94
408.449	90.94
408.673	88.94
408.896	94.94
409.12	94.94
409.344	94.94
409.567	67.94
409.791	88.94
410.014	98.94
410.238	102.94
410.461	76.94
410.685	72.94
410.908	90.94
411.132	91.94
411.355	94.94
411.578	91.94
411.802	82.94
412.025	91.94
412.249	81.94
412.472	98.94
412.695	103.94
412.919	104.94
413.142	100.94
413.365	106.94
413.589	87.94
413.812	83.94
414.035	89.94
414.258	96.94
414.482	93.94
414.705	91.94
414.928	102.94
415.151	104.94
415.374	102.94
415.597	78.94
415.821	91.94
416.044	85.94
416.267	91.94
416.49	73.94
416.713	102.94
416.936	79.94
417.159	86.94
417.382	88.94
417.605	85.94
417.828	90.94
418.051	99.94
418.274	88.94
418.497	83.94
418.72	84.94
418.943	77.94
419.166	81.94
419.389	92.94
419.611	92.94
419.834	94.94
420.057	82.94
420.28	100.94
420.503	85.94
420.726	77.94
420.948	79.94
421.171	103.94
421.394	97.94
421.617	90.94
421.839	99.94
422.062	98.94
422.285	95.94
422.507	86.94
422.73	87.94
422.953	93.94
423.175	91.94
423.398	86.94
423.621	86.94
423.843	86.94
424.066	94.94
424.288	73.94
424.511	83.94
424.733	92.94
424.956	92.94
425.178	101.94
425.401	94.94
425.623	96.94
425.846	89.94
426.068	97.94
426.291	88.94
426.513	98.94
426.735	81.94
426.958	83.94
427.18	89.94
427.402	126.94
427.625	148.94
427.847	126.94
428.069	110.94
428.292	92.94
428.514	98.94
428.736	104.94
428.958	83.94
429.181	85.94
429.403	75.94
429.625	94.94
429.847	84.94
430.069	108.94
430.292	90.94
430.514	82.94
430.736	72.94
430.958	95.94
431.18	104.94
431.402	89.94
431.624	81.94
431.846	78.94
432.068	80.94
432.29	69.94
432.512	80.94
432.734	90.94
432.956	90.94
433.178	88.94
433.4	85.94
433.622	91.94
433.844	75.94
434.066	70.94
434.287	78.94
434.509	90.94
434.731	74.94
434.953	88.94
435.175	84.94
435.397	87.94
435.618	86.94
435.84	99.94
436.062	115.94
436.284	96.94
436.505	95.94
436.727	98.94
436.949	73.94
437.17	83.94
437.392	78.94
437.614	89.94
437.835	100.94
438.057	111.94
438.278	94.94
438.5	110.94
438.721	107.94
438.943	91.94
439.165	79.94
439.386	81.94
439.608	88.94
439.829	97.94
440.05	122.94
440.272	125.94
440.493	90.94
440.715	88.94
440.936	91.94
441.158	71.94
441.379	96.94
441.6	92.94
441.822	94.94
442.043	96.94
442.264	83.94
442.486	99.94
442.707	95.94
442.928	99.94
443.149	127.94
443.371	94.94
443.592	93.94
443.813	107.94
444.034	109.94
444.255	79.94
444.476	80.94
444.698	78.94
444.919	79.94
445.14	138.94
445.361	134.94
445.582	111.94
445.803	119.94
446.024	110.94
446.245	121.94
446.466	94.94
446.687	87.94
446.908	77.94
447.129	95.94
447.35	91.94
447.571	108.94
447.792	103.94
448.013	96.94
448.234	87.94
448.455	88.94
448.675	103.94
448.896	98.94
449.117	104.94
449.338	74.94
449.559	115.94
449.779	117.94
450	87.94
450.221	82.94
450.442	92.94
450.662	98.94
450.883	91.94
451.104	94.94
451.324	99.94
451.545	87.94
451.766	84.94
451.986	83.94
452.207	82.94
452.428	92.94
452.648	88.94
452.869	107.94
453.089	114.94
453.31	107.94
453.53	105.94
453.751	78.94
453.971	103.94
454.192	106.94
454.412	79.94
454.633	76.94
454.853	79.94
455.073	79.94
455.294	83.94
455.514	91.94
455.734	73.94
455.955	89.94
456.175	88.94
456.395	77.94
456.616	79.94
456.836	95.94
457.056	81.94
457.276	86.94
457.497	84.94
457.717	85.94
457.937	76.94
458.157	81.94
458.377	95.94
458.598	112.94
458.818	109.94
459.038	125.94
459.258	99.94
459.478	94.94
459.698	75.94
459.918	97.94
460.138	87.94
460.358	79.94
460.578	87.94
460.798	92.94
461.018	82.94
461.238	89.94
461.458	84.94
461.678	87.94
461.898	87.94
462.118	95.94
462.338	96.94
462.558	75.94
462.777	70.94
462.997	78.94
463.217	88.94
463.437	85.94
463.657	96.94
463.876	99.94
464.096	101.94
464.316	83.94
464.536	87.94
464.755	94.94
464.975	108.94
465.195	120.94
465.414	136.94
465.634	96.94
465.854	91.94
466.073	89.94
466.293	97.94
466.512	67.94
466.732	96.94
466.951	86.94
467.171	89.94
467.391	97.94
467.61	102.94
467.829	101.94
468.049	120.94
468.268	129.94
468.488	90.94
468.707	73.94
468.927	96.94
469.146	88.94
469.365	85.94
469.585	90.94
469.804	95.94
470.023	91.94
470.243	97.94
470.462	97.94
470.681	95.94
470.901	90.94
471.12	98.94
471.339	92.94
471.558	82.94
471.777	89.94
471.997	114.94
472.216	176.94
472.435	263.94
472.654	106.94
472.873	82.94
473.092	95.94
473.311	94.94
473.53	91.94
473.749	95.94
473.968	81.94
474.187	94.94
474.406	86.94
474.625	86.94
474.844	72.94
475.063	91.94
475.282	84.94
475.501	87.94
475.72	102.94
475.939	85.94
476.158	87.94
476.377	89.94
476.596	81.94
476.814	87.94
477.033	89.94
477.252	75.94
477.471	87.94
477.69	73.94
477.908	100.94
478.127	92.94
478.346	94.94
478.564	81.94
478.783	80.94
479.002	78.94
479.22	83.94
479.439	87.94
479.658	84.94
479.876	85.94
480.095	94.94
480.313	93.94
480.532	89.94
480.751	105.94
480.969	176.94
481.188	450.94
481.406	273.94
481.624	111.94
481.843	95.94
482.061	86.94
482.28	83.94
482.498	84.94
482.717	71.94
482.935	67.94
483.153	91.94
483.372	74.94
483.59	92.94
483.808	80.94
484.027	86.94
484.245	95.94
484.463	78.94
484.681	90.94
484.9	82.94
485.118	101.94
485.336	92.94
485.554	94.94
485.772	100.94
485.99	112.94
486.209	83.94
486.427	109.94
486.645	99.94
486.863	98.94
487.081	104.94
487.299	98.94
487.517	96.94
487.735	90.94
487.953	87.94
488.171	83.94
488.389	97.94
488.607	85.94
488.825	96.94
489.043	91.94
489.261	94.94
489.479	84.94
489.696	80.94
489.914	90.94
490.132	91.94
490.35	73.94
490.568	76.94
490.786	80.94
491.003	98.94
491.221	85.94
491.439	86.94
491.657	88.94
491.874	95.94
492.092	79.94
492.31	98.94
492.527	87.94
492.745	80.94
492.963	91.94
493.18	96.94
493.398	87.94
493.615	89.94
493.833	84.94
494.05	95.94
494.268	83.94
494.485	95.94
494.703	91.94
494.92	84.94
495.138	78.94
495.355	73.94
495.573	93.94
495.79	81.94
496.008	94.94
496.225	83.94
496.442	92.94
496.66	86.94
496.877	88.94
497.094	87.94
497.312	91.94
497.529	80.94
497.746	92.94
497.963	87.94
498.181	82.94
498.398	88.94
498.615	115.94
498.832	114.94
499.049	93.94
499.267	81.94
499.484	99.94
499.701	103.94
499.918	84.94
500.135	96.94
500.352	89.94
500.569	85.94
500.786	82.94
501.003	95.94
501.22	80.94
501.437	93.94
501.654	86.94
501.871	94.94
502.088	90.94
502.305	84.94
502.522	95.94
502.739	88.94
502.956	85.94
503.172	82.94
503.389	95.94
503.606	101.94
503.823	98.94
504.04	90.94
504.256	79.94
504.473	93.94
504.69	93.94
504.907	95.94
505.123	81.94
505.34	80.94
505.557	100.94
505.773	94.94
505.99	89.94
506.207	74.94
506.423	87.94
506.64	92.94
506.856	91.94
507.073	91.94
507.289	89.94
507.506	74.94
507.722	107.94
507.939	100.94
508.155	89.94
508.372	78.94
508.588	98.94
508.805	98.94
509.021	99.94
509.238	102.94
509.454	94.94
509.67	102.94
509.887	93.94
510.103	98.94
510.319	186.94
510.536	631.94
510.752	1870.94
510.968	506.94
511.184	131.94
511.401	107.94
511.617	98.94
511.833	95.94
512.049	83.94
512.265	88.94
512.481	98.94
512.698	91.94
512.914	85.94
513.13	95.94
513.346	96.94
513.562	83.94
513.778	87.94
513.994	85.94
514.21	103.94
514.426	115.94
514.642	116.94
514.858	118.94
515.074	139.94
515.29	344.94
515.506	1118.94
515.721	414.94
515.937	134.94
516.153	101.94
516.369	102.94
