Data from Circ_1986_H10_HRD10591_00037.txt Node
Date: Wed Jan 03 12:15:33 EST 2024
User: Yrep
Spectrometer: HR+D1059
Trigger mode: 1
Integration Time (sec): 1.000000E-1
Scans to average: 1
Electric dark correction enabled: true
Nonlinearity correction enabled: false
Boxcar width: 0
XAxis mode: Wavelengths
Number of Pixels in Spectrum: 2048
>>>>>Begin Spectral Data<<<<<
223.165	-21.19
223.4	-21.19
223.635	-21.19
223.869	-17.19
224.104	-27.19
224.338	-23.19
224.573	-18.19
224.808	-17.19
225.042	-0.19
225.277	-0.19
225.511	-13.19
225.746	9.81
225.98	11.81
226.215	24.81
226.449	24.81
226.683	16.81
226.918	26.81
227.152	22.81
227.387	30.81
227.621	40.81
227.856	49.81
228.09	45.81
228.324	60.81
228.559	50.81
228.793	68.81
229.027	61.81
229.262	71.81
229.496	73.81
229.73	75.81
229.964	82.81
230.199	70.81
230.433	72.81
230.667	81.81
230.901	90.81
231.136	94.81
231.37	68.81
231.604	78.81
231.838	100.81
232.072	80.81
232.306	77.81
232.541	82.81
232.775	73.81
233.009	86.81
233.243	91.81
233.477	77.81
233.711	78.81
233.945	79.81
234.179	76.81
234.413	74.81
234.647	80.81
234.881	60.81
235.115	63.81
235.349	80.81
235.583	89.81
235.817	78.81
236.051	87.81
236.285	81.81
236.519	82.81
236.753	82.81
236.987	81.81
237.221	86.81
237.455	67.81
237.689	82.81
237.922	54.81
238.156	74.81
238.39	67.81
238.624	81.81
238.858	83.81
239.091	78.81
239.325	81.81
239.559	88.81
239.793	62.81
240.027	86.81
240.26	70.81
240.494	78.81
240.728	86.81
240.961	79.81
241.195	87.81
241.429	89.81
241.662	79.81
241.896	75.81
242.13	76.81
242.363	86.81
242.597	72.81
242.83	86.81
243.064	77.81
243.298	80.81
243.531	87.81
243.765	72.81
243.998	60.81
244.232	79.81
244.465	90.81
244.699	86.81
244.932	69.81
245.166	74.81
245.399	75.81
245.633	79.81
245.866	86.81
246.099	73.81
246.333	82.81
246.566	75.81
246.8	75.81
247.033	65.81
247.266	91.81
247.5	73.81
247.733	85.81
247.966	86.81
248.2	76.81
248.433	86.81
248.666	74.81
248.899	82.81
249.133	80.81
249.366	83.81
249.599	86.81
249.832	85.81
250.066	77.81
250.299	82.81
250.532	86.81
250.765	82.81
250.998	84.81
251.231	85.81
251.465	73.81
251.698	84.81
251.931	74.81
252.164	81.81
252.397	97.81
252.63	72.81
252.863	87.81
253.096	80.81
253.329	89.81
253.562	88.81
253.795	80.81
254.028	68.81
254.261	76.81
254.494	85.81
254.727	88.81
254.96	83.81
255.193	84.81
255.426	79.81
255.659	86.81
255.892	84.81
256.124	81.81
256.357	82.81
256.59	75.81
256.823	62.81
257.056	87.81
257.289	78.81
257.521	75.81
257.754	69.81
257.987	96.81
258.22	78.81
258.452	71.81
258.685	82.81
258.918	75.81
259.151	75.81
259.383	73.81
259.616	68.81
259.849	72.81
260.081	80.81
260.314	91.81
260.547	68.81
260.779	85.81
261.012	86.81
261.244	82.81
261.477	86.81
261.71	96.81
261.942	99.81
262.175	94.81
262.407	76.81
262.64	84.81
262.872	80.81
263.105	89.81
263.337	86.81
263.57	72.81
263.802	73.81
264.035	75.81
264.267	83.81
264.499	105.81
264.732	82.81
264.964	92.81
265.197	84.81
265.429	95.81
265.661	86.81
265.894	74.81
266.126	85.81
266.358	78.81
266.591	84.81
266.823	70.81
267.055	78.81
267.287	86.81
267.52	87.81
267.752	72.81
267.984	88.81
268.216	94.81
268.448	103.81
268.681	86.81
268.913	90.81
269.145	84.81
269.377	89.81
269.609	73.81
269.841	81.81
270.073	73.81
270.306	80.81
270.538	91.81
270.77	82.81
271.002	71.81
271.234	80.81
271.466	83.81
271.698	74.81
271.93	88.81
272.162	71.81
272.394	89.81
272.626	84.81
272.858	82.81
273.09	94.81
273.322	96.81
273.553	80.81
273.785	91.81
274.017	83.81
274.249	81.81
274.481	83.81
274.713	95.81
274.945	90.81
275.176	78.81
275.408	85.81
275.64	87.81
275.872	80.81
276.104	94.81
276.335	83.81
276.567	101.81
276.799	93.81
277.031	99.81
277.262	99.81
277.494	100.81
277.726	90.81
277.957	76.81
278.189	65.81
278.421	88.81
278.652	91.81
278.884	86.81
279.115	91.81
279.347	79.81
279.579	75.81
279.81	84.81
280.042	80.81
280.273	92.81
280.505	85.81
280.736	90.81
280.968	91.81
281.199	86.81
281.431	78.81
281.662	88.81
281.894	89.81
282.125	104.81
282.356	108.81
282.588	116.81
282.819	98.81
283.051	82.81
283.282	80.81
283.513	101.81
283.745	85.81
283.976	75.81
284.207	80.81
284.439	91.81
284.67	79.81
284.901	91.81
285.132	89.81
285.364	79.81
285.595	82.81
285.826	83.81
286.057	104.81
286.288	98.81
286.52	88.81
286.751	84.81
286.982	84.81
287.213	81.81
287.444	92.81
287.675	90.81
287.906	94.81
288.138	83.81
288.369	88.81
288.6	95.81
288.831	90.81
289.062	99.81
289.293	94.81
289.524	82.81
289.755	84.81
289.986	96.81
290.217	83.81
290.448	97.81
290.679	92.81
290.91	84.81
291.141	76.81
291.371	70.81
291.602	81.81
291.833	90.81
292.064	82.81
292.295	98.81
292.526	90.81
292.757	89.81
292.987	88.81
293.218	91.81
293.449	87.81
293.68	96.81
293.91	93.81
294.141	90.81
294.372	92.81
294.603	88.81
294.833	86.81
295.064	95.81
295.295	89.81
295.525	86.81
295.756	116.81
295.987	104.81
296.217	126.81
296.448	114.81
296.679	100.81
296.909	90.81
297.14	94.81
297.37	94.81
297.601	81.81
297.831	82.81
298.062	84.81
298.292	86.81
298.523	86.81
298.753	87.81
298.984	86.81
299.214	103.81
299.445	85.81
299.675	98.81
299.905	95.81
300.136	85.81
300.366	57.81
300.597	89.81
300.827	103.81
301.057	90.81
301.288	111.81
301.518	87.81
301.748	78.81
301.979	84.81
302.209	85.81
302.439	90.81
302.669	81.81
302.9	81.81
303.13	98.81
303.36	106.81
303.59	88.81
303.82	104.81
304.051	90.81
304.281	78.81
304.511	86.81
304.741	86.81
304.971	101.81
305.201	105.81
305.431	101.81
305.661	94.81
305.891	95.81
306.121	91.81
306.352	110.81
306.582	98.81
306.812	85.81
307.042	96.81
307.272	95.81
307.502	92.81
307.731	84.81
307.961	101.81
308.191	91.81
308.421	95.81
308.651	84.81
308.881	94.81
309.111	87.81
309.341	94.81
309.571	95.81
309.8	100.81
310.03	97.81
310.26	78.81
310.49	99.81
310.72	99.81
310.949	96.81
311.179	98.81
311.409	92.81
311.639	89.81
311.868	91.81
312.098	87.81
312.328	95.81
312.557	105.81
312.787	103.81
313.017	88.81
313.246	94.81
313.476	105.81
313.706	93.81
313.935	90.81
314.165	102.81
314.394	85.81
314.624	90.81
314.853	82.81
315.083	80.81
315.312	90.81
315.542	85.81
315.771	86.81
316.001	103.81
316.23	83.81
316.46	96.81
316.689	106.81
316.919	83.81
317.148	107.81
317.377	90.81
317.607	86.81
317.836	87.81
318.065	81.81
318.295	87.81
318.524	97.81
318.753	101.81
318.983	94.81
319.212	90.81
319.441	83.81
319.67	88.81
319.9	84.81
320.129	83.81
320.358	85.81
320.587	112.81
320.816	101.81
321.046	88.81
321.275	94.81
321.504	103.81
321.733	88.81
321.962	95.81
322.191	114.81
322.42	99.81
322.649	88.81
322.878	104.81
323.108	120.81
323.337	98.81
323.566	102.81
323.795	140.81
324.024	180.81
324.253	318.81
324.482	644.81
324.71	1354.81
324.939	1776.81
325.168	678.81
325.397	203.81
325.626	135.81
325.855	117.81
326.084	117.81
326.313	129.81
326.542	144.81
326.77	188.81
326.999	357.81
327.228	746.81
327.457	1391.81
327.686	1086.81
327.914	325.81
328.143	154.81
328.372	142.81
328.6	111.81
328.829	120.81
329.058	119.81
329.287	117.81
329.515	109.81
329.744	114.81
329.972	117.81
330.201	134.81
330.43	150.81
330.658	121.81
330.887	124.81
331.115	103.81
331.344	86.81
331.572	98.81
331.801	89.81
332.03	78.81
332.258	91.81
332.486	101.81
332.715	98.81
332.943	105.81
333.172	91.81
333.4	96.81
333.629	81.81
333.857	98.81
334.085	111.81
334.314	132.81
334.542	166.81
334.771	144.81
334.999	112.81
335.227	87.81
335.455	95.81
335.684	101.81
335.912	87.81
336.14	100.81
336.369	99.81
336.597	116.81
336.825	88.81
337.053	95.81
337.281	107.81
337.51	98.81
337.738	92.81
337.966	74.81
338.194	96.81
338.422	97.81
338.65	95.81
338.878	99.81
339.106	94.81
339.334	86.81
339.562	79.81
339.79	79.81
340.018	83.81
340.246	101.81
340.474	86.81
340.702	93.81
340.93	68.81
341.158	90.81
341.386	82.81
341.614	98.81
341.842	94.81
342.07	72.81
342.298	86.81
342.526	82.81
342.754	89.81
342.981	86.81
343.209	92.81
343.437	103.81
343.665	84.81
343.893	78.81
344.12	77.81
344.348	91.81
344.576	96.81
344.804	97.81
345.031	97.81
345.259	94.81
345.487	97.81
345.714	81.81
345.942	103.81
346.17	99.81
346.397	90.81
346.625	89.81
346.853	96.81
347.08	88.81
347.308	75.81
347.535	83.81
347.763	95.81
347.99	102.81
348.218	89.81
348.445	103.81
348.673	90.81
348.9	82.81
349.128	103.81
349.355	90.81
349.583	88.81
349.81	94.81
350.037	88.81
350.265	82.81
350.492	87.81
350.72	84.81
350.947	93.81
351.174	109.81
351.402	106.81
351.629	106.81
351.856	86.81
352.083	90.81
352.311	114.81
352.538	118.81
352.765	107.81
352.992	104.81
353.22	101.81
353.447	108.81
353.674	94.81
353.901	111.81
354.128	101.81
354.355	98.81
354.583	90.81
354.81	97.81
355.037	98.81
355.264	97.81
355.491	84.81
355.718	97.81
355.945	102.81
356.172	95.81
356.399	97.81
356.626	89.81
356.853	93.81
357.08	100.81
357.307	86.81
357.534	91.81
357.761	93.81
357.988	94.81
358.215	92.81
358.441	100.81
358.668	94.81
358.895	105.81
359.122	98.81
359.349	88.81
359.576	94.81
359.802	90.81
360.029	95.81
360.256	104.81
360.483	104.81
360.709	73.81
360.936	90.81
361.163	88.81
361.39	91.81
361.616	98.81
361.843	90.81
362.07	104.81
362.296	92.81
362.523	98.81
362.749	97.81
362.976	83.81
363.203	83.81
363.429	88.81
363.656	91.81
363.882	81.81
364.109	75.81
364.335	91.81
364.562	74.81
364.788	84.81
365.015	92.81
365.241	95.81
365.468	102.81
365.694	103.81
365.92	80.81
366.147	78.81
366.373	66.81
366.599	85.81
366.826	87.81
367.052	82.81
367.278	83.81
367.505	97.81
367.731	80.81
367.957	85.81
368.184	89.81
368.41	78.81
368.636	102.81
368.862	102.81
369.089	101.81
369.315	72.81
369.541	91.81
369.767	86.81
369.993	87.81
370.219	98.81
370.445	74.81
370.672	88.81
370.898	88.81
371.124	78.81
371.35	90.81
371.576	95.81
371.802	77.81
372.028	92.81
372.254	87.81
372.48	80.81
372.706	97.81
372.932	94.81
373.158	82.81
373.384	82.81
373.61	88.81
373.835	89.81
374.061	81.81
374.287	81.81
374.513	81.81
374.739	97.81
374.965	86.81
375.191	95.81
375.416	95.81
375.642	94.81
375.868	84.81
376.094	99.81
376.319	98.81
376.545	91.81
376.771	109.81
376.997	92.81
377.222	86.81
377.448	102.81
377.674	94.81
377.899	72.81
378.125	98.81
378.35	92.81
378.576	88.81
378.802	82.81
379.027	74.81
379.253	80.81
379.478	79.81
379.704	93.81
379.929	99.81
380.155	98.81
380.38	74.81
380.606	95.81
380.831	97.81
381.057	106.81
381.282	92.81
381.507	107.81
381.733	82.81
381.958	93.81
382.184	86.81
382.409	100.81
382.634	102.81
382.86	94.81
383.085	103.81
383.31	101.81
383.535	85.81
383.761	92.81
383.986	92.81
384.211	102.81
384.436	106.81
384.662	98.81
384.887	96.81
385.112	116.81
385.337	104.81
385.562	105.81
385.787	105.81
386.013	103.81
386.238	110.81
386.463	119.81
386.688	114.81
386.913	94.81
387.138	120.81
387.363	87.81
387.588	104.81
387.813	108.81
388.038	108.81
388.263	117.81
388.488	107.81
388.713	92.81
388.938	80.81
389.163	80.81
389.387	90.81
389.612	84.81
389.837	100.81
390.062	89.81
390.287	99.81
390.512	93.81
390.736	91.81
390.961	94.81
391.186	97.81
391.411	82.81
391.636	87.81
391.86	75.81
392.085	86.81
392.31	81.81
392.534	95.81
392.759	98.81
392.984	80.81
393.208	98.81
393.433	89.81
393.658	86.81
393.882	68.81
394.107	84.81
394.331	83.81
394.556	89.81
394.78	103.81
395.005	97.81
395.229	73.81
395.454	90.81
395.678	95.81
395.903	88.81
396.127	71.81
396.352	87.81
396.576	85.81
396.801	96.81
397.025	78.81
397.249	87.81
397.474	98.81
397.698	89.81
397.922	90.81
398.147	89.81
398.371	80.81
398.595	73.81
398.82	82.81
399.044	86.81
399.268	94.81
399.492	91.81
399.717	96.81
399.941	75.81
400.165	84.81
400.389	83.81
400.613	91.81
400.837	87.81
401.062	82.81
401.286	88.81
401.51	84.81
401.734	81.81
401.958	93.81
402.182	109.81
402.406	135.81
402.63	95.81
402.854	90.81
403.078	94.81
403.302	94.81
403.526	102.81
403.75	82.81
403.974	96.81
404.198	86.81
404.422	86.81
404.645	91.81
404.869	100.81
405.093	85.81
405.317	89.81
405.541	98.81
405.765	89.81
405.988	107.81
406.212	153.81
406.436	185.81
406.66	119.81
406.883	108.81
407.107	98.81
407.331	92.81
407.555	83.81
407.778	93.81
408.002	99.81
408.226	88.81
408.449	85.81
408.673	95.81
408.896	94.81
409.12	96.81
409.344	97.81
409.567	92.81
409.791	93.81
410.014	95.81
410.238	99.81
410.461	89.81
410.685	86.81
410.908	92.81
411.132	100.81
411.355	97.81
411.578	98.81
411.802	99.81
412.025	87.81
412.249	89.81
412.472	92.81
412.695	108.81
412.919	73.81
413.142	80.81
413.365	83.81
413.589	86.81
413.812	101.81
414.035	99.81
414.258	94.81
414.482	69.81
414.705	87.81
414.928	91.81
415.151	97.81
415.374	89.81
415.597	91.81
415.821	95.81
416.044	88.81
416.267	92.81
416.49	85.81
416.713	94.81
416.936	103.81
417.159	84.81
417.382	74.81
417.605	100.81
417.828	92.81
418.051	94.81
418.274	83.81
418.497	79.81
418.72	95.81
418.943	87.81
419.166	96.81
419.389	73.81
419.611	86.81
419.834	80.81
420.057	94.81
420.28	93.81
420.503	82.81
420.726	83.81
420.948	92.81
421.171	89.81
421.394	96.81
421.617	88.81
421.839	91.81
422.062	95.81
422.285	97.81
422.507	95.81
422.73	94.81
422.953	93.81
423.175	92.81
423.398	72.81
423.621	87.81
423.843	93.81
424.066	84.81
424.288	94.81
424.511	97.81
424.733	97.81
424.956	117.81
425.178	101.81
425.401	83.81
425.623	95.81
425.846	92.81
426.068	92.81
426.291	91.81
426.513	84.81
426.735	99.81
426.958	94.81
427.18	108.81
427.402	115.81
427.625	147.81
427.847	125.81
428.069	115.81
428.292	91.81
428.514	92.81
428.736	86.81
428.958	78.81
429.181	85.81
429.403	72.81
429.625	78.81
429.847	83.81
430.069	105.81
430.292	97.81
430.514	88.81
430.736	86.81
430.958	89.81
431.18	83.81
431.402	81.81
431.624	72.81
431.846	89.81
432.068	78.81
432.29	80.81
432.512	83.81
432.734	90.81
432.956	89.81
433.178	89.81
433.4	95.81
433.622	100.81
433.844	94.81
434.066	95.81
434.287	84.81
434.509	94.81
434.731	91.81
434.953	71.81
435.175	79.81
435.397	86.81
435.618	92.81
435.84	94.81
436.062	104.81
436.284	110.81
436.505	86.81
436.727	103.81
436.949	75.81
437.17	86.81
437.392	99.81
437.614	90.81
437.835	104.81
438.057	113.81
438.278	100.81
438.5	99.81
438.721	107.81
438.943	84.81
439.165	86.81
439.386	98.81
439.608	91.81
439.829	102.81
440.05	115.81
440.272	122.81
440.493	98.81
440.715	84.81
440.936	88.81
441.158	93.81
441.379	98.81
441.6	75.81
441.822	98.81
442.043	80.81
442.264	91.81
442.486	89.81
442.707	99.81
442.928	94.81
443.149	108.81
443.371	106.81
443.592	102.81
443.813	91.81
444.034	106.81
444.255	99.81
444.476	89.81
444.698	86.81
444.919	91.81
445.14	120.81
445.361	120.81
445.582	123.81
445.803	127.81
446.024	116.81
446.245	124.81
446.466	123.81
446.687	91.81
446.908	91.81
447.129	86.81
447.35	98.81
447.571	88.81
447.792	87.81
448.013	89.81
448.234	97.81
448.455	97.81
448.675	109.81
448.896	95.81
449.117	105.81
449.338	107.81
449.559	132.81
449.779	116.81
450	91.81
450.221	82.81
450.442	82.81
450.662	85.81
450.883	90.81
451.104	94.81
451.324	96.81
451.545	90.81
451.766	82.81
451.986	92.81
452.207	91.81
452.428	101.81
452.648	96.81
452.869	101.81
453.089	113.81
453.31	91.81
453.53	80.81
453.751	88.81
453.971	99.81
454.192	96.81
454.412	87.81
454.633	92.81
454.853	87.81
455.073	96.81
455.294	92.81
455.514	92.81
455.734	86.81
455.955	89.81
456.175	86.81
456.395	100.81
456.616	87.81
456.836	78.81
457.056	69.81
457.276	76.81
457.497	80.81
457.717	78.81
457.937	88.81
458.157	81.81
458.377	90.81
458.598	101.81
458.818	128.81
459.038	123.81
459.258	103.81
459.478	76.81
459.698	93.81
459.918	93.81
460.138	98.81
460.358	81.81
460.578	84.81
460.798	92.81
461.018	82.81
461.238	88.81
461.458	91.81
461.678	82.81
461.898	81.81
462.118	88.81
462.338	86.81
462.558	81.81
462.777	82.81
462.997	92.81
463.217	75.81
463.437	75.81
463.657	85.81
463.876	80.81
464.096	86.81
464.316	94.81
464.536	95.81
464.755	92.81
464.975	109.81
465.195	151.81
465.414	129.81
465.634	100.81
465.854	83.81
466.073	104.81
466.293	85.81
466.512	91.81
466.732	100.81
466.951	87.81
467.171	84.81
467.391	82.81
467.61	100.81
467.829	102.81
468.049	102.81
468.268	108.81
468.488	86.81
468.707	88.81
468.927	85.81
469.146	90.81
469.365	94.81
469.585	90.81
469.804	82.81
470.023	87.81
470.243	96.81
470.462	97.81
470.681	109.81
470.901	80.81
471.12	89.81
471.339	96.81
471.558	86.81
471.777	75.81
471.997	106.81
472.216	133.81
472.435	192.81
472.654	107.81
472.873	106.81
473.092	78.81
473.311	82.81
473.53	87.81
473.749	74.81
473.968	91.81
474.187	90.81
474.406	106.81
474.625	82.81
474.844	86.81
475.063	82.81
475.282	87.81
475.501	91.81
475.72	102.81
475.939	93.81
476.158	87.81
476.377	81.81
476.596	64.81
476.814	88.81
477.033	95.81
477.252	84.81
477.471	82.81
477.69	78.81
477.908	83.81
478.127	82.81
478.346	90.81
478.564	79.81
478.783	102.81
479.002	82.81
479.22	98.81
479.439	100.81
479.658	108.81
479.876	89.81
480.095	84.81
480.313	89.81
480.532	76.81
480.751	104.81
480.969	138.81
481.188	285.81
481.406	206.81
481.624	102.81
481.843	95.81
482.061	95.81
482.28	95.81
482.498	98.81
482.717	90.81
482.935	95.81
483.153	88.81
483.372	100.81
483.59	80.81
483.808	83.81
484.027	83.81
484.245	96.81
484.463	88.81
484.681	91.81
484.9	89.81
485.118	86.81
485.336	98.81
485.554	91.81
485.772	103.81
485.99	94.81
486.209	106.81
486.427	94.81
486.645	88.81
486.863	97.81
487.081	101.81
487.299	101.81
487.517	98.81
487.735	94.81
487.953	81.81
488.171	92.81
488.389	90.81
488.607	102.81
488.825	88.81
489.043	86.81
489.261	86.81
489.479	77.81
489.696	90.81
489.914	98.81
490.132	94.81
490.35	96.81
490.568	91.81
490.786	88.81
491.003	91.81
491.221	101.81
491.439	85.81
491.657	85.81
491.874	88.81
492.092	86.81
492.31	81.81
492.527	94.81
492.745	82.81
492.963	90.81
493.18	93.81
493.398	90.81
493.615	114.81
493.833	106.81
494.05	89.81
494.268	91.81
494.485	95.81
494.703	96.81
494.92	81.81
495.138	95.81
495.355	84.81
495.573	97.81
495.79	96.81
496.008	100.81
496.225	89.81
496.442	92.81
496.66	99.81
496.877	86.81
497.094	91.81
497.312	105.81
497.529	82.81
497.746	94.81
497.963	91.81
498.181	84.81
498.398	74.81
498.615	98.81
498.832	87.81
499.049	88.81
499.267	94.81
499.484	91.81
499.701	82.81
499.918	87.81
500.135	86.81
500.352	84.81
500.569	99.81
500.786	81.81
501.003	89.81
501.22	90.81
501.437	72.81
501.654	90.81
501.871	113.81
502.088	83.81
502.305	89.81
502.522	82.81
502.739	78.81
502.956	98.81
503.172	75.81
503.389	95.81
503.606	104.81
503.823	99.81
504.04	91.81
504.256	96.81
504.473	89.81
504.69	86.81
504.907	102.81
505.123	82.81
505.34	101.81
505.557	92.81
505.773	79.81
505.99	91.81
506.207	89.81
506.423	102.81
506.64	90.81
506.856	95.81
507.073	94.81
507.289	94.81
507.506	103.81
507.722	111.81
507.939	106.81
508.155	89.81
508.372	98.81
508.588	98.81
508.805	90.81
509.021	92.81
509.238	102.81
509.454	99.81
509.67	102.81
509.887	108.81
510.103	121.81
510.319	166.81
510.536	616.81
510.752	1809.81
510.968	503.81
511.184	115.81
511.401	106.81
511.617	108.81
511.833	91.81
512.049	88.81
512.265	95.81
512.481	97.81
512.698	102.81
512.914	92.81
513.13	98.81
513.346	83.81
513.562	103.81
513.778	101.81
513.994	103.81
514.21	86.81
514.426	109.81
514.642	132.81
514.858	115.81
515.074	138.81
515.29	344.81
515.506	1085.81
515.721	398.81
515.937	149.81
516.153	87.81
516.369	104.81
