Data from Circ_1986_H10_HRD10591_00051.txt Node
Date: Wed Jan 03 12:15:36 EST 2024
User: Yrep
Spectrometer: HR+D1059
Trigger mode: 1
Integration Time (sec): 1.000000E-1
Scans to average: 1
Electric dark correction enabled: true
Nonlinearity correction enabled: false
Boxcar width: 0
XAxis mode: Wavelengths
Number of Pixels in Spectrum: 2048
>>>>>Begin Spectral Data<<<<<
223.165	-16.06
223.4	-16.06
223.635	-16.06
223.869	-19.06
224.104	-27.06
224.338	-12.06
224.573	-3.06
224.808	-13.06
225.042	-4.06
225.277	5.94
225.511	-12.06
225.746	11.94
225.98	-6.06
226.215	20.94
226.449	26.94
226.683	3.94
226.918	16.94
227.152	25.94
227.387	40.94
227.621	36.94
227.856	41.94
228.09	45.94
228.324	58.94
228.559	56.94
228.793	62.94
229.027	60.94
229.262	69.94
229.496	72.94
229.73	74.94
229.964	83.94
230.199	73.94
230.433	76.94
230.667	66.94
230.901	72.94
231.136	71.94
231.37	74.94
231.604	78.94
231.838	86.94
232.072	94.94
232.306	89.94
232.541	71.94
232.775	78.94
233.009	68.94
233.243	86.94
233.477	82.94
233.711	82.94
233.945	82.94
234.179	77.94
234.413	87.94
234.647	92.94
234.881	79.94
235.115	88.94
235.349	82.94
235.583	90.94
235.817	84.94
236.051	87.94
236.285	90.94
236.519	74.94
236.753	80.94
236.987	82.94
237.221	74.94
237.455	87.94
237.689	80.94
237.922	103.94
238.156	67.94
238.39	92.94
238.624	65.94
238.858	70.94
239.091	74.94
239.325	84.94
239.559	68.94
239.793	80.94
240.027	70.94
240.26	71.94
240.494	81.94
240.728	81.94
240.961	73.94
241.195	69.94
241.429	58.94
241.662	69.94
241.896	77.94
242.13	69.94
242.363	89.94
242.597	76.94
242.83	85.94
243.064	75.94
243.298	68.94
243.531	86.94
243.765	77.94
243.998	72.94
244.232	85.94
244.465	80.94
244.699	74.94
244.932	80.94
245.166	80.94
245.399	81.94
245.633	89.94
245.866	83.94
246.099	89.94
246.333	78.94
246.566	93.94
246.8	80.94
247.033	71.94
247.266	81.94
247.5	71.94
247.733	95.94
247.966	75.94
248.2	72.94
248.433	94.94
248.666	88.94
248.899	82.94
249.133	76.94
249.366	101.94
249.599	100.94
249.832	92.94
250.066	90.94
250.299	84.94
250.532	84.94
250.765	73.94
250.998	74.94
251.231	73.94
251.465	80.94
251.698	74.94
251.931	67.94
252.164	76.94
252.397	74.94
252.63	85.94
252.863	80.94
253.096	98.94
253.329	98.94
253.562	85.94
253.795	81.94
254.028	90.94
254.261	89.94
254.494	93.94
254.727	73.94
254.96	72.94
255.193	96.94
255.426	92.94
255.659	78.94
255.892	92.94
256.124	101.94
256.357	78.94
256.59	73.94
256.823	75.94
257.056	71.94
257.289	80.94
257.521	83.94
257.754	87.94
257.987	75.94
258.22	88.94
258.452	73.94
258.685	88.94
258.918	88.94
259.151	75.94
259.383	87.94
259.616	89.94
259.849	77.94
260.081	102.94
260.314	84.94
260.547	67.94
260.779	84.94
261.012	87.94
261.244	71.94
261.477	91.94
261.71	93.94
261.942	104.94
262.175	104.94
262.407	93.94
262.64	91.94
262.872	81.94
263.105	84.94
263.337	90.94
263.57	90.94
263.802	80.94
264.035	88.94
264.267	81.94
264.499	96.94
264.732	76.94
264.964	66.94
265.197	78.94
265.429	90.94
265.661	98.94
265.894	96.94
266.126	97.94
266.358	83.94
266.591	86.94
266.823	85.94
267.055	92.94
267.287	89.94
267.52	96.94
267.752	84.94
267.984	80.94
268.216	72.94
268.448	81.94
268.681	91.94
268.913	67.94
269.145	72.94
269.377	66.94
269.609	98.94
269.841	86.94
270.073	77.94
270.306	90.94
270.538	77.94
270.77	83.94
271.002	80.94
271.234	85.94
271.466	106.94
271.698	90.94
271.93	80.94
272.162	93.94
272.394	96.94
272.626	89.94
272.858	87.94
273.09	88.94
273.322	69.94
273.553	84.94
273.785	93.94
274.017	95.94
274.249	90.94
274.481	107.94
274.713	98.94
274.945	78.94
275.176	96.94
275.408	108.94
275.64	88.94
275.872	90.94
276.104	77.94
276.335	83.94
276.567	81.94
276.799	108.94
277.031	104.94
277.262	91.94
277.494	87.94
277.726	85.94
277.957	74.94
278.189	90.94
278.421	96.94
278.652	77.94
278.884	84.94
279.115	90.94
279.347	86.94
279.579	92.94
279.81	96.94
280.042	89.94
280.273	119.94
280.505	86.94
280.736	88.94
280.968	85.94
281.199	87.94
281.431	88.94
281.662	93.94
281.894	95.94
282.125	93.94
282.356	123.94
282.588	118.94
282.819	113.94
283.051	96.94
283.282	93.94
283.513	77.94
283.745	84.94
283.976	77.94
284.207	86.94
284.439	100.94
284.67	91.94
284.901	90.94
285.132	93.94
285.364	97.94
285.595	83.94
285.826	97.94
286.057	85.94
286.288	75.94
286.52	98.94
286.751	72.94
286.982	75.94
287.213	92.94
287.444	84.94
287.675	84.94
287.906	86.94
288.138	86.94
288.369	94.94
288.6	98.94
288.831	95.94
289.062	98.94
289.293	103.94
289.524	88.94
289.755	89.94
289.986	90.94
290.217	74.94
290.448	90.94
290.679	90.94
290.91	94.94
291.141	99.94
291.371	105.94
291.602	91.94
291.833	85.94
292.064	90.94
292.295	90.94
292.526	84.94
292.757	75.94
292.987	98.94
293.218	86.94
293.449	93.94
293.68	91.94
293.91	85.94
294.141	93.94
294.372	84.94
294.603	84.94
294.833	75.94
295.064	85.94
295.295	90.94
295.525	90.94
295.756	96.94
295.987	122.94
296.217	122.94
296.448	113.94
296.679	94.94
296.909	102.94
297.14	79.94
297.37	91.94
297.601	98.94
297.831	100.94
298.062	96.94
298.292	96.94
298.523	70.94
298.753	81.94
298.984	101.94
299.214	84.94
299.445	95.94
299.675	86.94
299.905	89.94
300.136	95.94
300.366	76.94
300.597	84.94
300.827	93.94
301.057	108.94
301.288	101.94
301.518	80.94
301.748	105.94
301.979	101.94
302.209	93.94
302.439	77.94
302.669	88.94
302.9	84.94
303.13	85.94
303.36	90.94
303.59	101.94
303.82	100.94
304.051	88.94
304.281	76.94
304.511	97.94
304.741	81.94
304.971	83.94
305.201	85.94
305.431	101.94
305.661	97.94
305.891	80.94
306.121	103.94
306.352	92.94
306.582	115.94
306.812	92.94
307.042	96.94
307.272	91.94
307.502	100.94
307.731	107.94
307.961	88.94
308.191	70.94
308.421	96.94
308.651	84.94
308.881	95.94
309.111	88.94
309.341	104.94
309.571	97.94
309.8	85.94
310.03	88.94
310.26	89.94
310.49	71.94
310.72	85.94
310.949	115.94
311.179	93.94
311.409	85.94
311.639	104.94
311.868	104.94
312.098	97.94
312.328	109.94
312.557	98.94
312.787	105.94
313.017	93.94
313.246	80.94
313.476	105.94
313.706	94.94
313.935	103.94
314.165	98.94
314.394	97.94
314.624	97.94
314.853	88.94
315.083	99.94
315.312	89.94
315.542	97.94
315.771	113.94
316.001	90.94
316.23	71.94
316.46	82.94
316.689	91.94
316.919	95.94
317.148	96.94
317.377	102.94
317.607	85.94
317.836	98.94
318.065	77.94
318.295	86.94
318.524	109.94
318.753	85.94
318.983	97.94
319.212	97.94
319.441	115.94
319.67	92.94
319.9	99.94
320.129	88.94
320.358	86.94
320.587	98.94
320.816	92.94
321.046	87.94
321.275	99.94
321.504	91.94
321.733	98.94
321.962	96.94
322.191	98.94
322.42	91.94
322.649	92.94
322.878	115.94
323.108	124.94
323.337	122.94
323.566	132.94
323.795	134.94
324.024	183.94
324.253	314.94
324.482	630.94
324.71	1285.94
324.939	1691.94
325.168	648.94
325.397	224.94
325.626	135.94
325.855	133.94
326.084	114.94
326.313	133.94
326.542	138.94
326.77	216.94
326.999	370.94
327.228	751.94
327.457	1299.94
327.686	1094.94
327.914	316.94
328.143	186.94
328.372	151.94
328.6	132.94
328.829	116.94
329.058	121.94
329.287	114.94
329.515	101.94
329.744	110.94
329.972	118.94
330.201	144.94
330.43	161.94
330.658	122.94
330.887	119.94
331.115	123.94
331.344	105.94
331.572	98.94
331.801	116.94
332.03	97.94
332.258	88.94
332.486	96.94
332.715	90.94
332.943	101.94
333.172	100.94
333.4	104.94
333.629	101.94
333.857	113.94
334.085	120.94
334.314	117.94
334.542	174.94
334.771	164.94
334.999	119.94
335.227	96.94
335.455	92.94
335.684	119.94
335.912	105.94
336.14	93.94
336.369	93.94
336.597	105.94
336.825	82.94
337.053	92.94
337.281	75.94
337.51	86.94
337.738	91.94
337.966	104.94
338.194	80.94
338.422	89.94
338.65	100.94
338.878	86.94
339.106	90.94
339.334	92.94
339.562	83.94
339.79	81.94
340.018	98.94
340.246	76.94
340.474	84.94
340.702	90.94
340.93	82.94
341.158	93.94
341.386	96.94
341.614	110.94
341.842	97.94
342.07	89.94
342.298	81.94
342.526	100.94
342.754	94.94
342.981	96.94
343.209	94.94
343.437	107.94
343.665	83.94
343.893	93.94
344.12	87.94
344.348	81.94
344.576	90.94
344.804	94.94
345.031	100.94
345.259	100.94
345.487	96.94
345.714	100.94
345.942	100.94
346.17	108.94
346.397	101.94
346.625	96.94
346.853	96.94
347.08	103.94
347.308	71.94
347.535	101.94
347.763	94.94
347.99	94.94
348.218	104.94
348.445	105.94
348.673	87.94
348.9	99.94
349.128	94.94
349.355	90.94
349.583	105.94
349.81	104.94
350.037	103.94
350.265	89.94
350.492	96.94
350.72	107.94
350.947	101.94
351.174	94.94
351.402	114.94
351.629	91.94
351.856	106.94
352.083	109.94
352.311	104.94
352.538	94.94
352.765	68.94
352.992	94.94
353.22	115.94
353.447	108.94
353.674	98.94
353.901	114.94
354.128	96.94
354.355	86.94
354.583	99.94
354.81	106.94
355.037	94.94
355.264	94.94
355.491	92.94
355.718	83.94
355.945	102.94
356.172	94.94
356.399	96.94
356.626	92.94
356.853	83.94
357.08	87.94
357.307	101.94
357.534	94.94
357.761	96.94
357.988	86.94
358.215	86.94
358.441	88.94
358.668	97.94
358.895	99.94
359.122	94.94
359.349	77.94
359.576	96.94
359.802	80.94
360.029	115.94
360.256	92.94
360.483	89.94
360.709	89.94
360.936	84.94
361.163	93.94
361.39	90.94
361.616	88.94
361.843	99.94
362.07	89.94
362.296	95.94
362.523	103.94
362.749	87.94
362.976	90.94
363.203	98.94
363.429	92.94
363.656	100.94
363.882	87.94
364.109	93.94
364.335	85.94
364.562	92.94
364.788	105.94
365.015	87.94
365.241	95.94
365.468	106.94
365.694	112.94
365.92	88.94
366.147	104.94
366.373	72.94
366.599	85.94
366.826	93.94
367.052	89.94
367.278	99.94
367.505	102.94
367.731	75.94
367.957	84.94
368.184	102.94
368.41	81.94
368.636	103.94
368.862	119.94
369.089	90.94
369.315	96.94
369.541	90.94
369.767	104.94
369.993	94.94
370.219	89.94
370.445	95.94
370.672	72.94
370.898	84.94
371.124	82.94
371.35	91.94
371.576	87.94
371.802	92.94
372.028	82.94
372.254	85.94
372.48	92.94
372.706	84.94
372.932	92.94
373.158	89.94
373.384	93.94
373.61	102.94
373.835	85.94
374.061	104.94
374.287	88.94
374.513	79.94
374.739	91.94
374.965	87.94
375.191	86.94
375.416	90.94
375.642	86.94
375.868	89.94
376.094	97.94
376.319	87.94
376.545	99.94
376.771	91.94
376.997	102.94
377.222	87.94
377.448	100.94
377.674	91.94
377.899	94.94
378.125	96.94
378.35	85.94
378.576	83.94
378.802	99.94
379.027	97.94
379.253	78.94
379.478	84.94
379.704	98.94
379.929	91.94
380.155	94.94
380.38	91.94
380.606	84.94
380.831	85.94
381.057	93.94
381.282	107.94
381.507	102.94
381.733	109.94
381.958	89.94
382.184	96.94
382.409	111.94
382.634	104.94
382.86	88.94
383.085	94.94
383.31	99.94
383.535	106.94
383.761	106.94
383.986	98.94
384.211	85.94
384.436	101.94
384.662	90.94
384.887	96.94
385.112	117.94
385.337	100.94
385.562	111.94
385.787	106.94
386.013	120.94
386.238	107.94
386.463	111.94
386.688	110.94
386.913	107.94
387.138	107.94
387.363	107.94
387.588	111.94
387.813	108.94
388.038	97.94
388.263	115.94
388.488	98.94
388.713	99.94
388.938	102.94
389.163	104.94
389.387	101.94
389.612	93.94
389.837	88.94
390.062	96.94
390.287	89.94
390.512	106.94
390.736	91.94
390.961	90.94
391.186	82.94
391.411	85.94
391.636	100.94
391.86	97.94
392.085	68.94
392.31	91.94
392.534	84.94
392.759	97.94
392.984	97.94
393.208	104.94
393.433	89.94
393.658	95.94
393.882	89.94
394.107	94.94
394.331	82.94
394.556	95.94
394.78	86.94
395.005	93.94
395.229	67.94
395.454	84.94
395.678	84.94
395.903	74.94
396.127	83.94
396.352	87.94
396.576	77.94
396.801	78.94
397.025	82.94
397.249	94.94
397.474	95.94
397.698	108.94
397.922	83.94
398.147	98.94
398.371	78.94
398.595	90.94
398.82	95.94
399.044	76.94
399.268	77.94
399.492	90.94
399.717	88.94
399.941	95.94
400.165	84.94
400.389	99.94
400.613	97.94
400.837	88.94
401.062	84.94
401.286	92.94
401.51	96.94
401.734	96.94
401.958	98.94
402.182	123.94
402.406	136.94
402.63	110.94
402.854	110.94
403.078	86.94
403.302	87.94
403.526	90.94
403.75	98.94
403.974	93.94
404.198	85.94
404.422	91.94
404.645	88.94
404.869	93.94
405.093	105.94
405.317	100.94
405.541	94.94
405.765	104.94
405.988	117.94
406.212	158.94
406.436	187.94
406.66	128.94
406.883	96.94
407.107	97.94
407.331	93.94
407.555	96.94
407.778	96.94
408.002	99.94
408.226	99.94
408.449	84.94
408.673	89.94
408.896	107.94
409.12	99.94
409.344	99.94
409.567	91.94
409.791	96.94
410.014	75.94
410.238	84.94
410.461	92.94
410.685	85.94
410.908	89.94
411.132	91.94
411.355	98.94
411.578	107.94
411.802	97.94
412.025	93.94
412.249	96.94
412.472	108.94
412.695	108.94
412.919	98.94
413.142	73.94
413.365	83.94
413.589	82.94
413.812	85.94
414.035	96.94
414.258	95.94
414.482	89.94
414.705	94.94
414.928	94.94
415.151	98.94
415.374	100.94
415.597	94.94
415.821	92.94
416.044	86.94
416.267	85.94
416.49	84.94
416.713	97.94
416.936	86.94
417.159	88.94
417.382	95.94
417.605	97.94
417.828	96.94
418.051	102.94
418.274	91.94
418.497	89.94
418.72	98.94
418.943	96.94
419.166	90.94
419.389	86.94
419.611	76.94
419.834	89.94
420.057	76.94
420.28	82.94
420.503	80.94
420.726	81.94
420.948	88.94
421.171	80.94
421.394	85.94
421.617	95.94
421.839	101.94
422.062	99.94
422.285	77.94
422.507	100.94
422.73	96.94
422.953	84.94
423.175	96.94
423.398	83.94
423.621	81.94
423.843	92.94
424.066	88.94
424.288	108.94
424.511	90.94
424.733	100.94
424.956	104.94
425.178	111.94
425.401	110.94
425.623	93.94
425.846	97.94
426.068	94.94
426.291	86.94
426.513	92.94
426.735	105.94
426.958	84.94
427.18	96.94
427.402	130.94
427.625	148.94
427.847	121.94
428.069	104.94
428.292	85.94
428.514	82.94
428.736	81.94
428.958	86.94
429.181	73.94
429.403	100.94
429.625	80.94
429.847	96.94
430.069	100.94
430.292	100.94
430.514	84.94
430.736	82.94
430.958	73.94
431.18	99.94
431.402	88.94
431.624	83.94
431.846	85.94
432.068	74.94
432.29	92.94
432.512	88.94
432.734	81.94
432.956	84.94
433.178	100.94
433.4	93.94
433.622	101.94
433.844	94.94
434.066	103.94
434.287	89.94
434.509	105.94
434.731	94.94
434.953	95.94
435.175	94.94
435.397	94.94
435.618	93.94
435.84	86.94
436.062	105.94
436.284	99.94
436.505	88.94
436.727	106.94
436.949	94.94
437.17	83.94
437.392	85.94
437.614	81.94
437.835	102.94
438.057	109.94
438.278	106.94
438.5	108.94
438.721	93.94
438.943	104.94
439.165	85.94
439.386	78.94
439.608	85.94
439.829	90.94
440.05	106.94
440.272	121.94
440.493	103.94
440.715	97.94
440.936	85.94
441.158	87.94
441.379	60.94
441.6	87.94
441.822	99.94
442.043	95.94
442.264	115.94
442.486	90.94
442.707	90.94
442.928	96.94
443.149	113.94
443.371	110.94
443.592	100.94
443.813	103.94
444.034	114.94
444.255	95.94
444.476	102.94
444.698	95.94
444.919	80.94
445.14	124.94
445.361	109.94
445.582	107.94
445.803	124.94
446.024	106.94
446.245	129.94
446.466	105.94
446.687	90.94
446.908	109.94
447.129	89.94
447.35	93.94
447.571	85.94
447.792	100.94
448.013	94.94
448.234	98.94
448.455	96.94
448.675	114.94
448.896	92.94
449.117	86.94
449.338	101.94
449.559	132.94
449.779	123.94
450	77.94
450.221	99.94
450.442	82.94
450.662	92.94
450.883	94.94
451.104	117.94
451.324	106.94
451.545	83.94
451.766	77.94
451.986	85.94
452.207	100.94
452.428	97.94
452.648	84.94
452.869	102.94
453.089	106.94
453.31	106.94
453.53	106.94
453.751	93.94
453.971	97.94
454.192	98.94
454.412	97.94
454.633	85.94
454.853	84.94
455.073	87.94
455.294	102.94
455.514	90.94
455.734	86.94
455.955	81.94
456.175	84.94
456.395	86.94
456.616	83.94
456.836	90.94
457.056	88.94
457.276	85.94
457.497	103.94
457.717	84.94
457.937	90.94
458.157	84.94
458.377	99.94
458.598	106.94
458.818	125.94
459.038	118.94
459.258	84.94
459.478	86.94
459.698	92.94
459.918	96.94
460.138	84.94
460.358	92.94
460.578	74.94
460.798	99.94
461.018	97.94
461.238	77.94
461.458	102.94
461.678	80.94
461.898	90.94
462.118	82.94
462.338	99.94
462.558	91.94
462.777	81.94
462.997	82.94
463.217	109.94
463.437	84.94
463.657	92.94
463.876	82.94
464.096	86.94
464.316	97.94
464.536	97.94
464.755	97.94
464.975	105.94
465.195	149.94
465.414	140.94
465.634	108.94
465.854	98.94
466.073	90.94
466.293	100.94
466.512	75.94
466.732	82.94
466.951	101.94
467.171	80.94
467.391	97.94
467.61	104.94
467.829	101.94
468.049	118.94
468.268	118.94
468.488	97.94
468.707	83.94
468.927	84.94
469.146	88.94
469.365	77.94
469.585	84.94
469.804	85.94
470.023	83.94
470.243	84.94
470.462	93.94
470.681	98.94
470.901	100.94
471.12	103.94
471.339	100.94
471.558	87.94
471.777	92.94
471.997	102.94
472.216	138.94
472.435	198.94
472.654	105.94
472.873	104.94
473.092	90.94
473.311	100.94
473.53	86.94
473.749	88.94
473.968	100.94
474.187	95.94
474.406	97.94
474.625	86.94
474.844	93.94
475.063	89.94
475.282	77.94
475.501	80.94
475.72	97.94
475.939	88.94
476.158	86.94
476.377	78.94
476.596	74.94
476.814	97.94
477.033	99.94
477.252	91.94
477.471	83.94
477.69	94.94
477.908	82.94
478.127	91.94
478.346	86.94
478.564	88.94
478.783	89.94
479.002	79.94
479.22	94.94
479.439	104.94
479.658	100.94
479.876	102.94
480.095	91.94
480.313	93.94
480.532	97.94
480.751	106.94
480.969	137.94
481.188	316.94
481.406	225.94
481.624	101.94
481.843	74.94
482.061	89.94
482.28	91.94
482.498	73.94
482.717	72.94
482.935	101.94
483.153	86.94
483.372	88.94
483.59	78.94
483.808	108.94
484.027	77.94
484.245	97.94
484.463	96.94
484.681	103.94
484.9	97.94
485.118	104.94
485.336	102.94
485.554	105.94
485.772	102.94
485.99	103.94
486.209	105.94
486.427	96.94
486.645	105.94
486.863	119.94
487.081	104.94
487.299	105.94
487.517	92.94
487.735	106.94
487.953	106.94
488.171	91.94
488.389	100.94
488.607	109.94
488.825	103.94
489.043	100.94
489.261	96.94
489.479	82.94
489.696	84.94
489.914	88.94
490.132	82.94
490.35	100.94
490.568	90.94
490.786	82.94
491.003	81.94
491.221	82.94
491.439	106.94
491.657	90.94
491.874	76.94
492.092	96.94
492.31	85.94
492.527	83.94
492.745	92.94
492.963	99.94
493.18	92.94
493.398	92.94
493.615	72.94
493.833	85.94
494.05	96.94
494.268	85.94
494.485	83.94
494.703	97.94
494.92	91.94
495.138	87.94
495.355	86.94
495.573	104.94
495.79	99.94
496.008	91.94
496.225	84.94
496.442	83.94
496.66	85.94
496.877	95.94
497.094	92.94
497.312	96.94
497.529	92.94
497.746	82.94
497.963	95.94
498.181	106.94
498.398	88.94
498.615	107.94
498.832	99.94
499.049	106.94
499.267	102.94
499.484	93.94
499.701	102.94
499.918	107.94
500.135	85.94
500.352	82.94
500.569	85.94
500.786	102.94
501.003	94.94
501.22	73.94
501.437	88.94
501.654	102.94
501.871	96.94
502.088	98.94
502.305	101.94
502.522	104.94
502.739	93.94
502.956	93.94
503.172	83.94
503.389	81.94
503.606	100.94
503.823	86.94
504.04	94.94
504.256	93.94
504.473	100.94
504.69	89.94
504.907	86.94
505.123	94.94
505.34	86.94
505.557	92.94
505.773	91.94
505.99	88.94
506.207	90.94
506.423	91.94
506.64	110.94
506.856	95.94
507.073	76.94
507.289	100.94
507.506	77.94
507.722	98.94
507.939	100.94
508.155	92.94
508.372	89.94
508.588	98.94
508.805	86.94
509.021	110.94
509.238	108.94
509.454	96.94
509.67	111.94
509.887	94.94
510.103	123.94
510.319	194.94
510.536	637.94
510.752	1907.94
510.968	521.94
511.184	147.94
511.401	109.94
511.617	94.94
511.833	99.94
512.049	105.94
512.265	96.94
512.481	92.94
512.698	102.94
512.914	80.94
513.13	84.94
513.346	92.94
513.562	98.94
513.778	110.94
513.994	93.94
514.21	99.94
514.426	128.94
514.642	124.94
514.858	119.94
515.074	155.94
515.29	369.94
