Data from Circ_1986_H10_HRD10591_00069.txt Node
Date: Wed Jan 03 12:15:39 EST 2024
User: Yrep
Spectrometer: HR+D1059
Trigger mode: 1
Integration Time (sec): 1.000000E-1
Scans to average: 1
Electric dark correction enabled: true
Nonlinearity correction enabled: false
Boxcar width: 0
XAxis mode: Wavelengths
Number of Pixels in Spectrum: 2048
>>>>>Begin Spectral Data<<<<<
223.165	-9.19
223.4	-9.19
223.635	-9.19
223.869	-17.19
224.104	-11.19
224.338	-12.19
224.573	-9.19
224.808	-8.19
225.042	-9.19
225.277	-12.19
225.511	-4.19
225.746	-7.19
225.98	6.81
226.215	8.81
226.449	14.81
226.683	12.81
226.918	23.81
227.152	32.81
227.387	32.81
227.621	41.81
227.856	50.81
228.09	66.81
228.324	50.81
228.559	61.81
228.793	64.81
229.027	61.81
229.262	62.81
229.496	72.81
229.73	73.81
229.964	66.81
230.199	80.81
230.433	81.81
230.667	90.81
230.901	76.81
231.136	78.81
231.37	91.81
231.604	90.81
231.838	75.81
232.072	85.81
232.306	80.81
232.541	88.81
232.775	61.81
233.009	80.81
233.243	86.81
233.477	77.81
233.711	81.81
233.945	73.81
234.179	77.81
234.413	75.81
234.647	78.81
234.881	78.81
235.115	80.81
235.349	87.81
235.583	81.81
235.817	83.81
236.051	76.81
236.285	87.81
236.519	75.81
236.753	86.81
236.987	84.81
237.221	82.81
237.455	90.81
237.689	88.81
237.922	79.81
238.156	77.81
238.39	79.81
238.624	66.81
238.858	80.81
239.091	67.81
239.325	75.81
239.559	75.81
239.793	80.81
240.027	77.81
240.26	71.81
240.494	72.81
240.728	68.81
240.961	73.81
241.195	89.81
241.429	85.81
241.662	91.81
241.896	68.81
242.13	80.81
242.363	83.81
242.597	80.81
242.83	91.81
243.064	80.81
243.298	71.81
243.531	78.81
243.765	86.81
243.998	82.81
244.232	68.81
244.465	82.81
244.699	80.81
244.932	81.81
245.166	81.81
245.399	76.81
245.633	77.81
245.866	84.81
246.099	82.81
246.333	88.81
246.566	82.81
246.8	89.81
247.033	69.81
247.266	88.81
247.5	82.81
247.733	77.81
247.966	82.81
248.2	83.81
248.433	82.81
248.666	98.81
248.899	88.81
249.133	69.81
249.366	96.81
249.599	92.81
249.832	70.81
250.066	80.81
250.299	86.81
250.532	93.81
250.765	83.81
250.998	76.81
251.231	86.81
251.465	80.81
251.698	78.81
251.931	85.81
252.164	84.81
252.397	90.81
252.63	78.81
252.863	87.81
253.096	72.81
253.329	90.81
253.562	99.81
253.795	90.81
254.028	85.81
254.261	86.81
254.494	86.81
254.727	95.81
254.96	84.81
255.193	74.81
255.426	82.81
255.659	83.81
255.892	92.81
256.124	91.81
256.357	92.81
256.59	82.81
256.823	89.81
257.056	77.81
257.289	85.81
257.521	110.81
257.754	86.81
257.987	87.81
258.22	92.81
258.452	88.81
258.685	80.81
258.918	91.81
259.151	81.81
259.383	88.81
259.616	87.81
259.849	96.81
260.081	94.81
260.314	83.81
260.547	95.81
260.779	78.81
261.012	72.81
261.244	66.81
261.477	105.81
261.71	84.81
261.942	110.81
262.175	115.81
262.407	86.81
262.64	86.81
262.872	87.81
263.105	85.81
263.337	91.81
263.57	86.81
263.802	88.81
264.035	92.81
264.267	81.81
264.499	85.81
264.732	82.81
264.964	76.81
265.197	90.81
265.429	75.81
265.661	84.81
265.894	90.81
266.126	93.81
266.358	82.81
266.591	81.81
266.823	77.81
267.055	98.81
267.287	86.81
267.52	74.81
267.752	92.81
267.984	91.81
268.216	86.81
268.448	98.81
268.681	94.81
268.913	90.81
269.145	82.81
269.377	96.81
269.609	68.81
269.841	82.81
270.073	82.81
270.306	77.81
270.538	92.81
270.77	67.81
271.002	88.81
271.234	85.81
271.466	84.81
271.698	84.81
271.93	75.81
272.162	88.81
272.394	90.81
272.626	77.81
272.858	76.81
273.09	92.81
273.322	82.81
273.553	85.81
273.785	73.81
274.017	81.81
274.249	85.81
274.481	77.81
274.713	77.81
274.945	91.81
275.176	105.81
275.408	92.81
275.64	82.81
275.872	88.81
276.104	94.81
276.335	88.81
276.567	84.81
276.799	93.81
277.031	97.81
277.262	90.81
277.494	92.81
277.726	79.81
277.957	89.81
278.189	85.81
278.421	86.81
278.652	99.81
278.884	86.81
279.115	97.81
279.347	93.81
279.579	96.81
279.81	81.81
280.042	91.81
280.273	101.81
280.505	90.81
280.736	94.81
280.968	97.81
281.199	90.81
281.431	89.81
281.662	74.81
281.894	88.81
282.125	92.81
282.356	107.81
282.588	127.81
282.819	115.81
283.051	99.81
283.282	83.81
283.513	95.81
283.745	104.81
283.976	95.81
284.207	97.81
284.439	99.81
284.67	98.81
284.901	86.81
285.132	86.81
285.364	89.81
285.595	95.81
285.826	92.81
286.057	85.81
286.288	99.81
286.52	93.81
286.751	88.81
286.982	98.81
287.213	71.81
287.444	92.81
287.675	82.81
287.906	84.81
288.138	85.81
288.369	93.81
288.6	98.81
288.831	92.81
289.062	86.81
289.293	89.81
289.524	85.81
289.755	73.81
289.986	90.81
290.217	86.81
290.448	99.81
290.679	91.81
290.91	73.81
291.141	100.81
291.371	92.81
291.602	101.81
291.833	82.81
292.064	68.81
292.295	84.81
292.526	79.81
292.757	91.81
292.987	94.81
293.218	86.81
293.449	89.81
293.68	100.81
293.91	90.81
294.141	102.81
294.372	89.81
294.603	94.81
294.833	96.81
295.064	97.81
295.295	83.81
295.525	95.81
295.756	102.81
295.987	116.81
296.217	108.81
296.448	107.81
296.679	92.81
296.909	101.81
297.14	96.81
297.37	85.81
297.601	75.81
297.831	91.81
298.062	88.81
298.292	85.81
298.523	88.81
298.753	86.81
298.984	98.81
299.214	103.81
299.445	94.81
299.675	98.81
299.905	101.81
300.136	93.81
300.366	97.81
300.597	92.81
300.827	86.81
301.057	96.81
301.288	98.81
301.518	90.81
301.748	96.81
301.979	87.81
302.209	89.81
302.439	87.81
302.669	90.81
302.9	69.81
303.13	98.81
303.36	96.81
303.59	96.81
303.82	94.81
304.051	95.81
304.281	82.81
304.511	96.81
304.741	80.81
304.971	89.81
305.201	87.81
305.431	92.81
305.661	97.81
305.891	106.81
306.121	92.81
306.352	115.81
306.582	105.81
306.812	98.81
307.042	85.81
307.272	107.81
307.502	92.81
307.731	107.81
307.961	89.81
308.191	77.81
308.421	99.81
308.651	101.81
308.881	78.81
309.111	103.81
309.341	98.81
309.571	100.81
309.8	99.81
310.03	111.81
310.26	85.81
310.49	93.81
310.72	92.81
310.949	106.81
311.179	103.81
311.409	99.81
311.639	84.81
311.868	96.81
312.098	99.81
312.328	103.81
312.557	110.81
312.787	108.81
313.017	114.81
313.246	97.81
313.476	97.81
313.706	86.81
313.935	91.81
314.165	87.81
314.394	90.81
314.624	98.81
314.853	108.81
315.083	88.81
315.312	86.81
315.542	90.81
315.771	85.81
316.001	88.81
316.23	95.81
316.46	84.81
316.689	94.81
316.919	85.81
317.148	86.81
317.377	106.81
317.607	94.81
317.836	102.81
318.065	91.81
318.295	84.81
318.524	88.81
318.753	86.81
318.983	91.81
319.212	110.81
319.441	103.81
319.67	106.81
319.9	93.81
320.129	91.81
320.358	83.81
320.587	106.81
320.816	93.81
321.046	99.81
321.275	119.81
321.504	84.81
321.733	93.81
321.962	106.81
322.191	88.81
322.42	107.81
322.649	110.81
322.878	129.81
323.108	118.81
323.337	118.81
323.566	126.81
323.795	149.81
324.024	189.81
324.253	357.81
324.482	698.81
324.71	1451.81
324.939	1892.81
325.168	696.81
325.397	214.81
325.626	143.81
325.855	116.81
326.084	121.81
326.313	130.81
326.542	153.81
326.77	216.81
326.999	419.81
327.228	818.81
327.457	1488.81
327.686	1211.81
327.914	344.81
328.143	187.81
328.372	137.81
328.6	130.81
328.829	110.81
329.058	122.81
329.287	117.81
329.515	114.81
329.744	104.81
329.972	118.81
330.201	157.81
330.43	184.81
330.658	150.81
330.887	132.81
331.115	126.81
331.344	101.81
331.572	85.81
331.801	102.81
332.03	105.81
332.258	94.81
332.486	82.81
332.715	92.81
332.943	86.81
333.172	94.81
333.4	108.81
333.629	101.81
333.857	116.81
334.085	127.81
334.314	171.81
334.542	205.81
334.771	214.81
334.999	113.81
335.227	98.81
335.455	100.81
335.684	111.81
335.912	108.81
336.14	109.81
336.369	97.81
336.597	100.81
336.825	86.81
337.053	113.81
337.281	85.81
337.51	92.81
337.738	109.81
337.966	97.81
338.194	105.81
338.422	93.81
338.65	101.81
338.878	96.81
339.106	106.81
339.334	94.81
339.562	86.81
339.79	107.81
340.018	99.81
340.246	92.81
340.474	89.81
340.702	93.81
340.93	99.81
341.158	93.81
341.386	91.81
341.614	94.81
341.842	93.81
342.07	75.81
342.298	88.81
342.526	86.81
342.754	97.81
342.981	95.81
343.209	86.81
343.437	108.81
343.665	82.81
343.893	95.81
344.12	99.81
344.348	90.81
344.576	94.81
344.804	86.81
345.031	94.81
345.259	102.81
345.487	100.81
345.714	97.81
345.942	101.81
346.17	88.81
346.397	92.81
346.625	91.81
346.853	88.81
347.08	90.81
347.308	98.81
347.535	99.81
347.763	97.81
347.99	100.81
348.218	99.81
348.445	88.81
348.673	96.81
348.9	93.81
349.128	96.81
349.355	87.81
349.583	100.81
349.81	96.81
350.037	83.81
350.265	106.81
350.492	88.81
350.72	99.81
350.947	92.81
351.174	117.81
351.402	121.81
351.629	90.81
351.856	78.81
352.083	101.81
352.311	116.81
352.538	102.81
352.765	106.81
352.992	110.81
353.22	107.81
353.447	114.81
353.674	105.81
353.901	101.81
354.128	102.81
354.355	105.81
354.583	86.81
354.81	94.81
355.037	93.81
355.264	93.81
355.491	100.81
355.718	87.81
355.945	96.81
356.172	87.81
356.399	99.81
356.626	104.81
356.853	86.81
357.08	88.81
357.307	106.81
357.534	86.81
357.761	104.81
357.988	100.81
358.215	109.81
358.441	92.81
358.668	76.81
358.895	84.81
359.122	98.81
359.349	93.81
359.576	93.81
359.802	93.81
360.029	102.81
360.256	99.81
360.483	118.81
360.709	84.81
360.936	72.81
361.163	89.81
361.39	93.81
361.616	82.81
361.843	102.81
362.07	91.81
362.296	98.81
362.523	93.81
362.749	95.81
362.976	99.81
363.203	100.81
363.429	94.81
363.656	91.81
363.882	103.81
364.109	85.81
364.335	90.81
364.562	101.81
364.788	94.81
365.015	96.81
365.241	114.81
365.468	121.81
365.694	100.81
365.92	101.81
366.147	109.81
366.373	89.81
366.599	101.81
366.826	88.81
367.052	84.81
367.278	93.81
367.505	73.81
367.731	91.81
367.957	99.81
368.184	85.81
368.41	101.81
368.636	106.81
368.862	118.81
369.089	94.81
369.315	77.81
369.541	94.81
369.767	82.81
369.993	90.81
370.219	100.81
370.445	104.81
370.672	92.81
370.898	75.81
371.124	84.81
371.35	108.81
371.576	90.81
371.802	91.81
372.028	80.81
372.254	96.81
372.48	71.81
372.706	80.81
372.932	81.81
373.158	93.81
373.384	92.81
373.61	96.81
373.835	77.81
374.061	104.81
374.287	98.81
374.513	90.81
374.739	95.81
374.965	92.81
375.191	110.81
375.416	106.81
375.642	92.81
375.868	95.81
376.094	96.81
376.319	88.81
376.545	88.81
376.771	79.81
376.997	85.81
377.222	102.81
377.448	95.81
377.674	96.81
377.899	97.81
378.125	96.81
378.35	108.81
378.576	91.81
378.802	88.81
379.027	97.81
379.253	92.81
379.478	103.81
379.704	92.81
379.929	86.81
380.155	106.81
380.38	91.81
380.606	101.81
380.831	100.81
381.057	98.81
381.282	100.81
381.507	100.81
381.733	97.81
381.958	93.81
382.184	94.81
382.409	107.81
382.634	101.81
382.86	104.81
383.085	117.81
383.31	106.81
383.535	85.81
383.761	92.81
383.986	101.81
384.211	104.81
384.436	109.81
384.662	96.81
384.887	90.81
385.112	113.81
385.337	96.81
385.562	114.81
385.787	96.81
386.013	98.81
386.238	108.81
386.463	104.81
386.688	111.81
386.913	99.81
387.138	101.81
387.363	105.81
387.588	107.81
387.813	105.81
388.038	105.81
388.263	114.81
388.488	107.81
388.713	100.81
388.938	98.81
389.163	97.81
389.387	110.81
389.612	96.81
389.837	93.81
390.062	95.81
390.287	96.81
390.512	100.81
390.736	80.81
390.961	78.81
391.186	90.81
391.411	100.81
391.636	93.81
391.86	105.81
392.085	83.81
392.31	84.81
392.534	101.81
392.759	91.81
392.984	89.81
393.208	84.81
393.433	76.81
393.658	88.81
393.882	92.81
394.107	101.81
394.331	72.81
394.556	91.81
394.78	113.81
395.005	82.81
395.229	89.81
395.454	89.81
395.678	89.81
395.903	86.81
396.127	80.81
396.352	82.81
396.576	103.81
396.801	93.81
397.025	89.81
397.249	87.81
397.474	87.81
397.698	87.81
397.922	88.81
398.147	97.81
398.371	91.81
398.595	94.81
398.82	84.81
399.044	96.81
399.268	89.81
399.492	96.81
399.717	89.81
399.941	84.81
400.165	88.81
400.389	75.81
400.613	89.81
400.837	87.81
401.062	86.81
401.286	94.81
401.51	88.81
401.734	95.81
401.958	112.81
402.182	116.81
402.406	140.81
402.63	123.81
402.854	92.81
403.078	85.81
403.302	90.81
403.526	99.81
403.75	91.81
403.974	84.81
404.198	100.81
404.422	86.81
404.645	82.81
404.869	91.81
405.093	105.81
405.317	90.81
405.541	102.81
405.765	95.81
405.988	114.81
406.212	144.81
406.436	198.81
406.66	128.81
406.883	105.81
407.107	107.81
407.331	102.81
407.555	96.81
407.778	99.81
408.002	106.81
408.226	94.81
408.449	82.81
408.673	94.81
408.896	89.81
409.12	87.81
409.344	91.81
409.567	105.81
409.791	82.81
410.014	112.81
410.238	106.81
410.461	100.81
410.685	100.81
410.908	94.81
411.132	117.81
411.355	102.81
411.578	101.81
411.802	83.81
412.025	70.81
412.249	102.81
412.472	74.81
412.695	100.81
412.919	88.81
413.142	89.81
413.365	99.81
413.589	87.81
413.812	92.81
414.035	97.81
414.258	87.81
414.482	99.81
414.705	90.81
414.928	81.81
415.151	93.81
415.374	97.81
415.597	97.81
415.821	82.81
416.044	88.81
416.267	96.81
416.49	91.81
416.713	85.81
416.936	92.81
417.159	92.81
417.382	88.81
417.605	105.81
417.828	94.81
418.051	75.81
418.274	87.81
418.497	89.81
418.72	71.81
418.943	90.81
419.166	81.81
419.389	90.81
419.611	75.81
419.834	85.81
420.057	96.81
420.28	86.81
420.503	90.81
420.726	99.81
420.948	100.81
421.171	88.81
421.394	82.81
421.617	77.81
421.839	88.81
422.062	89.81
422.285	98.81
422.507	99.81
422.73	97.81
422.953	100.81
423.175	93.81
423.398	80.81
423.621	104.81
423.843	93.81
424.066	88.81
424.288	68.81
424.511	94.81
424.733	89.81
424.956	107.81
425.178	95.81
425.401	103.81
425.623	97.81
425.846	101.81
426.068	93.81
426.291	105.81
426.513	93.81
426.735	109.81
426.958	109.81
427.18	108.81
427.402	130.81
427.625	153.81
427.847	125.81
428.069	111.81
428.292	90.81
428.514	84.81
428.736	74.81
428.958	80.81
429.181	76.81
429.403	89.81
429.625	76.81
429.847	88.81
430.069	106.81
430.292	97.81
430.514	94.81
430.736	88.81
430.958	83.81
431.18	95.81
431.402	74.81
431.624	94.81
431.846	86.81
432.068	78.81
432.29	86.81
432.512	86.81
432.734	82.81
432.956	90.81
433.178	83.81
433.4	89.81
433.622	86.81
433.844	83.81
434.066	99.81
434.287	91.81
434.509	80.81
434.731	101.81
434.953	91.81
435.175	88.81
435.397	81.81
435.618	89.81
435.84	99.81
436.062	124.81
436.284	96.81
436.505	96.81
436.727	102.81
436.949	88.81
437.17	96.81
437.392	73.81
437.614	94.81
437.835	97.81
438.057	107.81
438.278	91.81
438.5	98.81
438.721	109.81
438.943	96.81
439.165	86.81
439.386	96.81
439.608	88.81
439.829	94.81
440.05	119.81
440.272	132.81
440.493	96.81
440.715	78.81
440.936	94.81
441.158	77.81
441.379	92.81
441.6	90.81
441.822	86.81
442.043	93.81
442.264	100.81
442.486	106.81
442.707	101.81
442.928	107.81
443.149	129.81
443.371	113.81
443.592	107.81
443.813	102.81
444.034	102.81
444.255	96.81
444.476	88.81
444.698	98.81
444.919	106.81
445.14	141.81
445.361	125.81
445.582	116.81
445.803	134.81
446.024	106.81
446.245	114.81
446.466	90.81
446.687	82.81
446.908	96.81
447.129	82.81
447.35	96.81
447.571	90.81
447.792	93.81
448.013	87.81
448.234	100.81
448.455	97.81
448.675	102.81
448.896	110.81
449.117	98.81
449.338	108.81
449.559	121.81
449.779	124.81
450	97.81
450.221	82.81
450.442	106.81
450.662	86.81
450.883	92.81
451.104	85.81
451.324	106.81
451.545	86.81
451.766	77.81
451.986	89.81
452.207	86.81
452.428	96.81
452.648	94.81
452.869	102.81
453.089	97.81
453.31	108.81
453.53	98.81
453.751	84.81
453.971	96.81
454.192	80.81
454.412	96.81
454.633	87.81
454.853	93.81
455.073	81.81
455.294	98.81
455.514	89.81
455.734	91.81
455.955	84.81
456.175	86.81
456.395	66.81
456.616	89.81
456.836	66.81
457.056	87.81
457.276	86.81
457.497	77.81
457.717	87.81
457.937	96.81
458.157	91.81
458.377	87.81
458.598	107.81
458.818	149.81
459.038	149.81
459.258	121.81
459.478	92.81
459.698	92.81
459.918	86.81
460.138	78.81
460.358	84.81
460.578	101.81
460.798	92.81
461.018	88.81
461.238	105.81
461.458	100.81
461.678	76.81
461.898	74.81
462.118	87.81
462.338	89.81
462.558	94.81
462.777	87.81
462.997	70.81
463.217	76.81
463.437	92.81
463.657	99.81
463.876	87.81
464.096	92.81
464.316	96.81
464.536	82.81
464.755	89.81
464.975	92.81
465.195	146.81
465.414	136.81
465.634	101.81
465.854	81.81
466.073	86.81
466.293	77.81
466.512	70.81
466.732	86.81
466.951	106.81
467.171	89.81
467.391	105.81
467.61	114.81
467.829	103.81
468.049	147.81
468.268	130.81
468.488	87.81
468.707	108.81
468.927	102.81
469.146	95.81
469.365	82.81
469.585	81.81
469.804	89.81
470.023	104.81
470.243	98.81
470.462	92.81
470.681	109.81
470.901	97.81
471.12	96.81
471.339	98.81
471.558	86.81
471.777	109.81
471.997	101.81
472.216	158.81
472.435	254.81
472.654	119.81
472.873	94.81
473.092	87.81
473.311	94.81
473.53	76.81
473.749	76.81
473.968	99.81
474.187	106.81
474.406	84.81
474.625	83.81
474.844	85.81
475.063	76.81
475.282	88.81
475.501	83.81
475.72	106.81
475.939	84.81
476.158	97.81
476.377	77.81
476.596	85.81
476.814	91.81
477.033	79.81
477.252	86.81
477.471	105.81
477.69	94.81
477.908	87.81
478.127	91.81
478.346	93.81
478.564	101.81
478.783	101.81
479.002	97.81
479.22	85.81
479.439	104.81
479.658	103.81
479.876	95.81
480.095	87.81
480.313	101.81
480.532	75.81
480.751	98.81
480.969	172.81
481.188	401.81
481.406	261.81
481.624	110.81
481.843	72.81
482.061	99.81
482.28	99.81
482.498	106.81
482.717	93.81
482.935	94.81
483.153	94.81
483.372	81.81
483.59	101.81
483.808	101.81
484.027	83.81
484.245	96.81
484.463	93.81
484.681	100.81
484.9	93.81
485.118	83.81
485.336	92.81
485.554	89.81
485.772	92.81
485.99	103.81
486.209	109.81
486.427	109.81
486.645	113.81
486.863	109.81
487.081	98.81
487.299	106.81
487.517	102.81
487.735	97.81
487.953	97.81
488.171	87.81
488.389	95.81
488.607	90.81
488.825	100.81
489.043	98.81
489.261	99.81
489.479	84.81
489.696	84.81
489.914	88.81
490.132	78.81
490.35	90.81
490.568	99.81
490.786	72.81
491.003	93.81
491.221	101.81
491.439	83.81
491.657	85.81
491.874	77.81
492.092	95.81
492.31	76.81
492.527	102.81
492.745	98.81
492.963	97.81
493.18	102.81
493.398	86.81
493.615	92.81
493.833	81.81
494.05	89.81
494.268	105.81
494.485	92.81
494.703	92.81
494.92	86.81
495.138	94.81
495.355	86.81
495.573	100.81
495.79	85.81
496.008	107.81
496.225	86.81
496.442	92.81
496.66	86.81
496.877	93.81
497.094	100.81
497.312	97.81
497.529	85.81
497.746	88.81
497.963	84.81
498.181	102.81
498.398	93.81
498.615	99.81
498.832	104.81
499.049	88.81
499.267	96.81
499.484	82.81
499.701	98.81
499.918	84.81
500.135	87.81
500.352	81.81
500.569	83.81
500.786	109.81
501.003	92.81
501.22	85.81
501.437	84.81
501.654	102.81
501.871	94.81
502.088	104.81
502.305	95.81
502.522	105.81
502.739	82.81
502.956	90.81
503.172	97.81
503.389	99.81
503.606	101.81
503.823	93.81
504.04	97.81
504.256	87.81
504.473	101.81
504.69	92.81
504.907	98.81
505.123	88.81
505.34	99.81
505.557	92.81
505.773	97.81
505.99	93.81
506.207	80.81
506.423	109.81
506.64	89.81
506.856	99.81
507.073	95.81
507.289	102.81
507.506	95.81
507.722	106.81
507.939	110.81
508.155	93.81
508.372	90.81
508.588	102.81
508.805	113.81
509.021	92.81
509.238	86.81
509.454	97.81
509.67	98.81
509.887	103.81
510.103	131.81
510.319	193.81
510.536	644.81
510.752	1898.81
510.968	549.81
511.184	140.81
511.401	105.81
511.617	94.81
511.833	100.81
512.049	91.81
512.265	95.81
512.481	86.81
512.698	92.81
512.914	88.81
513.13	101.81
513.346	93.81
513.562	102.81
513.778	109.81
513.994	100.81
514.21	102.81
514.426	115.81
514.642	119.81
514.858	105.81
515.074	152.81
