Data from Circ_1986_H10_HRD10591_00049.txt Node
Date: Wed Jan 03 12:15:35 EST 2024
User: Yrep
Spectrometer: HR+D1059
Trigger mode: 1
Integration Time (sec): 1.000000E-1
Scans to average: 1
Electric dark correction enabled: true
Nonlinearity correction enabled: false
Boxcar width: 0
XAxis mode: Wavelengths
Number of Pixels in Spectrum: 2048
>>>>>Begin Spectral Data<<<<<
223.165	-37.56
223.4	-37.56
223.635	-37.56
223.869	-21.56
224.104	-7.56
224.338	-24.56
224.573	-3.56
224.808	-12.56
225.042	-11.56
225.277	-9.56
225.511	0.44
225.746	3.44
225.98	17.44
226.215	11.44
226.449	17.44
226.683	24.44
226.918	20.44
227.152	33.44
227.387	28.44
227.621	26.44
227.856	21.44
228.09	45.44
228.324	40.44
228.559	55.44
228.793	63.44
229.027	58.44
229.262	50.44
229.496	71.44
229.73	79.44
229.964	88.44
230.199	72.44
230.433	78.44
230.667	73.44
230.901	91.44
231.136	71.44
231.37	84.44
231.604	79.44
231.838	88.44
232.072	68.44
232.306	85.44
232.541	69.44
232.775	82.44
233.009	62.44
233.243	73.44
233.477	78.44
233.711	92.44
233.945	73.44
234.179	67.44
234.413	77.44
234.647	78.44
234.881	81.44
235.115	79.44
235.349	76.44
235.583	74.44
235.817	76.44
236.051	66.44
236.285	70.44
236.519	81.44
236.753	89.44
236.987	78.44
237.221	82.44
237.455	70.44
237.689	74.44
237.922	85.44
238.156	68.44
238.39	71.44
238.624	69.44
238.858	76.44
239.091	65.44
239.325	71.44
239.559	80.44
239.793	76.44
240.027	86.44
240.26	81.44
240.494	80.44
240.728	77.44
240.961	80.44
241.195	90.44
241.429	95.44
241.662	65.44
241.896	74.44
242.13	82.44
242.363	73.44
242.597	66.44
242.83	65.44
243.064	77.44
243.298	70.44
243.531	83.44
243.765	78.44
243.998	82.44
244.232	83.44
244.465	80.44
244.699	78.44
244.932	72.44
245.166	73.44
245.399	73.44
245.633	71.44
245.866	81.44
246.099	78.44
246.333	84.44
246.566	67.44
246.8	80.44
247.033	70.44
247.266	65.44
247.5	89.44
247.733	80.44
247.966	74.44
248.2	70.44
248.433	75.44
248.666	82.44
248.899	83.44
249.133	82.44
249.366	96.44
249.599	94.44
249.832	79.44
250.066	86.44
250.299	81.44
250.532	68.44
250.765	72.44
250.998	87.44
251.231	77.44
251.465	76.44
251.698	77.44
251.931	86.44
252.164	97.44
252.397	73.44
252.63	67.44
252.863	82.44
253.096	76.44
253.329	76.44
253.562	78.44
253.795	93.44
254.028	85.44
254.261	90.44
254.494	78.44
254.727	89.44
254.96	75.44
255.193	66.44
255.426	84.44
255.659	64.44
255.892	79.44
256.124	71.44
256.357	76.44
256.59	76.44
256.823	72.44
257.056	88.44
257.289	77.44
257.521	78.44
257.754	73.44
257.987	90.44
258.22	98.44
258.452	78.44
258.685	71.44
258.918	82.44
259.151	70.44
259.383	77.44
259.616	86.44
259.849	77.44
260.081	70.44
260.314	90.44
260.547	81.44
260.779	78.44
261.012	70.44
261.244	101.44
261.477	95.44
261.71	85.44
261.942	100.44
262.175	110.44
262.407	92.44
262.64	89.44
262.872	89.44
263.105	81.44
263.337	93.44
263.57	93.44
263.802	90.44
264.035	82.44
264.267	85.44
264.499	73.44
264.732	68.44
264.964	70.44
265.197	84.44
265.429	80.44
265.661	72.44
265.894	73.44
266.126	72.44
266.358	87.44
266.591	85.44
266.823	84.44
267.055	80.44
267.287	86.44
267.52	68.44
267.752	73.44
267.984	92.44
268.216	95.44
268.448	82.44
268.681	83.44
268.913	82.44
269.145	80.44
269.377	78.44
269.609	80.44
269.841	84.44
270.073	78.44
270.306	82.44
270.538	97.44
270.77	73.44
271.002	71.44
271.234	80.44
271.466	84.44
271.698	80.44
271.93	82.44
272.162	84.44
272.394	76.44
272.626	76.44
272.858	80.44
273.09	78.44
273.322	91.44
273.553	72.44
273.785	78.44
274.017	78.44
274.249	88.44
274.481	89.44
274.713	87.44
274.945	88.44
275.176	89.44
275.408	81.44
275.64	91.44
275.872	82.44
276.104	82.44
276.335	85.44
276.567	95.44
276.799	94.44
277.031	95.44
277.262	80.44
277.494	93.44
277.726	92.44
277.957	79.44
278.189	77.44
278.421	93.44
278.652	76.44
278.884	84.44
279.115	82.44
279.347	82.44
279.579	76.44
279.81	89.44
280.042	102.44
280.273	91.44
280.505	90.44
280.736	103.44
280.968	85.44
281.199	71.44
281.431	87.44
281.662	72.44
281.894	85.44
282.125	103.44
282.356	103.44
282.588	123.44
282.819	99.44
283.051	91.44
283.282	96.44
283.513	94.44
283.745	89.44
283.976	80.44
284.207	84.44
284.439	98.44
284.67	92.44
284.901	64.44
285.132	86.44
285.364	78.44
285.595	84.44
285.826	83.44
286.057	90.44
286.288	84.44
286.52	99.44
286.751	79.44
286.982	84.44
287.213	86.44
287.444	94.44
287.675	73.44
287.906	80.44
288.138	92.44
288.369	83.44
288.6	92.44
288.831	88.44
289.062	85.44
289.293	73.44
289.524	70.44
289.755	87.44
289.986	85.44
290.217	92.44
290.448	83.44
290.679	84.44
290.91	91.44
291.141	79.44
291.371	69.44
291.602	84.44
291.833	90.44
292.064	94.44
292.295	90.44
292.526	89.44
292.757	97.44
292.987	89.44
293.218	82.44
293.449	91.44
293.68	84.44
293.91	82.44
294.141	70.44
294.372	83.44
294.603	82.44
294.833	94.44
295.064	79.44
295.295	86.44
295.525	90.44
295.756	89.44
295.987	94.44
296.217	105.44
296.448	106.44
296.679	84.44
296.909	81.44
297.14	82.44
297.37	94.44
297.601	86.44
297.831	72.44
298.062	82.44
298.292	71.44
298.523	84.44
298.753	78.44
298.984	84.44
299.214	95.44
299.445	82.44
299.675	92.44
299.905	87.44
300.136	90.44
300.366	81.44
300.597	82.44
300.827	102.44
301.057	87.44
301.288	100.44
301.518	99.44
301.748	88.44
301.979	106.44
302.209	101.44
302.439	97.44
302.669	95.44
302.9	88.44
303.13	71.44
303.36	84.44
303.59	100.44
303.82	93.44
304.051	90.44
304.281	105.44
304.511	90.44
304.741	90.44
304.971	90.44
305.201	94.44
305.431	92.44
305.661	82.44
305.891	81.44
306.121	95.44
306.352	87.44
306.582	104.44
306.812	72.44
307.042	103.44
307.272	99.44
307.502	97.44
307.731	98.44
307.961	91.44
308.191	83.44
308.421	106.44
308.651	86.44
308.881	76.44
309.111	98.44
309.341	76.44
309.571	79.44
309.8	82.44
310.03	92.44
310.26	96.44
310.49	87.44
310.72	100.44
310.949	101.44
311.179	102.44
311.409	97.44
311.639	95.44
311.868	92.44
312.098	99.44
312.328	87.44
312.557	98.44
312.787	92.44
313.017	97.44
313.246	85.44
313.476	92.44
313.706	98.44
313.935	65.44
314.165	82.44
314.394	97.44
314.624	100.44
314.853	85.44
315.083	81.44
315.312	94.44
315.542	102.44
315.771	95.44
316.001	86.44
316.23	81.44
316.46	72.44
316.689	78.44
316.919	91.44
317.148	95.44
317.377	89.44
317.607	84.44
317.836	96.44
318.065	86.44
318.295	80.44
318.524	85.44
318.753	86.44
318.983	97.44
319.212	104.44
319.441	98.44
319.67	98.44
319.9	95.44
320.129	89.44
320.358	87.44
320.587	92.44
320.816	97.44
321.046	96.44
321.275	76.44
321.504	75.44
321.733	96.44
321.962	79.44
322.191	101.44
322.42	95.44
322.649	102.44
322.878	105.44
323.108	116.44
323.337	106.44
323.566	104.44
323.795	128.44
324.024	179.44
324.253	319.44
324.482	676.44
324.71	1338.44
324.939	1796.44
325.168	657.44
325.397	202.44
325.626	142.44
325.855	120.44
326.084	114.44
326.313	127.44
326.542	143.44
326.77	200.44
326.999	379.44
327.228	772.44
327.457	1383.44
327.686	1074.44
327.914	305.44
328.143	169.44
328.372	156.44
328.6	116.44
328.829	114.44
329.058	93.44
329.287	97.44
329.515	114.44
329.744	99.44
329.972	109.44
330.201	129.44
330.43	169.44
330.658	133.44
330.887	122.44
331.115	121.44
331.344	82.44
331.572	99.44
331.801	68.44
332.03	106.44
332.258	92.44
332.486	108.44
332.715	88.44
332.943	91.44
333.172	90.44
333.4	78.44
333.629	96.44
333.857	92.44
334.085	101.44
334.314	131.44
334.542	192.44
334.771	182.44
334.999	118.44
335.227	106.44
335.455	92.44
335.684	90.44
335.912	86.44
336.14	94.44
336.369	117.44
336.597	94.44
336.825	104.44
337.053	85.44
337.281	96.44
337.51	97.44
337.738	100.44
337.966	94.44
338.194	102.44
338.422	85.44
338.65	89.44
338.878	93.44
339.106	82.44
339.334	93.44
339.562	84.44
339.79	84.44
340.018	80.44
340.246	88.44
340.474	83.44
340.702	97.44
340.93	91.44
341.158	96.44
341.386	93.44
341.614	96.44
341.842	74.44
342.07	92.44
342.298	96.44
342.526	72.44
342.754	74.44
342.981	88.44
343.209	93.44
343.437	106.44
343.665	89.44
343.893	93.44
344.12	92.44
344.348	97.44
344.576	88.44
344.804	86.44
345.031	90.44
345.259	92.44
345.487	92.44
345.714	81.44
345.942	90.44
346.17	86.44
346.397	97.44
346.625	93.44
346.853	102.44
347.08	89.44
347.308	84.44
347.535	78.44
347.763	86.44
347.99	95.44
348.218	103.44
348.445	89.44
348.673	101.44
348.9	86.44
349.128	93.44
349.355	86.44
349.583	101.44
349.81	95.44
350.037	87.44
350.265	89.44
350.492	90.44
350.72	98.44
350.947	106.44
351.174	111.44
351.402	113.44
351.629	90.44
351.856	82.44
352.083	101.44
352.311	89.44
352.538	87.44
352.765	89.44
352.992	110.44
353.22	107.44
353.447	109.44
353.674	104.44
353.901	82.44
354.128	100.44
354.355	94.44
354.583	100.44
354.81	100.44
355.037	98.44
355.264	102.44
355.491	96.44
355.718	74.44
355.945	91.44
356.172	96.44
356.399	94.44
356.626	86.44
356.853	87.44
357.08	93.44
357.307	83.44
357.534	97.44
357.761	94.44
357.988	95.44
358.215	87.44
358.441	91.44
358.668	104.44
358.895	85.44
359.122	90.44
359.349	86.44
359.576	90.44
359.802	90.44
360.029	98.44
360.256	93.44
360.483	88.44
360.709	73.44
360.936	88.44
361.163	82.44
361.39	89.44
361.616	81.44
361.843	93.44
362.07	84.44
362.296	90.44
362.523	83.44
362.749	76.44
362.976	88.44
363.203	84.44
363.429	89.44
363.656	93.44
363.882	83.44
364.109	68.44
364.335	98.44
364.562	85.44
364.788	72.44
365.015	98.44
365.241	94.44
365.468	95.44
365.694	87.44
365.92	106.44
366.147	100.44
366.373	84.44
366.599	88.44
366.826	90.44
367.052	89.44
367.278	82.44
367.505	86.44
367.731	94.44
367.957	80.44
368.184	96.44
368.41	93.44
368.636	99.44
368.862	95.44
369.089	101.44
369.315	95.44
369.541	86.44
369.767	86.44
369.993	92.44
370.219	90.44
370.445	78.44
370.672	76.44
370.898	80.44
371.124	98.44
371.35	95.44
371.576	80.44
371.802	80.44
372.028	83.44
372.254	102.44
372.48	87.44
372.706	75.44
372.932	91.44
373.158	90.44
373.384	83.44
373.61	97.44
373.835	83.44
374.061	82.44
374.287	89.44
374.513	86.44
374.739	94.44
374.965	90.44
375.191	87.44
375.416	80.44
375.642	93.44
375.868	96.44
376.094	94.44
376.319	85.44
376.545	99.44
376.771	96.44
376.997	96.44
377.222	81.44
377.448	85.44
377.674	85.44
377.899	85.44
378.125	85.44
378.35	85.44
378.576	77.44
378.802	96.44
379.027	79.44
379.253	93.44
379.478	94.44
379.704	103.44
379.929	89.44
380.155	89.44
380.38	107.44
380.606	92.44
380.831	102.44
381.057	105.44
381.282	98.44
381.507	89.44
381.733	95.44
381.958	92.44
382.184	87.44
382.409	112.44
382.634	99.44
382.86	87.44
383.085	94.44
383.31	100.44
383.535	92.44
383.761	103.44
383.986	108.44
384.211	100.44
384.436	103.44
384.662	94.44
384.887	96.44
385.112	110.44
385.337	89.44
385.562	90.44
385.787	98.44
386.013	102.44
386.238	105.44
386.463	104.44
386.688	122.44
386.913	110.44
387.138	104.44
387.363	94.44
387.588	101.44
387.813	100.44
388.038	89.44
388.263	119.44
388.488	108.44
388.713	92.44
388.938	92.44
389.163	83.44
389.387	97.44
389.612	96.44
389.837	96.44
390.062	81.44
390.287	87.44
390.512	90.44
390.736	92.44
390.961	83.44
391.186	94.44
391.411	95.44
391.636	88.44
391.86	87.44
392.085	85.44
392.31	82.44
392.534	72.44
392.759	87.44
392.984	87.44
393.208	89.44
393.433	96.44
393.658	92.44
393.882	80.44
394.107	72.44
394.331	80.44
394.556	85.44
394.78	83.44
395.005	56.44
395.229	77.44
395.454	92.44
395.678	88.44
395.903	99.44
396.127	88.44
396.352	80.44
396.576	83.44
396.801	83.44
397.025	99.44
397.249	85.44
397.474	95.44
397.698	87.44
397.922	80.44
398.147	76.44
398.371	89.44
398.595	92.44
398.82	84.44
399.044	74.44
399.268	83.44
399.492	91.44
399.717	85.44
399.941	89.44
400.165	89.44
400.389	96.44
400.613	80.44
400.837	71.44
401.062	88.44
401.286	82.44
401.51	87.44
401.734	70.44
401.958	98.44
402.182	115.44
402.406	136.44
402.63	111.44
402.854	106.44
403.078	76.44
403.302	78.44
403.526	82.44
403.75	88.44
403.974	73.44
404.198	86.44
404.422	89.44
404.645	100.44
404.869	74.44
405.093	91.44
405.317	88.44
405.541	105.44
405.765	83.44
405.988	98.44
406.212	149.44
406.436	172.44
406.66	124.44
406.883	84.44
407.107	96.44
407.331	93.44
407.555	88.44
407.778	79.44
408.002	79.44
408.226	84.44
408.449	94.44
408.673	78.44
408.896	85.44
409.12	90.44
409.344	87.44
409.567	97.44
409.791	96.44
410.014	85.44
410.238	94.44
410.461	96.44
410.685	84.44
410.908	97.44
411.132	100.44
411.355	85.44
411.578	81.44
411.802	86.44
412.025	78.44
412.249	88.44
412.472	116.44
412.695	104.44
412.919	88.44
413.142	88.44
413.365	94.44
413.589	84.44
413.812	98.44
414.035	86.44
414.258	80.44
414.482	85.44
414.705	94.44
414.928	83.44
415.151	88.44
415.374	87.44
415.597	87.44
415.821	88.44
416.044	91.44
416.267	92.44
416.49	71.44
416.713	86.44
416.936	100.44
417.159	84.44
417.382	85.44
417.605	74.44
417.828	90.44
418.051	74.44
418.274	99.44
418.497	97.44
418.72	90.44
418.943	99.44
419.166	69.44
419.389	85.44
419.611	84.44
419.834	93.44
420.057	92.44
420.28	89.44
420.503	92.44
420.726	68.44
420.948	86.44
421.171	96.44
421.394	90.44
421.617	89.44
421.839	94.44
422.062	86.44
422.285	83.44
422.507	104.44
422.73	102.44
422.953	89.44
423.175	94.44
423.398	92.44
423.621	64.44
423.843	95.44
424.066	75.44
424.288	86.44
424.511	89.44
424.733	90.44
424.956	97.44
425.178	95.44
425.401	95.44
425.623	101.44
425.846	80.44
426.068	82.44
426.291	90.44
426.513	89.44
426.735	102.44
426.958	85.44
427.18	97.44
427.402	121.44
427.625	134.44
427.847	129.44
428.069	122.44
428.292	77.44
428.514	93.44
428.736	80.44
428.958	94.44
429.181	97.44
429.403	82.44
429.625	95.44
429.847	86.44
430.069	88.44
430.292	98.44
430.514	72.44
430.736	77.44
430.958	78.44
431.18	93.44
431.402	85.44
431.624	85.44
431.846	86.44
432.068	89.44
432.29	79.44
432.512	81.44
432.734	93.44
432.956	71.44
433.178	90.44
433.4	81.44
433.622	88.44
433.844	76.44
434.066	92.44
434.287	92.44
434.509	91.44
434.731	83.44
434.953	79.44
435.175	81.44
435.397	81.44
435.618	82.44
435.84	100.44
436.062	112.44
436.284	110.44
436.505	97.44
436.727	101.44
436.949	87.44
437.17	72.44
437.392	76.44
437.614	94.44
437.835	93.44
438.057	103.44
438.278	98.44
438.5	97.44
438.721	105.44
438.943	93.44
439.165	90.44
439.386	83.44
439.608	81.44
439.829	81.44
440.05	100.44
440.272	124.44
440.493	103.44
440.715	92.44
440.936	79.44
441.158	89.44
441.379	93.44
441.6	87.44
441.822	94.44
442.043	100.44
442.264	89.44
442.486	87.44
442.707	79.44
442.928	96.44
443.149	113.44
443.371	114.44
443.592	98.44
443.813	94.44
444.034	98.44
444.255	96.44
444.476	89.44
444.698	89.44
444.919	83.44
445.14	130.44
445.361	122.44
445.582	108.44
445.803	121.44
446.024	109.44
446.245	116.44
446.466	92.44
446.687	95.44
446.908	78.44
447.129	81.44
447.35	89.44
447.571	86.44
447.792	88.44
448.013	89.44
448.234	97.44
448.455	99.44
448.675	84.44
448.896	108.44
449.117	105.44
449.338	103.44
449.559	131.44
449.779	138.44
450	98.44
450.221	86.44
450.442	74.44
450.662	78.44
450.883	86.44
451.104	92.44
451.324	84.44
451.545	88.44
451.766	81.44
451.986	81.44
452.207	88.44
452.428	92.44
452.648	80.44
452.869	84.44
453.089	92.44
453.31	99.44
453.53	98.44
453.751	91.44
453.971	81.44
454.192	98.44
454.412	90.44
454.633	95.44
454.853	79.44
455.073	77.44
455.294	101.44
455.514	100.44
455.734	84.44
455.955	80.44
456.175	78.44
456.395	72.44
456.616	69.44
456.836	101.44
457.056	86.44
457.276	72.44
457.497	80.44
457.717	78.44
457.937	84.44
458.157	84.44
458.377	85.44
458.598	101.44
458.818	132.44
459.038	119.44
459.258	107.44
459.478	87.44
459.698	81.44
459.918	70.44
460.138	90.44
460.358	81.44
460.578	78.44
460.798	88.44
461.018	82.44
461.238	80.44
461.458	88.44
461.678	95.44
461.898	78.44
462.118	78.44
462.338	85.44
462.558	89.44
462.777	77.44
462.997	84.44
463.217	80.44
463.437	89.44
463.657	92.44
463.876	84.44
464.096	94.44
464.316	103.44
464.536	81.44
464.755	95.44
464.975	106.44
465.195	134.44
465.414	134.44
465.634	98.44
465.854	80.44
466.073	69.44
466.293	86.44
466.512	82.44
466.732	92.44
466.951	84.44
467.171	94.44
467.391	102.44
467.61	91.44
467.829	84.44
468.049	98.44
468.268	123.44
468.488	70.44
468.707	88.44
468.927	76.44
469.146	84.44
469.365	78.44
469.585	78.44
469.804	78.44
470.023	84.44
470.243	96.44
470.462	87.44
470.681	91.44
470.901	73.44
471.12	81.44
471.339	90.44
471.558	88.44
471.777	73.44
471.997	98.44
472.216	133.44
472.435	215.44
472.654	101.44
472.873	90.44
473.092	92.44
473.311	96.44
473.53	102.44
473.749	81.44
473.968	80.44
474.187	90.44
474.406	101.44
474.625	84.44
474.844	82.44
475.063	90.44
475.282	85.44
475.501	88.44
475.72	80.44
475.939	88.44
476.158	77.44
476.377	81.44
476.596	96.44
476.814	90.44
477.033	78.44
477.252	78.44
477.471	79.44
477.69	83.44
477.908	71.44
478.127	93.44
478.346	83.44
478.564	82.44
478.783	76.44
479.002	68.44
479.22	90.44
479.439	82.44
479.658	95.44
479.876	88.44
480.095	98.44
480.313	89.44
480.532	92.44
480.751	100.44
480.969	132.44
481.188	318.44
481.406	214.44
481.624	108.44
481.843	84.44
482.061	85.44
482.28	79.44
482.498	99.44
482.717	88.44
482.935	84.44
483.153	75.44
483.372	76.44
483.59	93.44
483.808	84.44
484.027	85.44
484.245	85.44
484.463	82.44
484.681	84.44
484.9	83.44
485.118	102.44
485.336	102.44
485.554	88.44
485.772	100.44
485.99	109.44
486.209	97.44
486.427	101.44
486.645	105.44
486.863	110.44
487.081	101.44
487.299	95.44
487.517	96.44
487.735	82.44
487.953	97.44
488.171	88.44
488.389	74.44
488.607	95.44
488.825	82.44
489.043	69.44
489.261	85.44
489.479	76.44
489.696	83.44
489.914	102.44
490.132	88.44
490.35	83.44
490.568	87.44
490.786	90.44
491.003	80.44
491.221	86.44
491.439	93.44
491.657	91.44
491.874	74.44
492.092	103.44
492.31	93.44
492.527	92.44
492.745	88.44
492.963	81.44
493.18	77.44
493.398	110.44
493.615	101.44
493.833	105.44
494.05	85.44
494.268	94.44
494.485	86.44
494.703	88.44
494.92	81.44
495.138	84.44
495.355	82.44
495.573	93.44
495.79	101.44
496.008	98.44
496.225	96.44
496.442	98.44
496.66	96.44
496.877	79.44
497.094	84.44
497.312	90.44
497.529	95.44
497.746	103.44
497.963	94.44
498.181	80.44
498.398	90.44
498.615	97.44
498.832	104.44
499.049	88.44
499.267	90.44
499.484	96.44
499.701	90.44
499.918	98.44
500.135	87.44
500.352	83.44
500.569	84.44
500.786	87.44
501.003	101.44
501.22	97.44
501.437	88.44
501.654	86.44
501.871	109.44
502.088	90.44
502.305	98.44
502.522	91.44
502.739	88.44
502.956	73.44
503.172	85.44
503.389	97.44
503.606	90.44
503.823	93.44
504.04	87.44
504.256	93.44
504.473	89.44
504.69	91.44
504.907	95.44
505.123	96.44
505.34	93.44
505.557	84.44
505.773	80.44
505.99	79.44
506.207	94.44
506.423	85.44
506.64	92.44
506.856	80.44
507.073	97.44
507.289	86.44
507.506	94.44
507.722	101.44
507.939	106.44
508.155	83.44
508.372	97.44
508.588	102.44
508.805	93.44
509.021	97.44
509.238	105.44
509.454	100.44
509.67	92.44
509.887	119.44
510.103	114.44
510.319	190.44
510.536	595.44
510.752	1797.44
510.968	519.44
511.184	135.44
511.401	100.44
511.617	80.44
511.833	98.44
512.049	93.44
512.265	88.44
512.481	90.44
512.698	89.44
512.914	80.44
513.13	95.44
513.346	94.44
513.562	80.44
513.778	85.44
513.994	98.44
514.21	100.44
514.426	103.44
514.642	132.44
514.858	108.44
515.074	155.44
515.29	346.44
515.506	1064.44
515.721	402.44
515.937	129.44
516.153	95.44
516.369	97.44
516.585	98.44
516.801	82.44
517.016	103.44
