Data from Circ_1986_H10_HRD10591_00020.txt Node
Date: Wed Jan 03 12:15:30 EST 2024
User: Yrep
Spectrometer: HR+D1059
Trigger mode: 1
Integration Time (sec): 1.000000E-1
Scans to average: 1
Electric dark correction enabled: true
Nonlinearity correction enabled: false
Boxcar width: 0
XAxis mode: Wavelengths
Number of Pixels in Spectrum: 2048
>>>>>Begin Spectral Data<<<<<
223.165	-20.56
223.4	-20.56
223.635	-20.56
223.869	-22.56
224.104	-23.56
224.338	-12.56
224.573	-19.56
224.808	-20.56
225.042	-6.56
225.277	4.44
225.511	-1.56
225.746	6.44
225.98	-4.56
226.215	0.44
226.449	24.44
226.683	20.44
226.918	35.44
227.152	40.44
227.387	32.44
227.621	29.44
227.856	41.44
228.09	54.44
228.324	39.44
228.559	48.44
228.793	65.44
229.027	52.44
229.262	66.44
229.496	80.44
229.73	86.44
229.964	83.44
230.199	84.44
230.433	74.44
230.667	74.44
230.901	82.44
231.136	78.44
231.37	83.44
231.604	75.44
231.838	86.44
232.072	71.44
232.306	78.44
232.541	87.44
232.775	78.44
233.009	79.44
233.243	66.44
233.477	72.44
233.711	90.44
233.945	79.44
234.179	81.44
234.413	76.44
234.647	90.44
234.881	80.44
235.115	82.44
235.349	91.44
235.583	87.44
235.817	87.44
236.051	81.44
236.285	94.44
236.519	95.44
236.753	80.44
236.987	83.44
237.221	97.44
237.455	91.44
237.689	73.44
237.922	84.44
238.156	81.44
238.39	80.44
238.624	85.44
238.858	71.44
239.091	85.44
239.325	81.44
239.559	65.44
239.793	71.44
240.027	89.44
240.26	68.44
240.494	78.44
240.728	71.44
240.961	73.44
241.195	72.44
241.429	86.44
241.662	71.44
241.896	82.44
242.13	73.44
242.363	88.44
242.597	59.44
242.83	70.44
243.064	80.44
243.298	88.44
243.531	83.44
243.765	59.44
243.998	82.44
244.232	97.44
244.465	67.44
244.699	71.44
244.932	87.44
245.166	78.44
245.399	72.44
245.633	81.44
245.866	79.44
246.099	83.44
246.333	80.44
246.566	80.44
246.8	66.44
247.033	69.44
247.266	73.44
247.5	79.44
247.733	94.44
247.966	80.44
248.2	68.44
248.433	86.44
248.666	82.44
248.899	77.44
249.133	78.44
249.366	82.44
249.599	95.44
249.832	81.44
250.066	84.44
250.299	84.44
250.532	79.44
250.765	72.44
250.998	72.44
251.231	73.44
251.465	102.44
251.698	82.44
251.931	65.44
252.164	91.44
252.397	90.44
252.63	86.44
252.863	94.44
253.096	88.44
253.329	69.44
253.562	85.44
253.795	82.44
254.028	87.44
254.261	81.44
254.494	85.44
254.727	95.44
254.96	85.44
255.193	77.44
255.426	84.44
255.659	80.44
255.892	77.44
256.124	78.44
256.357	81.44
256.59	67.44
256.823	82.44
257.056	73.44
257.289	80.44
257.521	81.44
257.754	74.44
257.987	81.44
258.22	80.44
258.452	82.44
258.685	102.44
258.918	86.44
259.151	79.44
259.383	84.44
259.616	71.44
259.849	82.44
260.081	84.44
260.314	83.44
260.547	86.44
260.779	87.44
261.012	86.44
261.244	94.44
261.477	75.44
261.71	96.44
261.942	93.44
262.175	102.44
262.407	80.44
262.64	80.44
262.872	99.44
263.105	99.44
263.337	76.44
263.57	82.44
263.802	73.44
264.035	80.44
264.267	83.44
264.499	91.44
264.732	81.44
264.964	71.44
265.197	78.44
265.429	91.44
265.661	74.44
265.894	95.44
266.126	76.44
266.358	94.44
266.591	71.44
266.823	84.44
267.055	73.44
267.287	93.44
267.52	76.44
267.752	72.44
267.984	67.44
268.216	72.44
268.448	90.44
268.681	94.44
268.913	81.44
269.145	90.44
269.377	65.44
269.609	78.44
269.841	81.44
270.073	82.44
270.306	94.44
270.538	74.44
270.77	80.44
271.002	79.44
271.234	80.44
271.466	83.44
271.698	85.44
271.93	81.44
272.162	84.44
272.394	90.44
272.626	90.44
272.858	84.44
273.09	85.44
273.322	93.44
273.553	74.44
273.785	86.44
274.017	76.44
274.249	85.44
274.481	95.44
274.713	88.44
274.945	93.44
275.176	90.44
275.408	88.44
275.64	69.44
275.872	96.44
276.104	84.44
276.335	93.44
276.567	80.44
276.799	95.44
277.031	86.44
277.262	86.44
277.494	85.44
277.726	95.44
277.957	83.44
278.189	102.44
278.421	98.44
278.652	96.44
278.884	97.44
279.115	87.44
279.347	84.44
279.579	80.44
279.81	77.44
280.042	74.44
280.273	70.44
280.505	88.44
280.736	82.44
280.968	84.44
281.199	84.44
281.431	89.44
281.662	79.44
281.894	85.44
282.125	94.44
282.356	113.44
282.588	110.44
282.819	100.44
283.051	94.44
283.282	85.44
283.513	91.44
283.745	92.44
283.976	90.44
284.207	86.44
284.439	94.44
284.67	77.44
284.901	81.44
285.132	91.44
285.364	73.44
285.595	75.44
285.826	81.44
286.057	78.44
286.288	79.44
286.52	70.44
286.751	90.44
286.982	93.44
287.213	80.44
287.444	84.44
287.675	88.44
287.906	106.44
288.138	96.44
288.369	88.44
288.6	75.44
288.831	92.44
289.062	85.44
289.293	88.44
289.524	78.44
289.755	65.44
289.986	82.44
290.217	97.44
290.448	75.44
290.679	101.44
290.91	94.44
291.141	88.44
291.371	88.44
291.602	79.44
291.833	81.44
292.064	87.44
292.295	79.44
292.526	92.44
292.757	78.44
292.987	93.44
293.218	91.44
293.449	86.44
293.68	90.44
293.91	79.44
294.141	94.44
294.372	78.44
294.603	80.44
294.833	84.44
295.064	85.44
295.295	74.44
295.525	87.44
295.756	111.44
295.987	91.44
296.217	108.44
296.448	114.44
296.679	88.44
296.909	99.44
297.14	96.44
297.37	81.44
297.601	88.44
297.831	84.44
298.062	69.44
298.292	84.44
298.523	84.44
298.753	83.44
298.984	84.44
299.214	83.44
299.445	95.44
299.675	83.44
299.905	71.44
300.136	96.44
300.366	93.44
300.597	102.44
300.827	98.44
301.057	103.44
301.288	101.44
301.518	103.44
301.748	85.44
301.979	113.44
302.209	90.44
302.439	82.44
302.669	84.44
302.9	85.44
303.13	98.44
303.36	95.44
303.59	95.44
303.82	101.44
304.051	98.44
304.281	95.44
304.511	108.44
304.741	92.44
304.971	80.44
305.201	87.44
305.431	89.44
305.661	98.44
305.891	102.44
306.121	91.44
306.352	89.44
306.582	99.44
306.812	91.44
307.042	89.44
307.272	80.44
307.502	88.44
307.731	95.44
307.961	93.44
308.191	88.44
308.421	87.44
308.651	82.44
308.881	86.44
309.111	100.44
309.341	90.44
309.571	92.44
309.8	98.44
310.03	87.44
310.26	82.44
310.49	100.44
310.72	92.44
310.949	110.44
311.179	91.44
311.409	90.44
311.639	98.44
311.868	84.44
312.098	83.44
312.328	84.44
312.557	106.44
312.787	101.44
313.017	97.44
313.246	99.44
313.476	90.44
313.706	101.44
313.935	95.44
314.165	86.44
314.394	86.44
314.624	93.44
314.853	96.44
315.083	108.44
315.312	100.44
315.542	101.44
315.771	93.44
316.001	94.44
316.23	74.44
316.46	89.44
316.689	92.44
316.919	84.44
317.148	89.44
317.377	98.44
317.607	98.44
317.836	96.44
318.065	95.44
318.295	78.44
318.524	80.44
318.753	90.44
318.983	96.44
319.212	87.44
319.441	106.44
319.67	102.44
319.9	101.44
320.129	87.44
320.358	107.44
320.587	82.44
320.816	96.44
321.046	99.44
321.275	99.44
321.504	100.44
321.733	93.44
321.962	92.44
322.191	98.44
322.42	106.44
322.649	94.44
322.878	109.44
323.108	108.44
323.337	106.44
323.566	117.44
323.795	134.44
324.024	174.44
324.253	302.44
324.482	605.44
324.71	1240.44
324.939	1626.44
325.168	623.44
325.397	198.44
325.626	151.44
325.855	109.44
326.084	112.44
326.313	115.44
326.542	128.44
326.77	200.44
326.999	357.44
327.228	748.44
327.457	1288.44
327.686	1012.44
327.914	295.44
328.143	162.44
328.372	138.44
328.6	102.44
328.829	111.44
329.058	122.44
329.287	120.44
329.515	95.44
329.744	102.44
329.972	104.44
330.201	104.44
330.43	137.44
330.658	120.44
330.887	115.44
331.115	84.44
331.344	82.44
331.572	95.44
331.801	100.44
332.03	95.44
332.258	91.44
332.486	98.44
332.715	105.44
332.943	84.44
333.172	88.44
333.4	105.44
333.629	103.44
333.857	104.44
334.085	98.44
334.314	96.44
334.542	132.44
334.771	135.44
334.999	107.44
335.227	96.44
335.455	94.44
335.684	88.44
335.912	104.44
336.14	101.44
336.369	91.44
336.597	97.44
336.825	88.44
337.053	91.44
337.281	89.44
337.51	90.44
337.738	94.44
337.966	89.44
338.194	100.44
338.422	99.44
338.65	105.44
338.878	100.44
339.106	80.44
339.334	94.44
339.562	86.44
339.79	92.44
340.018	101.44
340.246	84.44
340.474	100.44
340.702	91.44
340.93	89.44
341.158	90.44
341.386	102.44
341.614	96.44
341.842	93.44
342.07	74.44
342.298	100.44
342.526	78.44
342.754	90.44
342.981	94.44
343.209	86.44
343.437	112.44
343.665	94.44
343.893	96.44
344.12	95.44
344.348	91.44
344.576	94.44
344.804	90.44
345.031	91.44
345.259	95.44
345.487	104.44
345.714	88.44
345.942	91.44
346.17	79.44
346.397	86.44
346.625	88.44
346.853	96.44
347.08	99.44
347.308	94.44
347.535	96.44
347.763	88.44
347.99	95.44
348.218	88.44
348.445	91.44
348.673	97.44
348.9	97.44
349.128	97.44
349.355	93.44
349.583	90.44
349.81	96.44
350.037	83.44
350.265	74.44
350.492	97.44
350.72	92.44
350.947	88.44
351.174	97.44
351.402	104.44
351.629	106.44
351.856	98.44
352.083	104.44
352.311	106.44
352.538	111.44
352.765	101.44
352.992	105.44
353.22	110.44
353.447	104.44
353.674	92.44
353.901	92.44
354.128	107.44
354.355	87.44
354.583	92.44
354.81	108.44
355.037	91.44
355.264	86.44
355.491	78.44
355.718	107.44
355.945	96.44
356.172	91.44
356.399	96.44
356.626	92.44
356.853	100.44
357.08	96.44
357.307	99.44
357.534	103.44
357.761	87.44
357.988	100.44
358.215	100.44
358.441	99.44
358.668	98.44
358.895	91.44
359.122	88.44
359.349	87.44
359.576	95.44
359.802	89.44
360.029	91.44
360.256	95.44
360.483	89.44
360.709	86.44
360.936	103.44
361.163	93.44
361.39	86.44
361.616	90.44
361.843	102.44
362.07	81.44
362.296	90.44
362.523	79.44
362.749	95.44
362.976	101.44
363.203	100.44
363.429	92.44
363.656	91.44
363.882	95.44
364.109	76.44
364.335	88.44
364.562	83.44
364.788	86.44
365.015	106.44
365.241	108.44
365.468	93.44
365.694	80.44
365.92	89.44
366.147	91.44
366.373	86.44
366.599	105.44
366.826	83.44
367.052	87.44
367.278	99.44
367.505	86.44
367.731	97.44
367.957	93.44
368.184	79.44
368.41	88.44
368.636	102.44
368.862	100.44
369.089	115.44
369.315	71.44
369.541	84.44
369.767	86.44
369.993	80.44
370.219	88.44
370.445	85.44
370.672	86.44
370.898	79.44
371.124	84.44
371.35	89.44
371.576	89.44
371.802	82.44
372.028	88.44
372.254	74.44
372.48	90.44
372.706	86.44
372.932	94.44
373.158	86.44
373.384	105.44
373.61	90.44
373.835	83.44
374.061	91.44
374.287	88.44
374.513	80.44
374.739	88.44
374.965	89.44
375.191	98.44
375.416	83.44
375.642	87.44
375.868	88.44
376.094	86.44
376.319	93.44
376.545	96.44
376.771	96.44
376.997	104.44
377.222	93.44
377.448	102.44
377.674	92.44
377.899	88.44
378.125	81.44
378.35	86.44
378.576	88.44
378.802	96.44
379.027	101.44
379.253	96.44
379.478	112.44
379.704	91.44
379.929	95.44
380.155	99.44
380.38	96.44
380.606	102.44
380.831	90.44
381.057	103.44
381.282	100.44
381.507	99.44
381.733	94.44
381.958	105.44
382.184	94.44
382.409	113.44
382.634	114.44
382.86	116.44
383.085	110.44
383.31	108.44
383.535	101.44
383.761	98.44
383.986	91.44
384.211	101.44
384.436	113.44
384.662	120.44
384.887	100.44
385.112	122.44
385.337	131.44
385.562	128.44
385.787	113.44
386.013	105.44
386.238	113.44
386.463	98.44
386.688	114.44
386.913	116.44
387.138	134.44
387.363	104.44
387.588	113.44
387.813	112.44
388.038	117.44
388.263	118.44
388.488	116.44
388.713	94.44
388.938	103.44
389.163	93.44
389.387	95.44
389.612	102.44
389.837	102.44
390.062	96.44
390.287	82.44
390.512	107.44
390.736	83.44
390.961	97.44
391.186	95.44
391.411	83.44
391.636	106.44
391.86	96.44
392.085	82.44
392.31	69.44
392.534	83.44
392.759	114.44
392.984	84.44
393.208	88.44
393.433	96.44
393.658	94.44
393.882	84.44
394.107	81.44
394.331	86.44
394.556	90.44
394.78	90.44
395.005	104.44
395.229	86.44
395.454	91.44
395.678	88.44
395.903	92.44
396.127	75.44
396.352	98.44
396.576	94.44
396.801	90.44
397.025	87.44
397.249	82.44
397.474	71.44
397.698	86.44
397.922	93.44
398.147	91.44
398.371	88.44
398.595	105.44
398.82	98.44
399.044	82.44
399.268	97.44
399.492	89.44
399.717	73.44
399.941	101.44
400.165	87.44
400.389	87.44
400.613	99.44
400.837	76.44
401.062	74.44
401.286	97.44
401.51	95.44
401.734	68.44
401.958	103.44
402.182	119.44
402.406	123.44
402.63	107.44
402.854	84.44
403.078	97.44
403.302	99.44
403.526	97.44
403.75	73.44
403.974	73.44
404.198	72.44
404.422	78.44
404.645	79.44
404.869	88.44
405.093	94.44
405.317	96.44
405.541	106.44
405.765	102.44
405.988	125.44
406.212	144.44
406.436	156.44
406.66	108.44
406.883	89.44
407.107	99.44
407.331	96.44
407.555	78.44
407.778	100.44
408.002	75.44
408.226	100.44
408.449	87.44
408.673	72.44
408.896	91.44
409.12	90.44
409.344	96.44
409.567	100.44
409.791	73.44
410.014	86.44
410.238	83.44
410.461	91.44
410.685	92.44
410.908	105.44
411.132	103.44
411.355	88.44
411.578	96.44
411.802	95.44
412.025	94.44
412.249	82.44
412.472	102.44
412.695	99.44
412.919	94.44
413.142	101.44
413.365	94.44
413.589	84.44
413.812	91.44
414.035	94.44
414.258	97.44
414.482	91.44
414.705	102.44
414.928	92.44
415.151	94.44
415.374	86.44
415.597	95.44
415.821	95.44
416.044	97.44
416.267	98.44
416.49	91.44
416.713	99.44
416.936	108.44
417.159	93.44
417.382	86.44
417.605	100.44
417.828	103.44
418.051	90.44
418.274	104.44
418.497	82.44
418.72	87.44
418.943	98.44
419.166	91.44
419.389	98.44
419.611	102.44
419.834	87.44
420.057	95.44
420.28	90.44
420.503	90.44
420.726	86.44
420.948	91.44
421.171	91.44
421.394	77.44
421.617	98.44
421.839	82.44
422.062	90.44
422.285	90.44
422.507	104.44
422.73	81.44
422.953	92.44
423.175	88.44
423.398	94.44
423.621	94.44
423.843	84.44
424.066	85.44
424.288	87.44
424.511	92.44
424.733	92.44
424.956	95.44
425.178	82.44
425.401	91.44
425.623	90.44
425.846	80.44
426.068	110.44
426.291	102.44
426.513	95.44
426.735	94.44
426.958	82.44
427.18	92.44
427.402	126.44
427.625	143.44
427.847	105.44
428.069	115.44
428.292	86.44
428.514	96.44
428.736	71.44
428.958	86.44
429.181	80.44
429.403	85.44
429.625	88.44
429.847	94.44
430.069	98.44
430.292	86.44
430.514	86.44
430.736	92.44
430.958	70.44
431.18	90.44
431.402	77.44
431.624	92.44
431.846	96.44
432.068	88.44
432.29	80.44
432.512	79.44
432.734	75.44
432.956	88.44
433.178	104.44
433.4	77.44
433.622	90.44
433.844	90.44
434.066	96.44
434.287	98.44
434.509	95.44
434.731	94.44
434.953	90.44
435.175	84.44
435.397	84.44
435.618	88.44
435.84	89.44
436.062	106.44
436.284	111.44
436.505	108.44
436.727	88.44
436.949	83.44
437.17	83.44
437.392	88.44
437.614	91.44
437.835	102.44
438.057	120.44
438.278	113.44
438.5	109.44
438.721	115.44
438.943	101.44
439.165	90.44
439.386	88.44
439.608	79.44
439.829	91.44
440.05	103.44
440.272	107.44
440.493	99.44
440.715	86.44
440.936	90.44
441.158	83.44
441.379	94.44
441.6	93.44
441.822	105.44
442.043	93.44
442.264	100.44
442.486	86.44
442.707	92.44
442.928	78.44
443.149	108.44
443.371	96.44
443.592	111.44
443.813	97.44
444.034	99.44
444.255	98.44
444.476	83.44
444.698	83.44
444.919	87.44
445.14	127.44
445.361	105.44
445.582	106.44
445.803	114.44
446.024	115.44
446.245	132.44
446.466	87.44
446.687	89.44
446.908	84.44
447.129	78.44
447.35	82.44
447.571	101.44
447.792	104.44
448.013	91.44
448.234	101.44
448.455	92.44
448.675	105.44
448.896	97.44
449.117	99.44
449.338	82.44
449.559	117.44
449.779	112.44
450	88.44
450.221	91.44
450.442	74.44
450.662	101.44
450.883	104.44
451.104	107.44
451.324	88.44
451.545	90.44
451.766	85.44
451.986	81.44
452.207	89.44
452.428	90.44
452.648	90.44
452.869	107.44
453.089	113.44
453.31	103.44
453.53	92.44
453.751	94.44
453.971	98.44
454.192	98.44
454.412	80.44
454.633	89.44
454.853	86.44
455.073	76.44
455.294	91.44
455.514	91.44
455.734	94.44
455.955	75.44
456.175	70.44
456.395	96.44
456.616	85.44
456.836	78.44
457.056	82.44
457.276	87.44
457.497	92.44
457.717	71.44
457.937	83.44
458.157	78.44
458.377	83.44
458.598	112.44
458.818	112.44
459.038	132.44
459.258	106.44
459.478	79.44
459.698	83.44
459.918	95.44
460.138	79.44
460.358	66.44
460.578	90.44
460.798	89.44
461.018	90.44
461.238	82.44
461.458	84.44
461.678	72.44
461.898	88.44
462.118	98.44
462.338	71.44
462.558	99.44
462.777	79.44
462.997	84.44
463.217	87.44
463.437	91.44
463.657	79.44
463.876	82.44
464.096	80.44
464.316	66.44
464.536	92.44
464.755	93.44
464.975	83.44
465.195	126.44
465.414	129.44
465.634	96.44
465.854	90.44
466.073	89.44
466.293	76.44
466.512	81.44
466.732	91.44
466.951	92.44
467.171	80.44
467.391	95.44
467.61	84.44
467.829	99.44
468.049	87.44
468.268	106.44
468.488	84.44
468.707	94.44
468.927	82.44
469.146	97.44
469.365	84.44
469.585	84.44
469.804	85.44
470.023	98.44
470.243	91.44
470.462	103.44
470.681	106.44
470.901	85.44
471.12	96.44
471.339	88.44
471.558	89.44
471.777	87.44
471.997	68.44
472.216	107.44
472.435	142.44
472.654	87.44
472.873	94.44
473.092	88.44
473.311	86.44
473.53	89.44
473.749	90.44
473.968	83.44
474.187	101.44
474.406	96.44
474.625	76.44
474.844	94.44
475.063	89.44
475.282	94.44
475.501	96.44
475.72	85.44
475.939	87.44
476.158	95.44
476.377	96.44
476.596	89.44
476.814	92.44
477.033	102.44
477.252	84.44
477.471	87.44
477.69	86.44
477.908	82.44
478.127	79.44
478.346	96.44
478.564	88.44
478.783	96.44
479.002	83.44
479.22	80.44
479.439	102.44
479.658	88.44
479.876	86.44
480.095	84.44
480.313	94.44
480.532	82.44
480.751	88.44
480.969	116.44
481.188	172.44
481.406	136.44
481.624	81.44
481.843	88.44
482.061	85.44
482.28	76.44
482.498	85.44
482.717	97.44
482.935	99.44
483.153	90.44
483.372	90.44
483.59	88.44
483.808	94.44
484.027	98.44
484.245	81.44
484.463	98.44
484.681	105.44
484.9	90.44
485.118	100.44
485.336	106.44
485.554	107.44
485.772	102.44
485.99	105.44
486.209	107.44
486.427	115.44
486.645	104.44
486.863	95.44
487.081	101.44
487.299	96.44
487.517	99.44
487.735	107.44
487.953	96.44
488.171	96.44
488.389	96.44
488.607	98.44
488.825	76.44
489.043	78.44
489.261	99.44
489.479	90.44
489.696	84.44
489.914	93.44
490.132	88.44
490.35	83.44
490.568	96.44
490.786	97.44
491.003	84.44
491.221	83.44
491.439	105.44
491.657	89.44
491.874	84.44
492.092	92.44
492.31	95.44
492.527	81.44
492.745	86.44
492.963	93.44
493.18	70.44
493.398	87.44
493.615	107.44
493.833	105.44
494.05	92.44
494.268	97.44
494.485	75.44
494.703	89.44
494.92	97.44
495.138	79.44
495.355	84.44
495.573	87.44
495.79	86.44
496.008	88.44
496.225	87.44
496.442	112.44
496.66	94.44
496.877	87.44
497.094	100.44
497.312	94.44
497.529	86.44
497.746	97.44
497.963	88.44
498.181	99.44
498.398	96.44
498.615	111.44
498.832	94.44
499.049	96.44
499.267	90.44
499.484	87.44
499.701	75.44
499.918	94.44
500.135	88.44
500.352	79.44
500.569	97.44
500.786	102.44
501.003	78.44
501.22	84.44
501.437	95.44
501.654	71.44
501.871	95.44
502.088	88.44
502.305	79.44
502.522	87.44
502.739	85.44
502.956	96.44
503.172	99.44
503.389	87.44
503.606	114.44
503.823	82.44
504.04	99.44
504.256	90.44
504.473	82.44
504.69	96.44
504.907	92.44
505.123	72.44
505.34	89.44
505.557	77.44
505.773	97.44
505.99	101.44
506.207	77.44
506.423	87.44
506.64	90.44
506.856	75.44
507.073	103.44
507.289	103.44
507.506	99.44
507.722	115.44
507.939	96.44
508.155	85.44
508.372	101.44
508.588	90.44
508.805	90.44
509.021	82.44
509.238	89.44
509.454	92.44
509.67	110.44
509.887	121.44
510.103	123.44
510.319	176.44
510.536	564.44
510.752	1660.44
510.968	487.44
511.184	135.44
511.401	88.44
511.617	95.44
511.833	91.44
512.049	100.44
512.265	100.44
512.481	100.44
512.698	106.44
512.914	87.44
513.13	99.44
513.346	94.44
513.562	94.44
513.778	95.44
513.994	105.44
514.21	98.44
514.426	91.44
514.642	126.44
514.858	117.44
515.074	143.44
515.29	331.44
515.506	972.44
515.721	357.44
515.937	129.44
516.153	86.44
