Data from Circ_1986_H10_HRD10591_00057.txt Node
Date: Wed Jan 03 12:15:37 EST 2024
User: Yrep
Spectrometer: HR+D1059
Trigger mode: 1
Integration Time (sec): 1.000000E-1
Scans to average: 1
Electric dark correction enabled: true
Nonlinearity correction enabled: false
Boxcar width: 0
XAxis mode: Wavelengths
Number of Pixels in Spectrum: 2048
>>>>>Begin Spectral Data<<<<<
223.165	-20.69
223.4	-20.69
223.635	-20.69
223.869	-6.69
224.104	-18.69
224.338	-24.69
224.573	-12.69
224.808	-4.69
225.042	-2.69
225.277	-1.69
225.511	0.31
225.746	-12.69
225.98	1.31
226.215	13.31
226.449	20.31
226.683	4.31
226.918	27.31
227.152	38.31
227.387	20.31
227.621	41.31
227.856	59.31
228.09	27.31
228.324	50.31
228.559	43.31
228.793	66.31
229.027	52.31
229.262	69.31
229.496	64.31
229.73	77.31
229.964	78.31
230.199	75.31
230.433	91.31
230.667	67.31
230.901	70.31
231.136	82.31
231.37	79.31
231.604	87.31
231.838	96.31
232.072	78.31
232.306	73.31
232.541	89.31
232.775	51.31
233.009	79.31
233.243	73.31
233.477	86.31
233.711	83.31
233.945	66.31
234.179	82.31
234.413	81.31
234.647	73.31
234.881	78.31
235.115	81.31
235.349	75.31
235.583	73.31
235.817	72.31
236.051	91.31
236.285	84.31
236.519	69.31
236.753	90.31
236.987	78.31
237.221	80.31
237.455	73.31
237.689	73.31
237.922	78.31
238.156	75.31
238.39	70.31
238.624	61.31
238.858	81.31
239.091	72.31
239.325	90.31
239.559	92.31
239.793	71.31
240.027	72.31
240.26	71.31
240.494	83.31
240.728	55.31
240.961	77.31
241.195	71.31
241.429	59.31
241.662	70.31
241.896	75.31
242.13	77.31
242.363	86.31
242.597	81.31
242.83	67.31
243.064	93.31
243.298	68.31
243.531	84.31
243.765	67.31
243.998	79.31
244.232	64.31
244.465	72.31
244.699	85.31
244.932	72.31
245.166	75.31
245.399	91.31
245.633	78.31
245.866	71.31
246.099	73.31
246.333	70.31
246.566	67.31
246.8	78.31
247.033	68.31
247.266	66.31
247.5	74.31
247.733	59.31
247.966	77.31
248.2	72.31
248.433	68.31
248.666	85.31
248.899	78.31
249.133	70.31
249.366	77.31
249.599	89.31
249.832	65.31
250.066	65.31
250.299	91.31
250.532	77.31
250.765	74.31
250.998	84.31
251.231	64.31
251.465	88.31
251.698	87.31
251.931	75.31
252.164	80.31
252.397	85.31
252.63	68.31
252.863	68.31
253.096	83.31
253.329	91.31
253.562	83.31
253.795	74.31
254.028	68.31
254.261	95.31
254.494	84.31
254.727	73.31
254.96	84.31
255.193	70.31
255.426	71.31
255.659	84.31
255.892	85.31
256.124	87.31
256.357	79.31
256.59	75.31
256.823	66.31
257.056	77.31
257.289	88.31
257.521	68.31
257.754	83.31
257.987	65.31
258.22	85.31
258.452	79.31
258.685	73.31
258.918	78.31
259.151	85.31
259.383	85.31
259.616	76.31
259.849	81.31
260.081	77.31
260.314	81.31
260.547	78.31
260.779	81.31
261.012	72.31
261.244	79.31
261.477	83.31
261.71	77.31
261.942	95.31
262.175	106.31
262.407	86.31
262.64	83.31
262.872	67.31
263.105	80.31
263.337	80.31
263.57	79.31
263.802	93.31
264.035	94.31
264.267	91.31
264.499	72.31
264.732	75.31
264.964	101.31
265.197	81.31
265.429	79.31
265.661	72.31
265.894	86.31
266.126	78.31
266.358	68.31
266.591	76.31
266.823	76.31
267.055	80.31
267.287	76.31
267.52	84.31
267.752	92.31
267.984	89.31
268.216	79.31
268.448	79.31
268.681	80.31
268.913	72.31
269.145	83.31
269.377	92.31
269.609	75.31
269.841	69.31
270.073	75.31
270.306	79.31
270.538	86.31
270.77	79.31
271.002	83.31
271.234	95.31
271.466	69.31
271.698	80.31
271.93	77.31
272.162	79.31
272.394	82.31
272.626	84.31
272.858	83.31
273.09	85.31
273.322	86.31
273.553	82.31
273.785	69.31
274.017	75.31
274.249	84.31
274.481	89.31
274.713	81.31
274.945	82.31
275.176	81.31
275.408	99.31
275.64	81.31
275.872	90.31
276.104	92.31
276.335	86.31
276.567	78.31
276.799	97.31
277.031	91.31
277.262	77.31
277.494	79.31
277.726	84.31
277.957	85.31
278.189	100.31
278.421	86.31
278.652	80.31
278.884	89.31
279.115	76.31
279.347	88.31
279.579	97.31
279.81	80.31
280.042	72.31
280.273	83.31
280.505	82.31
280.736	89.31
280.968	85.31
281.199	89.31
281.431	65.31
281.662	97.31
281.894	91.31
282.125	88.31
282.356	98.31
282.588	124.31
282.819	108.31
283.051	78.31
283.282	88.31
283.513	83.31
283.745	82.31
283.976	79.31
284.207	77.31
284.439	78.31
284.67	72.31
284.901	81.31
285.132	81.31
285.364	82.31
285.595	87.31
285.826	96.31
286.057	84.31
286.288	91.31
286.52	88.31
286.751	84.31
286.982	88.31
287.213	73.31
287.444	92.31
287.675	85.31
287.906	92.31
288.138	84.31
288.369	87.31
288.6	92.31
288.831	95.31
289.062	86.31
289.293	75.31
289.524	86.31
289.755	81.31
289.986	65.31
290.217	73.31
290.448	86.31
290.679	86.31
290.91	84.31
291.141	81.31
291.371	79.31
291.602	81.31
291.833	91.31
292.064	91.31
292.295	92.31
292.526	71.31
292.757	85.31
292.987	95.31
293.218	95.31
293.449	88.31
293.68	86.31
293.91	82.31
294.141	96.31
294.372	71.31
294.603	81.31
294.833	86.31
295.064	95.31
295.295	90.31
295.525	103.31
295.756	87.31
295.987	99.31
296.217	113.31
296.448	98.31
296.679	83.31
296.909	79.31
297.14	92.31
297.37	93.31
297.601	89.31
297.831	90.31
298.062	81.31
298.292	84.31
298.523	86.31
298.753	78.31
298.984	84.31
299.214	62.31
299.445	85.31
299.675	83.31
299.905	81.31
300.136	85.31
300.366	94.31
300.597	94.31
300.827	79.31
301.057	97.31
301.288	95.31
301.518	99.31
301.748	89.31
301.979	98.31
302.209	90.31
302.439	76.31
302.669	92.31
302.9	91.31
303.13	82.31
303.36	87.31
303.59	87.31
303.82	99.31
304.051	100.31
304.281	96.31
304.511	91.31
304.741	87.31
304.971	79.31
305.201	101.31
305.431	88.31
305.661	100.31
305.891	95.31
306.121	86.31
306.352	94.31
306.582	99.31
306.812	96.31
307.042	79.31
307.272	88.31
307.502	112.31
307.731	90.31
307.961	98.31
308.191	85.31
308.421	91.31
308.651	87.31
308.881	80.31
309.111	98.31
309.341	97.31
309.571	94.31
309.8	88.31
310.03	81.31
310.26	81.31
310.49	82.31
310.72	76.31
310.949	109.31
311.179	102.31
311.409	84.31
311.639	76.31
311.868	76.31
312.098	93.31
312.328	91.31
312.557	83.31
312.787	97.31
313.017	91.31
313.246	86.31
313.476	83.31
313.706	93.31
313.935	85.31
314.165	87.31
314.394	78.31
314.624	87.31
314.853	93.31
315.083	97.31
315.312	90.31
315.542	95.31
315.771	96.31
316.001	87.31
316.23	80.31
316.46	84.31
316.689	78.31
316.919	76.31
317.148	86.31
317.377	102.31
317.607	97.31
317.836	106.31
318.065	87.31
318.295	89.31
318.524	94.31
318.753	101.31
318.983	81.31
319.212	97.31
319.441	103.31
319.67	94.31
319.9	93.31
320.129	95.31
320.358	89.31
320.587	86.31
320.816	89.31
321.046	96.31
321.275	107.31
321.504	92.31
321.733	91.31
321.962	93.31
322.191	88.31
322.42	98.31
322.649	107.31
322.878	96.31
323.108	103.31
323.337	98.31
323.566	121.31
323.795	135.31
324.024	173.31
324.253	307.31
324.482	639.31
324.71	1278.31
324.939	1714.31
325.168	644.31
325.397	211.31
325.626	132.31
325.855	109.31
326.084	116.31
326.313	125.31
326.542	133.31
326.77	179.31
326.999	357.31
327.228	715.31
327.457	1285.31
327.686	1050.31
327.914	294.31
328.143	171.31
328.372	137.31
328.6	112.31
328.829	106.31
329.058	117.31
329.287	113.31
329.515	86.31
329.744	101.31
329.972	116.31
330.201	147.31
330.43	167.31
330.658	130.31
330.887	113.31
331.115	102.31
331.344	105.31
331.572	97.31
331.801	104.31
332.03	95.31
332.258	85.31
332.486	79.31
332.715	86.31
332.943	84.31
333.172	87.31
333.4	88.31
333.629	113.31
333.857	109.31
334.085	122.31
334.314	141.31
334.542	194.31
334.771	189.31
334.999	111.31
335.227	97.31
335.455	86.31
335.684	88.31
335.912	88.31
336.14	84.31
336.369	85.31
336.597	75.31
336.825	89.31
337.053	94.31
337.281	92.31
337.51	80.31
337.738	90.31
337.966	96.31
338.194	96.31
338.422	96.31
338.65	80.31
338.878	85.31
339.106	85.31
339.334	75.31
339.562	91.31
339.79	84.31
340.018	100.31
340.246	89.31
340.474	94.31
340.702	102.31
340.93	89.31
341.158	86.31
341.386	95.31
341.614	92.31
341.842	79.31
342.07	80.31
342.298	82.31
342.526	98.31
342.754	67.31
342.981	86.31
343.209	83.31
343.437	105.31
343.665	63.31
343.893	86.31
344.12	83.31
344.348	84.31
344.576	77.31
344.804	86.31
345.031	90.31
345.259	96.31
345.487	93.31
345.714	100.31
345.942	103.31
346.17	88.31
346.397	91.31
346.625	82.31
346.853	93.31
347.08	85.31
347.308	93.31
347.535	91.31
347.763	89.31
347.99	116.31
348.218	103.31
348.445	87.31
348.673	92.31
348.9	96.31
349.128	97.31
349.355	97.31
349.583	104.31
349.81	98.31
350.037	85.31
350.265	78.31
350.492	93.31
350.72	81.31
350.947	86.31
351.174	117.31
351.402	103.31
351.629	85.31
351.856	77.31
352.083	81.31
352.311	93.31
352.538	83.31
352.765	115.31
352.992	116.31
353.22	100.31
353.447	88.31
353.674	97.31
353.901	99.31
354.128	100.31
354.355	101.31
354.583	102.31
354.81	91.31
355.037	100.31
355.264	103.31
355.491	85.31
355.718	77.31
355.945	96.31
356.172	90.31
356.399	96.31
356.626	86.31
356.853	85.31
357.08	100.31
357.307	96.31
357.534	94.31
357.761	106.31
357.988	93.31
358.215	109.31
358.441	88.31
358.668	83.31
358.895	87.31
359.122	98.31
359.349	91.31
359.576	95.31
359.802	106.31
360.029	105.31
360.256	98.31
360.483	101.31
360.709	92.31
360.936	92.31
361.163	86.31
361.39	81.31
361.616	86.31
361.843	99.31
362.07	84.31
362.296	88.31
362.523	100.31
362.749	105.31
362.976	91.31
363.203	94.31
363.429	88.31
363.656	91.31
363.882	96.31
364.109	81.31
364.335	97.31
364.562	79.31
364.788	84.31
365.015	78.31
365.241	93.31
365.468	97.31
365.694	96.31
365.92	91.31
366.147	81.31
366.373	94.31
366.599	85.31
366.826	80.31
367.052	82.31
367.278	83.31
367.505	88.31
367.731	93.31
367.957	77.31
368.184	83.31
368.41	89.31
368.636	115.31
368.862	104.31
369.089	113.31
369.315	99.31
369.541	91.31
369.767	82.31
369.993	92.31
370.219	88.31
370.445	80.31
370.672	89.31
370.898	67.31
371.124	84.31
371.35	97.31
371.576	83.31
371.802	87.31
372.028	94.31
372.254	83.31
372.48	86.31
372.706	74.31
372.932	76.31
373.158	89.31
373.384	93.31
373.61	87.31
373.835	82.31
374.061	84.31
374.287	77.31
374.513	71.31
374.739	87.31
374.965	69.31
375.191	87.31
375.416	97.31
375.642	83.31
375.868	91.31
376.094	79.31
376.319	83.31
376.545	87.31
376.771	92.31
376.997	90.31
377.222	99.31
377.448	99.31
377.674	93.31
377.899	77.31
378.125	96.31
378.35	88.31
378.576	84.31
378.802	96.31
379.027	84.31
379.253	89.31
379.478	88.31
379.704	88.31
379.929	92.31
380.155	91.31
380.38	97.31
380.606	84.31
380.831	84.31
381.057	101.31
381.282	99.31
381.507	93.31
381.733	104.31
381.958	77.31
382.184	103.31
382.409	91.31
382.634	97.31
382.86	90.31
383.085	104.31
383.31	92.31
383.535	94.31
383.761	97.31
383.986	95.31
384.211	88.31
384.436	88.31
384.662	97.31
384.887	95.31
385.112	110.31
385.337	111.31
385.562	99.31
385.787	103.31
386.013	108.31
386.238	102.31
386.463	101.31
386.688	112.31
386.913	104.31
387.138	99.31
387.363	105.31
387.588	93.31
387.813	102.31
388.038	110.31
388.263	96.31
388.488	100.31
388.713	84.31
388.938	86.31
389.163	96.31
389.387	83.31
389.612	105.31
389.837	85.31
390.062	77.31
390.287	79.31
390.512	81.31
390.736	96.31
390.961	92.31
391.186	88.31
391.411	92.31
391.636	84.31
391.86	82.31
392.085	77.31
392.31	91.31
392.534	84.31
392.759	86.31
392.984	85.31
393.208	80.31
393.433	81.31
393.658	94.31
393.882	80.31
394.107	85.31
394.331	77.31
394.556	66.31
394.78	80.31
395.005	93.31
395.229	79.31
395.454	91.31
395.678	85.31
395.903	91.31
396.127	95.31
396.352	96.31
396.576	73.31
396.801	87.31
397.025	79.31
397.249	89.31
397.474	103.31
397.698	85.31
397.922	85.31
398.147	95.31
398.371	77.31
398.595	80.31
398.82	93.31
399.044	71.31
399.268	66.31
399.492	84.31
399.717	88.31
399.941	85.31
400.165	88.31
400.389	97.31
400.613	98.31
400.837	89.31
401.062	81.31
401.286	92.31
401.51	92.31
401.734	87.31
401.958	96.31
402.182	112.31
402.406	125.31
402.63	87.31
402.854	86.31
403.078	94.31
403.302	86.31
403.526	84.31
403.75	95.31
403.974	89.31
404.198	85.31
404.422	77.31
404.645	69.31
404.869	90.31
405.093	84.31
405.317	100.31
405.541	86.31
405.765	95.31
405.988	97.31
406.212	148.31
406.436	171.31
406.66	113.31
406.883	86.31
407.107	88.31
407.331	85.31
407.555	105.31
407.778	94.31
408.002	79.31
408.226	77.31
408.449	88.31
408.673	84.31
408.896	98.31
409.12	87.31
409.344	94.31
409.567	78.31
409.791	87.31
410.014	75.31
410.238	79.31
410.461	96.31
410.685	93.31
410.908	110.31
411.132	104.31
411.355	91.31
411.578	96.31
411.802	84.31
412.025	91.31
412.249	93.31
412.472	79.31
412.695	92.31
412.919	86.31
413.142	83.31
413.365	75.31
413.589	79.31
413.812	92.31
414.035	69.31
414.258	100.31
414.482	83.31
414.705	93.31
414.928	101.31
415.151	95.31
415.374	100.31
415.597	85.31
415.821	81.31
416.044	96.31
416.267	92.31
416.49	100.31
416.713	82.31
416.936	94.31
417.159	101.31
417.382	82.31
417.605	76.31
417.828	96.31
418.051	96.31
418.274	87.31
418.497	90.31
418.72	73.31
418.943	98.31
419.166	83.31
419.389	99.31
419.611	89.31
419.834	72.31
420.057	75.31
420.28	79.31
420.503	87.31
420.726	92.31
420.948	86.31
421.171	95.31
421.394	80.31
421.617	91.31
421.839	83.31
422.062	79.31
422.285	96.31
422.507	94.31
422.73	90.31
422.953	88.31
423.175	77.31
423.398	76.31
423.621	83.31
423.843	80.31
424.066	68.31
424.288	68.31
424.511	80.31
424.733	86.31
424.956	96.31
425.178	80.31
425.401	96.31
425.623	95.31
425.846	93.31
426.068	75.31
426.291	96.31
426.513	78.31
426.735	89.31
426.958	79.31
427.18	97.31
427.402	108.31
427.625	120.31
427.847	124.31
428.069	114.31
428.292	88.31
428.514	84.31
428.736	84.31
428.958	71.31
429.181	88.31
429.403	88.31
429.625	87.31
429.847	90.31
430.069	77.31
430.292	83.31
430.514	96.31
430.736	83.31
430.958	77.31
431.18	72.31
431.402	77.31
431.624	95.31
431.846	90.31
432.068	87.31
432.29	87.31
432.512	85.31
432.734	77.31
432.956	79.31
433.178	88.31
433.4	104.31
433.622	94.31
433.844	85.31
434.066	80.31
434.287	94.31
434.509	76.31
434.731	88.31
434.953	77.31
435.175	78.31
435.397	99.31
435.618	85.31
435.84	86.31
436.062	104.31
436.284	95.31
436.505	95.31
436.727	85.31
436.949	76.31
437.17	81.31
437.392	87.31
437.614	89.31
437.835	81.31
438.057	99.31
438.278	91.31
438.5	85.31
438.721	96.31
438.943	77.31
439.165	82.31
439.386	75.31
439.608	71.31
439.829	100.31
440.05	109.31
440.272	109.31
440.493	81.31
440.715	89.31
440.936	90.31
441.158	89.31
441.379	65.31
441.6	83.31
441.822	80.31
442.043	87.31
442.264	88.31
442.486	102.31
442.707	89.31
442.928	89.31
443.149	105.31
443.371	121.31
443.592	99.31
443.813	107.31
444.034	101.31
444.255	77.31
444.476	80.31
444.698	80.31
444.919	79.31
445.14	119.31
445.361	116.31
445.582	102.31
445.803	123.31
446.024	115.31
446.245	99.31
446.466	105.31
446.687	92.31
446.908	93.31
447.129	69.31
447.35	79.31
447.571	82.31
447.792	80.31
448.013	95.31
448.234	97.31
448.455	79.31
448.675	105.31
448.896	108.31
449.117	96.31
449.338	92.31
449.559	121.31
449.779	120.31
450	88.31
450.221	81.31
450.442	90.31
450.662	100.31
450.883	95.31
451.104	108.31
451.324	86.31
451.545	82.31
451.766	82.31
451.986	79.31
452.207	95.31
452.428	78.31
452.648	91.31
452.869	98.31
453.089	115.31
453.31	107.31
453.53	73.31
453.751	77.31
453.971	103.31
454.192	90.31
454.412	81.31
454.633	84.31
454.853	69.31
455.073	83.31
455.294	80.31
455.514	108.31
455.734	91.31
455.955	95.31
456.175	66.31
456.395	69.31
456.616	91.31
456.836	85.31
457.056	76.31
457.276	85.31
457.497	85.31
457.717	92.31
457.937	83.31
458.157	89.31
458.377	89.31
458.598	98.31
458.818	122.31
459.038	118.31
459.258	88.31
459.478	78.31
459.698	83.31
459.918	86.31
460.138	71.31
460.358	66.31
460.578	86.31
460.798	95.31
461.018	79.31
461.238	89.31
461.458	87.31
461.678	77.31
461.898	83.31
462.118	84.31
462.338	83.31
462.558	79.31
462.777	76.31
462.997	67.31
463.217	85.31
463.437	76.31
463.657	88.31
463.876	77.31
464.096	82.31
464.316	92.31
464.536	88.31
464.755	74.31
464.975	85.31
465.195	130.31
465.414	134.31
465.634	79.31
465.854	78.31
466.073	78.31
466.293	86.31
466.512	80.31
466.732	78.31
466.951	85.31
467.171	96.31
467.391	91.31
467.61	114.31
467.829	90.31
468.049	110.31
468.268	116.31
468.488	69.31
468.707	79.31
468.927	70.31
469.146	83.31
469.365	87.31
469.585	86.31
469.804	73.31
470.023	92.31
470.243	93.31
470.462	77.31
470.681	105.31
470.901	79.31
471.12	77.31
471.339	84.31
471.558	79.31
471.777	75.31
471.997	86.31
472.216	153.31
472.435	228.31
472.654	115.31
472.873	93.31
473.092	83.31
473.311	77.31
473.53	92.31
473.749	84.31
473.968	111.31
474.187	81.31
474.406	84.31
474.625	99.31
474.844	95.31
475.063	95.31
475.282	83.31
475.501	85.31
475.72	73.31
475.939	87.31
476.158	81.31
476.377	72.31
476.596	74.31
476.814	91.31
477.033	87.31
477.252	92.31
477.471	83.31
477.69	86.31
477.908	89.31
478.127	88.31
478.346	72.31
478.564	89.31
478.783	96.31
479.002	81.31
479.22	83.31
479.439	91.31
479.658	95.31
479.876	105.31
480.095	80.31
480.313	57.31
480.532	86.31
480.751	93.31
480.969	149.31
481.188	371.31
481.406	248.31
481.624	128.31
481.843	97.31
482.061	83.31
482.28	90.31
482.498	88.31
482.717	77.31
482.935	79.31
483.153	77.31
483.372	98.31
483.59	84.31
483.808	84.31
484.027	83.31
484.245	88.31
484.463	84.31
484.681	92.31
484.9	88.31
485.118	95.31
485.336	97.31
485.554	83.31
485.772	105.31
485.99	103.31
486.209	103.31
486.427	89.31
486.645	110.31
486.863	96.31
487.081	96.31
487.299	90.31
487.517	100.31
487.735	88.31
487.953	86.31
488.171	92.31
488.389	87.31
488.607	95.31
488.825	80.31
489.043	81.31
489.261	83.31
489.479	72.31
489.696	86.31
489.914	90.31
490.132	83.31
490.35	91.31
490.568	88.31
490.786	92.31
491.003	81.31
491.221	91.31
491.439	85.31
491.657	85.31
491.874	91.31
492.092	81.31
492.31	90.31
492.527	76.31
492.745	91.31
492.963	89.31
493.18	102.31
493.398	82.31
493.615	89.31
493.833	85.31
494.05	85.31
494.268	94.31
494.485	94.31
494.703	82.31
494.92	87.31
495.138	88.31
495.355	80.31
495.573	97.31
495.79	100.31
496.008	84.31
496.225	87.31
496.442	69.31
496.66	77.31
496.877	86.31
497.094	91.31
497.312	78.31
497.529	86.31
497.746	93.31
497.963	89.31
498.181	99.31
498.398	97.31
498.615	92.31
498.832	91.31
499.049	80.31
499.267	90.31
499.484	84.31
499.701	87.31
499.918	75.31
500.135	83.31
500.352	79.31
500.569	80.31
500.786	91.31
501.003	90.31
501.22	83.31
501.437	79.31
501.654	88.31
501.871	103.31
502.088	79.31
502.305	87.31
502.522	79.31
502.739	96.31
502.956	89.31
503.172	97.31
503.389	85.31
503.606	92.31
503.823	86.31
504.04	78.31
504.256	89.31
504.473	98.31
504.69	100.31
504.907	95.31
505.123	74.31
505.34	79.31
505.557	86.31
505.773	88.31
505.99	96.31
506.207	84.31
506.423	96.31
506.64	86.31
506.856	80.31
507.073	83.31
507.289	91.31
507.506	81.31
507.722	105.31
507.939	105.31
508.155	87.31
508.372	75.31
508.588	81.31
508.805	92.31
509.021	87.31
509.238	94.31
509.454	107.31
509.67	100.31
509.887	102.31
510.103	106.31
510.319	175.31
510.536	613.31
510.752	1757.31
510.968	507.31
511.184	127.31
511.401	104.31
511.617	95.31
511.833	74.31
512.049	86.31
512.265	88.31
512.481	85.31
512.698	69.31
512.914	92.31
513.13	94.31
513.346	68.31
513.562	84.31
513.778	90.31
513.994	93.31
514.21	97.31
514.426	102.31
514.642	90.31
514.858	128.31
515.074	136.31
515.29	352.31
515.506	1054.31
515.721	407.31
515.937	125.31
516.153	91.31
516.369	93.31
516.585	85.31
516.801	87.31
517.016	87.31
517.232	104.31
