Data from Circ_1986_H10_HRD10591_00024.txt Node
Date: Wed Jan 03 12:15:30 EST 2024
User: Yrep
Spectrometer: HR+D1059
Trigger mode: 1
Integration Time (sec): 1.000000E-1
Scans to average: 1
Electric dark correction enabled: true
Nonlinearity correction enabled: false
Boxcar width: 0
XAxis mode: Wavelengths
Number of Pixels in Spectrum: 2048
>>>>>Begin Spectral Data<<<<<
223.165	-20.56
223.4	-20.56
223.635	-20.56
223.869	-8.56
224.104	-31.56
224.338	-24.56
224.573	1.44
224.808	-23.56
225.042	-9.56
225.277	1.44
225.511	5.44
225.746	12.44
225.98	5.44
226.215	7.44
226.449	4.44
226.683	28.44
226.918	28.44
227.152	23.44
227.387	39.44
227.621	35.44
227.856	37.44
228.09	50.44
228.324	59.44
228.559	61.44
228.793	63.44
229.027	66.44
229.262	64.44
229.496	58.44
229.73	77.44
229.964	71.44
230.199	69.44
230.433	64.44
230.667	80.44
230.901	82.44
231.136	90.44
231.37	94.44
231.604	82.44
231.838	90.44
232.072	83.44
232.306	85.44
232.541	89.44
232.775	94.44
233.009	89.44
233.243	79.44
233.477	70.44
233.711	74.44
233.945	87.44
234.179	82.44
234.413	80.44
234.647	82.44
234.881	89.44
235.115	109.44
235.349	79.44
235.583	79.44
235.817	66.44
236.051	82.44
236.285	73.44
236.519	75.44
236.753	73.44
236.987	72.44
237.221	73.44
237.455	83.44
237.689	88.44
237.922	81.44
238.156	70.44
238.39	65.44
238.624	64.44
238.858	87.44
239.091	85.44
239.325	70.44
239.559	97.44
239.793	91.44
240.027	79.44
240.26	74.44
240.494	77.44
240.728	85.44
240.961	86.44
241.195	75.44
241.429	81.44
241.662	85.44
241.896	73.44
242.13	73.44
242.363	93.44
242.597	89.44
242.83	81.44
243.064	84.44
243.298	84.44
243.531	86.44
243.765	85.44
243.998	75.44
244.232	81.44
244.465	87.44
244.699	80.44
244.932	85.44
245.166	78.44
245.399	85.44
245.633	71.44
245.866	74.44
246.099	67.44
246.333	74.44
246.566	68.44
246.8	86.44
247.033	81.44
247.266	94.44
247.5	68.44
247.733	73.44
247.966	78.44
248.2	85.44
248.433	69.44
248.666	86.44
248.899	72.44
249.133	93.44
249.366	98.44
249.599	77.44
249.832	69.44
250.066	84.44
250.299	92.44
250.532	72.44
250.765	74.44
250.998	79.44
251.231	83.44
251.465	67.44
251.698	87.44
251.931	89.44
252.164	86.44
252.397	77.44
252.63	79.44
252.863	89.44
253.096	87.44
253.329	93.44
253.562	91.44
253.795	91.44
254.028	74.44
254.261	69.44
254.494	90.44
254.727	93.44
254.96	98.44
255.193	85.44
255.426	83.44
255.659	64.44
255.892	79.44
256.124	83.44
256.357	76.44
256.59	76.44
256.823	84.44
257.056	103.44
257.289	79.44
257.521	95.44
257.754	85.44
257.987	81.44
258.22	86.44
258.452	86.44
258.685	82.44
258.918	77.44
259.151	90.44
259.383	82.44
259.616	85.44
259.849	79.44
260.081	82.44
260.314	68.44
260.547	65.44
260.779	72.44
261.012	75.44
261.244	86.44
261.477	99.44
261.71	84.44
261.942	86.44
262.175	104.44
262.407	93.44
262.64	92.44
262.872	74.44
263.105	87.44
263.337	86.44
263.57	91.44
263.802	87.44
264.035	87.44
264.267	81.44
264.499	98.44
264.732	90.44
264.964	83.44
265.197	86.44
265.429	68.44
265.661	89.44
265.894	96.44
266.126	88.44
266.358	91.44
266.591	81.44
266.823	73.44
267.055	83.44
267.287	84.44
267.52	88.44
267.752	79.44
267.984	88.44
268.216	92.44
268.448	100.44
268.681	92.44
268.913	62.44
269.145	89.44
269.377	97.44
269.609	87.44
269.841	77.44
270.073	82.44
270.306	92.44
270.538	84.44
270.77	81.44
271.002	76.44
271.234	78.44
271.466	87.44
271.698	95.44
271.93	95.44
272.162	80.44
272.394	83.44
272.626	101.44
272.858	80.44
273.09	76.44
273.322	94.44
273.553	95.44
273.785	83.44
274.017	98.44
274.249	80.44
274.481	93.44
274.713	83.44
274.945	83.44
275.176	99.44
275.408	83.44
275.64	85.44
275.872	96.44
276.104	89.44
276.335	97.44
276.567	83.44
276.799	110.44
277.031	92.44
277.262	87.44
277.494	85.44
277.726	88.44
277.957	79.44
278.189	77.44
278.421	81.44
278.652	74.44
278.884	79.44
279.115	93.44
279.347	90.44
279.579	92.44
279.81	98.44
280.042	95.44
280.273	98.44
280.505	104.44
280.736	98.44
280.968	95.44
281.199	82.44
281.431	91.44
281.662	83.44
281.894	85.44
282.125	96.44
282.356	98.44
282.588	123.44
282.819	109.44
283.051	97.44
283.282	96.44
283.513	98.44
283.745	105.44
283.976	79.44
284.207	83.44
284.439	101.44
284.67	90.44
284.901	83.44
285.132	88.44
285.364	81.44
285.595	85.44
285.826	73.44
286.057	83.44
286.288	71.44
286.52	90.44
286.751	85.44
286.982	99.44
287.213	77.44
287.444	80.44
287.675	84.44
287.906	82.44
288.138	85.44
288.369	89.44
288.6	97.44
288.831	86.44
289.062	96.44
289.293	81.44
289.524	94.44
289.755	75.44
289.986	94.44
290.217	74.44
290.448	106.44
290.679	89.44
290.91	85.44
291.141	80.44
291.371	86.44
291.602	97.44
291.833	101.44
292.064	96.44
292.295	90.44
292.526	77.44
292.757	79.44
292.987	85.44
293.218	79.44
293.449	86.44
293.68	101.44
293.91	92.44
294.141	90.44
294.372	79.44
294.603	91.44
294.833	103.44
295.064	86.44
295.295	94.44
295.525	85.44
295.756	104.44
295.987	100.44
296.217	120.44
296.448	128.44
296.679	88.44
296.909	99.44
297.14	89.44
297.37	94.44
297.601	91.44
297.831	105.44
298.062	89.44
298.292	108.44
298.523	100.44
298.753	105.44
298.984	81.44
299.214	88.44
299.445	82.44
299.675	83.44
299.905	81.44
300.136	117.44
300.366	95.44
300.597	107.44
300.827	95.44
301.057	87.44
301.288	97.44
301.518	101.44
301.748	92.44
301.979	96.44
302.209	88.44
302.439	83.44
302.669	72.44
302.9	93.44
303.13	77.44
303.36	92.44
303.59	100.44
303.82	102.44
304.051	91.44
304.281	88.44
304.511	82.44
304.741	71.44
304.971	94.44
305.201	87.44
305.431	80.44
305.661	89.44
305.891	88.44
306.121	93.44
306.352	105.44
306.582	101.44
306.812	80.44
307.042	88.44
307.272	97.44
307.502	93.44
307.731	100.44
307.961	93.44
308.191	77.44
308.421	84.44
308.651	92.44
308.881	100.44
309.111	99.44
309.341	85.44
309.571	73.44
309.8	87.44
310.03	100.44
310.26	96.44
310.49	91.44
310.72	97.44
310.949	104.44
311.179	92.44
311.409	81.44
311.639	85.44
311.868	104.44
312.098	98.44
312.328	96.44
312.557	107.44
312.787	108.44
313.017	85.44
313.246	83.44
313.476	97.44
313.706	100.44
313.935	90.44
314.165	100.44
314.394	83.44
314.624	108.44
314.853	88.44
315.083	90.44
315.312	88.44
315.542	84.44
315.771	77.44
316.001	99.44
316.23	90.44
316.46	85.44
316.689	103.44
316.919	77.44
317.148	75.44
317.377	87.44
317.607	89.44
317.836	93.44
318.065	92.44
318.295	91.44
318.524	98.44
318.753	81.44
318.983	98.44
319.212	95.44
319.441	111.44
319.67	96.44
319.9	83.44
320.129	107.44
320.358	101.44
320.587	91.44
320.816	92.44
321.046	100.44
321.275	94.44
321.504	86.44
321.733	101.44
321.962	91.44
322.191	94.44
322.42	106.44
322.649	119.44
322.878	105.44
323.108	116.44
323.337	108.44
323.566	106.44
323.795	126.44
324.024	177.44
324.253	302.44
324.482	643.44
324.71	1262.44
324.939	1661.44
325.168	621.44
325.397	204.44
325.626	129.44
325.855	122.44
326.084	129.44
326.313	127.44
326.542	135.44
326.77	190.44
326.999	350.44
327.228	722.44
327.457	1331.44
327.686	1060.44
327.914	308.44
328.143	183.44
328.372	125.44
328.6	111.44
328.829	118.44
329.058	117.44
329.287	117.44
329.515	102.44
329.744	89.44
329.972	99.44
330.201	112.44
330.43	133.44
330.658	117.44
330.887	116.44
331.115	116.44
331.344	85.44
331.572	82.44
331.801	100.44
332.03	98.44
332.258	98.44
332.486	97.44
332.715	102.44
332.943	89.44
333.172	99.44
333.4	107.44
333.629	100.44
333.857	99.44
334.085	100.44
334.314	115.44
334.542	143.44
334.771	137.44
334.999	89.44
335.227	83.44
335.455	95.44
335.684	89.44
335.912	103.44
336.14	101.44
336.369	94.44
336.597	85.44
336.825	104.44
337.053	100.44
337.281	99.44
337.51	89.44
337.738	101.44
337.966	99.44
338.194	89.44
338.422	83.44
338.65	88.44
338.878	96.44
339.106	76.44
339.334	100.44
339.562	90.44
339.79	100.44
340.018	93.44
340.246	94.44
340.474	89.44
340.702	96.44
340.93	96.44
341.158	93.44
341.386	82.44
341.614	92.44
341.842	99.44
342.07	85.44
342.298	94.44
342.526	81.44
342.754	90.44
342.981	92.44
343.209	83.44
343.437	96.44
343.665	75.44
343.893	102.44
344.12	100.44
344.348	84.44
344.576	93.44
344.804	93.44
345.031	95.44
345.259	83.44
345.487	95.44
345.714	88.44
345.942	96.44
346.17	100.44
346.397	90.44
346.625	99.44
346.853	91.44
347.08	101.44
347.308	105.44
347.535	97.44
347.763	92.44
347.99	103.44
348.218	91.44
348.445	96.44
348.673	80.44
348.9	90.44
349.128	92.44
349.355	90.44
349.583	99.44
349.81	100.44
350.037	76.44
350.265	113.44
350.492	97.44
350.72	110.44
350.947	103.44
351.174	116.44
351.402	98.44
351.629	85.44
351.856	85.44
352.083	93.44
352.311	95.44
352.538	107.44
352.765	110.44
352.992	102.44
353.22	100.44
353.447	106.44
353.674	95.44
353.901	97.44
354.128	96.44
354.355	93.44
354.583	100.44
354.81	103.44
355.037	98.44
355.264	94.44
355.491	91.44
355.718	95.44
355.945	88.44
356.172	101.44
356.399	90.44
356.626	85.44
356.853	88.44
357.08	87.44
357.307	91.44
357.534	75.44
357.761	99.44
357.988	96.44
358.215	104.44
358.441	99.44
358.668	105.44
358.895	89.44
359.122	89.44
359.349	105.44
359.576	89.44
359.802	107.44
360.029	101.44
360.256	113.44
360.483	103.44
360.709	101.44
360.936	93.44
361.163	90.44
361.39	92.44
361.616	94.44
361.843	87.44
362.07	79.44
362.296	88.44
362.523	103.44
362.749	91.44
362.976	104.44
363.203	93.44
363.429	100.44
363.656	79.44
363.882	85.44
364.109	100.44
364.335	92.44
364.562	93.44
364.788	96.44
365.015	96.44
365.241	115.44
365.468	87.44
365.694	100.44
365.92	100.44
366.147	88.44
366.373	93.44
366.599	84.44
366.826	89.44
367.052	99.44
367.278	87.44
367.505	83.44
367.731	81.44
367.957	96.44
368.184	94.44
368.41	106.44
368.636	98.44
368.862	119.44
369.089	100.44
369.315	91.44
369.541	93.44
369.767	75.44
369.993	84.44
370.219	81.44
370.445	93.44
370.672	94.44
370.898	107.44
371.124	95.44
371.35	89.44
371.576	79.44
371.802	87.44
372.028	93.44
372.254	92.44
372.48	99.44
372.706	104.44
372.932	110.44
373.158	99.44
373.384	82.44
373.61	95.44
373.835	69.44
374.061	83.44
374.287	95.44
374.513	89.44
374.739	96.44
374.965	79.44
375.191	79.44
375.416	90.44
375.642	96.44
375.868	87.44
376.094	96.44
376.319	85.44
376.545	90.44
376.771	100.44
376.997	101.44
377.222	79.44
377.448	87.44
377.674	95.44
377.899	84.44
378.125	95.44
378.35	88.44
378.576	92.44
378.802	107.44
379.027	106.44
379.253	89.44
379.478	87.44
379.704	98.44
379.929	101.44
380.155	112.44
380.38	98.44
380.606	113.44
380.831	103.44
381.057	92.44
381.282	108.44
381.507	101.44
381.733	100.44
381.958	94.44
382.184	102.44
382.409	104.44
382.634	113.44
382.86	113.44
383.085	113.44
383.31	107.44
383.535	107.44
383.761	105.44
383.986	109.44
384.211	92.44
384.436	91.44
384.662	117.44
384.887	111.44
385.112	130.44
385.337	109.44
385.562	114.44
385.787	111.44
386.013	112.44
386.238	115.44
386.463	117.44
386.688	129.44
386.913	120.44
387.138	128.44
387.363	96.44
387.588	97.44
387.813	123.44
388.038	102.44
388.263	138.44
388.488	121.44
388.713	98.44
388.938	97.44
389.163	109.44
389.387	94.44
389.612	93.44
389.837	88.44
390.062	100.44
390.287	85.44
390.512	90.44
390.736	107.44
390.961	93.44
391.186	91.44
391.411	89.44
391.636	74.44
391.86	72.44
392.085	85.44
392.31	92.44
392.534	94.44
392.759	91.44
392.984	79.44
393.208	90.44
393.433	77.44
393.658	88.44
393.882	81.44
394.107	87.44
394.331	89.44
394.556	96.44
394.78	91.44
395.005	90.44
395.229	79.44
395.454	87.44
395.678	80.44
395.903	75.44
396.127	92.44
396.352	97.44
396.576	96.44
396.801	95.44
397.025	84.44
397.249	100.44
397.474	95.44
397.698	70.44
397.922	105.44
398.147	79.44
398.371	92.44
398.595	80.44
398.82	87.44
399.044	88.44
399.268	89.44
399.492	88.44
399.717	100.44
399.941	97.44
400.165	92.44
400.389	96.44
400.613	87.44
400.837	93.44
401.062	90.44
401.286	89.44
401.51	83.44
401.734	74.44
401.958	108.44
402.182	112.44
402.406	139.44
402.63	116.44
402.854	96.44
403.078	93.44
403.302	85.44
403.526	82.44
403.75	98.44
403.974	83.44
404.198	99.44
404.422	96.44
404.645	89.44
404.869	85.44
405.093	89.44
405.317	104.44
405.541	105.44
405.765	99.44
405.988	97.44
406.212	133.44
406.436	187.44
406.66	118.44
406.883	95.44
407.107	94.44
407.331	74.44
407.555	94.44
407.778	103.44
408.002	91.44
408.226	85.44
408.449	93.44
408.673	84.44
408.896	86.44
409.12	91.44
409.344	80.44
409.567	102.44
409.791	99.44
410.014	92.44
410.238	98.44
410.461	94.44
410.685	89.44
410.908	96.44
411.132	101.44
411.355	85.44
411.578	100.44
411.802	87.44
412.025	78.44
412.249	91.44
412.472	101.44
412.695	105.44
412.919	86.44
413.142	97.44
413.365	83.44
413.589	90.44
413.812	80.44
414.035	94.44
414.258	91.44
414.482	115.44
414.705	101.44
414.928	93.44
415.151	92.44
415.374	93.44
415.597	95.44
415.821	91.44
416.044	86.44
416.267	89.44
416.49	83.44
416.713	90.44
416.936	80.44
417.159	86.44
417.382	91.44
417.605	86.44
417.828	91.44
418.051	95.44
418.274	90.44
418.497	92.44
418.72	90.44
418.943	101.44
419.166	74.44
419.389	83.44
419.611	74.44
419.834	97.44
420.057	77.44
420.28	79.44
420.503	94.44
420.726	81.44
420.948	82.44
421.171	103.44
421.394	90.44
421.617	99.44
421.839	87.44
422.062	89.44
422.285	86.44
422.507	101.44
422.73	98.44
422.953	90.44
423.175	90.44
423.398	99.44
423.621	96.44
423.843	91.44
424.066	96.44
424.288	90.44
424.511	89.44
424.733	92.44
424.956	99.44
425.178	97.44
425.401	88.44
425.623	105.44
425.846	87.44
426.068	89.44
426.291	104.44
426.513	86.44
426.735	79.44
426.958	98.44
427.18	95.44
427.402	129.44
427.625	154.44
427.847	127.44
428.069	115.44
428.292	99.44
428.514	91.44
428.736	82.44
428.958	81.44
429.181	89.44
429.403	95.44
429.625	91.44
429.847	102.44
430.069	96.44
430.292	91.44
430.514	80.44
430.736	79.44
430.958	96.44
431.18	93.44
431.402	85.44
431.624	76.44
431.846	76.44
432.068	91.44
432.29	81.44
432.512	96.44
432.734	99.44
432.956	102.44
433.178	105.44
433.4	95.44
433.622	84.44
433.844	85.44
434.066	96.44
434.287	99.44
434.509	92.44
434.731	97.44
434.953	83.44
435.175	92.44
435.397	92.44
435.618	86.44
435.84	101.44
436.062	111.44
436.284	103.44
436.505	92.44
436.727	103.44
436.949	72.44
437.17	81.44
437.392	101.44
437.614	88.44
437.835	83.44
438.057	113.44
438.278	94.44
438.5	99.44
438.721	118.44
438.943	91.44
439.165	95.44
439.386	93.44
439.608	98.44
439.829	95.44
440.05	104.44
440.272	120.44
440.493	99.44
440.715	79.44
440.936	94.44
441.158	97.44
441.379	92.44
441.6	97.44
441.822	91.44
442.043	96.44
442.264	90.44
442.486	92.44
442.707	88.44
442.928	98.44
443.149	97.44
443.371	113.44
443.592	108.44
443.813	114.44
444.034	113.44
444.255	92.44
444.476	72.44
444.698	92.44
444.919	94.44
445.14	128.44
445.361	124.44
445.582	95.44
445.803	107.44
446.024	114.44
446.245	133.44
446.466	108.44
446.687	106.44
446.908	89.44
447.129	82.44
447.35	100.44
447.571	89.44
447.792	87.44
448.013	117.44
448.234	107.44
448.455	103.44
448.675	89.44
448.896	89.44
449.117	90.44
449.338	99.44
449.559	121.44
449.779	127.44
450	91.44
450.221	85.44
450.442	94.44
450.662	92.44
450.883	88.44
451.104	99.44
451.324	97.44
451.545	98.44
451.766	93.44
451.986	84.44
452.207	76.44
452.428	78.44
452.648	105.44
452.869	104.44
453.089	108.44
453.31	91.44
453.53	101.44
453.751	91.44
453.971	85.44
454.192	99.44
454.412	91.44
454.633	92.44
454.853	87.44
455.073	83.44
455.294	87.44
455.514	107.44
455.734	89.44
455.955	86.44
456.175	94.44
456.395	78.44
456.616	95.44
456.836	86.44
457.056	81.44
457.276	73.44
457.497	83.44
457.717	85.44
457.937	93.44
458.157	80.44
458.377	91.44
458.598	100.44
458.818	128.44
459.038	134.44
459.258	99.44
459.478	103.44
459.698	93.44
459.918	88.44
460.138	83.44
460.358	74.44
460.578	74.44
460.798	97.44
461.018	92.44
461.238	84.44
461.458	93.44
461.678	95.44
461.898	96.44
462.118	86.44
462.338	91.44
462.558	84.44
462.777	76.44
462.997	83.44
463.217	87.44
463.437	93.44
463.657	90.44
463.876	77.44
464.096	95.44
464.316	97.44
464.536	95.44
464.755	93.44
464.975	105.44
465.195	139.44
465.414	153.44
465.634	95.44
465.854	87.44
466.073	87.44
466.293	81.44
466.512	89.44
466.732	82.44
466.951	89.44
467.171	91.44
467.391	103.44
467.61	105.44
467.829	86.44
468.049	99.44
468.268	111.44
468.488	87.44
468.707	93.44
468.927	85.44
469.146	89.44
469.365	76.44
469.585	76.44
469.804	81.44
470.023	88.44
470.243	88.44
470.462	96.44
470.681	93.44
470.901	85.44
471.12	79.44
471.339	93.44
471.558	93.44
471.777	82.44
471.997	97.44
472.216	119.44
472.435	140.44
472.654	95.44
472.873	95.44
473.092	98.44
473.311	82.44
473.53	83.44
473.749	84.44
473.968	98.44
474.187	95.44
474.406	93.44
474.625	85.44
474.844	87.44
475.063	81.44
475.282	83.44
475.501	97.44
475.72	76.44
475.939	87.44
476.158	84.44
476.377	93.44
476.596	96.44
476.814	104.44
477.033	84.44
477.252	91.44
477.471	73.44
477.69	93.44
477.908	84.44
478.127	98.44
478.346	92.44
478.564	90.44
478.783	105.44
479.002	84.44
479.22	95.44
479.439	98.44
479.658	95.44
479.876	90.44
480.095	95.44
480.313	83.44
480.532	83.44
480.751	102.44
480.969	124.44
481.188	201.44
481.406	159.44
481.624	97.44
481.843	87.44
482.061	71.44
482.28	79.44
482.498	95.44
482.717	107.44
482.935	95.44
483.153	90.44
483.372	83.44
483.59	96.44
483.808	77.44
484.027	95.44
484.245	76.44
484.463	92.44
484.681	112.44
484.9	97.44
485.118	99.44
485.336	83.44
485.554	86.44
485.772	102.44
485.99	108.44
486.209	91.44
486.427	109.44
486.645	104.44
486.863	108.44
487.081	88.44
487.299	95.44
487.517	97.44
487.735	96.44
487.953	96.44
488.171	106.44
488.389	101.44
488.607	100.44
488.825	94.44
489.043	96.44
489.261	95.44
489.479	96.44
489.696	89.44
489.914	99.44
490.132	72.44
490.35	95.44
490.568	86.44
490.786	95.44
491.003	97.44
491.221	101.44
491.439	90.44
491.657	86.44
491.874	93.44
492.092	88.44
492.31	100.44
492.527	86.44
492.745	79.44
492.963	96.44
493.18	97.44
493.398	91.44
493.615	85.44
493.833	90.44
494.05	74.44
494.268	92.44
494.485	98.44
494.703	85.44
494.92	80.44
495.138	97.44
495.355	107.44
495.573	89.44
495.79	100.44
496.008	92.44
496.225	89.44
496.442	87.44
496.66	100.44
496.877	91.44
497.094	91.44
497.312	88.44
497.529	94.44
497.746	94.44
497.963	85.44
498.181	93.44
498.398	112.44
498.615	96.44
498.832	102.44
499.049	96.44
499.267	90.44
499.484	85.44
499.701	86.44
499.918	93.44
500.135	104.44
500.352	88.44
500.569	80.44
500.786	86.44
501.003	91.44
501.22	79.44
501.437	78.44
501.654	96.44
501.871	106.44
502.088	99.44
502.305	90.44
502.522	95.44
502.739	88.44
502.956	76.44
503.172	87.44
503.389	92.44
503.606	87.44
503.823	99.44
504.04	101.44
504.256	89.44
504.473	84.44
504.69	90.44
504.907	72.44
505.123	87.44
505.34	101.44
505.557	85.44
505.773	98.44
505.99	88.44
506.207	95.44
506.423	98.44
506.64	74.44
506.856	89.44
507.073	102.44
507.289	86.44
507.506	103.44
507.722	105.44
507.939	114.44
508.155	95.44
508.372	85.44
508.588	89.44
508.805	87.44
509.021	97.44
509.238	91.44
509.454	82.44
509.67	98.44
509.887	106.44
510.103	112.44
510.319	183.44
510.536	563.44
510.752	1723.44
510.968	493.44
511.184	135.44
511.401	112.44
511.617	93.44
511.833	83.44
512.049	112.44
512.265	91.44
512.481	97.44
512.698	87.44
512.914	89.44
513.13	89.44
513.346	77.44
513.562	89.44
513.778	112.44
513.994	85.44
514.21	100.44
514.426	112.44
514.642	113.44
514.858	107.44
515.074	136.44
515.29	360.44
515.506	1028.44
515.721	392.44
515.937	113.44
