Data from Circ_1986_H10_HRD10591_00002.txt Node
Date: Wed Jan 03 12:15:26 EST 2024
User: Yrep
Spectrometer: HR+D1059
Trigger mode: 1
Integration Time (sec): 1.000000E-1
Scans to average: 1
Electric dark correction enabled: true
Nonlinearity correction enabled: false
Boxcar width: 0
XAxis mode: Wavelengths
Number of Pixels in Spectrum: 2048
>>>>>Begin Spectral Data<<<<<
223.165	-24
223.4	-24
223.635	-24
223.869	-23
224.104	-9
224.338	-4
224.573	-14
224.808	-18
225.042	-11
225.277	-9
225.511	10
225.746	10
225.98	10
226.215	13
226.449	11
226.683	14
226.918	26
227.152	18
227.387	41
227.621	34
227.856	35
228.09	45
228.324	49
228.559	58
228.793	57
229.027	67
229.262	57
229.496	70
229.73	83
229.964	84
230.199	67
230.433	82
230.667	84
230.901	69
231.136	82
231.37	82
231.604	71
231.838	92
232.072	75
232.306	92
232.541	81
232.775	96
233.009	72
233.243	92
233.477	70
233.711	80
233.945	101
234.179	86
234.413	90
234.647	82
234.881	71
235.115	81
235.349	72
235.583	86
235.817	83
236.051	96
236.285	75
236.519	82
236.753	92
236.987	62
237.221	91
237.455	101
237.689	87
237.922	92
238.156	80
238.39	76
238.624	84
238.858	72
239.091	69
239.325	73
239.559	95
239.793	81
240.027	76
240.26	80
240.494	82
240.728	80
240.961	68
241.195	82
241.429	67
241.662	72
241.896	77
242.13	77
242.363	74
242.597	76
242.83	87
243.064	86
243.298	84
243.531	77
243.765	86
243.998	81
244.232	80
244.465	74
244.699	98
244.932	85
245.166	83
245.399	90
245.633	79
245.866	82
246.099	85
246.333	92
246.566	77
246.8	79
247.033	81
247.266	74
247.5	68
247.733	68
247.966	82
248.2	84
248.433	95
248.666	80
248.899	98
249.133	76
249.366	91
249.599	86
249.832	87
250.066	88
250.299	87
250.532	84
250.765	79
250.998	82
251.231	86
251.465	77
251.698	74
251.931	95
252.164	84
252.397	75
252.63	90
252.863	79
253.096	78
253.329	84
253.562	77
253.795	69
254.028	78
254.261	81
254.494	79
254.727	88
254.96	77
255.193	85
255.426	82
255.659	84
255.892	75
256.124	80
256.357	77
256.59	82
256.823	74
257.056	82
257.289	90
257.521	83
257.754	76
257.987	81
258.22	94
258.452	82
258.685	88
258.918	77
259.151	84
259.383	84
259.616	81
259.849	81
260.081	86
260.314	78
260.547	87
260.779	90
261.012	80
261.244	83
261.477	90
261.71	102
261.942	99
262.175	100
262.407	86
262.64	94
262.872	85
263.105	93
263.337	88
263.57	97
263.802	82
264.035	74
264.267	66
264.499	71
264.732	92
264.964	88
265.197	99
265.429	84
265.661	91
265.894	90
266.126	84
266.358	80
266.591	70
266.823	82
267.055	80
267.287	83
267.52	89
267.752	101
267.984	98
268.216	76
268.448	74
268.681	84
268.913	80
269.145	82
269.377	78
269.609	85
269.841	92
270.073	78
270.306	89
270.538	82
270.77	83
271.002	89
271.234	91
271.466	87
271.698	76
271.93	84
272.162	85
272.394	82
272.626	94
272.858	76
273.09	75
273.322	85
273.553	90
273.785	96
274.017	85
274.249	86
274.481	84
274.713	69
274.945	84
275.176	63
275.408	65
275.64	76
275.872	85
276.104	94
276.335	80
276.567	102
276.799	89
277.031	89
277.262	87
277.494	104
277.726	99
277.957	100
278.189	90
278.421	92
278.652	83
278.884	93
279.115	84
279.347	90
279.579	88
279.81	82
280.042	88
280.273	82
280.505	97
280.736	93
280.968	96
281.199	88
281.431	94
281.662	93
281.894	96
282.125	98
282.356	84
282.588	116
282.819	100
283.051	99
283.282	87
283.513	89
283.745	75
283.976	78
284.207	86
284.439	85
284.67	88
284.901	92
285.132	88
285.364	75
285.595	92
285.826	100
286.057	98
286.288	93
286.52	86
286.751	92
286.982	87
287.213	101
287.444	93
287.675	84
287.906	90
288.138	84
288.369	82
288.6	91
288.831	92
289.062	95
289.293	88
289.524	77
289.755	93
289.986	90
290.217	87
290.448	93
290.679	77
290.91	81
291.141	92
291.371	70
291.602	98
291.833	72
292.064	86
292.295	91
292.526	90
292.757	102
292.987	93
293.218	86
293.449	82
293.68	96
293.91	85
294.141	86
294.372	92
294.603	88
294.833	88
295.064	85
295.295	93
295.525	96
295.756	94
295.987	97
296.217	111
296.448	116
296.679	89
296.909	98
297.14	81
297.37	84
297.601	97
297.831	88
298.062	96
298.292	86
298.523	83
298.753	84
298.984	101
299.214	88
299.445	88
299.675	93
299.905	108
300.136	85
300.366	84
300.597	74
300.827	90
301.057	94
301.288	92
301.518	107
301.748	88
301.979	108
302.209	97
302.439	107
302.669	85
302.9	88
303.13	96
303.36	96
303.59	98
303.82	93
304.051	90
304.281	90
304.511	97
304.741	88
304.971	76
305.201	96
305.431	80
305.661	97
305.891	105
306.121	98
306.352	82
306.582	93
306.812	111
307.042	90
307.272	89
307.502	93
307.731	86
307.961	102
308.191	95
308.421	90
308.651	83
308.881	103
309.111	93
309.341	90
309.571	94
309.8	92
310.03	90
310.26	90
310.49	93
310.72	85
310.949	90
311.179	89
311.409	101
311.639	84
311.868	99
312.098	96
312.328	97
312.557	103
312.787	93
313.017	90
313.246	104
313.476	88
313.706	100
313.935	102
314.165	105
314.394	89
314.624	89
314.853	104
315.083	96
315.312	86
315.542	84
315.771	95
316.001	82
316.23	97
316.46	92
316.689	90
316.919	89
317.148	102
317.377	100
317.607	100
317.836	101
318.065	86
318.295	97
318.524	92
318.753	94
318.983	87
319.212	95
319.441	100
319.67	110
319.9	97
320.129	88
320.358	99
320.587	85
320.816	93
321.046	96
321.275	106
321.504	107
321.733	98
321.962	101
322.191	102
322.42	108
322.649	97
322.878	110
323.108	110
323.337	106
323.566	119
323.795	132
324.024	171
324.253	274
324.482	580
324.71	1166
324.939	1476
325.168	564
325.397	192
325.626	151
325.855	114
326.084	116
326.313	129
326.542	136
326.77	193
326.999	342
327.228	672
327.457	1245
327.686	954
327.914	272
328.143	144
328.372	126
328.6	128
328.829	102
329.058	114
329.287	98
329.515	89
329.744	105
329.972	104
330.201	103
330.43	110
330.658	90
330.887	104
331.115	101
331.344	102
331.572	91
331.801	101
332.03	92
332.258	107
332.486	89
332.715	96
332.943	91
333.172	91
333.4	97
333.629	104
333.857	105
334.085	97
334.314	98
334.542	102
334.771	84
334.999	102
335.227	79
335.455	100
335.684	91
335.912	90
336.14	97
336.369	102
336.597	96
336.825	90
337.053	88
337.281	85
337.51	86
337.738	98
337.966	77
338.194	107
338.422	95
338.65	89
338.878	96
339.106	96
339.334	93
339.562	95
339.79	97
340.018	100
340.246	91
340.474	89
340.702	89
340.93	105
341.158	99
341.386	85
341.614	96
341.842	92
342.07	98
342.298	76
342.526	90
342.754	83
342.981	91
343.209	90
343.437	117
343.665	91
343.893	89
344.12	96
344.348	98
344.576	89
344.804	91
345.031	92
345.259	90
345.487	96
345.714	104
345.942	89
346.17	99
346.397	88
346.625	95
346.853	95
347.08	83
347.308	101
347.535	92
347.763	109
347.99	92
348.218	95
348.445	94
348.673	94
348.9	101
349.128	89
349.355	86
349.583	82
349.81	86
350.037	100
350.265	102
350.492	98
350.72	93
350.947	97
351.174	109
351.402	118
351.629	102
351.856	114
352.083	96
352.311	109
352.538	121
352.765	121
352.992	108
353.22	111
353.447	107
353.674	107
353.901	103
354.128	92
354.355	99
354.583	101
354.81	101
355.037	99
355.264	100
355.491	104
355.718	91
355.945	98
356.172	92
356.399	125
356.626	100
356.853	96
357.08	94
357.307	88
357.534	99
357.761	105
357.988	101
358.215	100
358.441	121
358.668	104
358.895	114
359.122	89
359.349	96
359.576	83
359.802	103
360.029	88
360.256	107
360.483	90
360.709	96
360.936	91
361.163	76
361.39	94
361.616	96
361.843	92
362.07	95
362.296	86
362.523	84
362.749	93
362.976	94
363.203	91
363.429	83
363.656	94
363.882	97
364.109	98
364.335	90
364.562	101
364.788	77
365.015	104
365.241	86
365.468	110
365.694	115
365.92	96
366.147	94
366.373	85
366.599	92
366.826	64
367.052	97
367.278	91
367.505	90
367.731	100
367.957	98
368.184	81
368.41	89
368.636	108
368.862	106
369.089	84
369.315	92
369.541	77
369.767	93
369.993	93
370.219	101
370.445	91
370.672	90
370.898	95
371.124	85
371.35	90
371.576	94
371.802	90
372.028	88
372.254	78
372.48	84
372.706	89
372.932	88
373.158	80
373.384	92
373.61	92
373.835	109
374.061	79
374.287	97
374.513	98
374.739	99
374.965	92
375.191	92
375.416	92
375.642	99
375.868	105
376.094	97
376.319	92
376.545	100
376.771	89
376.997	101
377.222	94
377.448	96
377.674	96
377.899	87
378.125	90
378.35	100
378.576	91
378.802	106
379.027	103
379.253	100
379.478	108
379.704	108
379.929	96
380.155	109
380.38	113
380.606	104
380.831	98
381.057	117
381.282	113
381.507	120
381.733	129
381.958	126
382.184	119
382.409	123
382.634	124
382.86	99
383.085	121
383.31	124
383.535	128
383.761	117
383.986	124
384.211	115
384.436	128
384.662	132
384.887	128
385.112	147
385.337	132
385.562	146
385.787	140
386.013	156
386.238	150
386.463	129
386.688	141
386.913	145
387.138	162
387.363	140
387.588	121
387.813	123
388.038	148
388.263	154
388.488	160
388.713	110
388.938	112
389.163	94
389.387	99
389.612	89
389.837	100
390.062	115
390.287	96
390.512	94
390.736	98
390.961	104
391.186	93
391.411	89
391.636	99
391.86	86
392.085	94
392.31	84
392.534	83
392.759	101
392.984	94
393.208	94
393.433	105
393.658	104
393.882	97
394.107	83
394.331	74
394.556	89
394.78	93
395.005	99
395.229	90
395.454	99
395.678	89
395.903	87
396.127	101
396.352	99
396.576	89
396.801	92
397.025	90
397.249	85
397.474	98
397.698	99
397.922	94
398.147	107
398.371	100
398.595	96
398.82	92
399.044	90
399.268	83
399.492	86
399.717	97
399.941	87
400.165	96
400.389	91
400.613	98
400.837	82
401.062	100
401.286	105
401.51	87
401.734	104
401.958	106
402.182	122
402.406	128
402.63	95
402.854	99
403.078	77
403.302	80
403.526	77
403.75	92
403.974	92
404.198	98
404.422	100
404.645	99
404.869	91
405.093	90
405.317	102
405.541	86
405.765	86
405.988	99
406.212	139
406.436	177
406.66	103
406.883	90
407.107	97
407.331	106
407.555	94
407.778	96
408.002	95
408.226	89
408.449	92
408.673	92
408.896	89
409.12	97
409.344	83
409.567	102
409.791	110
410.014	104
410.238	97
410.461	97
410.685	103
410.908	108
411.132	89
411.355	105
411.578	106
411.802	100
412.025	90
412.249	93
412.472	92
412.695	86
412.919	98
413.142	103
413.365	103
413.589	89
413.812	96
414.035	94
414.258	80
414.482	91
414.705	92
414.928	80
415.151	90
415.374	105
415.597	102
415.821	91
416.044	110
416.267	104
416.49	92
416.713	89
416.936	103
417.159	95
417.382	83
417.605	84
417.828	89
418.051	103
418.274	95
418.497	90
418.72	84
418.943	92
419.166	90
419.389	91
419.611	87
419.834	88
420.057	103
420.28	90
420.503	85
420.726	87
420.948	92
421.171	96
421.394	80
421.617	99
421.839	90
422.062	90
422.285	97
422.507	101
422.73	110
422.953	83
423.175	108
423.398	79
423.621	100
423.843	82
424.066	87
424.288	74
424.511	92
424.733	103
424.956	96
425.178	94
425.401	91
425.623	83
425.846	83
426.068	78
426.291	93
426.513	94
426.735	94
426.958	97
427.18	91
427.402	116
427.625	136
427.847	117
428.069	84
428.292	74
428.514	93
428.736	93
428.958	78
429.181	93
429.403	87
429.625	67
429.847	94
430.069	106
430.292	100
430.514	90
430.736	84
430.958	95
431.18	93
431.402	81
431.624	83
431.846	85
432.068	102
432.29	81
432.512	76
432.734	92
432.956	77
433.178	90
433.4	107
433.622	92
433.844	85
434.066	96
434.287	90
434.509	103
434.731	89
434.953	93
435.175	93
435.397	94
435.618	92
435.84	93
436.062	100
436.284	108
436.505	108
436.727	104
436.949	93
437.17	86
437.392	81
437.614	101
437.835	80
438.057	101
438.278	89
438.5	105
438.721	104
438.943	98
439.165	81
439.386	96
439.608	89
439.829	86
440.05	107
440.272	132
440.493	87
440.715	100
440.936	93
441.158	91
441.379	92
441.6	102
441.822	77
442.043	94
442.264	96
442.486	91
442.707	72
442.928	86
443.149	113
443.371	128
443.592	108
443.813	96
444.034	93
444.255	104
444.476	95
444.698	92
444.919	81
445.14	131
445.361	119
445.582	115
445.803	111
446.024	109
446.245	123
446.466	100
446.687	84
446.908	88
447.129	97
447.35	90
447.571	96
447.792	87
448.013	93
448.234	98
448.455	97
448.675	112
448.896	92
449.117	84
449.338	89
449.559	100
449.779	113
450	89
450.221	91
450.442	93
450.662	83
450.883	98
451.104	90
451.324	92
451.545	99
451.766	94
451.986	77
452.207	92
452.428	85
452.648	86
452.869	100
453.089	114
453.31	110
453.53	102
453.751	72
453.971	89
454.192	89
454.412	85
454.633	88
454.853	80
455.073	96
455.294	84
455.514	93
455.734	93
455.955	82
456.175	88
456.395	82
456.616	79
456.836	103
457.056	91
457.276	97
457.497	89
457.717	90
457.937	63
458.157	85
458.377	98
458.598	100
458.818	118
459.038	112
459.258	92
459.478	98
459.698	81
459.918	86
460.138	90
460.358	90
460.578	93
460.798	90
461.018	86
461.238	88
461.458	80
461.678	92
461.898	80
462.118	90
462.338	87
462.558	92
462.777	89
462.997	93
463.217	78
463.437	83
463.657	75
463.876	85
464.096	87
464.316	87
464.536	92
464.755	94
464.975	92
465.195	117
465.414	129
465.634	88
465.854	84
466.073	89
466.293	95
466.512	89
466.732	78
466.951	78
467.171	89
467.391	101
467.61	109
467.829	84
468.049	84
468.268	94
468.488	99
468.707	90
468.927	91
469.146	87
469.365	75
469.585	97
469.804	99
470.023	91
470.243	91
470.462	88
470.681	102
470.901	108
471.12	88
471.339	91
471.558	88
471.777	93
471.997	108
472.216	90
472.435	105
472.654	93
472.873	98
473.092	102
473.311	89
473.53	85
473.749	97
473.968	85
474.187	89
474.406	89
474.625	92
474.844	89
475.063	75
475.282	92
475.501	97
475.72	94
475.939	89
476.158	93
476.377	88
476.596	99
476.814	89
477.033	98
477.252	84
477.471	90
477.69	84
477.908	91
478.127	100
478.346	106
478.564	91
478.783	96
479.002	101
479.22	88
479.439	90
479.658	93
479.876	104
480.095	85
480.313	77
480.532	76
480.751	82
480.969	97
481.188	126
481.406	113
481.624	102
481.843	89
482.061	108
482.28	88
482.498	83
482.717	89
482.935	92
483.153	100
483.372	88
483.59	85
483.808	101
484.027	100
484.245	97
484.463	89
484.681	104
484.9	95
485.118	105
485.336	103
485.554	103
485.772	97
485.99	120
486.209	108
486.427	108
486.645	109
486.863	109
487.081	91
487.299	89
487.517	120
487.735	108
487.953	90
488.171	97
488.389	91
488.607	100
488.825	99
489.043	80
489.261	97
489.479	76
489.696	87
489.914	84
490.132	88
490.35	90
490.568	84
490.786	97
491.003	87
491.221	107
491.439	99
491.657	84
491.874	92
492.092	81
492.31	102
492.527	98
492.745	86
492.963	100
493.18	96
493.398	95
493.615	87
493.833	95
494.05	100
494.268	93
494.485	100
494.703	89
494.92	97
495.138	89
495.355	104
495.573	97
495.79	88
496.008	91
496.225	86
496.442	100
496.66	106
496.877	88
497.094	89
497.312	72
497.529	101
497.746	90
497.963	93
498.181	107
498.398	103
498.615	96
498.832	85
499.049	97
499.267	97
499.484	85
499.701	88
499.918	94
500.135	84
500.352	96
500.569	89
500.786	100
501.003	92
501.22	98
501.437	103
501.654	90
501.871	99
502.088	93
502.305	101
502.522	91
502.739	101
502.956	86
503.172	82
503.389	93
503.606	106
503.823	100
504.04	104
504.256	91
504.473	82
504.69	100
504.907	90
505.123	93
505.34	93
505.557	81
505.773	109
505.99	95
506.207	83
506.423	90
506.64	88
506.856	75
507.073	105
507.289	90
507.506	92
507.722	110
507.939	104
508.155	103
508.372	109
508.588	89
508.805	94
509.021	90
509.238	93
509.454	93
509.67	94
509.887	99
510.103	103
510.319	168
510.536	518
510.752	1405
510.968	405
511.184	121
511.401	97
511.617	107
511.833	98
512.049	91
512.265	99
512.481	95
512.698	90
512.914	101
513.13	111
513.346	96
513.562	83
513.778	97
513.994	99
514.21	102
514.426	108
514.642	112
514.858	102
515.074	106
515.29	292
515.506	813
515.721	331
515.937	110
516.153	107
516.369	103
516.585	100
516.801	90
517.016	105
517.232	93
517.448	91
517.664	74
517.879	93
518.095	88
518.311	98
518.527	94
518.742	97
518.958	92
519.173	99
519.389	94
519.605	112
519.82	104
520.036	103
520.251	105
520.467	92
520.682	91
520.898	106
521.113	102
521.329	114
521.544	135
521.76	346
521.975	1337
522.19	761
522.406	200
522.621	98
522.836	88
523.052	93
523.267	106
523.482	96
523.698	99
523.913	105
524.128	101
524.343	88
524.559	91
524.774	106
524.989	98
525.204	96
525.419	86
525.634	91
525.849	97
526.064	76
526.28	98
526.495	103
526.71	88
526.925	100
527.14	102
527.355	76
527.57	87
527.785	92
527.999	100
528.214	93
528.429	97
528.644	91
528.859	100
529.074	106
529.289	101
529.503	132
529.718	104
529.933	88
530.148	99
530.363	87
530.577	87
530.792	80
531.007	108
531.221	99
531.436	91
531.651	90
531.865	86
532.08	90
532.295	85
532.509	98
532.724	103
532.938	96
533.153	99
533.367	102
533.582	104
533.796	100
534.011	94
534.225	90
534.44	85
534.654	102
534.868	78
535.083	81
535.297	98
535.511	96
535.726	97
535.94	99
536.154	84
536.369	82
536.583	91
536.797	94
537.011	83
537.225	92
537.44	88
537.654	97
537.868	94
538.082	91
538.296	87
538.51	93
538.724	87
538.938	101
539.153	95
539.367	100
539.581	95
539.795	100
540.009	97
540.222	83
540.436	93
540.65	79
540.864	97
541.078	94
541.292	95
541.506	96
541.72	98
541.934	79
542.147	86
542.361	90
542.575	86
542.789	84
543.002	76
543.216	95
543.43	85
543.644	96
543.857	101
544.071	108
544.285	100
544.498	96
544.712	95
544.925	102
545.139	94
545.352	91
545.566	85
545.779	88
545.993	91
546.206	82
546.42	80
546.633	91
546.847	88
547.06	92
547.274	86
547.487	84
547.7	82
547.914	86
548.127	93
548.34	88
548.554	101
548.767	81
548.98	92
549.193	85
549.407	92
549.62	90
549.833	87
550.046	97
550.259	105
550.473	85
550.686	83
550.899	83
551.112	88
551.325	84
551.538	89
551.751	93
551.964	101
552.177	108
552.39	83
552.603	74
552.816	104
553.029	99
553.242	102
553.455	103
553.667	103
553.88	90
554.093	100
554.306	102
554.519	84
554.732	86
554.944	89
555.157	101
555.37	92
555.583	88
555.795	99
556.008	100
556.221	101
556.433	95
556.646	102
556.859	100
557.071	93
557.284	90
557.496	112
557.709	96
557.921	98
558.134	85
558.346	93
558.559	85
558.771	77
558.984	86
559.196	90
559.409	104
559.621	93
559.833	90
560.046	88
560.258	81
560.47	84
560.683	80
560.895	90
561.107	105
561.32	90
561.532	90
561.744	86
561.956	95
562.168	92
562.381	94
562.593	83
562.805	90
563.017	95
563.229	81
563.441	90
563.653	85
563.865	91
564.077	85
564.289	93
564.501	95
564.713	85
564.925	97
565.137	85
565.349	86
565.561	75
565.773	104
565.985	77
566.197	100
566.408	99
566.62	85
566.832	85
567.044	90
567.255	96
567.467	88
567.679	91
567.891	81
568.102	85
568.314	89
568.526	95
568.737	86
568.949	93
569.161	88
569.372	62
569.584	87
569.795	79
570.007	97
570.218	181
570.43	107
570.641	80
570.853	83
571.064	101
571.276	90
571.487	96
571.698	73
571.91	84
572.121	97
572.333	81
572.544	70
572.755	92
572.966	93
573.178	92
573.389	93
573.6	88
573.811	96
574.023	85
574.234	97
574.445	96
574.656	103
574.867	86
575.078	99
575.289	90
575.501	82
575.712	96
575.923	84
576.134	85
576.345	91
576.556	98
576.767	94
576.978	98
577.188	93
577.399	101
577.61	100
577.821	113
578.032	108
578.243	212
578.454	470
578.665	133
578.875	90
579.086	86
579.297	92
579.508	82
579.718	90
579.929	96
580.14	83
580.35	97
580.561	96
580.772	74
580.982	76
581.193	74
581.403	88
581.614	102
581.825	100
582.035	97
582.246	89
582.456	90
582.667	90
582.877	85
583.087	96
583.298	92
583.508	94
