Data from Circ_1986_H10_HRD10591_00027.txt Node
Date: Wed Jan 03 12:15:31 EST 2024
User: Yrep
Spectrometer: HR+D1059
Trigger mode: 1
Integration Time (sec): 1.000000E-1
Scans to average: 1
Electric dark correction enabled: true
Nonlinearity correction enabled: false
Boxcar width: 0
XAxis mode: Wavelengths
Number of Pixels in Spectrum: 2048
>>>>>Begin Spectral Data<<<<<
223.165	-25.25
223.4	-25.25
223.635	-25.25
223.869	-8.25
224.104	-38.25
224.338	-2.25
224.573	-30.25
224.808	-1.25
225.042	-22.25
225.277	-15.25
225.511	-8.25
225.746	5.75
225.98	8.75
226.215	27.75
226.449	25.75
226.683	15.75
226.918	28.75
227.152	38.75
227.387	26.75
227.621	38.75
227.856	43.75
228.09	49.75
228.324	44.75
228.559	53.75
228.793	62.75
229.027	51.75
229.262	64.75
229.496	67.75
229.73	80.75
229.964	83.75
230.199	73.75
230.433	65.75
230.667	87.75
230.901	81.75
231.136	77.75
231.37	72.75
231.604	72.75
231.838	89.75
232.072	83.75
232.306	89.75
232.541	79.75
232.775	84.75
233.009	74.75
233.243	73.75
233.477	74.75
233.711	65.75
233.945	82.75
234.179	79.75
234.413	68.75
234.647	81.75
234.881	75.75
235.115	62.75
235.349	71.75
235.583	78.75
235.817	77.75
236.051	64.75
236.285	79.75
236.519	70.75
236.753	69.75
236.987	86.75
237.221	73.75
237.455	67.75
237.689	75.75
237.922	73.75
238.156	77.75
238.39	69.75
238.624	67.75
238.858	67.75
239.091	77.75
239.325	64.75
239.559	79.75
239.793	64.75
240.027	71.75
240.26	71.75
240.494	62.75
240.728	75.75
240.961	80.75
241.195	77.75
241.429	82.75
241.662	65.75
241.896	66.75
242.13	53.75
242.363	84.75
242.597	79.75
242.83	87.75
243.064	65.75
243.298	67.75
243.531	68.75
243.765	71.75
243.998	62.75
244.232	71.75
244.465	72.75
244.699	65.75
244.932	76.75
245.166	70.75
245.399	77.75
245.633	67.75
245.866	79.75
246.099	89.75
246.333	95.75
246.566	75.75
246.8	73.75
247.033	66.75
247.266	82.75
247.5	72.75
247.733	79.75
247.966	83.75
248.2	82.75
248.433	65.75
248.666	77.75
248.899	71.75
249.133	79.75
249.366	96.75
249.599	89.75
249.832	81.75
250.066	78.75
250.299	81.75
250.532	84.75
250.765	77.75
250.998	90.75
251.231	84.75
251.465	67.75
251.698	71.75
251.931	80.75
252.164	78.75
252.397	92.75
252.63	71.75
252.863	77.75
253.096	79.75
253.329	84.75
253.562	88.75
253.795	75.75
254.028	77.75
254.261	69.75
254.494	73.75
254.727	94.75
254.96	72.75
255.193	84.75
255.426	85.75
255.659	80.75
255.892	68.75
256.124	80.75
256.357	78.75
256.59	79.75
256.823	70.75
257.056	75.75
257.289	79.75
257.521	67.75
257.754	77.75
257.987	66.75
258.22	81.75
258.452	73.75
258.685	69.75
258.918	60.75
259.151	82.75
259.383	79.75
259.616	80.75
259.849	77.75
260.081	72.75
260.314	67.75
260.547	84.75
260.779	75.75
261.012	77.75
261.244	80.75
261.477	78.75
261.71	82.75
261.942	95.75
262.175	105.75
262.407	93.75
262.64	93.75
262.872	79.75
263.105	84.75
263.337	80.75
263.57	87.75
263.802	87.75
264.035	85.75
264.267	86.75
264.499	81.75
264.732	66.75
264.964	75.75
265.197	93.75
265.429	79.75
265.661	97.75
265.894	77.75
266.126	91.75
266.358	70.75
266.591	81.75
266.823	75.75
267.055	77.75
267.287	68.75
267.52	91.75
267.752	86.75
267.984	79.75
268.216	64.75
268.448	66.75
268.681	83.75
268.913	79.75
269.145	83.75
269.377	83.75
269.609	83.75
269.841	85.75
270.073	91.75
270.306	68.75
270.538	93.75
270.77	85.75
271.002	84.75
271.234	84.75
271.466	98.75
271.698	83.75
271.93	65.75
272.162	79.75
272.394	77.75
272.626	78.75
272.858	70.75
273.09	78.75
273.322	77.75
273.553	83.75
273.785	72.75
274.017	79.75
274.249	77.75
274.481	88.75
274.713	88.75
274.945	87.75
275.176	81.75
275.408	85.75
275.64	74.75
275.872	80.75
276.104	79.75
276.335	72.75
276.567	88.75
276.799	93.75
277.031	68.75
277.262	73.75
277.494	75.75
277.726	73.75
277.957	81.75
278.189	88.75
278.421	71.75
278.652	82.75
278.884	86.75
279.115	77.75
279.347	81.75
279.579	72.75
279.81	73.75
280.042	89.75
280.273	98.75
280.505	81.75
280.736	88.75
280.968	92.75
281.199	86.75
281.431	93.75
281.662	95.75
281.894	72.75
282.125	94.75
282.356	91.75
282.588	126.75
282.819	104.75
283.051	91.75
283.282	79.75
283.513	87.75
283.745	96.75
283.976	78.75
284.207	83.75
284.439	83.75
284.67	81.75
284.901	88.75
285.132	90.75
285.364	96.75
285.595	71.75
285.826	95.75
286.057	87.75
286.288	91.75
286.52	81.75
286.751	88.75
286.982	79.75
287.213	73.75
287.444	93.75
287.675	77.75
287.906	95.75
288.138	82.75
288.369	75.75
288.6	78.75
288.831	95.75
289.062	87.75
289.293	81.75
289.524	81.75
289.755	90.75
289.986	79.75
290.217	87.75
290.448	83.75
290.679	90.75
290.91	80.75
291.141	79.75
291.371	77.75
291.602	82.75
291.833	90.75
292.064	83.75
292.295	83.75
292.526	87.75
292.757	99.75
292.987	101.75
293.218	76.75
293.449	79.75
293.68	84.75
293.91	83.75
294.141	88.75
294.372	91.75
294.603	75.75
294.833	93.75
295.064	89.75
295.295	85.75
295.525	91.75
295.756	95.75
295.987	109.75
296.217	121.75
296.448	120.75
296.679	69.75
296.909	91.75
297.14	92.75
297.37	82.75
297.601	82.75
297.831	88.75
298.062	75.75
298.292	89.75
298.523	75.75
298.753	90.75
298.984	99.75
299.214	97.75
299.445	72.75
299.675	85.75
299.905	92.75
300.136	88.75
300.366	87.75
300.597	86.75
300.827	79.75
301.057	91.75
301.288	95.75
301.518	84.75
301.748	85.75
301.979	98.75
302.209	83.75
302.439	81.75
302.669	76.75
302.9	86.75
303.13	84.75
303.36	76.75
303.59	95.75
303.82	96.75
304.051	88.75
304.281	101.75
304.511	98.75
304.741	80.75
304.971	83.75
305.201	96.75
305.431	78.75
305.661	89.75
305.891	89.75
306.121	79.75
306.352	85.75
306.582	95.75
306.812	89.75
307.042	82.75
307.272	96.75
307.502	87.75
307.731	95.75
307.961	77.75
308.191	93.75
308.421	93.75
308.651	82.75
308.881	75.75
309.111	84.75
309.341	97.75
309.571	79.75
309.8	84.75
310.03	92.75
310.26	104.75
310.49	99.75
310.72	88.75
310.949	98.75
311.179	97.75
311.409	89.75
311.639	96.75
311.868	96.75
312.098	81.75
312.328	93.75
312.557	100.75
312.787	91.75
313.017	97.75
313.246	95.75
313.476	94.75
313.706	97.75
313.935	76.75
314.165	113.75
314.394	109.75
314.624	87.75
314.853	82.75
315.083	95.75
315.312	80.75
315.542	87.75
315.771	96.75
316.001	72.75
316.23	85.75
316.46	76.75
316.689	80.75
316.919	74.75
317.148	102.75
317.377	95.75
317.607	87.75
317.836	80.75
318.065	89.75
318.295	88.75
318.524	69.75
318.753	79.75
318.983	79.75
319.212	94.75
319.441	92.75
319.67	98.75
319.9	106.75
320.129	84.75
320.358	91.75
320.587	90.75
320.816	95.75
321.046	98.75
321.275	80.75
321.504	82.75
321.733	71.75
321.962	79.75
322.191	92.75
322.42	101.75
322.649	100.75
322.878	118.75
323.108	104.75
323.337	110.75
323.566	105.75
323.795	133.75
324.024	184.75
324.253	320.75
324.482	648.75
324.71	1304.75
324.939	1709.75
325.168	635.75
325.397	204.75
325.626	144.75
325.855	115.75
326.084	118.75
326.313	123.75
326.542	125.75
326.77	197.75
326.999	382.75
327.228	738.75
327.457	1403.75
327.686	1105.75
327.914	315.75
328.143	179.75
328.372	140.75
328.6	111.75
328.829	109.75
329.058	112.75
329.287	105.75
329.515	97.75
329.744	94.75
329.972	106.75
330.201	107.75
330.43	141.75
330.658	109.75
330.887	130.75
331.115	104.75
331.344	94.75
331.572	91.75
331.801	99.75
332.03	110.75
332.258	89.75
332.486	84.75
332.715	84.75
332.943	87.75
333.172	81.75
333.4	89.75
333.629	91.75
333.857	97.75
334.085	118.75
334.314	116.75
334.542	133.75
334.771	143.75
334.999	93.75
335.227	88.75
335.455	93.75
335.684	94.75
335.912	90.75
336.14	85.75
336.369	85.75
336.597	95.75
336.825	94.75
337.053	111.75
337.281	83.75
337.51	94.75
337.738	96.75
337.966	90.75
338.194	84.75
338.422	93.75
338.65	91.75
338.878	72.75
339.106	89.75
339.334	105.75
339.562	85.75
339.79	88.75
340.018	83.75
340.246	96.75
340.474	85.75
340.702	86.75
340.93	102.75
341.158	71.75
341.386	98.75
341.614	83.75
341.842	88.75
342.07	86.75
342.298	99.75
342.526	89.75
342.754	99.75
342.981	89.75
343.209	92.75
343.437	95.75
343.665	78.75
343.893	79.75
344.12	83.75
344.348	91.75
344.576	101.75
344.804	84.75
345.031	89.75
345.259	96.75
345.487	88.75
345.714	92.75
345.942	99.75
346.17	93.75
346.397	79.75
346.625	93.75
346.853	94.75
347.08	70.75
347.308	81.75
347.535	95.75
347.763	90.75
347.99	101.75
348.218	99.75
348.445	91.75
348.673	93.75
348.9	78.75
349.128	89.75
349.355	86.75
349.583	85.75
349.81	96.75
350.037	85.75
350.265	85.75
350.492	96.75
350.72	97.75
350.947	105.75
351.174	94.75
351.402	91.75
351.629	94.75
351.856	89.75
352.083	93.75
352.311	103.75
352.538	110.75
352.765	89.75
352.992	96.75
353.22	109.75
353.447	91.75
353.674	96.75
353.901	89.75
354.128	104.75
354.355	99.75
354.583	98.75
354.81	97.75
355.037	97.75
355.264	91.75
355.491	106.75
355.718	88.75
355.945	92.75
356.172	89.75
356.399	96.75
356.626	102.75
356.853	109.75
357.08	95.75
357.307	80.75
357.534	98.75
357.761	91.75
357.988	100.75
358.215	97.75
358.441	88.75
358.668	99.75
358.895	89.75
359.122	76.75
359.349	84.75
359.576	96.75
359.802	82.75
360.029	93.75
360.256	100.75
360.483	88.75
360.709	96.75
360.936	97.75
361.163	86.75
361.39	101.75
361.616	91.75
361.843	87.75
362.07	95.75
362.296	98.75
362.523	98.75
362.749	90.75
362.976	89.75
363.203	87.75
363.429	78.75
363.656	80.75
363.882	80.75
364.109	88.75
364.335	87.75
364.562	94.75
364.788	84.75
365.015	91.75
365.241	71.75
365.468	100.75
365.694	98.75
365.92	95.75
366.147	84.75
366.373	93.75
366.599	94.75
366.826	89.75
367.052	85.75
367.278	101.75
367.505	91.75
367.731	99.75
367.957	85.75
368.184	80.75
368.41	93.75
368.636	90.75
368.862	91.75
369.089	88.75
369.315	86.75
369.541	90.75
369.767	84.75
369.993	77.75
370.219	86.75
370.445	79.75
370.672	88.75
370.898	93.75
371.124	95.75
371.35	97.75
371.576	87.75
371.802	84.75
372.028	91.75
372.254	84.75
372.48	86.75
372.706	86.75
372.932	89.75
373.158	88.75
373.384	89.75
373.61	90.75
373.835	114.75
374.061	83.75
374.287	87.75
374.513	85.75
374.739	88.75
374.965	95.75
375.191	87.75
375.416	90.75
375.642	91.75
375.868	88.75
376.094	85.75
376.319	90.75
376.545	92.75
376.771	95.75
376.997	79.75
377.222	105.75
377.448	103.75
377.674	88.75
377.899	95.75
378.125	105.75
378.35	93.75
378.576	94.75
378.802	89.75
379.027	80.75
379.253	100.75
379.478	96.75
379.704	88.75
379.929	93.75
380.155	94.75
380.38	110.75
380.606	99.75
380.831	89.75
381.057	99.75
381.282	101.75
381.507	93.75
381.733	102.75
381.958	99.75
382.184	99.75
382.409	101.75
382.634	107.75
382.86	96.75
383.085	101.75
383.31	114.75
383.535	93.75
383.761	97.75
383.986	111.75
384.211	107.75
384.436	108.75
384.662	116.75
384.887	106.75
385.112	121.75
385.337	117.75
385.562	109.75
385.787	111.75
386.013	110.75
386.238	119.75
386.463	121.75
386.688	132.75
386.913	130.75
387.138	100.75
387.363	111.75
387.588	110.75
387.813	93.75
388.038	117.75
388.263	127.75
388.488	131.75
388.713	110.75
388.938	107.75
389.163	93.75
389.387	89.75
389.612	99.75
389.837	89.75
390.062	95.75
390.287	104.75
390.512	95.75
390.736	100.75
390.961	85.75
391.186	96.75
391.411	95.75
391.636	83.75
391.86	72.75
392.085	79.75
392.31	94.75
392.534	89.75
392.759	93.75
392.984	89.75
393.208	92.75
393.433	69.75
393.658	97.75
393.882	96.75
394.107	88.75
394.331	94.75
394.556	86.75
394.78	91.75
395.005	85.75
395.229	82.75
395.454	79.75
395.678	92.75
395.903	90.75
396.127	74.75
396.352	89.75
396.576	94.75
396.801	87.75
397.025	75.75
397.249	88.75
397.474	79.75
397.698	88.75
397.922	84.75
398.147	88.75
398.371	75.75
398.595	94.75
398.82	68.75
399.044	87.75
399.268	85.75
399.492	78.75
399.717	87.75
399.941	92.75
400.165	81.75
400.389	84.75
400.613	87.75
400.837	70.75
401.062	79.75
401.286	72.75
401.51	81.75
401.734	91.75
401.958	86.75
402.182	117.75
402.406	138.75
402.63	115.75
402.854	88.75
403.078	84.75
403.302	82.75
403.526	86.75
403.75	87.75
403.974	100.75
404.198	85.75
404.422	92.75
404.645	89.75
404.869	93.75
405.093	88.75
405.317	112.75
405.541	99.75
405.765	101.75
405.988	103.75
406.212	134.75
406.436	180.75
406.66	117.75
406.883	87.75
407.107	81.75
407.331	91.75
407.555	92.75
407.778	99.75
408.002	86.75
408.226	81.75
408.449	87.75
408.673	78.75
408.896	91.75
409.12	80.75
409.344	83.75
409.567	80.75
409.791	94.75
410.014	102.75
410.238	97.75
410.461	92.75
410.685	81.75
410.908	78.75
411.132	96.75
411.355	99.75
411.578	91.75
411.802	92.75
412.025	75.75
412.249	86.75
412.472	94.75
412.695	88.75
412.919	79.75
413.142	87.75
413.365	89.75
413.589	79.75
413.812	78.75
414.035	104.75
414.258	89.75
414.482	92.75
414.705	86.75
414.928	85.75
415.151	82.75
415.374	92.75
415.597	84.75
415.821	100.75
416.044	94.75
416.267	83.75
416.49	82.75
416.713	99.75
416.936	85.75
417.159	93.75
417.382	89.75
417.605	86.75
417.828	91.75
418.051	78.75
418.274	85.75
418.497	80.75
418.72	79.75
418.943	88.75
419.166	82.75
419.389	74.75
419.611	75.75
419.834	83.75
420.057	78.75
420.28	79.75
420.503	77.75
420.726	88.75
420.948	83.75
421.171	98.75
421.394	91.75
421.617	97.75
421.839	88.75
422.062	81.75
422.285	79.75
422.507	82.75
422.73	84.75
422.953	93.75
423.175	81.75
423.398	95.75
423.621	92.75
423.843	87.75
424.066	91.75
424.288	79.75
424.511	93.75
424.733	93.75
424.956	96.75
425.178	95.75
425.401	98.75
425.623	89.75
425.846	87.75
426.068	96.75
426.291	95.75
426.513	89.75
426.735	81.75
426.958	82.75
427.18	87.75
427.402	103.75
427.625	145.75
427.847	119.75
428.069	97.75
428.292	88.75
428.514	83.75
428.736	71.75
428.958	93.75
429.181	77.75
429.403	79.75
429.625	90.75
429.847	91.75
430.069	93.75
430.292	96.75
430.514	76.75
430.736	99.75
430.958	96.75
431.18	73.75
431.402	83.75
431.624	87.75
431.846	94.75
432.068	87.75
432.29	92.75
432.512	92.75
432.734	77.75
432.956	93.75
433.178	97.75
433.4	105.75
433.622	90.75
433.844	77.75
434.066	79.75
434.287	89.75
434.509	88.75
434.731	88.75
434.953	96.75
435.175	89.75
435.397	94.75
435.618	90.75
435.84	86.75
436.062	102.75
436.284	98.75
436.505	98.75
436.727	101.75
436.949	95.75
437.17	82.75
437.392	85.75
437.614	96.75
437.835	96.75
438.057	91.75
438.278	97.75
438.5	89.75
438.721	91.75
438.943	83.75
439.165	84.75
439.386	91.75
439.608	81.75
439.829	94.75
440.05	103.75
440.272	118.75
440.493	93.75
440.715	84.75
440.936	86.75
441.158	95.75
441.379	81.75
441.6	90.75
441.822	102.75
442.043	92.75
442.264	97.75
442.486	92.75
442.707	81.75
442.928	101.75
443.149	100.75
443.371	120.75
443.592	105.75
443.813	91.75
444.034	93.75
444.255	86.75
444.476	79.75
444.698	73.75
444.919	85.75
445.14	132.75
445.361	107.75
445.582	107.75
445.803	121.75
446.024	123.75
446.245	109.75
446.466	104.75
446.687	88.75
446.908	66.75
447.129	93.75
447.35	93.75
447.571	96.75
447.792	85.75
448.013	85.75
448.234	93.75
448.455	91.75
448.675	101.75
448.896	91.75
449.117	99.75
449.338	100.75
449.559	125.75
449.779	123.75
450	70.75
450.221	81.75
450.442	99.75
450.662	85.75
450.883	79.75
451.104	84.75
451.324	93.75
451.545	83.75
451.766	97.75
451.986	77.75
452.207	83.75
452.428	90.75
452.648	82.75
452.869	104.75
453.089	111.75
453.31	101.75
453.53	92.75
453.751	77.75
453.971	87.75
454.192	100.75
454.412	95.75
454.633	68.75
454.853	85.75
455.073	91.75
455.294	84.75
455.514	77.75
455.734	83.75
455.955	84.75
456.175	86.75
456.395	91.75
456.616	70.75
456.836	79.75
457.056	84.75
457.276	82.75
457.497	95.75
457.717	84.75
457.937	83.75
458.157	70.75
458.377	86.75
458.598	109.75
458.818	125.75
459.038	125.75
459.258	97.75
459.478	82.75
459.698	89.75
459.918	101.75
460.138	85.75
460.358	92.75
460.578	87.75
460.798	76.75
461.018	82.75
461.238	83.75
461.458	79.75
461.678	94.75
461.898	90.75
462.118	69.75
462.338	78.75
462.558	87.75
462.777	84.75
462.997	88.75
463.217	94.75
463.437	79.75
463.657	71.75
463.876	84.75
464.096	95.75
464.316	89.75
464.536	86.75
464.755	91.75
464.975	88.75
465.195	132.75
465.414	132.75
465.634	92.75
465.854	89.75
466.073	77.75
466.293	84.75
466.512	79.75
466.732	97.75
466.951	94.75
467.171	92.75
467.391	96.75
467.61	93.75
467.829	87.75
468.049	93.75
468.268	100.75
468.488	83.75
468.707	85.75
468.927	78.75
469.146	81.75
469.365	87.75
469.585	90.75
469.804	95.75
470.023	88.75
470.243	66.75
470.462	99.75
470.681	89.75
470.901	75.75
471.12	95.75
471.339	88.75
471.558	85.75
471.777	88.75
471.997	90.75
472.216	115.75
472.435	169.75
472.654	111.75
472.873	81.75
473.092	84.75
473.311	89.75
473.53	81.75
473.749	82.75
473.968	102.75
474.187	102.75
474.406	97.75
474.625	85.75
474.844	73.75
475.063	88.75
475.282	91.75
475.501	83.75
475.72	86.75
475.939	80.75
476.158	79.75
476.377	81.75
476.596	86.75
476.814	81.75
477.033	87.75
477.252	79.75
477.471	70.75
477.69	86.75
477.908	87.75
478.127	76.75
478.346	89.75
478.564	83.75
478.783	89.75
479.002	79.75
479.22	98.75
479.439	88.75
479.658	102.75
479.876	105.75
480.095	93.75
480.313	80.75
480.532	96.75
480.751	86.75
480.969	116.75
481.188	203.75
481.406	159.75
481.624	87.75
481.843	93.75
482.061	79.75
482.28	76.75
482.498	96.75
482.717	91.75
482.935	94.75
483.153	85.75
483.372	81.75
483.59	84.75
483.808	96.75
484.027	89.75
484.245	88.75
484.463	95.75
484.681	86.75
484.9	86.75
485.118	81.75
485.336	80.75
485.554	87.75
485.772	100.75
485.99	86.75
486.209	95.75
486.427	95.75
486.645	108.75
486.863	103.75
487.081	104.75
487.299	91.75
487.517	87.75
487.735	87.75
487.953	84.75
488.171	89.75
488.389	76.75
488.607	86.75
488.825	99.75
489.043	103.75
489.261	108.75
489.479	82.75
489.696	75.75
489.914	80.75
490.132	88.75
490.35	95.75
490.568	83.75
490.786	93.75
491.003	87.75
491.221	75.75
491.439	94.75
491.657	96.75
491.874	101.75
492.092	87.75
492.31	94.75
492.527	79.75
492.745	99.75
492.963	84.75
493.18	77.75
493.398	86.75
493.615	97.75
493.833	80.75
494.05	94.75
494.268	92.75
494.485	80.75
494.703	93.75
494.92	98.75
495.138	79.75
495.355	81.75
495.573	93.75
495.79	94.75
496.008	75.75
496.225	83.75
496.442	87.75
496.66	86.75
496.877	94.75
497.094	89.75
497.312	99.75
497.529	76.75
497.746	72.75
497.963	80.75
498.181	97.75
498.398	100.75
498.615	106.75
498.832	80.75
499.049	97.75
499.267	82.75
499.484	95.75
499.701	82.75
499.918	91.75
500.135	92.75
500.352	83.75
500.569	83.75
500.786	85.75
501.003	75.75
501.22	77.75
501.437	92.75
501.654	77.75
501.871	88.75
502.088	82.75
502.305	85.75
502.522	95.75
502.739	86.75
502.956	91.75
503.172	83.75
503.389	87.75
503.606	92.75
503.823	84.75
504.04	75.75
504.256	94.75
504.473	77.75
504.69	76.75
504.907	92.75
505.123	81.75
505.34	89.75
505.557	72.75
505.773	84.75
505.99	91.75
506.207	77.75
506.423	89.75
506.64	91.75
506.856	75.75
507.073	81.75
507.289	87.75
507.506	88.75
507.722	95.75
507.939	106.75
508.155	92.75
508.372	93.75
508.588	78.75
508.805	107.75
509.021	96.75
509.238	93.75
509.454	102.75
509.67	100.75
509.887	111.75
510.103	120.75
510.319	197.75
510.536	609.75
510.752	1796.75
510.968	529.75
511.184	133.75
511.401	95.75
511.617	79.75
511.833	91.75
512.049	88.75
512.265	87.75
512.481	79.75
512.698	79.75
512.914	98.75
513.13	93.75
513.346	87.75
513.562	93.75
513.778	107.75
513.994	86.75
514.21	84.75
514.426	111.75
514.642	123.75
514.858	111.75
515.074	133.75
515.29	341.75
515.506	1065.75
515.721	402.75
515.937	123.75
516.153	97.75
516.369	89.75
516.585	90.75
516.801	99.75
517.016	85.75
517.232	99.75
