Data from Circ_1986_H10_HRD10591_00071.txt Node
Date: Wed Jan 03 12:15:40 EST 2024
User: Yrep
Spectrometer: HR+D1059
Trigger mode: 1
Integration Time (sec): 1.000000E-1
Scans to average: 1
Electric dark correction enabled: true
Nonlinearity correction enabled: false
Boxcar width: 0
XAxis mode: Wavelengths
Number of Pixels in Spectrum: 2048
>>>>>Begin Spectral Data<<<<<
223.165	-13.44
223.4	-13.44
223.635	-13.44
223.869	-19.44
224.104	-25.44
224.338	-15.44
224.573	-17.44
224.808	-1.44
225.042	-0.44
225.277	-3.44
225.511	-8.44
225.746	-10.44
225.98	4.56
226.215	19.56
226.449	24.56
226.683	10.56
226.918	25.56
227.152	30.56
227.387	30.56
227.621	36.56
227.856	45.56
228.09	48.56
228.324	47.56
228.559	57.56
228.793	51.56
229.027	54.56
229.262	73.56
229.496	67.56
229.73	77.56
229.964	92.56
230.199	84.56
230.433	73.56
230.667	73.56
230.901	94.56
231.136	75.56
231.37	76.56
231.604	77.56
231.838	80.56
232.072	78.56
232.306	101.56
232.541	85.56
232.775	76.56
233.009	81.56
233.243	81.56
233.477	74.56
233.711	83.56
233.945	70.56
234.179	73.56
234.413	77.56
234.647	90.56
234.881	97.56
235.115	83.56
235.349	82.56
235.583	89.56
235.817	87.56
236.051	79.56
236.285	69.56
236.519	76.56
236.753	76.56
236.987	78.56
237.221	71.56
237.455	92.56
237.689	85.56
237.922	82.56
238.156	88.56
238.39	84.56
238.624	81.56
238.858	75.56
239.091	87.56
239.325	84.56
239.559	86.56
239.793	98.56
240.027	98.56
240.26	74.56
240.494	71.56
240.728	71.56
240.961	86.56
241.195	81.56
241.429	77.56
241.662	77.56
241.896	77.56
242.13	88.56
242.363	68.56
242.597	81.56
242.83	75.56
243.064	94.56
243.298	89.56
243.531	69.56
243.765	83.56
243.998	80.56
244.232	91.56
244.465	96.56
244.699	71.56
244.932	76.56
245.166	94.56
245.399	65.56
245.633	86.56
245.866	71.56
246.099	75.56
246.333	89.56
246.566	76.56
246.8	94.56
247.033	84.56
247.266	91.56
247.5	85.56
247.733	87.56
247.966	87.56
248.2	81.56
248.433	76.56
248.666	84.56
248.899	83.56
249.133	90.56
249.366	95.56
249.599	104.56
249.832	85.56
250.066	80.56
250.299	86.56
250.532	74.56
250.765	87.56
250.998	77.56
251.231	88.56
251.465	83.56
251.698	94.56
251.931	92.56
252.164	83.56
252.397	69.56
252.63	82.56
252.863	89.56
253.096	87.56
253.329	109.56
253.562	87.56
253.795	87.56
254.028	83.56
254.261	87.56
254.494	68.56
254.727	85.56
254.96	83.56
255.193	76.56
255.426	85.56
255.659	86.56
255.892	83.56
256.124	101.56
256.357	92.56
256.59	83.56
256.823	82.56
257.056	67.56
257.289	72.56
257.521	87.56
257.754	75.56
257.987	72.56
258.22	81.56
258.452	94.56
258.685	65.56
258.918	78.56
259.151	90.56
259.383	99.56
259.616	71.56
259.849	89.56
260.081	91.56
260.314	68.56
260.547	86.56
260.779	97.56
261.012	85.56
261.244	75.56
261.477	91.56
261.71	105.56
261.942	114.56
262.175	110.56
262.407	85.56
262.64	95.56
262.872	102.56
263.105	109.56
263.337	72.56
263.57	83.56
263.802	83.56
264.035	91.56
264.267	80.56
264.499	88.56
264.732	89.56
264.964	92.56
265.197	85.56
265.429	81.56
265.661	87.56
265.894	89.56
266.126	83.56
266.358	69.56
266.591	90.56
266.823	91.56
267.055	83.56
267.287	87.56
267.52	88.56
267.752	88.56
267.984	93.56
268.216	74.56
268.448	97.56
268.681	88.56
268.913	82.56
269.145	90.56
269.377	92.56
269.609	89.56
269.841	78.56
270.073	87.56
270.306	75.56
270.538	76.56
270.77	83.56
271.002	90.56
271.234	90.56
271.466	92.56
271.698	88.56
271.93	90.56
272.162	92.56
272.394	85.56
272.626	94.56
272.858	78.56
273.09	82.56
273.322	87.56
273.553	85.56
273.785	89.56
274.017	79.56
274.249	78.56
274.481	85.56
274.713	79.56
274.945	89.56
275.176	93.56
275.408	86.56
275.64	86.56
275.872	90.56
276.104	85.56
276.335	92.56
276.567	90.56
276.799	99.56
277.031	95.56
277.262	100.56
277.494	99.56
277.726	94.56
277.957	91.56
278.189	86.56
278.421	88.56
278.652	92.56
278.884	94.56
279.115	78.56
279.347	87.56
279.579	87.56
279.81	81.56
280.042	102.56
280.273	98.56
280.505	99.56
280.736	78.56
280.968	104.56
281.199	84.56
281.431	80.56
281.662	91.56
281.894	78.56
282.125	97.56
282.356	112.56
282.588	127.56
282.819	119.56
283.051	95.56
283.282	91.56
283.513	90.56
283.745	93.56
283.976	86.56
284.207	92.56
284.439	94.56
284.67	74.56
284.901	93.56
285.132	95.56
285.364	101.56
285.595	102.56
285.826	87.56
286.057	99.56
286.288	86.56
286.52	92.56
286.751	70.56
286.982	90.56
287.213	87.56
287.444	74.56
287.675	91.56
287.906	100.56
288.138	94.56
288.369	77.56
288.6	81.56
288.831	74.56
289.062	81.56
289.293	99.56
289.524	81.56
289.755	90.56
289.986	101.56
290.217	81.56
290.448	82.56
290.679	89.56
290.91	89.56
291.141	74.56
291.371	86.56
291.602	85.56
291.833	97.56
292.064	103.56
292.295	78.56
292.526	93.56
292.757	87.56
292.987	90.56
293.218	85.56
293.449	77.56
293.68	91.56
293.91	84.56
294.141	97.56
294.372	96.56
294.603	88.56
294.833	86.56
295.064	88.56
295.295	95.56
295.525	85.56
295.756	91.56
295.987	104.56
296.217	116.56
296.448	133.56
296.679	101.56
296.909	96.56
297.14	77.56
297.37	85.56
297.601	103.56
297.831	79.56
298.062	89.56
298.292	90.56
298.523	90.56
298.753	95.56
298.984	88.56
299.214	99.56
299.445	98.56
299.675	98.56
299.905	95.56
300.136	91.56
300.366	84.56
300.597	83.56
300.827	89.56
301.057	107.56
301.288	94.56
301.518	84.56
301.748	88.56
301.979	114.56
302.209	92.56
302.439	98.56
302.669	91.56
302.9	87.56
303.13	106.56
303.36	109.56
303.59	109.56
303.82	122.56
304.051	107.56
304.281	98.56
304.511	82.56
304.741	93.56
304.971	88.56
305.201	102.56
305.431	90.56
305.661	94.56
305.891	94.56
306.121	90.56
306.352	109.56
306.582	107.56
306.812	105.56
307.042	94.56
307.272	86.56
307.502	96.56
307.731	99.56
307.961	92.56
308.191	90.56
308.421	97.56
308.651	79.56
308.881	88.56
309.111	93.56
309.341	86.56
309.571	93.56
309.8	94.56
310.03	107.56
310.26	102.56
310.49	104.56
310.72	101.56
310.949	93.56
311.179	95.56
311.409	101.56
311.639	92.56
311.868	93.56
312.098	102.56
312.328	106.56
312.557	92.56
312.787	121.56
313.017	105.56
313.246	98.56
313.476	99.56
313.706	104.56
313.935	102.56
314.165	98.56
314.394	95.56
314.624	101.56
314.853	95.56
315.083	95.56
315.312	84.56
315.542	98.56
315.771	97.56
316.001	89.56
316.23	94.56
316.46	82.56
316.689	98.56
316.919	81.56
317.148	100.56
317.377	87.56
317.607	97.56
317.836	96.56
318.065	89.56
318.295	95.56
318.524	97.56
318.753	83.56
318.983	91.56
319.212	115.56
319.441	105.56
319.67	115.56
319.9	102.56
320.129	101.56
320.358	95.56
320.587	101.56
320.816	94.56
321.046	109.56
321.275	112.56
321.504	100.56
321.733	117.56
321.962	107.56
322.191	99.56
322.42	119.56
322.649	126.56
322.878	110.56
323.108	123.56
323.337	137.56
323.566	125.56
323.795	151.56
324.024	215.56
324.253	380.56
324.482	770.56
324.71	1633.56
324.939	2173.56
325.168	798.56
325.397	245.56
325.626	149.56
325.855	129.56
326.084	130.56
326.313	123.56
326.542	155.56
326.77	233.56
326.999	435.56
327.228	942.56
327.457	1714.56
327.686	1349.56
327.914	385.56
328.143	219.56
328.372	175.56
328.6	137.56
328.829	122.56
329.058	132.56
329.287	139.56
329.515	108.56
329.744	108.56
329.972	136.56
330.201	173.56
330.43	217.56
330.658	171.56
330.887	136.56
331.115	127.56
331.344	106.56
331.572	104.56
331.801	104.56
332.03	103.56
332.258	85.56
332.486	105.56
332.715	85.56
332.943	104.56
333.172	102.56
333.4	97.56
333.629	102.56
333.857	130.56
334.085	130.56
334.314	185.56
334.542	254.56
334.771	239.56
334.999	126.56
335.227	107.56
335.455	103.56
335.684	99.56
335.912	120.56
336.14	106.56
336.369	86.56
336.597	106.56
336.825	94.56
337.053	104.56
337.281	83.56
337.51	94.56
337.738	103.56
337.966	98.56
338.194	106.56
338.422	100.56
338.65	91.56
338.878	90.56
339.106	89.56
339.334	105.56
339.562	77.56
339.79	92.56
340.018	106.56
340.246	100.56
340.474	98.56
340.702	101.56
340.93	98.56
341.158	90.56
341.386	103.56
341.614	111.56
341.842	110.56
342.07	98.56
342.298	91.56
342.526	101.56
342.754	97.56
342.981	90.56
343.209	96.56
343.437	105.56
343.665	86.56
343.893	92.56
344.12	95.56
344.348	86.56
344.576	81.56
344.804	101.56
345.031	113.56
345.259	108.56
345.487	87.56
345.714	103.56
345.942	90.56
346.17	90.56
346.397	104.56
346.625	91.56
346.853	92.56
347.08	85.56
347.308	84.56
347.535	109.56
347.763	99.56
347.99	102.56
348.218	106.56
348.445	110.56
348.673	98.56
348.9	92.56
349.128	103.56
349.355	90.56
349.583	84.56
349.81	89.56
350.037	89.56
350.265	94.56
350.492	105.56
350.72	106.56
350.947	105.56
351.174	119.56
351.402	109.56
351.629	95.56
351.856	101.56
352.083	98.56
352.311	85.56
352.538	99.56
352.765	117.56
352.992	110.56
353.22	127.56
353.447	105.56
353.674	103.56
353.901	110.56
354.128	100.56
354.355	101.56
354.583	102.56
354.81	84.56
355.037	110.56
355.264	99.56
355.491	96.56
355.718	97.56
355.945	95.56
356.172	105.56
356.399	101.56
356.626	97.56
356.853	93.56
357.08	105.56
357.307	88.56
357.534	89.56
357.761	97.56
357.988	97.56
358.215	101.56
358.441	102.56
358.668	111.56
358.895	98.56
359.122	77.56
359.349	107.56
359.576	102.56
359.802	96.56
360.029	114.56
360.256	109.56
360.483	91.56
360.709	99.56
360.936	105.56
361.163	98.56
361.39	97.56
361.616	96.56
361.843	102.56
362.07	101.56
362.296	96.56
362.523	103.56
362.749	110.56
362.976	91.56
363.203	97.56
363.429	95.56
363.656	100.56
363.882	103.56
364.109	104.56
364.335	77.56
364.562	98.56
364.788	94.56
365.015	99.56
365.241	102.56
365.468	119.56
365.694	109.56
365.92	108.56
366.147	94.56
366.373	98.56
366.599	89.56
366.826	94.56
367.052	110.56
367.278	82.56
367.505	89.56
367.731	101.56
367.957	97.56
368.184	93.56
368.41	106.56
368.636	110.56
368.862	117.56
369.089	113.56
369.315	93.56
369.541	105.56
369.767	104.56
369.993	89.56
370.219	90.56
370.445	83.56
370.672	106.56
370.898	100.56
371.124	95.56
371.35	80.56
371.576	93.56
371.802	88.56
372.028	96.56
372.254	84.56
372.48	87.56
372.706	91.56
372.932	94.56
373.158	93.56
373.384	78.56
373.61	77.56
373.835	91.56
374.061	89.56
374.287	112.56
374.513	101.56
374.739	84.56
374.965	94.56
375.191	81.56
375.416	104.56
375.642	91.56
375.868	90.56
376.094	94.56
376.319	101.56
376.545	95.56
376.771	89.56
376.997	94.56
377.222	97.56
377.448	89.56
377.674	89.56
377.899	91.56
378.125	94.56
378.35	89.56
378.576	93.56
378.802	90.56
379.027	99.56
379.253	90.56
379.478	85.56
379.704	93.56
379.929	89.56
380.155	88.56
380.38	108.56
380.606	93.56
380.831	110.56
381.057	92.56
381.282	99.56
381.507	90.56
381.733	107.56
381.958	106.56
382.184	104.56
382.409	100.56
382.634	120.56
382.86	109.56
383.085	106.56
383.31	100.56
383.535	98.56
383.761	90.56
383.986	103.56
384.211	96.56
384.436	101.56
384.662	118.56
384.887	101.56
385.112	113.56
385.337	93.56
385.562	107.56
385.787	91.56
386.013	106.56
386.238	118.56
386.463	94.56
386.688	109.56
386.913	104.56
387.138	109.56
387.363	105.56
387.588	103.56
387.813	91.56
388.038	110.56
388.263	92.56
388.488	115.56
388.713	116.56
388.938	93.56
389.163	93.56
389.387	109.56
389.612	108.56
389.837	86.56
390.062	105.56
390.287	106.56
390.512	93.56
390.736	102.56
390.961	109.56
391.186	100.56
391.411	100.56
391.636	99.56
391.86	89.56
392.085	90.56
392.31	90.56
392.534	90.56
392.759	100.56
392.984	101.56
393.208	94.56
393.433	89.56
393.658	95.56
393.882	94.56
394.107	100.56
394.331	107.56
394.556	88.56
394.78	95.56
395.005	99.56
395.229	87.56
395.454	89.56
395.678	90.56
395.903	101.56
396.127	76.56
396.352	92.56
396.576	89.56
396.801	89.56
397.025	95.56
397.249	99.56
397.474	90.56
397.698	91.56
397.922	87.56
398.147	108.56
398.371	97.56
398.595	85.56
398.82	93.56
399.044	83.56
399.268	94.56
399.492	79.56
399.717	90.56
399.941	90.56
400.165	105.56
400.389	99.56
400.613	96.56
400.837	100.56
401.062	108.56
401.286	94.56
401.51	87.56
401.734	100.56
401.958	109.56
402.182	124.56
402.406	175.56
402.63	118.56
402.854	93.56
403.078	87.56
403.302	84.56
403.526	101.56
403.75	97.56
403.974	94.56
404.198	94.56
404.422	87.56
404.645	99.56
404.869	98.56
405.093	101.56
405.317	102.56
405.541	104.56
405.765	102.56
405.988	126.56
406.212	168.56
406.436	215.56
406.66	149.56
406.883	105.56
407.107	88.56
407.331	94.56
407.555	103.56
407.778	109.56
408.002	100.56
408.226	85.56
408.449	91.56
408.673	91.56
408.896	117.56
409.12	114.56
409.344	97.56
409.567	93.56
409.791	90.56
410.014	96.56
410.238	88.56
410.461	90.56
410.685	98.56
410.908	94.56
411.132	103.56
411.355	110.56
411.578	105.56
411.802	94.56
412.025	94.56
412.249	94.56
412.472	109.56
412.695	107.56
412.919	97.56
413.142	87.56
413.365	92.56
413.589	93.56
413.812	89.56
414.035	103.56
414.258	101.56
414.482	85.56
414.705	90.56
414.928	92.56
415.151	103.56
415.374	104.56
415.597	94.56
415.821	93.56
416.044	99.56
416.267	104.56
416.49	101.56
416.713	85.56
416.936	84.56
417.159	94.56
417.382	90.56
417.605	94.56
417.828	108.56
418.051	93.56
418.274	91.56
418.497	88.56
418.72	99.56
418.943	90.56
419.166	83.56
419.389	99.56
419.611	88.56
419.834	98.56
420.057	93.56
420.28	88.56
420.503	85.56
420.726	85.56
420.948	94.56
421.171	105.56
421.394	93.56
421.617	103.56
421.839	82.56
422.062	108.56
422.285	104.56
422.507	109.56
422.73	106.56
422.953	95.56
423.175	105.56
423.398	88.56
423.621	91.56
423.843	91.56
424.066	100.56
424.288	93.56
424.511	106.56
424.733	103.56
424.956	101.56
425.178	92.56
425.401	111.56
425.623	110.56
425.846	94.56
426.068	100.56
426.291	99.56
426.513	101.56
426.735	98.56
426.958	108.56
427.18	108.56
427.402	150.56
427.625	176.56
427.847	147.56
428.069	123.56
428.292	110.56
428.514	76.56
428.736	100.56
428.958	82.56
429.181	92.56
429.403	100.56
429.625	87.56
429.847	91.56
430.069	92.56
430.292	90.56
430.514	85.56
430.736	85.56
430.958	87.56
431.18	81.56
431.402	95.56
431.624	87.56
431.846	91.56
432.068	81.56
432.29	96.56
432.512	88.56
432.734	78.56
432.956	95.56
433.178	108.56
433.4	105.56
433.622	98.56
433.844	101.56
434.066	110.56
434.287	86.56
434.509	97.56
434.731	99.56
434.953	76.56
435.175	84.56
435.397	89.56
435.618	78.56
435.84	109.56
436.062	129.56
436.284	109.56
436.505	108.56
436.727	126.56
436.949	90.56
437.17	91.56
437.392	85.56
437.614	105.56
437.835	90.56
438.057	117.56
438.278	102.56
438.5	126.56
438.721	125.56
438.943	93.56
439.165	90.56
439.386	93.56
439.608	87.56
439.829	97.56
440.05	127.56
440.272	148.56
440.493	107.56
440.715	88.56
440.936	100.56
441.158	102.56
441.379	99.56
441.6	98.56
441.822	84.56
442.043	100.56
442.264	113.56
442.486	110.56
442.707	100.56
442.928	106.56
443.149	136.56
443.371	119.56
443.592	119.56
443.813	108.56
444.034	109.56
444.255	89.56
444.476	87.56
444.698	89.56
444.919	89.56
445.14	140.56
445.361	130.56
445.582	119.56
445.803	149.56
446.024	135.56
446.245	133.56
446.466	119.56
446.687	94.56
446.908	92.56
447.129	88.56
447.35	89.56
447.571	97.56
447.792	101.56
448.013	95.56
448.234	101.56
448.455	107.56
448.675	121.56
448.896	130.56
449.117	91.56
449.338	109.56
449.559	138.56
449.779	149.56
450	95.56
450.221	104.56
450.442	99.56
450.662	86.56
450.883	103.56
451.104	103.56
451.324	102.56
451.545	81.56
451.766	77.56
451.986	93.56
452.207	102.56
452.428	98.56
452.648	98.56
452.869	103.56
453.089	118.56
453.31	114.56
453.53	98.56
453.751	93.56
453.971	102.56
454.192	113.56
454.412	105.56
454.633	98.56
454.853	93.56
455.073	91.56
455.294	102.56
455.514	104.56
455.734	87.56
455.955	86.56
456.175	85.56
456.395	98.56
456.616	93.56
456.836	77.56
457.056	97.56
457.276	87.56
457.497	69.56
457.717	93.56
457.937	86.56
458.157	105.56
458.377	87.56
458.598	100.56
458.818	142.56
459.038	152.56
459.258	111.56
459.478	89.56
459.698	82.56
459.918	82.56
460.138	96.56
460.358	92.56
460.578	87.56
460.798	89.56
461.018	91.56
461.238	93.56
461.458	92.56
461.678	91.56
461.898	100.56
462.118	88.56
462.338	87.56
462.558	87.56
462.777	91.56
462.997	82.56
463.217	86.56
463.437	70.56
463.657	91.56
463.876	94.56
464.096	91.56
464.316	94.56
464.536	96.56
464.755	96.56
464.975	133.56
465.195	165.56
465.414	153.56
465.634	93.56
465.854	67.56
466.073	111.56
466.293	89.56
466.512	84.56
466.732	99.56
466.951	100.56
467.171	81.56
467.391	83.56
467.61	101.56
467.829	97.56
468.049	128.56
468.268	142.56
468.488	95.56
468.707	99.56
468.927	94.56
469.146	73.56
469.365	85.56
469.585	90.56
469.804	100.56
470.023	100.56
470.243	98.56
470.462	107.56
470.681	100.56
470.901	109.56
471.12	86.56
471.339	91.56
471.558	90.56
471.777	92.56
471.997	98.56
472.216	197.56
472.435	308.56
472.654	130.56
472.873	104.56
473.092	87.56
473.311	99.56
473.53	107.56
473.749	86.56
473.968	99.56
474.187	115.56
474.406	106.56
474.625	78.56
474.844	86.56
475.063	98.56
475.282	102.56
475.501	82.56
475.72	94.56
475.939	76.56
476.158	99.56
476.377	93.56
476.596	89.56
476.814	99.56
477.033	95.56
477.252	89.56
477.471	92.56
477.69	91.56
477.908	82.56
478.127	85.56
478.346	102.56
478.564	90.56
478.783	89.56
479.002	101.56
479.22	103.56
479.439	102.56
479.658	106.56
479.876	98.56
480.095	89.56
480.313	102.56
480.532	103.56
480.751	114.56
480.969	175.56
481.188	533.56
481.406	305.56
481.624	130.56
481.843	99.56
482.061	87.56
482.28	78.56
482.498	116.56
482.717	90.56
482.935	98.56
483.153	99.56
483.372	97.56
483.59	96.56
483.808	84.56
484.027	82.56
484.245	79.56
484.463	102.56
484.681	87.56
484.9	90.56
485.118	116.56
485.336	98.56
485.554	92.56
485.772	102.56
485.99	102.56
486.209	99.56
486.427	111.56
486.645	99.56
486.863	123.56
487.081	93.56
487.299	101.56
487.517	86.56
487.735	99.56
487.953	85.56
488.171	91.56
488.389	87.56
488.607	99.56
488.825	101.56
489.043	93.56
489.261	109.56
489.479	85.56
489.696	89.56
489.914	90.56
490.132	104.56
490.35	100.56
490.568	88.56
490.786	89.56
491.003	95.56
491.221	92.56
491.439	95.56
491.657	102.56
491.874	99.56
492.092	103.56
492.31	98.56
492.527	82.56
492.745	109.56
492.963	91.56
493.18	102.56
493.398	93.56
493.615	97.56
493.833	90.56
494.05	93.56
494.268	97.56
494.485	76.56
494.703	85.56
494.92	95.56
495.138	103.56
495.355	93.56
495.573	99.56
495.79	114.56
496.008	103.56
496.225	86.56
496.442	96.56
496.66	100.56
496.877	95.56
497.094	87.56
497.312	93.56
497.529	92.56
497.746	92.56
497.963	87.56
498.181	92.56
498.398	90.56
498.615	110.56
498.832	95.56
499.049	88.56
499.267	83.56
499.484	103.56
499.701	108.56
499.918	101.56
500.135	89.56
500.352	99.56
500.569	86.56
500.786	86.56
501.003	97.56
501.22	101.56
501.437	89.56
501.654	91.56
501.871	93.56
502.088	99.56
502.305	100.56
502.522	87.56
502.739	85.56
502.956	84.56
503.172	87.56
503.389	109.56
503.606	106.56
503.823	93.56
504.04	101.56
504.256	108.56
504.473	100.56
504.69	88.56
504.907	109.56
505.123	102.56
505.34	86.56
505.557	99.56
505.773	78.56
505.99	73.56
506.207	88.56
506.423	91.56
506.64	81.56
506.856	105.56
507.073	90.56
507.289	95.56
507.506	91.56
507.722	116.56
507.939	118.56
508.155	103.56
508.372	100.56
508.588	121.56
508.805	104.56
509.021	103.56
509.238	94.56
509.454	103.56
509.67	107.56
509.887	118.56
510.103	120.56
510.319	201.56
510.536	750.56
510.752	2265.56
510.968	621.56
511.184	167.56
511.401	110.56
511.617	104.56
511.833	94.56
512.049	94.56
512.265	85.56
512.481	105.56
512.698	102.56
512.914	91.56
513.13	97.56
513.346	86.56
513.562	94.56
513.778	100.56
