Data from Circ_1986_H10_HRD10591_00062.txt Node
Date: Wed Jan 03 12:15:38 EST 2024
User: Yrep
Spectrometer: HR+D1059
Trigger mode: 1
Integration Time (sec): 1.000000E-1
Scans to average: 1
Electric dark correction enabled: true
Nonlinearity correction enabled: false
Boxcar width: 0
XAxis mode: Wavelengths
Number of Pixels in Spectrum: 2048
>>>>>Begin Spectral Data<<<<<
223.165	-4.62
223.4	-4.62
223.635	-4.62
223.869	-27.62
224.104	-14.62
224.338	-29.62
224.573	-6.62
224.808	-21.62
225.042	3.38
225.277	-2.62
225.511	-5.62
225.746	-2.62
225.98	-3.62
226.215	11.38
226.449	8.38
226.683	37.38
226.918	32.38
227.152	26.38
227.387	31.38
227.621	41.38
227.856	44.38
228.09	41.38
228.324	38.38
228.559	57.38
228.793	50.38
229.027	56.38
229.262	68.38
229.496	72.38
229.73	74.38
229.964	76.38
230.199	69.38
230.433	58.38
230.667	87.38
230.901	71.38
231.136	84.38
231.37	85.38
231.604	67.38
231.838	74.38
232.072	64.38
232.306	78.38
232.541	91.38
232.775	71.38
233.009	79.38
233.243	88.38
233.477	81.38
233.711	82.38
233.945	69.38
234.179	94.38
234.413	97.38
234.647	79.38
234.881	93.38
235.115	85.38
235.349	81.38
235.583	81.38
235.817	84.38
236.051	73.38
236.285	75.38
236.519	75.38
236.753	79.38
236.987	92.38
237.221	87.38
237.455	83.38
237.689	79.38
237.922	81.38
238.156	82.38
238.39	80.38
238.624	76.38
238.858	84.38
239.091	76.38
239.325	64.38
239.559	83.38
239.793	83.38
240.027	75.38
240.26	62.38
240.494	66.38
240.728	74.38
240.961	64.38
241.195	78.38
241.429	73.38
241.662	72.38
241.896	71.38
242.13	76.38
242.363	71.38
242.597	75.38
242.83	70.38
243.064	81.38
243.298	82.38
243.531	79.38
243.765	74.38
243.998	74.38
244.232	68.38
244.465	78.38
244.699	74.38
244.932	64.38
245.166	70.38
245.399	82.38
245.633	77.38
245.866	74.38
246.099	89.38
246.333	56.38
246.566	67.38
246.8	70.38
247.033	75.38
247.266	74.38
247.5	79.38
247.733	77.38
247.966	86.38
248.2	75.38
248.433	68.38
248.666	57.38
248.899	92.38
249.133	80.38
249.366	89.38
249.599	89.38
249.832	80.38
250.066	95.38
250.299	82.38
250.532	87.38
250.765	82.38
250.998	84.38
251.231	62.38
251.465	74.38
251.698	76.38
251.931	80.38
252.164	75.38
252.397	73.38
252.63	79.38
252.863	71.38
253.096	79.38
253.329	80.38
253.562	75.38
253.795	88.38
254.028	81.38
254.261	84.38
254.494	89.38
254.727	67.38
254.96	70.38
255.193	79.38
255.426	82.38
255.659	80.38
255.892	79.38
256.124	88.38
256.357	78.38
256.59	79.38
256.823	82.38
257.056	78.38
257.289	82.38
257.521	79.38
257.754	89.38
257.987	74.38
258.22	84.38
258.452	73.38
258.685	83.38
258.918	70.38
259.151	80.38
259.383	71.38
259.616	78.38
259.849	79.38
260.081	79.38
260.314	85.38
260.547	71.38
260.779	71.38
261.012	93.38
261.244	84.38
261.477	71.38
261.71	92.38
261.942	103.38
262.175	111.38
262.407	90.38
262.64	101.38
262.872	91.38
263.105	78.38
263.337	75.38
263.57	91.38
263.802	84.38
264.035	82.38
264.267	87.38
264.499	88.38
264.732	95.38
264.964	84.38
265.197	75.38
265.429	81.38
265.661	87.38
265.894	82.38
266.126	88.38
266.358	78.38
266.591	87.38
266.823	87.38
267.055	90.38
267.287	85.38
267.52	81.38
267.752	75.38
267.984	78.38
268.216	82.38
268.448	83.38
268.681	75.38
268.913	84.38
269.145	88.38
269.377	82.38
269.609	74.38
269.841	81.38
270.073	94.38
270.306	80.38
270.538	85.38
270.77	78.38
271.002	86.38
271.234	79.38
271.466	76.38
271.698	90.38
271.93	80.38
272.162	78.38
272.394	87.38
272.626	85.38
272.858	79.38
273.09	88.38
273.322	79.38
273.553	79.38
273.785	84.38
274.017	88.38
274.249	89.38
274.481	82.38
274.713	91.38
274.945	85.38
275.176	86.38
275.408	84.38
275.64	87.38
275.872	84.38
276.104	80.38
276.335	89.38
276.567	112.38
276.799	94.38
277.031	90.38
277.262	90.38
277.494	84.38
277.726	94.38
277.957	86.38
278.189	95.38
278.421	83.38
278.652	90.38
278.884	87.38
279.115	85.38
279.347	81.38
279.579	83.38
279.81	92.38
280.042	82.38
280.273	90.38
280.505	94.38
280.736	96.38
280.968	82.38
281.199	94.38
281.431	90.38
281.662	86.38
281.894	89.38
282.125	88.38
282.356	108.38
282.588	112.38
282.819	97.38
283.051	89.38
283.282	87.38
283.513	95.38
283.745	84.38
283.976	84.38
284.207	90.38
284.439	98.38
284.67	98.38
284.901	99.38
285.132	88.38
285.364	84.38
285.595	92.38
285.826	87.38
286.057	89.38
286.288	78.38
286.52	79.38
286.751	73.38
286.982	95.38
287.213	74.38
287.444	84.38
287.675	89.38
287.906	84.38
288.138	93.38
288.369	94.38
288.6	92.38
288.831	87.38
289.062	91.38
289.293	74.38
289.524	72.38
289.755	86.38
289.986	74.38
290.217	89.38
290.448	81.38
290.679	83.38
290.91	96.38
291.141	94.38
291.371	78.38
291.602	103.38
291.833	90.38
292.064	103.38
292.295	91.38
292.526	90.38
292.757	94.38
292.987	93.38
293.218	93.38
293.449	87.38
293.68	86.38
293.91	90.38
294.141	98.38
294.372	91.38
294.603	73.38
294.833	90.38
295.064	79.38
295.295	80.38
295.525	89.38
295.756	106.38
295.987	106.38
296.217	121.38
296.448	118.38
296.679	89.38
296.909	88.38
297.14	97.38
297.37	95.38
297.601	99.38
297.831	63.38
298.062	87.38
298.292	86.38
298.523	78.38
298.753	88.38
298.984	89.38
299.214	78.38
299.445	97.38
299.675	98.38
299.905	99.38
300.136	97.38
300.366	84.38
300.597	87.38
300.827	89.38
301.057	94.38
301.288	100.38
301.518	80.38
301.748	94.38
301.979	99.38
302.209	79.38
302.439	86.38
302.669	101.38
302.9	99.38
303.13	105.38
303.36	91.38
303.59	98.38
303.82	91.38
304.051	89.38
304.281	84.38
304.511	86.38
304.741	80.38
304.971	92.38
305.201	89.38
305.431	89.38
305.661	94.38
305.891	87.38
306.121	95.38
306.352	92.38
306.582	101.38
306.812	81.38
307.042	86.38
307.272	95.38
307.502	95.38
307.731	97.38
307.961	87.38
308.191	88.38
308.421	85.38
308.651	99.38
308.881	97.38
309.111	97.38
309.341	106.38
309.571	103.38
309.8	90.38
310.03	103.38
310.26	100.38
310.49	96.38
310.72	101.38
310.949	86.38
311.179	89.38
311.409	91.38
311.639	95.38
311.868	86.38
312.098	102.38
312.328	99.38
312.557	95.38
312.787	90.38
313.017	90.38
313.246	91.38
313.476	75.38
313.706	108.38
313.935	80.38
314.165	99.38
314.394	97.38
314.624	96.38
314.853	91.38
315.083	94.38
315.312	98.38
315.542	82.38
315.771	100.38
316.001	94.38
316.23	93.38
316.46	92.38
316.689	91.38
316.919	92.38
317.148	93.38
317.377	89.38
317.607	85.38
317.836	99.38
318.065	93.38
318.295	93.38
318.524	91.38
318.753	86.38
318.983	93.38
319.212	83.38
319.441	101.38
319.67	91.38
319.9	99.38
320.129	94.38
320.358	102.38
320.587	91.38
320.816	98.38
321.046	103.38
321.275	107.38
321.504	96.38
321.733	96.38
321.962	90.38
322.191	97.38
322.42	101.38
322.649	98.38
322.878	102.38
323.108	92.38
323.337	124.38
323.566	127.38
323.795	137.38
324.024	190.38
324.253	316.38
324.482	654.38
324.71	1326.38
324.939	1752.38
325.168	681.38
325.397	196.38
325.626	146.38
325.855	116.38
326.084	123.38
326.313	129.38
326.542	136.38
326.77	205.38
326.999	380.38
327.228	762.38
327.457	1362.38
327.686	1099.38
327.914	304.38
328.143	192.38
328.372	163.38
328.6	124.38
328.829	104.38
329.058	103.38
329.287	126.38
329.515	92.38
329.744	116.38
329.972	111.38
330.201	151.38
330.43	156.38
330.658	134.38
330.887	116.38
331.115	97.38
331.344	108.38
331.572	110.38
331.801	100.38
332.03	102.38
332.258	96.38
332.486	87.38
332.715	80.38
332.943	78.38
333.172	85.38
333.4	98.38
333.629	111.38
333.857	110.38
334.085	98.38
334.314	169.38
334.542	209.38
334.771	191.38
334.999	115.38
335.227	99.38
335.455	91.38
335.684	99.38
335.912	88.38
336.14	90.38
336.369	95.38
336.597	102.38
336.825	87.38
337.053	91.38
337.281	102.38
337.51	93.38
337.738	92.38
337.966	99.38
338.194	99.38
338.422	87.38
338.65	100.38
338.878	96.38
339.106	102.38
339.334	101.38
339.562	102.38
339.79	96.38
340.018	87.38
340.246	102.38
340.474	99.38
340.702	82.38
340.93	73.38
341.158	81.38
341.386	100.38
341.614	95.38
341.842	101.38
342.07	93.38
342.298	105.38
342.526	103.38
342.754	88.38
342.981	73.38
343.209	87.38
343.437	101.38
343.665	88.38
343.893	99.38
344.12	97.38
344.348	80.38
344.576	82.38
344.804	87.38
345.031	100.38
345.259	106.38
345.487	88.38
345.714	87.38
345.942	94.38
346.17	94.38
346.397	75.38
346.625	80.38
346.853	89.38
347.08	73.38
347.308	95.38
347.535	98.38
347.763	78.38
347.99	114.38
348.218	96.38
348.445	100.38
348.673	94.38
348.9	104.38
349.128	83.38
349.355	95.38
349.583	102.38
349.81	93.38
350.037	87.38
350.265	99.38
350.492	108.38
350.72	95.38
350.947	98.38
351.174	88.38
351.402	116.38
351.629	100.38
351.856	98.38
352.083	105.38
352.311	107.38
352.538	101.38
352.765	106.38
352.992	100.38
353.22	98.38
353.447	113.38
353.674	104.38
353.901	106.38
354.128	96.38
354.355	91.38
354.583	103.38
354.81	87.38
355.037	90.38
355.264	87.38
355.491	86.38
355.718	87.38
355.945	98.38
356.172	97.38
356.399	105.38
356.626	112.38
356.853	87.38
357.08	86.38
357.307	100.38
357.534	88.38
357.761	97.38
357.988	106.38
358.215	81.38
358.441	94.38
358.668	99.38
358.895	89.38
359.122	86.38
359.349	95.38
359.576	90.38
359.802	100.38
360.029	116.38
360.256	109.38
360.483	84.38
360.709	88.38
360.936	86.38
361.163	118.38
361.39	114.38
361.616	86.38
361.843	82.38
362.07	82.38
362.296	92.38
362.523	91.38
362.749	84.38
362.976	92.38
363.203	89.38
363.429	89.38
363.656	75.38
363.882	94.38
364.109	86.38
364.335	95.38
364.562	98.38
364.788	76.38
365.015	88.38
365.241	94.38
365.468	93.38
365.694	94.38
365.92	79.38
366.147	85.38
366.373	82.38
366.599	89.38
366.826	97.38
367.052	82.38
367.278	87.38
367.505	96.38
367.731	94.38
367.957	94.38
368.184	89.38
368.41	102.38
368.636	100.38
368.862	120.38
369.089	100.38
369.315	92.38
369.541	81.38
369.767	88.38
369.993	79.38
370.219	82.38
370.445	84.38
370.672	92.38
370.898	93.38
371.124	94.38
371.35	85.38
371.576	102.38
371.802	76.38
372.028	92.38
372.254	84.38
372.48	90.38
372.706	93.38
372.932	90.38
373.158	95.38
373.384	91.38
373.61	97.38
373.835	89.38
374.061	85.38
374.287	90.38
374.513	82.38
374.739	86.38
374.965	95.38
375.191	82.38
375.416	70.38
375.642	96.38
375.868	99.38
376.094	83.38
376.319	96.38
376.545	84.38
376.771	83.38
376.997	86.38
377.222	100.38
377.448	87.38
377.674	84.38
377.899	80.38
378.125	74.38
378.35	92.38
378.576	94.38
378.802	94.38
379.027	98.38
379.253	101.38
379.478	92.38
379.704	90.38
379.929	121.38
380.155	102.38
380.38	94.38
380.606	94.38
380.831	101.38
381.057	98.38
381.282	88.38
381.507	94.38
381.733	93.38
381.958	99.38
382.184	103.38
382.409	96.38
382.634	101.38
382.86	100.38
383.085	95.38
383.31	107.38
383.535	108.38
383.761	100.38
383.986	100.38
384.211	112.38
384.436	107.38
384.662	108.38
384.887	104.38
385.112	112.38
385.337	99.38
385.562	119.38
385.787	113.38
386.013	111.38
386.238	108.38
386.463	104.38
386.688	99.38
386.913	107.38
387.138	107.38
387.363	114.38
387.588	114.38
387.813	98.38
388.038	101.38
388.263	97.38
388.488	95.38
388.713	90.38
388.938	104.38
389.163	98.38
389.387	81.38
389.612	95.38
389.837	87.38
390.062	91.38
390.287	82.38
390.512	92.38
390.736	89.38
390.961	91.38
391.186	97.38
391.411	99.38
391.636	83.38
391.86	73.38
392.085	76.38
392.31	92.38
392.534	78.38
392.759	96.38
392.984	77.38
393.208	86.38
393.433	72.38
393.658	88.38
393.882	78.38
394.107	100.38
394.331	76.38
394.556	90.38
394.78	95.38
395.005	81.38
395.229	101.38
395.454	89.38
395.678	91.38
395.903	74.38
396.127	82.38
396.352	92.38
396.576	73.38
396.801	83.38
397.025	71.38
397.249	84.38
397.474	90.38
397.698	97.38
397.922	79.38
398.147	95.38
398.371	97.38
398.595	88.38
398.82	78.38
399.044	90.38
399.268	82.38
399.492	86.38
399.717	88.38
399.941	88.38
400.165	86.38
400.389	83.38
400.613	72.38
400.837	84.38
401.062	87.38
401.286	95.38
401.51	87.38
401.734	92.38
401.958	99.38
402.182	125.38
402.406	138.38
402.63	102.38
402.854	69.38
403.078	90.38
403.302	89.38
403.526	98.38
403.75	75.38
403.974	68.38
404.198	88.38
404.422	78.38
404.645	99.38
404.869	96.38
405.093	98.38
405.317	87.38
405.541	87.38
405.765	92.38
405.988	97.38
406.212	146.38
406.436	177.38
406.66	138.38
406.883	103.38
407.107	91.38
407.331	92.38
407.555	76.38
407.778	91.38
408.002	88.38
408.226	82.38
408.449	81.38
408.673	86.38
408.896	85.38
409.12	93.38
409.344	92.38
409.567	86.38
409.791	92.38
410.014	105.38
410.238	93.38
410.461	85.38
410.685	88.38
410.908	98.38
411.132	96.38
411.355	86.38
411.578	93.38
411.802	88.38
412.025	84.38
412.249	85.38
412.472	90.38
412.695	106.38
412.919	91.38
413.142	97.38
413.365	99.38
413.589	91.38
413.812	78.38
414.035	84.38
414.258	76.38
414.482	89.38
414.705	90.38
414.928	93.38
415.151	88.38
415.374	87.38
415.597	98.38
415.821	87.38
416.044	90.38
416.267	90.38
416.49	88.38
416.713	95.38
416.936	96.38
417.159	76.38
417.382	78.38
417.605	86.38
417.828	106.38
418.051	88.38
418.274	89.38
418.497	93.38
418.72	89.38
418.943	88.38
419.166	95.38
419.389	83.38
419.611	85.38
419.834	84.38
420.057	86.38
420.28	89.38
420.503	90.38
420.726	86.38
420.948	91.38
421.171	83.38
421.394	89.38
421.617	96.38
421.839	92.38
422.062	95.38
422.285	84.38
422.507	108.38
422.73	97.38
422.953	107.38
423.175	91.38
423.398	89.38
423.621	88.38
423.843	73.38
424.066	86.38
424.288	91.38
424.511	87.38
424.733	91.38
424.956	98.38
425.178	95.38
425.401	82.38
425.623	96.38
425.846	88.38
426.068	89.38
426.291	92.38
426.513	104.38
426.735	92.38
426.958	82.38
427.18	98.38
427.402	112.38
427.625	130.38
427.847	135.38
428.069	108.38
428.292	88.38
428.514	81.38
428.736	97.38
428.958	76.38
429.181	98.38
429.403	76.38
429.625	84.38
429.847	70.38
430.069	108.38
430.292	85.38
430.514	89.38
430.736	90.38
430.958	80.38
431.18	81.38
431.402	82.38
431.624	87.38
431.846	85.38
432.068	95.38
432.29	72.38
432.512	89.38
432.734	95.38
432.956	79.38
433.178	100.38
433.4	91.38
433.622	71.38
433.844	94.38
434.066	97.38
434.287	86.38
434.509	108.38
434.731	96.38
434.953	82.38
435.175	89.38
435.397	76.38
435.618	96.38
435.84	83.38
436.062	114.38
436.284	89.38
436.505	85.38
436.727	106.38
436.949	91.38
437.17	82.38
437.392	87.38
437.614	74.38
437.835	91.38
438.057	92.38
438.278	88.38
438.5	96.38
438.721	110.38
438.943	91.38
439.165	88.38
439.386	75.38
439.608	83.38
439.829	90.38
440.05	132.38
440.272	134.38
440.493	96.38
440.715	87.38
440.936	88.38
441.158	87.38
441.379	90.38
441.6	96.38
441.822	80.38
442.043	80.38
442.264	109.38
442.486	94.38
442.707	74.38
442.928	98.38
443.149	100.38
443.371	120.38
443.592	95.38
443.813	95.38
444.034	101.38
444.255	98.38
444.476	88.38
444.698	97.38
444.919	86.38
445.14	131.38
445.361	108.38
445.582	114.38
445.803	113.38
446.024	111.38
446.245	108.38
446.466	101.38
446.687	97.38
446.908	93.38
447.129	88.38
447.35	90.38
447.571	91.38
447.792	97.38
448.013	108.38
448.234	102.38
448.455	108.38
448.675	99.38
448.896	105.38
449.117	92.38
449.338	90.38
449.559	110.38
449.779	115.38
450	91.38
450.221	94.38
450.442	83.38
450.662	94.38
450.883	103.38
451.104	112.38
451.324	97.38
451.545	90.38
451.766	92.38
451.986	74.38
452.207	84.38
452.428	97.38
452.648	98.38
452.869	103.38
453.089	120.38
453.31	101.38
453.53	91.38
453.751	88.38
453.971	103.38
454.192	110.38
454.412	85.38
454.633	83.38
454.853	91.38
455.073	89.38
455.294	78.38
455.514	108.38
455.734	99.38
455.955	90.38
456.175	91.38
456.395	85.38
456.616	96.38
456.836	84.38
457.056	76.38
457.276	82.38
457.497	78.38
457.717	81.38
457.937	74.38
458.157	88.38
458.377	91.38
458.598	99.38
458.818	131.38
459.038	128.38
459.258	107.38
459.478	67.38
459.698	87.38
459.918	84.38
460.138	95.38
460.358	96.38
460.578	73.38
460.798	84.38
461.018	90.38
461.238	89.38
461.458	79.38
461.678	105.38
461.898	86.38
462.118	75.38
462.338	90.38
462.558	85.38
462.777	83.38
462.997	90.38
463.217	91.38
463.437	81.38
463.657	96.38
463.876	87.38
464.096	95.38
464.316	94.38
464.536	83.38
464.755	94.38
464.975	93.38
465.195	150.38
465.414	125.38
465.634	88.38
465.854	96.38
466.073	100.38
466.293	83.38
466.512	92.38
466.732	85.38
466.951	81.38
467.171	85.38
467.391	96.38
467.61	107.38
467.829	96.38
468.049	118.38
468.268	134.38
468.488	89.38
468.707	98.38
468.927	95.38
469.146	86.38
469.365	84.38
469.585	83.38
469.804	89.38
470.023	86.38
470.243	91.38
470.462	91.38
470.681	85.38
470.901	84.38
471.12	79.38
471.339	78.38
471.558	87.38
471.777	94.38
471.997	89.38
472.216	160.38
472.435	225.38
472.654	115.38
472.873	99.38
473.092	88.38
473.311	72.38
473.53	84.38
473.749	80.38
473.968	94.38
474.187	88.38
474.406	97.38
474.625	87.38
474.844	90.38
475.063	89.38
475.282	80.38
475.501	93.38
475.72	84.38
475.939	99.38
476.158	95.38
476.377	89.38
476.596	81.38
476.814	97.38
477.033	90.38
477.252	100.38
477.471	80.38
477.69	96.38
477.908	75.38
478.127	80.38
478.346	80.38
478.564	94.38
478.783	96.38
479.002	101.38
479.22	90.38
479.439	95.38
479.658	91.38
479.876	99.38
480.095	92.38
480.313	90.38
480.532	97.38
480.751	105.38
480.969	153.38
481.188	387.38
481.406	244.38
481.624	91.38
481.843	90.38
482.061	83.38
482.28	99.38
482.498	94.38
482.717	87.38
482.935	81.38
483.153	95.38
483.372	87.38
483.59	74.38
483.808	99.38
484.027	88.38
484.245	98.38
484.463	83.38
484.681	91.38
484.9	103.38
485.118	99.38
485.336	102.38
485.554	94.38
485.772	106.38
485.99	110.38
486.209	105.38
486.427	100.38
486.645	111.38
486.863	90.38
487.081	108.38
487.299	104.38
487.517	92.38
487.735	81.38
487.953	84.38
488.171	104.38
488.389	88.38
488.607	99.38
488.825	97.38
489.043	97.38
489.261	94.38
489.479	88.38
489.696	78.38
489.914	78.38
490.132	79.38
490.35	96.38
490.568	93.38
490.786	90.38
491.003	89.38
491.221	76.38
491.439	87.38
491.657	97.38
491.874	90.38
492.092	95.38
492.31	93.38
492.527	87.38
492.745	94.38
492.963	97.38
493.18	103.38
493.398	84.38
493.615	109.38
493.833	95.38
494.05	99.38
494.268	83.38
494.485	104.38
494.703	94.38
494.92	97.38
495.138	89.38
495.355	83.38
495.573	76.38
495.79	82.38
496.008	90.38
496.225	72.38
496.442	83.38
496.66	92.38
496.877	95.38
497.094	84.38
497.312	99.38
497.529	77.38
497.746	80.38
497.963	78.38
498.181	74.38
498.398	104.38
498.615	118.38
498.832	89.38
499.049	99.38
499.267	92.38
499.484	76.38
499.701	89.38
499.918	83.38
500.135	72.38
500.352	97.38
500.569	92.38
500.786	94.38
501.003	99.38
501.22	98.38
501.437	94.38
501.654	89.38
501.871	81.38
502.088	91.38
502.305	91.38
502.522	88.38
502.739	79.38
502.956	80.38
503.172	96.38
503.389	96.38
503.606	82.38
503.823	98.38
504.04	89.38
504.256	97.38
504.473	96.38
504.69	79.38
504.907	90.38
505.123	93.38
505.34	88.38
505.557	94.38
505.773	85.38
505.99	97.38
506.207	73.38
506.423	99.38
506.64	87.38
506.856	88.38
507.073	106.38
507.289	104.38
507.506	113.38
507.722	94.38
507.939	111.38
508.155	89.38
508.372	88.38
508.588	89.38
508.805	92.38
509.021	94.38
509.238	103.38
509.454	96.38
509.67	94.38
509.887	114.38
510.103	117.38
510.319	192.38
510.536	620.38
510.752	1842.38
510.968	515.38
511.184	132.38
511.401	90.38
511.617	87.38
511.833	84.38
512.049	98.38
512.265	68.38
512.481	107.38
512.698	103.38
512.914	86.38
513.13	82.38
513.346	96.38
513.562	101.38
513.778	88.38
513.994	105.38
514.21	100.38
514.426	105.38
514.642	124.38
514.858	108.38
515.074	153.38
515.29	358.38
515.506	1122.38
515.721	432.38
515.937	128.38
516.153	115.38
516.369	90.38
516.585	91.38
