Data from Circ_1986_H10_HRD10591_00095.txt Node
Date: Wed Jan 03 12:15:45 EST 2024
User: Yrep
Spectrometer: HR+D1059
Trigger mode: 1
Integration Time (sec): 1.000000E-1
Scans to average: 1
Electric dark correction enabled: true
Nonlinearity correction enabled: false
Boxcar width: 0
XAxis mode: Wavelengths
Number of Pixels in Spectrum: 2048
>>>>>Begin Spectral Data<<<<<
223.165	-6.88
223.4	-6.88
223.635	-6.88
223.869	-25.88
224.104	-17.88
224.338	-20.88
224.573	-16.88
224.808	-26.88
225.042	-4.88
225.277	-2.88
225.511	-21.88
225.746	17.12
225.98	-0.88
226.215	10.12
226.449	24.12
226.683	31.12
226.918	31.12
227.152	32.12
227.387	41.12
227.621	37.12
227.856	50.12
228.09	37.12
228.324	41.12
228.559	55.12
228.793	53.12
229.027	57.12
229.262	78.12
229.496	69.12
229.73	84.12
229.964	77.12
230.199	87.12
230.433	81.12
230.667	99.12
230.901	87.12
231.136	77.12
231.37	84.12
231.604	78.12
231.838	78.12
232.072	77.12
232.306	85.12
232.541	95.12
232.775	99.12
233.009	87.12
233.243	86.12
233.477	91.12
233.711	92.12
233.945	71.12
234.179	73.12
234.413	91.12
234.647	89.12
234.881	85.12
235.115	91.12
235.349	76.12
235.583	59.12
235.817	87.12
236.051	100.12
236.285	89.12
236.519	90.12
236.753	81.12
236.987	78.12
237.221	84.12
237.455	81.12
237.689	78.12
237.922	79.12
238.156	75.12
238.39	72.12
238.624	67.12
238.858	74.12
239.091	85.12
239.325	89.12
239.559	84.12
239.793	74.12
240.027	68.12
240.26	87.12
240.494	87.12
240.728	83.12
240.961	86.12
241.195	90.12
241.429	91.12
241.662	81.12
241.896	74.12
242.13	77.12
242.363	85.12
242.597	89.12
242.83	76.12
243.064	86.12
243.298	83.12
243.531	94.12
243.765	96.12
243.998	89.12
244.232	76.12
244.465	80.12
244.699	83.12
244.932	93.12
245.166	74.12
245.399	74.12
245.633	81.12
245.866	84.12
246.099	67.12
246.333	81.12
246.566	83.12
246.8	79.12
247.033	87.12
247.266	81.12
247.5	89.12
247.733	84.12
247.966	84.12
248.2	83.12
248.433	100.12
248.666	89.12
248.899	85.12
249.133	82.12
249.366	95.12
249.599	93.12
249.832	76.12
250.066	85.12
250.299	72.12
250.532	98.12
250.765	86.12
250.998	81.12
251.231	73.12
251.465	100.12
251.698	81.12
251.931	84.12
252.164	82.12
252.397	101.12
252.63	92.12
252.863	85.12
253.096	85.12
253.329	82.12
253.562	89.12
253.795	84.12
254.028	89.12
254.261	79.12
254.494	77.12
254.727	84.12
254.96	83.12
255.193	84.12
255.426	86.12
255.659	79.12
255.892	93.12
256.124	83.12
256.357	91.12
256.59	100.12
256.823	93.12
257.056	81.12
257.289	83.12
257.521	90.12
257.754	94.12
257.987	86.12
258.22	65.12
258.452	88.12
258.685	86.12
258.918	75.12
259.151	76.12
259.383	86.12
259.616	84.12
259.849	73.12
260.081	82.12
260.314	89.12
260.547	84.12
260.779	83.12
261.012	92.12
261.244	92.12
261.477	95.12
261.71	83.12
261.942	111.12
262.175	102.12
262.407	88.12
262.64	85.12
262.872	87.12
263.105	74.12
263.337	87.12
263.57	76.12
263.802	85.12
264.035	93.12
264.267	90.12
264.499	94.12
264.732	97.12
264.964	87.12
265.197	69.12
265.429	92.12
265.661	93.12
265.894	80.12
266.126	87.12
266.358	62.12
266.591	93.12
266.823	83.12
267.055	82.12
267.287	87.12
267.52	85.12
267.752	83.12
267.984	100.12
268.216	77.12
268.448	75.12
268.681	89.12
268.913	105.12
269.145	88.12
269.377	91.12
269.609	81.12
269.841	85.12
270.073	84.12
270.306	91.12
270.538	93.12
270.77	85.12
271.002	84.12
271.234	85.12
271.466	100.12
271.698	89.12
271.93	87.12
272.162	88.12
272.394	94.12
272.626	100.12
272.858	93.12
273.09	81.12
273.322	90.12
273.553	86.12
273.785	82.12
274.017	95.12
274.249	84.12
274.481	93.12
274.713	83.12
274.945	91.12
275.176	83.12
275.408	90.12
275.64	81.12
275.872	101.12
276.104	91.12
276.335	95.12
276.567	105.12
276.799	111.12
277.031	101.12
277.262	103.12
277.494	102.12
277.726	94.12
277.957	75.12
278.189	85.12
278.421	83.12
278.652	91.12
278.884	90.12
279.115	86.12
279.347	85.12
279.579	95.12
279.81	96.12
280.042	104.12
280.273	87.12
280.505	95.12
280.736	76.12
280.968	87.12
281.199	95.12
281.431	76.12
281.662	89.12
281.894	95.12
282.125	111.12
282.356	114.12
282.588	114.12
282.819	124.12
283.051	119.12
283.282	97.12
283.513	106.12
283.745	84.12
283.976	94.12
284.207	94.12
284.439	93.12
284.67	93.12
284.901	79.12
285.132	89.12
285.364	92.12
285.595	87.12
285.826	107.12
286.057	95.12
286.288	82.12
286.52	84.12
286.751	87.12
286.982	81.12
287.213	97.12
287.444	97.12
287.675	101.12
287.906	91.12
288.138	97.12
288.369	114.12
288.6	97.12
288.831	85.12
289.062	83.12
289.293	96.12
289.524	86.12
289.755	75.12
289.986	91.12
290.217	98.12
290.448	97.12
290.679	94.12
290.91	83.12
291.141	87.12
291.371	85.12
291.602	88.12
291.833	92.12
292.064	96.12
292.295	97.12
292.526	88.12
292.757	94.12
292.987	87.12
293.218	94.12
293.449	85.12
293.68	93.12
293.91	91.12
294.141	94.12
294.372	100.12
294.603	99.12
294.833	77.12
295.064	94.12
295.295	91.12
295.525	89.12
295.756	100.12
295.987	104.12
296.217	120.12
296.448	126.12
296.679	101.12
296.909	95.12
297.14	89.12
297.37	92.12
297.601	96.12
297.831	86.12
298.062	98.12
298.292	96.12
298.523	92.12
298.753	81.12
298.984	89.12
299.214	87.12
299.445	87.12
299.675	86.12
299.905	85.12
300.136	93.12
300.366	88.12
300.597	110.12
300.827	95.12
301.057	101.12
301.288	106.12
301.518	95.12
301.748	85.12
301.979	95.12
302.209	91.12
302.439	102.12
302.669	87.12
302.9	98.12
303.13	97.12
303.36	91.12
303.59	108.12
303.82	108.12
304.051	93.12
304.281	86.12
304.511	96.12
304.741	94.12
304.971	81.12
305.201	95.12
305.431	96.12
305.661	91.12
305.891	104.12
306.121	98.12
306.352	110.12
306.582	103.12
306.812	101.12
307.042	98.12
307.272	92.12
307.502	100.12
307.731	102.12
307.961	98.12
308.191	93.12
308.421	102.12
308.651	90.12
308.881	99.12
309.111	95.12
309.341	94.12
309.571	97.12
309.8	95.12
310.03	91.12
310.26	89.12
310.49	102.12
310.72	99.12
310.949	93.12
311.179	86.12
311.409	94.12
311.639	82.12
311.868	106.12
312.098	94.12
312.328	88.12
312.557	98.12
312.787	122.12
313.017	108.12
313.246	87.12
313.476	89.12
313.706	77.12
313.935	95.12
314.165	97.12
314.394	102.12
314.624	104.12
314.853	103.12
315.083	104.12
315.312	82.12
315.542	91.12
315.771	91.12
316.001	101.12
316.23	96.12
316.46	106.12
316.689	84.12
316.919	95.12
317.148	92.12
317.377	83.12
317.607	96.12
317.836	105.12
318.065	94.12
318.295	95.12
318.524	96.12
318.753	81.12
318.983	92.12
319.212	94.12
319.441	109.12
319.67	95.12
319.9	85.12
320.129	95.12
320.358	107.12
320.587	93.12
320.816	93.12
321.046	108.12
321.275	101.12
321.504	98.12
321.733	95.12
321.962	111.12
322.191	104.12
322.42	95.12
322.649	102.12
322.878	115.12
323.108	121.12
323.337	120.12
323.566	133.12
323.795	137.12
324.024	199.12
324.253	362.12
324.482	796.12
324.71	1658.12
324.939	2188.12
325.168	786.12
325.397	239.12
325.626	150.12
325.855	132.12
326.084	128.12
326.313	127.12
326.542	150.12
326.77	230.12
326.999	452.12
327.228	919.12
327.457	1721.12
327.686	1340.12
327.914	397.12
328.143	217.12
328.372	181.12
328.6	128.12
328.829	122.12
329.058	122.12
329.287	120.12
329.515	113.12
329.744	103.12
329.972	133.12
330.201	189.12
330.43	238.12
330.658	163.12
330.887	149.12
331.115	115.12
331.344	79.12
331.572	98.12
331.801	105.12
332.03	102.12
332.258	94.12
332.486	98.12
332.715	82.12
332.943	98.12
333.172	91.12
333.4	79.12
333.629	116.12
333.857	119.12
334.085	135.12
334.314	186.12
334.542	281.12
334.771	251.12
334.999	123.12
335.227	107.12
335.455	106.12
335.684	90.12
335.912	91.12
336.14	103.12
336.369	99.12
336.597	109.12
336.825	93.12
337.053	102.12
337.281	95.12
337.51	94.12
337.738	105.12
337.966	91.12
338.194	89.12
338.422	96.12
338.65	92.12
338.878	89.12
339.106	90.12
339.334	100.12
339.562	97.12
339.79	88.12
340.018	96.12
340.246	97.12
340.474	87.12
340.702	87.12
340.93	93.12
341.158	83.12
341.386	100.12
341.614	97.12
341.842	85.12
342.07	87.12
342.298	97.12
342.526	91.12
342.754	82.12
342.981	89.12
343.209	93.12
343.437	98.12
343.665	96.12
343.893	82.12
344.12	94.12
344.348	89.12
344.576	101.12
344.804	100.12
345.031	105.12
345.259	98.12
345.487	91.12
345.714	81.12
345.942	92.12
346.17	84.12
346.397	85.12
346.625	107.12
346.853	102.12
347.08	98.12
347.308	94.12
347.535	92.12
347.763	96.12
347.99	91.12
348.218	93.12
348.445	119.12
348.673	83.12
348.9	88.12
349.128	99.12
349.355	89.12
349.583	90.12
349.81	93.12
350.037	97.12
350.265	85.12
350.492	100.12
350.72	121.12
350.947	110.12
351.174	104.12
351.402	118.12
351.629	104.12
351.856	103.12
352.083	93.12
352.311	107.12
352.538	112.12
352.765	89.12
352.992	105.12
353.22	108.12
353.447	111.12
353.674	108.12
353.901	95.12
354.128	85.12
354.355	91.12
354.583	98.12
354.81	99.12
355.037	90.12
355.264	89.12
355.491	81.12
355.718	99.12
355.945	110.12
356.172	96.12
356.399	100.12
356.626	101.12
356.853	99.12
357.08	99.12
357.307	99.12
357.534	85.12
357.761	98.12
357.988	101.12
358.215	96.12
358.441	91.12
358.668	97.12
358.895	90.12
359.122	105.12
359.349	107.12
359.576	99.12
359.802	102.12
360.029	107.12
360.256	114.12
360.483	97.12
360.709	86.12
360.936	93.12
361.163	95.12
361.39	103.12
361.616	97.12
361.843	94.12
362.07	92.12
362.296	107.12
362.523	92.12
362.749	106.12
362.976	100.12
363.203	91.12
363.429	82.12
363.656	106.12
363.882	83.12
364.109	100.12
364.335	93.12
364.562	100.12
364.788	98.12
365.015	97.12
365.241	98.12
365.468	111.12
365.694	112.12
365.92	99.12
366.147	90.12
366.373	102.12
366.599	101.12
366.826	84.12
367.052	92.12
367.278	93.12
367.505	91.12
367.731	87.12
367.957	83.12
368.184	91.12
368.41	106.12
368.636	130.12
368.862	111.12
369.089	108.12
369.315	79.12
369.541	97.12
369.767	99.12
369.993	85.12
370.219	98.12
370.445	87.12
370.672	95.12
370.898	74.12
371.124	99.12
371.35	95.12
371.576	93.12
371.802	94.12
372.028	99.12
372.254	103.12
372.48	94.12
372.706	94.12
372.932	82.12
373.158	90.12
373.384	87.12
373.61	95.12
373.835	88.12
374.061	78.12
374.287	97.12
374.513	83.12
374.739	93.12
374.965	87.12
375.191	96.12
375.416	81.12
375.642	103.12
375.868	94.12
376.094	92.12
376.319	100.12
376.545	97.12
376.771	87.12
376.997	95.12
377.222	99.12
377.448	75.12
377.674	78.12
377.899	95.12
378.125	90.12
378.35	93.12
378.576	90.12
378.802	80.12
379.027	82.12
379.253	106.12
379.478	95.12
379.704	98.12
379.929	98.12
380.155	90.12
380.38	99.12
380.606	92.12
380.831	94.12
381.057	85.12
381.282	104.12
381.507	96.12
381.733	78.12
381.958	101.12
382.184	95.12
382.409	98.12
382.634	95.12
382.86	83.12
383.085	108.12
383.31	116.12
383.535	89.12
383.761	82.12
383.986	95.12
384.211	100.12
384.436	92.12
384.662	104.12
384.887	119.12
385.112	103.12
385.337	117.12
385.562	100.12
385.787	114.12
386.013	116.12
386.238	115.12
386.463	97.12
386.688	129.12
386.913	109.12
387.138	94.12
387.363	104.12
387.588	89.12
387.813	114.12
388.038	109.12
388.263	111.12
388.488	101.12
388.713	95.12
388.938	103.12
389.163	89.12
389.387	97.12
389.612	93.12
389.837	89.12
390.062	93.12
390.287	93.12
390.512	104.12
390.736	93.12
390.961	88.12
391.186	95.12
391.411	109.12
391.636	97.12
391.86	94.12
392.085	93.12
392.31	90.12
392.534	86.12
392.759	89.12
392.984	89.12
393.208	99.12
393.433	87.12
393.658	91.12
393.882	88.12
394.107	99.12
394.331	97.12
394.556	96.12
394.78	103.12
395.005	86.12
395.229	86.12
395.454	85.12
395.678	78.12
395.903	85.12
396.127	90.12
396.352	95.12
396.576	89.12
396.801	103.12
397.025	85.12
397.249	102.12
397.474	96.12
397.698	85.12
397.922	87.12
398.147	105.12
398.371	78.12
398.595	93.12
398.82	102.12
399.044	76.12
399.268	98.12
399.492	92.12
399.717	91.12
399.941	88.12
400.165	106.12
400.389	96.12
400.613	85.12
400.837	74.12
401.062	94.12
401.286	88.12
401.51	91.12
401.734	99.12
401.958	104.12
402.182	105.12
402.406	151.12
402.63	118.12
402.854	88.12
403.078	97.12
403.302	100.12
403.526	102.12
403.75	95.12
403.974	93.12
404.198	93.12
404.422	88.12
404.645	91.12
404.869	94.12
405.093	98.12
405.317	113.12
405.541	101.12
405.765	108.12
405.988	113.12
406.212	165.12
406.436	222.12
406.66	136.12
406.883	110.12
407.107	107.12
407.331	91.12
407.555	105.12
407.778	100.12
408.002	93.12
408.226	105.12
408.449	98.12
408.673	86.12
408.896	106.12
409.12	99.12
409.344	98.12
409.567	87.12
409.791	94.12
410.014	85.12
410.238	95.12
410.461	95.12
410.685	100.12
410.908	91.12
411.132	98.12
411.355	86.12
411.578	91.12
411.802	89.12
412.025	85.12
412.249	101.12
412.472	94.12
412.695	111.12
412.919	95.12
413.142	95.12
413.365	89.12
413.589	85.12
413.812	89.12
414.035	91.12
414.258	77.12
414.482	98.12
414.705	87.12
414.928	85.12
415.151	93.12
415.374	97.12
415.597	76.12
415.821	92.12
416.044	91.12
416.267	94.12
416.49	103.12
416.713	87.12
416.936	83.12
417.159	102.12
417.382	90.12
417.605	96.12
417.828	94.12
418.051	95.12
418.274	90.12
418.497	96.12
418.72	72.12
418.943	90.12
419.166	107.12
419.389	85.12
419.611	98.12
419.834	95.12
420.057	88.12
420.28	99.12
420.503	95.12
420.726	77.12
420.948	88.12
421.171	101.12
421.394	110.12
421.617	94.12
421.839	90.12
422.062	92.12
422.285	91.12
422.507	94.12
422.73	88.12
422.953	95.12
423.175	110.12
423.398	85.12
423.621	85.12
423.843	105.12
424.066	94.12
424.288	94.12
424.511	97.12
424.733	84.12
424.956	116.12
425.178	110.12
425.401	89.12
425.623	102.12
425.846	101.12
426.068	85.12
426.291	91.12
426.513	88.12
426.735	95.12
426.958	82.12
427.18	108.12
427.402	133.12
427.625	178.12
427.847	145.12
428.069	120.12
428.292	89.12
428.514	90.12
428.736	89.12
428.958	75.12
429.181	87.12
429.403	92.12
429.625	97.12
429.847	90.12
430.069	102.12
430.292	100.12
430.514	94.12
430.736	100.12
430.958	85.12
431.18	81.12
431.402	80.12
431.624	85.12
431.846	88.12
432.068	86.12
432.29	95.12
432.512	96.12
432.734	94.12
432.956	99.12
433.178	93.12
433.4	109.12
433.622	86.12
433.844	106.12
434.066	89.12
434.287	96.12
434.509	74.12
434.731	97.12
434.953	79.12
435.175	102.12
435.397	103.12
435.618	91.12
435.84	113.12
436.062	116.12
436.284	117.12
436.505	98.12
436.727	106.12
436.949	111.12
437.17	83.12
437.392	90.12
437.614	103.12
437.835	109.12
438.057	107.12
438.278	107.12
438.5	92.12
438.721	129.12
438.943	117.12
439.165	97.12
439.386	89.12
439.608	100.12
439.829	100.12
440.05	120.12
440.272	135.12
440.493	109.12
440.715	91.12
440.936	98.12
441.158	97.12
441.379	84.12
441.6	114.12
441.822	87.12
442.043	92.12
442.264	104.12
442.486	98.12
442.707	96.12
442.928	110.12
443.149	124.12
443.371	122.12
443.592	99.12
443.813	117.12
444.034	102.12
444.255	90.12
444.476	97.12
444.698	92.12
444.919	83.12
445.14	146.12
445.361	114.12
445.582	134.12
445.803	150.12
446.024	129.12
446.245	123.12
446.466	115.12
446.687	89.12
446.908	93.12
447.129	94.12
447.35	85.12
447.571	85.12
447.792	95.12
448.013	94.12
448.234	111.12
448.455	101.12
448.675	116.12
448.896	119.12
449.117	93.12
449.338	110.12
449.559	127.12
449.779	153.12
450	99.12
450.221	95.12
450.442	94.12
450.662	89.12
450.883	110.12
451.104	115.12
451.324	105.12
451.545	83.12
451.766	85.12
451.986	89.12
452.207	84.12
452.428	101.12
452.648	99.12
452.869	103.12
453.089	102.12
453.31	102.12
453.53	86.12
453.751	89.12
453.971	103.12
454.192	114.12
454.412	77.12
454.633	85.12
454.853	92.12
455.073	83.12
455.294	103.12
455.514	109.12
455.734	85.12
455.955	100.12
456.175	89.12
456.395	90.12
456.616	75.12
456.836	89.12
457.056	92.12
457.276	91.12
457.497	90.12
457.717	106.12
457.937	66.12
458.157	86.12
458.377	89.12
458.598	105.12
458.818	141.12
459.038	158.12
459.258	118.12
459.478	102.12
459.698	94.12
459.918	82.12
460.138	89.12
460.358	89.12
460.578	93.12
460.798	97.12
461.018	88.12
461.238	101.12
461.458	85.12
461.678	98.12
461.898	91.12
462.118	85.12
462.338	101.12
462.558	79.12
462.777	70.12
462.997	86.12
463.217	99.12
463.437	87.12
463.657	89.12
463.876	84.12
464.096	91.12
464.316	92.12
464.536	87.12
464.755	114.12
464.975	95.12
465.195	155.12
465.414	138.12
465.634	94.12
465.854	95.12
466.073	101.12
466.293	83.12
466.512	93.12
466.732	93.12
466.951	102.12
467.171	101.12
467.391	93.12
467.61	102.12
467.829	103.12
468.049	137.12
468.268	165.12
468.488	104.12
468.707	96.12
468.927	107.12
469.146	81.12
469.365	90.12
469.585	92.12
469.804	82.12
470.023	81.12
470.243	90.12
470.462	97.12
470.681	113.12
470.901	86.12
471.12	98.12
471.339	97.12
471.558	104.12
471.777	108.12
471.997	127.12
472.216	215.12
472.435	323.12
472.654	145.12
472.873	98.12
473.092	101.12
473.311	93.12
473.53	103.12
473.749	94.12
473.968	115.12
474.187	110.12
474.406	99.12
474.625	89.12
474.844	85.12
475.063	93.12
475.282	97.12
475.501	85.12
475.72	108.12
475.939	82.12
476.158	80.12
476.377	92.12
476.596	85.12
476.814	92.12
477.033	92.12
477.252	76.12
477.471	92.12
477.69	87.12
477.908	95.12
478.127	105.12
478.346	90.12
478.564	89.12
478.783	102.12
479.002	98.12
479.22	90.12
479.439	99.12
479.658	104.12
479.876	100.12
480.095	104.12
480.313	88.12
480.532	93.12
480.751	114.12
480.969	209.12
481.188	603.12
481.406	385.12
481.624	115.12
481.843	88.12
482.061	92.12
482.28	98.12
482.498	102.12
482.717	89.12
482.935	83.12
483.153	96.12
483.372	85.12
483.59	83.12
483.808	93.12
484.027	84.12
484.245	97.12
484.463	102.12
484.681	94.12
484.9	90.12
485.118	86.12
485.336	105.12
485.554	99.12
485.772	92.12
485.99	98.12
486.209	92.12
486.427	94.12
486.645	106.12
486.863	120.12
487.081	95.12
487.299	87.12
487.517	112.12
487.735	102.12
487.953	98.12
488.171	103.12
488.389	92.12
488.607	93.12
488.825	106.12
489.043	85.12
489.261	94.12
489.479	92.12
489.696	100.12
489.914	94.12
490.132	87.12
490.35	102.12
490.568	87.12
490.786	103.12
491.003	96.12
491.221	76.12
491.439	77.12
491.657	92.12
491.874	107.12
492.092	97.12
492.31	93.12
492.527	71.12
492.745	96.12
492.963	89.12
493.18	99.12
493.398	97.12
493.615	93.12
493.833	99.12
494.05	101.12
494.268	86.12
494.485	87.12
494.703	90.12
494.92	98.12
495.138	90.12
495.355	97.12
495.573	89.12
495.79	100.12
496.008	77.12
496.225	89.12
496.442	96.12
496.66	95.12
496.877	96.12
497.094	101.12
497.312	91.12
497.529	89.12
497.746	88.12
497.963	83.12
498.181	99.12
498.398	85.12
498.615	92.12
498.832	114.12
499.049	87.12
499.267	93.12
499.484	90.12
499.701	86.12
499.918	102.12
500.135	79.12
500.352	110.12
500.569	90.12
500.786	98.12
501.003	85.12
501.22	88.12
501.437	93.12
501.654	106.12
501.871	110.12
502.088	95.12
502.305	87.12
502.522	103.12
502.739	87.12
502.956	95.12
503.172	86.12
503.389	97.12
503.606	112.12
503.823	101.12
504.04	97.12
504.256	105.12
504.473	98.12
504.69	86.12
504.907	106.12
505.123	90.12
505.34	84.12
505.557	87.12
505.773	107.12
505.99	78.12
506.207	85.12
506.423	91.12
506.64	100.12
506.856	89.12
507.073	91.12
507.289	92.12
507.506	96.12
507.722	121.12
507.939	113.12
508.155	101.12
508.372	92.12
508.588	103.12
508.805	103.12
509.021	107.12
509.238	109.12
509.454	92.12
509.67	90.12
509.887	104.12
510.103	111.12
510.319	212.12
510.536	714.12
510.752	2090.12
510.968	580.12
511.184	163.12
511.401	109.12
511.617	91.12
511.833	99.12
512.049	91.12
512.265	90.12
512.481	85.12
512.698	95.12
512.914	86.12
513.13	102.12
513.346	100.12
513.562	95.12
513.778	104.12
513.994	91.12
514.21	105.12
514.426	116.12
514.642	123.12
