Data from Circ_1986_H10_HRD10591_00086.txt Node
Date: Wed Jan 03 12:15:43 EST 2024
User: Yrep
Spectrometer: HR+D1059
Trigger mode: 1
Integration Time (sec): 1.000000E-1
Scans to average: 1
Electric dark correction enabled: true
Nonlinearity correction enabled: false
Boxcar width: 0
XAxis mode: Wavelengths
Number of Pixels in Spectrum: 2048
>>>>>Begin Spectral Data<<<<<
223.165	-13.38
223.4	-13.38
223.635	-13.38
223.869	-13.38
224.104	-6.38
224.338	-27.38
224.573	-23.38
224.808	-11.38
225.042	-6.38
225.277	-9.38
225.511	-8.38
225.746	6.62
225.98	5.62
226.215	30.62
226.449	24.62
226.683	10.62
226.918	20.62
227.152	20.62
227.387	38.62
227.621	40.62
227.856	54.62
228.09	56.62
228.324	56.62
228.559	57.62
228.793	60.62
229.027	48.62
229.262	61.62
229.496	80.62
229.73	78.62
229.964	87.62
230.199	83.62
230.433	90.62
230.667	82.62
230.901	65.62
231.136	89.62
231.37	69.62
231.604	90.62
231.838	73.62
232.072	75.62
232.306	70.62
232.541	72.62
232.775	83.62
233.009	86.62
233.243	75.62
233.477	74.62
233.711	86.62
233.945	81.62
234.179	75.62
234.413	80.62
234.647	82.62
234.881	72.62
235.115	78.62
235.349	75.62
235.583	72.62
235.817	69.62
236.051	86.62
236.285	78.62
236.519	89.62
236.753	85.62
236.987	88.62
237.221	74.62
237.455	70.62
237.689	72.62
237.922	79.62
238.156	84.62
238.39	78.62
238.624	72.62
238.858	71.62
239.091	69.62
239.325	84.62
239.559	84.62
239.793	72.62
240.027	71.62
240.26	69.62
240.494	74.62
240.728	64.62
240.961	81.62
241.195	84.62
241.429	95.62
241.662	73.62
241.896	83.62
242.13	73.62
242.363	80.62
242.597	70.62
242.83	86.62
243.064	86.62
243.298	73.62
243.531	84.62
243.765	70.62
243.998	62.62
244.232	82.62
244.465	90.62
244.699	74.62
244.932	71.62
245.166	76.62
245.399	90.62
245.633	74.62
245.866	79.62
246.099	78.62
246.333	76.62
246.566	75.62
246.8	86.62
247.033	86.62
247.266	69.62
247.5	75.62
247.733	80.62
247.966	71.62
248.2	79.62
248.433	65.62
248.666	90.62
248.899	74.62
249.133	90.62
249.366	82.62
249.599	95.62
249.832	84.62
250.066	86.62
250.299	84.62
250.532	78.62
250.765	79.62
250.998	74.62
251.231	75.62
251.465	79.62
251.698	83.62
251.931	76.62
252.164	64.62
252.397	81.62
252.63	86.62
252.863	92.62
253.096	82.62
253.329	82.62
253.562	81.62
253.795	79.62
254.028	78.62
254.261	81.62
254.494	83.62
254.727	80.62
254.96	89.62
255.193	93.62
255.426	85.62
255.659	69.62
255.892	80.62
256.124	74.62
256.357	78.62
256.59	81.62
256.823	75.62
257.056	84.62
257.289	90.62
257.521	90.62
257.754	71.62
257.987	80.62
258.22	86.62
258.452	84.62
258.685	72.62
258.918	86.62
259.151	78.62
259.383	84.62
259.616	80.62
259.849	91.62
260.081	76.62
260.314	78.62
260.547	82.62
260.779	85.62
261.012	79.62
261.244	72.62
261.477	94.62
261.71	81.62
261.942	94.62
262.175	127.62
262.407	87.62
262.64	78.62
262.872	96.62
263.105	98.62
263.337	93.62
263.57	86.62
263.802	76.62
264.035	83.62
264.267	74.62
264.499	81.62
264.732	82.62
264.964	94.62
265.197	80.62
265.429	74.62
265.661	83.62
265.894	99.62
266.126	83.62
266.358	84.62
266.591	82.62
266.823	83.62
267.055	82.62
267.287	73.62
267.52	76.62
267.752	89.62
267.984	94.62
268.216	97.62
268.448	79.62
268.681	74.62
268.913	82.62
269.145	75.62
269.377	78.62
269.609	74.62
269.841	87.62
270.073	72.62
270.306	90.62
270.538	83.62
270.77	65.62
271.002	75.62
271.234	80.62
271.466	94.62
271.698	82.62
271.93	99.62
272.162	83.62
272.394	80.62
272.626	78.62
272.858	81.62
273.09	89.62
273.322	84.62
273.553	94.62
273.785	86.62
274.017	79.62
274.249	85.62
274.481	91.62
274.713	76.62
274.945	70.62
275.176	80.62
275.408	88.62
275.64	80.62
275.872	97.62
276.104	96.62
276.335	95.62
276.567	95.62
276.799	104.62
277.031	90.62
277.262	90.62
277.494	100.62
277.726	91.62
277.957	88.62
278.189	101.62
278.421	99.62
278.652	86.62
278.884	86.62
279.115	87.62
279.347	89.62
279.579	91.62
279.81	90.62
280.042	100.62
280.273	104.62
280.505	99.62
280.736	80.62
280.968	97.62
281.199	82.62
281.431	95.62
281.662	86.62
281.894	80.62
282.125	99.62
282.356	116.62
282.588	133.62
282.819	103.62
283.051	98.62
283.282	85.62
283.513	92.62
283.745	83.62
283.976	80.62
284.207	83.62
284.439	81.62
284.67	93.62
284.901	81.62
285.132	78.62
285.364	82.62
285.595	87.62
285.826	81.62
286.057	84.62
286.288	90.62
286.52	88.62
286.751	74.62
286.982	96.62
287.213	103.62
287.444	97.62
287.675	88.62
287.906	102.62
288.138	81.62
288.369	87.62
288.6	102.62
288.831	90.62
289.062	87.62
289.293	82.62
289.524	84.62
289.755	87.62
289.986	97.62
290.217	100.62
290.448	78.62
290.679	91.62
290.91	98.62
291.141	93.62
291.371	89.62
291.602	85.62
291.833	67.62
292.064	101.62
292.295	82.62
292.526	87.62
292.757	96.62
292.987	98.62
293.218	97.62
293.449	90.62
293.68	89.62
293.91	94.62
294.141	83.62
294.372	97.62
294.603	97.62
294.833	81.62
295.064	84.62
295.295	105.62
295.525	86.62
295.756	95.62
295.987	117.62
296.217	123.62
296.448	115.62
296.679	98.62
296.909	90.62
297.14	101.62
297.37	90.62
297.601	89.62
297.831	94.62
298.062	114.62
298.292	86.62
298.523	81.62
298.753	89.62
298.984	76.62
299.214	90.62
299.445	82.62
299.675	81.62
299.905	90.62
300.136	92.62
300.366	95.62
300.597	91.62
300.827	83.62
301.057	98.62
301.288	102.62
301.518	102.62
301.748	102.62
301.979	104.62
302.209	96.62
302.439	95.62
302.669	101.62
302.9	93.62
303.13	79.62
303.36	88.62
303.59	105.62
303.82	119.62
304.051	97.62
304.281	103.62
304.511	108.62
304.741	92.62
304.971	87.62
305.201	81.62
305.431	102.62
305.661	74.62
305.891	82.62
306.121	87.62
306.352	102.62
306.582	87.62
306.812	92.62
307.042	87.62
307.272	93.62
307.502	111.62
307.731	107.62
307.961	98.62
308.191	89.62
308.421	91.62
308.651	100.62
308.881	90.62
309.111	103.62
309.341	113.62
309.571	102.62
309.8	90.62
310.03	84.62
310.26	89.62
310.49	91.62
310.72	98.62
310.949	104.62
311.179	99.62
311.409	93.62
311.639	83.62
311.868	111.62
312.098	81.62
312.328	88.62
312.557	105.62
312.787	95.62
313.017	89.62
313.246	106.62
313.476	101.62
313.706	91.62
313.935	94.62
314.165	90.62
314.394	108.62
314.624	107.62
314.853	88.62
315.083	87.62
315.312	78.62
315.542	107.62
315.771	98.62
316.001	103.62
316.23	79.62
316.46	85.62
316.689	106.62
316.919	97.62
317.148	101.62
317.377	98.62
317.607	105.62
317.836	89.62
318.065	91.62
318.295	94.62
318.524	102.62
318.753	92.62
318.983	100.62
319.212	98.62
319.441	105.62
319.67	103.62
319.9	98.62
320.129	98.62
320.358	100.62
320.587	95.62
320.816	114.62
321.046	100.62
321.275	95.62
321.504	97.62
321.733	101.62
321.962	96.62
322.191	97.62
322.42	109.62
322.649	98.62
322.878	124.62
323.108	126.62
323.337	105.62
323.566	113.62
323.795	161.62
324.024	196.62
324.253	380.62
324.482	802.62
324.71	1695.62
324.939	2288.62
325.168	827.62
325.397	258.62
325.626	148.62
325.855	114.62
326.084	136.62
326.313	123.62
326.542	131.62
326.77	235.62
326.999	454.62
327.228	979.62
327.457	1751.62
327.686	1384.62
327.914	391.62
328.143	213.62
328.372	180.62
328.6	146.62
328.829	110.62
329.058	127.62
329.287	122.62
329.515	109.62
329.744	117.62
329.972	129.62
330.201	183.62
330.43	217.62
330.658	178.62
330.887	144.62
331.115	130.62
331.344	94.62
331.572	100.62
331.801	101.62
332.03	107.62
332.258	98.62
332.486	95.62
332.715	99.62
332.943	95.62
333.172	87.62
333.4	93.62
333.629	109.62
333.857	117.62
334.085	129.62
334.314	177.62
334.542	254.62
334.771	247.62
334.999	137.62
335.227	112.62
335.455	98.62
335.684	91.62
335.912	106.62
336.14	99.62
336.369	108.62
336.597	87.62
336.825	104.62
337.053	90.62
337.281	81.62
337.51	96.62
337.738	82.62
337.966	86.62
338.194	106.62
338.422	95.62
338.65	94.62
338.878	99.62
339.106	91.62
339.334	93.62
339.562	99.62
339.79	86.62
340.018	93.62
340.246	98.62
340.474	94.62
340.702	98.62
340.93	100.62
341.158	92.62
341.386	83.62
341.614	91.62
341.842	92.62
342.07	81.62
342.298	92.62
342.526	87.62
342.754	84.62
342.981	89.62
343.209	86.62
343.437	91.62
343.665	87.62
343.893	80.62
344.12	93.62
344.348	104.62
344.576	87.62
344.804	89.62
345.031	90.62
345.259	93.62
345.487	95.62
345.714	91.62
345.942	88.62
346.17	79.62
346.397	98.62
346.625	84.62
346.853	80.62
347.08	89.62
347.308	95.62
347.535	101.62
347.763	107.62
347.99	98.62
348.218	92.62
348.445	92.62
348.673	88.62
348.9	87.62
349.128	101.62
349.355	93.62
349.583	94.62
349.81	94.62
350.037	95.62
350.265	95.62
350.492	95.62
350.72	99.62
350.947	107.62
351.174	91.62
351.402	106.62
351.629	93.62
351.856	112.62
352.083	93.62
352.311	96.62
352.538	99.62
352.765	94.62
352.992	112.62
353.22	107.62
353.447	80.62
353.674	95.62
353.901	108.62
354.128	106.62
354.355	107.62
354.583	105.62
354.81	99.62
355.037	99.62
355.264	85.62
355.491	95.62
355.718	87.62
355.945	98.62
356.172	91.62
356.399	97.62
356.626	78.62
356.853	97.62
357.08	93.62
357.307	87.62
357.534	87.62
357.761	84.62
357.988	91.62
358.215	89.62
358.441	96.62
358.668	90.62
358.895	90.62
359.122	83.62
359.349	80.62
359.576	102.62
359.802	90.62
360.029	105.62
360.256	96.62
360.483	113.62
360.709	94.62
360.936	92.62
361.163	87.62
361.39	97.62
361.616	81.62
361.843	86.62
362.07	100.62
362.296	97.62
362.523	79.62
362.749	94.62
362.976	90.62
363.203	87.62
363.429	90.62
363.656	89.62
363.882	93.62
364.109	96.62
364.335	90.62
364.562	97.62
364.788	86.62
365.015	97.62
365.241	105.62
365.468	111.62
365.694	101.62
365.92	94.62
366.147	88.62
366.373	105.62
366.599	99.62
366.826	70.62
367.052	88.62
367.278	91.62
367.505	91.62
367.731	89.62
367.957	88.62
368.184	104.62
368.41	98.62
368.636	110.62
368.862	103.62
369.089	101.62
369.315	97.62
369.541	80.62
369.767	90.62
369.993	94.62
370.219	101.62
370.445	89.62
370.672	95.62
370.898	96.62
371.124	86.62
371.35	92.62
371.576	86.62
371.802	84.62
372.028	88.62
372.254	91.62
372.48	80.62
372.706	86.62
372.932	84.62
373.158	92.62
373.384	83.62
373.61	92.62
373.835	91.62
374.061	89.62
374.287	82.62
374.513	99.62
374.739	81.62
374.965	98.62
375.191	86.62
375.416	84.62
375.642	100.62
375.868	101.62
376.094	92.62
376.319	80.62
376.545	86.62
376.771	99.62
376.997	82.62
377.222	90.62
377.448	99.62
377.674	99.62
377.899	95.62
378.125	84.62
378.35	99.62
378.576	86.62
378.802	88.62
379.027	100.62
379.253	105.62
379.478	82.62
379.704	97.62
379.929	78.62
380.155	99.62
380.38	74.62
380.606	99.62
380.831	94.62
381.057	90.62
381.282	102.62
381.507	99.62
381.733	102.62
381.958	97.62
382.184	103.62
382.409	105.62
382.634	85.62
382.86	83.62
383.085	91.62
383.31	94.62
383.535	100.62
383.761	81.62
383.986	103.62
384.211	95.62
384.436	95.62
384.662	96.62
384.887	100.62
385.112	105.62
385.337	95.62
385.562	115.62
385.787	99.62
386.013	112.62
386.238	129.62
386.463	104.62
386.688	106.62
386.913	103.62
387.138	75.62
387.363	86.62
387.588	107.62
387.813	102.62
388.038	97.62
388.263	103.62
388.488	102.62
388.713	97.62
388.938	92.62
389.163	103.62
389.387	95.62
389.612	95.62
389.837	86.62
390.062	87.62
390.287	95.62
390.512	93.62
390.736	79.62
390.961	85.62
391.186	91.62
391.411	97.62
391.636	95.62
391.86	88.62
392.085	82.62
392.31	95.62
392.534	96.62
392.759	94.62
392.984	78.62
393.208	84.62
393.433	80.62
393.658	107.62
393.882	87.62
394.107	94.62
394.331	88.62
394.556	83.62
394.78	85.62
395.005	86.62
395.229	90.62
395.454	90.62
395.678	95.62
395.903	94.62
396.127	94.62
396.352	103.62
396.576	81.62
396.801	88.62
397.025	97.62
397.249	94.62
397.474	82.62
397.698	88.62
397.922	94.62
398.147	77.62
398.371	78.62
398.595	100.62
398.82	101.62
399.044	85.62
399.268	90.62
399.492	105.62
399.717	82.62
399.941	95.62
400.165	95.62
400.389	74.62
400.613	78.62
400.837	98.62
401.062	91.62
401.286	99.62
401.51	101.62
401.734	95.62
401.958	96.62
402.182	131.62
402.406	161.62
402.63	131.62
402.854	91.62
403.078	91.62
403.302	95.62
403.526	94.62
403.75	81.62
403.974	93.62
404.198	83.62
404.422	88.62
404.645	86.62
404.869	92.62
405.093	94.62
405.317	103.62
405.541	110.62
405.765	102.62
405.988	115.62
406.212	171.62
406.436	221.62
406.66	139.62
406.883	84.62
407.107	96.62
407.331	90.62
407.555	120.62
407.778	96.62
408.002	90.62
408.226	91.62
408.449	93.62
408.673	85.62
408.896	79.62
409.12	94.62
409.344	100.62
409.567	95.62
409.791	100.62
410.014	104.62
410.238	94.62
410.461	89.62
410.685	86.62
410.908	92.62
411.132	87.62
411.355	93.62
411.578	92.62
411.802	87.62
412.025	91.62
412.249	104.62
412.472	100.62
412.695	112.62
412.919	91.62
413.142	98.62
413.365	101.62
413.589	88.62
413.812	86.62
414.035	86.62
414.258	92.62
414.482	94.62
414.705	94.62
414.928	93.62
415.151	86.62
415.374	83.62
415.597	90.62
415.821	88.62
416.044	84.62
416.267	88.62
416.49	92.62
416.713	78.62
416.936	106.62
417.159	87.62
417.382	89.62
417.605	88.62
417.828	114.62
418.051	93.62
418.274	88.62
418.497	99.62
418.72	82.62
418.943	110.62
419.166	86.62
419.389	90.62
419.611	92.62
419.834	82.62
420.057	94.62
420.28	87.62
420.503	83.62
420.726	82.62
420.948	91.62
421.171	94.62
421.394	101.62
421.617	83.62
421.839	98.62
422.062	92.62
422.285	98.62
422.507	104.62
422.73	104.62
422.953	85.62
423.175	94.62
423.398	92.62
423.621	96.62
423.843	99.62
424.066	84.62
424.288	78.62
424.511	81.62
424.733	99.62
424.956	95.62
425.178	82.62
425.401	99.62
425.623	94.62
425.846	89.62
426.068	84.62
426.291	88.62
426.513	106.62
426.735	88.62
426.958	101.62
427.18	107.62
427.402	130.62
427.625	164.62
427.847	133.62
428.069	129.62
428.292	99.62
428.514	78.62
428.736	89.62
428.958	80.62
429.181	73.62
429.403	91.62
429.625	88.62
429.847	78.62
430.069	97.62
430.292	97.62
430.514	96.62
430.736	95.62
430.958	82.62
431.18	86.62
431.402	88.62
431.624	91.62
431.846	82.62
432.068	82.62
432.29	83.62
432.512	84.62
432.734	86.62
432.956	95.62
433.178	107.62
433.4	108.62
433.622	98.62
433.844	79.62
434.066	97.62
434.287	115.62
434.509	110.62
434.731	78.62
434.953	79.62
435.175	82.62
435.397	105.62
435.618	98.62
435.84	108.62
436.062	124.62
436.284	140.62
436.505	115.62
436.727	68.62
436.949	96.62
437.17	89.62
437.392	87.62
437.614	89.62
437.835	86.62
438.057	120.62
438.278	119.62
438.5	102.62
438.721	125.62
438.943	93.62
439.165	97.62
439.386	82.62
439.608	86.62
439.829	107.62
440.05	125.62
440.272	147.62
440.493	95.62
440.715	86.62
440.936	99.62
441.158	103.62
441.379	86.62
441.6	99.62
441.822	99.62
442.043	94.62
442.264	101.62
442.486	105.62
442.707	85.62
442.928	110.62
443.149	135.62
443.371	108.62
443.592	100.62
443.813	118.62
444.034	114.62
444.255	90.62
444.476	99.62
444.698	90.62
444.919	78.62
445.14	148.62
445.361	117.62
445.582	113.62
445.803	125.62
446.024	123.62
446.245	138.62
446.466	105.62
446.687	90.62
446.908	95.62
447.129	83.62
447.35	99.62
447.571	96.62
447.792	101.62
448.013	89.62
448.234	97.62
448.455	106.62
448.675	118.62
448.896	119.62
449.117	99.62
449.338	117.62
449.559	144.62
449.779	133.62
450	100.62
450.221	84.62
450.442	82.62
450.662	107.62
450.883	89.62
451.104	102.62
451.324	96.62
451.545	91.62
451.766	96.62
451.986	89.62
452.207	93.62
452.428	91.62
452.648	86.62
452.869	114.62
453.089	116.62
453.31	119.62
453.53	91.62
453.751	96.62
453.971	106.62
454.192	103.62
454.412	88.62
454.633	94.62
454.853	85.62
455.073	79.62
455.294	85.62
455.514	102.62
455.734	94.62
455.955	82.62
456.175	93.62
456.395	94.62
456.616	90.62
456.836	99.62
457.056	92.62
457.276	84.62
457.497	96.62
457.717	68.62
457.937	94.62
458.157	53.62
458.377	96.62
458.598	99.62
458.818	136.62
459.038	166.62
459.258	103.62
459.478	87.62
459.698	87.62
459.918	92.62
460.138	87.62
460.358	80.62
460.578	96.62
460.798	91.62
461.018	71.62
461.238	100.62
461.458	94.62
461.678	76.62
461.898	90.62
462.118	78.62
462.338	88.62
462.558	101.62
462.777	97.62
462.997	87.62
463.217	94.62
463.437	94.62
463.657	74.62
463.876	73.62
464.096	97.62
464.316	91.62
464.536	94.62
464.755	80.62
464.975	103.62
465.195	150.62
465.414	147.62
465.634	84.62
465.854	79.62
466.073	83.62
466.293	103.62
466.512	98.62
466.732	92.62
466.951	81.62
467.171	100.62
467.391	87.62
467.61	108.62
467.829	101.62
468.049	134.62
468.268	147.62
468.488	97.62
468.707	86.62
468.927	90.62
469.146	79.62
469.365	87.62
469.585	84.62
469.804	91.62
470.023	100.62
470.243	102.62
470.462	93.62
470.681	102.62
470.901	94.62
471.12	88.62
471.339	101.62
471.558	86.62
471.777	83.62
471.997	117.62
472.216	195.62
472.435	299.62
472.654	130.62
472.873	94.62
473.092	90.62
473.311	87.62
473.53	76.62
473.749	85.62
473.968	88.62
474.187	99.62
474.406	95.62
474.625	91.62
474.844	80.62
475.063	79.62
475.282	76.62
475.501	78.62
475.72	83.62
475.939	81.62
476.158	83.62
476.377	92.62
476.596	95.62
476.814	83.62
477.033	87.62
477.252	79.62
477.471	95.62
477.69	89.62
477.908	95.62
478.127	96.62
478.346	93.62
478.564	89.62
478.783	96.62
479.002	102.62
479.22	89.62
479.439	96.62
479.658	108.62
479.876	84.62
480.095	87.62
480.313	87.62
480.532	99.62
480.751	113.62
480.969	191.62
481.188	539.62
481.406	334.62
481.624	118.62
481.843	106.62
482.061	106.62
482.28	86.62
482.498	88.62
482.717	88.62
482.935	85.62
483.153	84.62
483.372	80.62
483.59	96.62
483.808	89.62
484.027	83.62
484.245	92.62
484.463	99.62
484.681	98.62
484.9	96.62
485.118	104.62
485.336	97.62
485.554	90.62
485.772	94.62
485.99	98.62
486.209	104.62
486.427	94.62
486.645	100.62
486.863	100.62
487.081	107.62
487.299	91.62
487.517	99.62
487.735	95.62
487.953	108.62
488.171	98.62
488.389	101.62
488.607	91.62
488.825	87.62
489.043	83.62
489.261	81.62
489.479	91.62
489.696	89.62
489.914	88.62
490.132	87.62
490.35	103.62
490.568	91.62
490.786	88.62
491.003	88.62
491.221	92.62
491.439	83.62
491.657	105.62
491.874	100.62
492.092	83.62
492.31	91.62
492.527	96.62
492.745	90.62
492.963	82.62
493.18	91.62
493.398	101.62
493.615	105.62
493.833	98.62
494.05	92.62
494.268	84.62
494.485	99.62
494.703	88.62
494.92	100.62
495.138	89.62
495.355	95.62
495.573	91.62
495.79	88.62
496.008	96.62
496.225	98.62
496.442	92.62
496.66	81.62
496.877	88.62
497.094	86.62
497.312	91.62
497.529	100.62
497.746	104.62
497.963	80.62
498.181	102.62
498.398	98.62
498.615	104.62
498.832	109.62
499.049	103.62
499.267	90.62
499.484	80.62
499.701	86.62
499.918	96.62
500.135	99.62
500.352	95.62
500.569	86.62
500.786	94.62
501.003	105.62
501.22	100.62
501.437	104.62
501.654	108.62
501.871	100.62
502.088	104.62
502.305	97.62
502.522	92.62
502.739	101.62
502.956	96.62
503.172	98.62
503.389	77.62
503.606	88.62
503.823	104.62
504.04	86.62
504.256	91.62
504.473	81.62
504.69	108.62
504.907	91.62
505.123	89.62
505.34	91.62
505.557	89.62
505.773	91.62
505.99	70.62
506.207	82.62
506.423	67.62
506.64	76.62
506.856	84.62
507.073	80.62
507.289	87.62
507.506	98.62
507.722	118.62
507.939	104.62
508.155	103.62
508.372	77.62
508.588	90.62
508.805	107.62
509.021	106.62
509.238	84.62
509.454	108.62
509.67	103.62
509.887	108.62
510.103	127.62
510.319	203.62
510.536	720.62
510.752	2228.62
510.968	600.62
511.184	150.62
511.401	113.62
511.617	110.62
511.833	91.62
512.049	90.62
512.265	97.62
512.481	84.62
512.698	98.62
512.914	78.62
513.13	80.62
513.346	93.62
513.562	80.62
513.778	94.62
513.994	94.62
514.21	93.62
514.426	111.62
514.642	122.62
514.858	126.62
515.074	168.62
515.29	412.62
515.506	1378.62
