Data from Circ_1986_H10_HRD10591_00090.txt Node
Date: Wed Jan 03 12:15:44 EST 2024
User: Yrep
Spectrometer: HR+D1059
Trigger mode: 1
Integration Time (sec): 1.000000E-1
Scans to average: 1
Electric dark correction enabled: true
Nonlinearity correction enabled: false
Boxcar width: 0
XAxis mode: Wavelengths
Number of Pixels in Spectrum: 2048
>>>>>Begin Spectral Data<<<<<
223.165	-16.19
223.4	-16.19
223.635	-16.19
223.869	-12.19
224.104	-29.19
224.338	-9.19
224.573	-29.19
224.808	3.81
225.042	4.81
225.277	0.81
225.511	-11.19
225.746	2.81
225.98	1.81
226.215	0.81
226.449	8.81
226.683	31.81
226.918	28.81
227.152	22.81
227.387	37.81
227.621	34.81
227.856	51.81
228.09	50.81
228.324	59.81
228.559	35.81
228.793	55.81
229.027	63.81
229.262	72.81
229.496	66.81
229.73	75.81
229.964	71.81
230.199	95.81
230.433	82.81
230.667	71.81
230.901	65.81
231.136	71.81
231.37	93.81
231.604	72.81
231.838	76.81
232.072	83.81
232.306	67.81
232.541	66.81
232.775	83.81
233.009	68.81
233.243	82.81
233.477	75.81
233.711	79.81
233.945	74.81
234.179	82.81
234.413	81.81
234.647	69.81
234.881	88.81
235.115	82.81
235.349	84.81
235.583	95.81
235.817	78.81
236.051	73.81
236.285	93.81
236.519	81.81
236.753	72.81
236.987	80.81
237.221	84.81
237.455	88.81
237.689	68.81
237.922	68.81
238.156	79.81
238.39	73.81
238.624	72.81
238.858	88.81
239.091	80.81
239.325	77.81
239.559	86.81
239.793	103.81
240.027	70.81
240.26	82.81
240.494	75.81
240.728	73.81
240.961	76.81
241.195	77.81
241.429	82.81
241.662	79.81
241.896	93.81
242.13	79.81
242.363	75.81
242.597	78.81
242.83	87.81
243.064	69.81
243.298	81.81
243.531	85.81
243.765	90.81
243.998	79.81
244.232	72.81
244.465	90.81
244.699	85.81
244.932	81.81
245.166	69.81
245.399	56.81
245.633	75.81
245.866	73.81
246.099	87.81
246.333	82.81
246.566	73.81
246.8	71.81
247.033	86.81
247.266	90.81
247.5	70.81
247.733	72.81
247.966	74.81
248.2	78.81
248.433	68.81
248.666	73.81
248.899	73.81
249.133	90.81
249.366	86.81
249.599	87.81
249.832	82.81
250.066	69.81
250.299	86.81
250.532	81.81
250.765	91.81
250.998	73.81
251.231	81.81
251.465	78.81
251.698	80.81
251.931	90.81
252.164	85.81
252.397	91.81
252.63	81.81
252.863	78.81
253.096	75.81
253.329	65.81
253.562	82.81
253.795	94.81
254.028	88.81
254.261	76.81
254.494	77.81
254.727	90.81
254.96	82.81
255.193	82.81
255.426	80.81
255.659	85.81
255.892	88.81
256.124	82.81
256.357	90.81
256.59	72.81
256.823	67.81
257.056	96.81
257.289	79.81
257.521	73.81
257.754	82.81
257.987	70.81
258.22	81.81
258.452	83.81
258.685	79.81
258.918	72.81
259.151	69.81
259.383	84.81
259.616	83.81
259.849	80.81
260.081	83.81
260.314	94.81
260.547	89.81
260.779	77.81
261.012	98.81
261.244	84.81
261.477	89.81
261.71	84.81
261.942	102.81
262.175	112.81
262.407	97.81
262.64	64.81
262.872	74.81
263.105	86.81
263.337	87.81
263.57	96.81
263.802	86.81
264.035	73.81
264.267	96.81
264.499	73.81
264.732	81.81
264.964	84.81
265.197	98.81
265.429	84.81
265.661	75.81
265.894	89.81
266.126	73.81
266.358	89.81
266.591	82.81
266.823	80.81
267.055	88.81
267.287	84.81
267.52	88.81
267.752	83.81
267.984	70.81
268.216	79.81
268.448	76.81
268.681	78.81
268.913	97.81
269.145	81.81
269.377	82.81
269.609	80.81
269.841	78.81
270.073	90.81
270.306	70.81
270.538	81.81
270.77	87.81
271.002	88.81
271.234	85.81
271.466	89.81
271.698	83.81
271.93	94.81
272.162	84.81
272.394	81.81
272.626	86.81
272.858	71.81
273.09	80.81
273.322	87.81
273.553	94.81
273.785	74.81
274.017	72.81
274.249	85.81
274.481	74.81
274.713	85.81
274.945	95.81
275.176	73.81
275.408	93.81
275.64	80.81
275.872	104.81
276.104	87.81
276.335	72.81
276.567	92.81
276.799	117.81
277.031	96.81
277.262	93.81
277.494	94.81
277.726	89.81
277.957	83.81
278.189	88.81
278.421	86.81
278.652	96.81
278.884	82.81
279.115	78.81
279.347	100.81
279.579	87.81
279.81	100.81
280.042	104.81
280.273	88.81
280.505	89.81
280.736	88.81
280.968	82.81
281.199	89.81
281.431	81.81
281.662	79.81
281.894	83.81
282.125	103.81
282.356	103.81
282.588	136.81
282.819	111.81
283.051	96.81
283.282	71.81
283.513	91.81
283.745	84.81
283.976	90.81
284.207	98.81
284.439	87.81
284.67	84.81
284.901	85.81
285.132	84.81
285.364	104.81
285.595	78.81
285.826	102.81
286.057	103.81
286.288	76.81
286.52	88.81
286.751	84.81
286.982	91.81
287.213	100.81
287.444	82.81
287.675	73.81
287.906	81.81
288.138	71.81
288.369	87.81
288.6	85.81
288.831	84.81
289.062	97.81
289.293	99.81
289.524	87.81
289.755	89.81
289.986	88.81
290.217	95.81
290.448	84.81
290.679	95.81
290.91	81.81
291.141	85.81
291.371	99.81
291.602	93.81
291.833	81.81
292.064	83.81
292.295	102.81
292.526	89.81
292.757	81.81
292.987	79.81
293.218	84.81
293.449	84.81
293.68	79.81
293.91	89.81
294.141	81.81
294.372	99.81
294.603	90.81
294.833	98.81
295.064	94.81
295.295	88.81
295.525	98.81
295.756	102.81
295.987	111.81
296.217	117.81
296.448	118.81
296.679	93.81
296.909	81.81
297.14	94.81
297.37	93.81
297.601	78.81
297.831	91.81
298.062	72.81
298.292	95.81
298.523	87.81
298.753	88.81
298.984	75.81
299.214	84.81
299.445	104.81
299.675	88.81
299.905	100.81
300.136	91.81
300.366	100.81
300.597	91.81
300.827	94.81
301.057	99.81
301.288	101.81
301.518	88.81
301.748	97.81
301.979	100.81
302.209	103.81
302.439	86.81
302.669	85.81
302.9	94.81
303.13	86.81
303.36	91.81
303.59	100.81
303.82	102.81
304.051	86.81
304.281	80.81
304.511	81.81
304.741	81.81
304.971	83.81
305.201	98.81
305.431	106.81
305.661	84.81
305.891	79.81
306.121	103.81
306.352	96.81
306.582	121.81
306.812	84.81
307.042	92.81
307.272	107.81
307.502	95.81
307.731	103.81
307.961	88.81
308.191	79.81
308.421	74.81
308.651	92.81
308.881	87.81
309.111	92.81
309.341	97.81
309.571	98.81
309.8	81.81
310.03	88.81
310.26	104.81
310.49	101.81
310.72	96.81
310.949	118.81
311.179	106.81
311.409	103.81
311.639	102.81
311.868	105.81
312.098	87.81
312.328	98.81
312.557	96.81
312.787	91.81
313.017	86.81
313.246	87.81
313.476	79.81
313.706	89.81
313.935	92.81
314.165	104.81
314.394	97.81
314.624	96.81
314.853	103.81
315.083	96.81
315.312	104.81
315.542	90.81
315.771	89.81
316.001	92.81
316.23	92.81
316.46	103.81
316.689	82.81
316.919	98.81
317.148	94.81
317.377	102.81
317.607	99.81
317.836	98.81
318.065	106.81
318.295	79.81
318.524	99.81
318.753	89.81
318.983	93.81
319.212	94.81
319.441	89.81
319.67	95.81
319.9	69.81
320.129	96.81
320.358	97.81
320.587	90.81
320.816	111.81
321.046	109.81
321.275	103.81
321.504	94.81
321.733	96.81
321.962	96.81
322.191	103.81
322.42	108.81
322.649	107.81
322.878	108.81
323.108	104.81
323.337	110.81
323.566	115.81
323.795	135.81
324.024	201.81
324.253	370.81
324.482	760.81
324.71	1554.81
324.939	2078.81
325.168	774.81
325.397	234.81
325.626	143.81
325.855	124.81
326.084	119.81
326.313	119.81
326.542	150.81
326.77	208.81
326.999	424.81
327.228	878.81
327.457	1611.81
327.686	1289.81
327.914	355.81
328.143	201.81
328.372	183.81
328.6	118.81
328.829	114.81
329.058	118.81
329.287	124.81
329.515	108.81
329.744	121.81
329.972	120.81
330.201	171.81
330.43	194.81
330.658	145.81
330.887	131.81
331.115	115.81
331.344	95.81
331.572	95.81
331.801	101.81
332.03	93.81
332.258	102.81
332.486	95.81
332.715	86.81
332.943	98.81
333.172	102.81
333.4	110.81
333.629	119.81
333.857	112.81
334.085	129.81
334.314	163.81
334.542	256.81
334.771	226.81
334.999	121.81
335.227	109.81
335.455	99.81
335.684	89.81
335.912	105.81
336.14	95.81
336.369	86.81
336.597	93.81
336.825	89.81
337.053	98.81
337.281	90.81
337.51	91.81
337.738	74.81
337.966	80.81
338.194	85.81
338.422	93.81
338.65	91.81
338.878	90.81
339.106	86.81
339.334	92.81
339.562	108.81
339.79	83.81
340.018	104.81
340.246	91.81
340.474	94.81
340.702	94.81
340.93	81.81
341.158	86.81
341.386	101.81
341.614	90.81
341.842	100.81
342.07	94.81
342.298	86.81
342.526	89.81
342.754	82.81
342.981	82.81
343.209	91.81
343.437	78.81
343.665	82.81
343.893	82.81
344.12	103.81
344.348	86.81
344.576	75.81
344.804	90.81
345.031	95.81
345.259	94.81
345.487	106.81
345.714	92.81
345.942	86.81
346.17	89.81
346.397	97.81
346.625	92.81
346.853	89.81
347.08	96.81
347.308	96.81
347.535	99.81
347.763	109.81
347.99	91.81
348.218	99.81
348.445	103.81
348.673	84.81
348.9	85.81
349.128	86.81
349.355	101.81
349.583	95.81
349.81	98.81
350.037	102.81
350.265	94.81
350.492	103.81
350.72	100.81
350.947	92.81
351.174	119.81
351.402	97.81
351.629	102.81
351.856	94.81
352.083	98.81
352.311	104.81
352.538	103.81
352.765	112.81
352.992	107.81
353.22	119.81
353.447	105.81
353.674	99.81
353.901	97.81
354.128	105.81
354.355	99.81
354.583	98.81
354.81	103.81
355.037	96.81
355.264	97.81
355.491	93.81
355.718	89.81
355.945	89.81
356.172	97.81
356.399	90.81
356.626	95.81
356.853	92.81
357.08	87.81
357.307	84.81
357.534	80.81
357.761	80.81
357.988	103.81
358.215	88.81
358.441	99.81
358.668	80.81
358.895	82.81
359.122	82.81
359.349	68.81
359.576	88.81
359.802	104.81
360.029	103.81
360.256	105.81
360.483	91.81
360.709	77.81
360.936	99.81
361.163	91.81
361.39	112.81
361.616	94.81
361.843	85.81
362.07	97.81
362.296	97.81
362.523	81.81
362.749	84.81
362.976	88.81
363.203	90.81
363.429	91.81
363.656	90.81
363.882	88.81
364.109	81.81
364.335	106.81
364.562	100.81
364.788	81.81
365.015	90.81
365.241	86.81
365.468	103.81
365.694	110.81
365.92	88.81
366.147	89.81
366.373	82.81
366.599	80.81
366.826	107.81
367.052	102.81
367.278	102.81
367.505	81.81
367.731	89.81
367.957	93.81
368.184	100.81
368.41	90.81
368.636	107.81
368.862	93.81
369.089	91.81
369.315	94.81
369.541	86.81
369.767	87.81
369.993	91.81
370.219	85.81
370.445	90.81
370.672	84.81
370.898	81.81
371.124	102.81
371.35	89.81
371.576	90.81
371.802	95.81
372.028	94.81
372.254	86.81
372.48	68.81
372.706	89.81
372.932	88.81
373.158	85.81
373.384	80.81
373.61	96.81
373.835	104.81
374.061	111.81
374.287	74.81
374.513	82.81
374.739	94.81
374.965	84.81
375.191	81.81
375.416	83.81
375.642	92.81
375.868	87.81
376.094	92.81
376.319	103.81
376.545	90.81
376.771	86.81
376.997	76.81
377.222	91.81
377.448	101.81
377.674	85.81
377.899	102.81
378.125	100.81
378.35	105.81
378.576	92.81
378.802	85.81
379.027	79.81
379.253	100.81
379.478	95.81
379.704	86.81
379.929	91.81
380.155	93.81
380.38	101.81
380.606	98.81
380.831	95.81
381.057	91.81
381.282	80.81
381.507	98.81
381.733	89.81
381.958	96.81
382.184	104.81
382.409	110.81
382.634	108.81
382.86	114.81
383.085	107.81
383.31	102.81
383.535	81.81
383.761	97.81
383.986	102.81
384.211	103.81
384.436	73.81
384.662	112.81
384.887	89.81
385.112	115.81
385.337	106.81
385.562	105.81
385.787	103.81
386.013	95.81
386.238	99.81
386.463	99.81
386.688	103.81
386.913	105.81
387.138	101.81
387.363	104.81
387.588	94.81
387.813	101.81
388.038	100.81
388.263	116.81
388.488	99.81
388.713	100.81
388.938	94.81
389.163	87.81
389.387	92.81
389.612	98.81
389.837	82.81
390.062	93.81
390.287	91.81
390.512	89.81
390.736	78.81
390.961	80.81
391.186	98.81
391.411	78.81
391.636	100.81
391.86	91.81
392.085	94.81
392.31	99.81
392.534	84.81
392.759	70.81
392.984	92.81
393.208	85.81
393.433	99.81
393.658	79.81
393.882	79.81
394.107	85.81
394.331	91.81
394.556	76.81
394.78	73.81
395.005	91.81
395.229	90.81
395.454	81.81
395.678	92.81
395.903	79.81
396.127	87.81
396.352	95.81
396.576	86.81
396.801	78.81
397.025	83.81
397.249	83.81
397.474	89.81
397.698	91.81
397.922	88.81
398.147	79.81
398.371	92.81
398.595	92.81
398.82	84.81
399.044	100.81
399.268	83.81
399.492	85.81
399.717	106.81
399.941	111.81
400.165	88.81
400.389	103.81
400.613	94.81
400.837	96.81
401.062	95.81
401.286	86.81
401.51	95.81
401.734	92.81
401.958	92.81
402.182	119.81
402.406	132.81
402.63	96.81
402.854	89.81
403.078	90.81
403.302	88.81
403.526	82.81
403.75	90.81
403.974	78.81
404.198	70.81
404.422	99.81
404.645	80.81
404.869	95.81
405.093	111.81
405.317	101.81
405.541	109.81
405.765	103.81
405.988	112.81
406.212	143.81
406.436	194.81
406.66	126.81
406.883	95.81
407.107	86.81
407.331	91.81
407.555	84.81
407.778	107.81
408.002	91.81
408.226	96.81
408.449	95.81
408.673	84.81
408.896	87.81
409.12	89.81
409.344	97.81
409.567	88.81
409.791	96.81
410.014	79.81
410.238	83.81
410.461	92.81
410.685	89.81
410.908	108.81
411.132	85.81
411.355	100.81
411.578	112.81
411.802	103.81
412.025	79.81
412.249	98.81
412.472	99.81
412.695	97.81
412.919	89.81
413.142	82.81
413.365	96.81
413.589	92.81
413.812	97.81
414.035	86.81
414.258	90.81
414.482	103.81
414.705	103.81
414.928	89.81
415.151	75.81
415.374	98.81
415.597	79.81
415.821	77.81
416.044	92.81
416.267	102.81
416.49	92.81
416.713	91.81
416.936	88.81
417.159	90.81
417.382	79.81
417.605	94.81
417.828	75.81
418.051	86.81
418.274	78.81
418.497	98.81
418.72	97.81
418.943	75.81
419.166	87.81
419.389	80.81
419.611	82.81
419.834	86.81
420.057	91.81
420.28	87.81
420.503	79.81
420.726	84.81
420.948	87.81
421.171	86.81
421.394	97.81
421.617	88.81
421.839	81.81
422.062	86.81
422.285	96.81
422.507	81.81
422.73	111.81
422.953	87.81
423.175	95.81
423.398	84.81
423.621	84.81
423.843	87.81
424.066	80.81
424.288	81.81
424.511	78.81
424.733	92.81
424.956	94.81
425.178	83.81
425.401	91.81
425.623	98.81
425.846	88.81
426.068	95.81
426.291	95.81
426.513	83.81
426.735	98.81
426.958	98.81
427.18	117.81
427.402	116.81
427.625	164.81
427.847	146.81
428.069	132.81
428.292	88.81
428.514	91.81
428.736	88.81
428.958	82.81
429.181	87.81
429.403	92.81
429.625	95.81
429.847	80.81
430.069	84.81
430.292	83.81
430.514	92.81
430.736	90.81
430.958	96.81
431.18	87.81
431.402	87.81
431.624	90.81
431.846	71.81
432.068	80.81
432.29	90.81
432.512	93.81
432.734	90.81
432.956	91.81
433.178	81.81
433.4	104.81
433.622	112.81
433.844	84.81
434.066	93.81
434.287	107.81
434.509	91.81
434.731	84.81
434.953	89.81
435.175	97.81
435.397	89.81
435.618	95.81
435.84	98.81
436.062	119.81
436.284	110.81
436.505	106.81
436.727	100.81
436.949	99.81
437.17	97.81
437.392	83.81
437.614	94.81
437.835	96.81
438.057	111.81
438.278	107.81
438.5	97.81
438.721	117.81
438.943	94.81
439.165	86.81
439.386	101.81
439.608	81.81
439.829	102.81
440.05	124.81
440.272	134.81
440.493	96.81
440.715	106.81
440.936	84.81
441.158	98.81
441.379	87.81
441.6	80.81
441.822	106.81
442.043	92.81
442.264	96.81
442.486	99.81
442.707	79.81
442.928	111.81
443.149	114.81
443.371	117.81
443.592	104.81
443.813	98.81
444.034	98.81
444.255	82.81
444.476	105.81
444.698	82.81
444.919	87.81
445.14	124.81
445.361	124.81
445.582	115.81
445.803	119.81
446.024	116.81
446.245	138.81
446.466	113.81
446.687	88.81
446.908	87.81
447.129	83.81
447.35	81.81
447.571	82.81
447.792	88.81
448.013	91.81
448.234	110.81
448.455	98.81
448.675	115.81
448.896	106.81
449.117	98.81
449.338	88.81
449.559	123.81
449.779	123.81
450	97.81
450.221	94.81
450.442	88.81
450.662	81.81
450.883	82.81
451.104	103.81
451.324	98.81
451.545	91.81
451.766	88.81
451.986	71.81
452.207	78.81
452.428	78.81
452.648	93.81
452.869	115.81
453.089	97.81
453.31	106.81
453.53	96.81
453.751	104.81
453.971	104.81
454.192	97.81
454.412	92.81
454.633	82.81
454.853	78.81
455.073	87.81
455.294	88.81
455.514	88.81
455.734	93.81
455.955	80.81
456.175	79.81
456.395	92.81
456.616	86.81
456.836	78.81
457.056	90.81
457.276	87.81
457.497	95.81
457.717	85.81
457.937	81.81
458.157	94.81
458.377	92.81
458.598	115.81
458.818	120.81
459.038	135.81
459.258	105.81
459.478	97.81
459.698	78.81
459.918	90.81
460.138	79.81
460.358	88.81
460.578	86.81
460.798	82.81
461.018	89.81
461.238	97.81
461.458	96.81
461.678	76.81
461.898	92.81
462.118	83.81
462.338	87.81
462.558	89.81
462.777	84.81
462.997	74.81
463.217	89.81
463.437	86.81
463.657	100.81
463.876	97.81
464.096	97.81
464.316	85.81
464.536	96.81
464.755	84.81
464.975	104.81
465.195	150.81
465.414	134.81
465.634	106.81
465.854	88.81
466.073	75.81
466.293	88.81
466.512	95.81
466.732	73.81
466.951	78.81
467.171	92.81
467.391	87.81
467.61	90.81
467.829	109.81
468.049	113.81
468.268	138.81
468.488	80.81
468.707	90.81
468.927	76.81
469.146	80.81
469.365	82.81
469.585	82.81
469.804	85.81
470.023	91.81
470.243	79.81
470.462	95.81
470.681	98.81
470.901	98.81
471.12	92.81
471.339	81.81
471.558	99.81
471.777	99.81
471.997	107.81
472.216	194.81
472.435	294.81
472.654	121.81
472.873	87.81
473.092	98.81
473.311	80.81
473.53	86.81
473.749	86.81
473.968	94.81
474.187	84.81
474.406	100.81
474.625	91.81
474.844	95.81
475.063	78.81
475.282	92.81
475.501	85.81
475.72	92.81
475.939	83.81
476.158	83.81
476.377	80.81
476.596	81.81
476.814	101.81
477.033	96.81
477.252	100.81
477.471	80.81
477.69	83.81
477.908	81.81
478.127	85.81
478.346	97.81
478.564	83.81
478.783	92.81
479.002	80.81
479.22	96.81
479.439	99.81
479.658	104.81
479.876	90.81
480.095	88.81
480.313	86.81
480.532	101.81
480.751	128.81
480.969	194.81
481.188	486.81
481.406	320.81
481.624	104.81
481.843	104.81
482.061	94.81
482.28	99.81
482.498	88.81
482.717	83.81
482.935	82.81
483.153	87.81
483.372	89.81
483.59	90.81
483.808	89.81
484.027	90.81
484.245	92.81
484.463	77.81
484.681	76.81
484.9	100.81
485.118	106.81
485.336	96.81
485.554	103.81
485.772	97.81
485.99	107.81
486.209	107.81
486.427	101.81
486.645	104.81
486.863	103.81
487.081	88.81
487.299	94.81
487.517	87.81
487.735	80.81
487.953	97.81
488.171	98.81
488.389	86.81
488.607	86.81
488.825	89.81
489.043	101.81
489.261	95.81
489.479	92.81
489.696	85.81
489.914	88.81
490.132	92.81
490.35	82.81
490.568	88.81
490.786	90.81
491.003	81.81
491.221	90.81
491.439	82.81
491.657	91.81
491.874	95.81
492.092	90.81
492.31	90.81
492.527	83.81
492.745	84.81
492.963	94.81
493.18	98.81
493.398	103.81
493.615	90.81
493.833	106.81
494.05	91.81
494.268	84.81
494.485	77.81
494.703	95.81
494.92	85.81
495.138	79.81
495.355	95.81
495.573	92.81
495.79	98.81
496.008	87.81
496.225	102.81
496.442	91.81
496.66	99.81
496.877	107.81
497.094	83.81
497.312	96.81
497.529	89.81
497.746	92.81
497.963	86.81
498.181	89.81
498.398	92.81
498.615	92.81
498.832	102.81
499.049	90.81
499.267	87.81
499.484	74.81
499.701	86.81
499.918	93.81
500.135	95.81
500.352	90.81
500.569	88.81
500.786	95.81
501.003	98.81
501.22	94.81
501.437	94.81
501.654	97.81
501.871	105.81
502.088	93.81
502.305	90.81
502.522	86.81
502.739	90.81
502.956	95.81
503.172	78.81
503.389	95.81
503.606	106.81
503.823	95.81
504.04	98.81
504.256	88.81
504.473	96.81
504.69	101.81
504.907	90.81
505.123	83.81
505.34	92.81
505.557	95.81
505.773	92.81
505.99	86.81
506.207	102.81
506.423	87.81
506.64	80.81
506.856	82.81
507.073	90.81
507.289	86.81
507.506	95.81
507.722	90.81
507.939	116.81
508.155	102.81
508.372	97.81
508.588	97.81
508.805	97.81
509.021	104.81
509.238	96.81
509.454	96.81
509.67	99.81
509.887	103.81
510.103	137.81
510.319	193.81
510.536	643.81
510.752	1876.81
510.968	537.81
511.184	135.81
511.401	107.81
511.617	100.81
511.833	83.81
512.049	95.81
512.265	104.81
512.481	80.81
512.698	83.81
512.914	74.81
513.13	81.81
513.346	82.81
513.562	100.81
513.778	100.81
513.994	95.81
514.21	108.81
514.426	104.81
514.642	120.81
514.858	111.81
515.074	128.81
515.29	370.81
515.506	1152.81
515.721	423.81
