Data from Circ_1986_H10_HRD10591_00060.txt Node
Date: Wed Jan 03 12:15:38 EST 2024
User: Yrep
Spectrometer: HR+D1059
Trigger mode: 1
Integration Time (sec): 1.000000E-1
Scans to average: 1
Electric dark correction enabled: true
Nonlinearity correction enabled: false
Boxcar width: 0
XAxis mode: Wavelengths
Number of Pixels in Spectrum: 2048
>>>>>Begin Spectral Data<<<<<
223.165	-6.94
223.4	-6.94
223.635	-6.94
223.869	-16.94
224.104	-24.94
224.338	-13.94
224.573	-2.94
224.808	-11.94
225.042	-16.94
225.277	-9.94
225.511	-11.94
225.746	-0.94
225.98	24.06
226.215	13.06
226.449	10.06
226.683	33.06
226.918	19.06
227.152	18.06
227.387	41.06
227.621	45.06
227.856	33.06
228.09	51.06
228.324	60.06
228.559	61.06
228.793	61.06
229.027	70.06
229.262	60.06
229.496	64.06
229.73	77.06
229.964	86.06
230.199	96.06
230.433	79.06
230.667	91.06
230.901	86.06
231.136	84.06
231.37	84.06
231.604	68.06
231.838	95.06
232.072	83.06
232.306	90.06
232.541	88.06
232.775	82.06
233.009	87.06
233.243	94.06
233.477	74.06
233.711	76.06
233.945	71.06
234.179	69.06
234.413	72.06
234.647	76.06
234.881	69.06
235.115	83.06
235.349	68.06
235.583	79.06
235.817	90.06
236.051	74.06
236.285	79.06
236.519	70.06
236.753	87.06
236.987	88.06
237.221	80.06
237.455	88.06
237.689	70.06
237.922	71.06
238.156	59.06
238.39	82.06
238.624	71.06
238.858	73.06
239.091	84.06
239.325	67.06
239.559	87.06
239.793	77.06
240.027	99.06
240.26	63.06
240.494	79.06
240.728	71.06
240.961	81.06
241.195	80.06
241.429	79.06
241.662	73.06
241.896	83.06
242.13	83.06
242.363	64.06
242.597	79.06
242.83	68.06
243.064	89.06
243.298	71.06
243.531	89.06
243.765	76.06
243.998	54.06
244.232	73.06
244.465	88.06
244.699	68.06
244.932	81.06
245.166	96.06
245.399	85.06
245.633	90.06
245.866	84.06
246.099	64.06
246.333	69.06
246.566	77.06
246.8	82.06
247.033	72.06
247.266	78.06
247.5	83.06
247.733	83.06
247.966	97.06
248.2	96.06
248.433	67.06
248.666	81.06
248.899	76.06
249.133	84.06
249.366	70.06
249.599	102.06
249.832	72.06
250.066	76.06
250.299	89.06
250.532	83.06
250.765	89.06
250.998	73.06
251.231	88.06
251.465	88.06
251.698	67.06
251.931	75.06
252.164	80.06
252.397	74.06
252.63	79.06
252.863	84.06
253.096	83.06
253.329	85.06
253.562	64.06
253.795	85.06
254.028	95.06
254.261	73.06
254.494	91.06
254.727	77.06
254.96	86.06
255.193	74.06
255.426	72.06
255.659	101.06
255.892	71.06
256.124	74.06
256.357	94.06
256.59	70.06
256.823	70.06
257.056	81.06
257.289	75.06
257.521	84.06
257.754	86.06
257.987	81.06
258.22	82.06
258.452	81.06
258.685	75.06
258.918	87.06
259.151	85.06
259.383	90.06
259.616	81.06
259.849	81.06
260.081	92.06
260.314	83.06
260.547	72.06
260.779	88.06
261.012	111.06
261.244	76.06
261.477	102.06
261.71	95.06
261.942	106.06
262.175	114.06
262.407	96.06
262.64	82.06
262.872	89.06
263.105	85.06
263.337	81.06
263.57	81.06
263.802	75.06
264.035	72.06
264.267	85.06
264.499	90.06
264.732	95.06
264.964	82.06
265.197	74.06
265.429	84.06
265.661	77.06
265.894	70.06
266.126	83.06
266.358	87.06
266.591	81.06
266.823	82.06
267.055	70.06
267.287	78.06
267.52	84.06
267.752	84.06
267.984	71.06
268.216	89.06
268.448	98.06
268.681	70.06
268.913	90.06
269.145	81.06
269.377	84.06
269.609	90.06
269.841	92.06
270.073	76.06
270.306	79.06
270.538	92.06
270.77	75.06
271.002	80.06
271.234	76.06
271.466	95.06
271.698	83.06
271.93	86.06
272.162	85.06
272.394	91.06
272.626	97.06
272.858	74.06
273.09	92.06
273.322	79.06
273.553	72.06
273.785	90.06
274.017	91.06
274.249	76.06
274.481	71.06
274.713	90.06
274.945	85.06
275.176	73.06
275.408	92.06
275.64	91.06
275.872	85.06
276.104	80.06
276.335	87.06
276.567	96.06
276.799	107.06
277.031	88.06
277.262	95.06
277.494	82.06
277.726	90.06
277.957	88.06
278.189	84.06
278.421	75.06
278.652	76.06
278.884	89.06
279.115	83.06
279.347	84.06
279.579	84.06
279.81	85.06
280.042	87.06
280.273	107.06
280.505	99.06
280.736	91.06
280.968	81.06
281.199	90.06
281.431	92.06
281.662	89.06
281.894	92.06
282.125	95.06
282.356	106.06
282.588	128.06
282.819	111.06
283.051	88.06
283.282	94.06
283.513	88.06
283.745	81.06
283.976	97.06
284.207	94.06
284.439	95.06
284.67	95.06
284.901	94.06
285.132	89.06
285.364	74.06
285.595	89.06
285.826	92.06
286.057	85.06
286.288	87.06
286.52	99.06
286.751	95.06
286.982	80.06
287.213	89.06
287.444	83.06
287.675	84.06
287.906	74.06
288.138	98.06
288.369	79.06
288.6	70.06
288.831	78.06
289.062	103.06
289.293	94.06
289.524	84.06
289.755	97.06
289.986	83.06
290.217	99.06
290.448	88.06
290.679	94.06
290.91	91.06
291.141	96.06
291.371	85.06
291.602	69.06
291.833	86.06
292.064	89.06
292.295	85.06
292.526	97.06
292.757	101.06
292.987	83.06
293.218	80.06
293.449	103.06
293.68	86.06
293.91	88.06
294.141	102.06
294.372	81.06
294.603	86.06
294.833	94.06
295.064	89.06
295.295	76.06
295.525	84.06
295.756	107.06
295.987	108.06
296.217	130.06
296.448	123.06
296.679	97.06
296.909	81.06
297.14	89.06
297.37	89.06
297.601	91.06
297.831	82.06
298.062	90.06
298.292	75.06
298.523	93.06
298.753	106.06
298.984	85.06
299.214	100.06
299.445	76.06
299.675	96.06
299.905	91.06
300.136	93.06
300.366	73.06
300.597	86.06
300.827	90.06
301.057	72.06
301.288	81.06
301.518	103.06
301.748	90.06
301.979	95.06
302.209	90.06
302.439	87.06
302.669	100.06
302.9	81.06
303.13	94.06
303.36	101.06
303.59	95.06
303.82	113.06
304.051	93.06
304.281	100.06
304.511	85.06
304.741	93.06
304.971	99.06
305.201	93.06
305.431	93.06
305.661	96.06
305.891	94.06
306.121	101.06
306.352	100.06
306.582	91.06
306.812	80.06
307.042	90.06
307.272	91.06
307.502	98.06
307.731	105.06
307.961	90.06
308.191	97.06
308.421	108.06
308.651	99.06
308.881	85.06
309.111	79.06
309.341	99.06
309.571	91.06
309.8	100.06
310.03	87.06
310.26	91.06
310.49	92.06
310.72	89.06
310.949	90.06
311.179	98.06
311.409	92.06
311.639	93.06
311.868	110.06
312.098	100.06
312.328	88.06
312.557	105.06
312.787	102.06
313.017	103.06
313.246	103.06
313.476	95.06
313.706	97.06
313.935	118.06
314.165	108.06
314.394	96.06
314.624	103.06
314.853	90.06
315.083	98.06
315.312	96.06
315.542	92.06
315.771	87.06
316.001	87.06
316.23	100.06
316.46	87.06
316.689	86.06
316.919	106.06
317.148	96.06
317.377	94.06
317.607	97.06
317.836	86.06
318.065	97.06
318.295	96.06
318.524	99.06
318.753	93.06
318.983	103.06
319.212	88.06
319.441	101.06
319.67	110.06
319.9	91.06
320.129	91.06
320.358	92.06
320.587	99.06
320.816	92.06
321.046	107.06
321.275	96.06
321.504	95.06
321.733	87.06
321.962	113.06
322.191	97.06
322.42	104.06
322.649	104.06
322.878	116.06
323.108	118.06
323.337	113.06
323.566	134.06
323.795	132.06
324.024	185.06
324.253	346.06
324.482	700.06
324.71	1424.06
324.939	1914.06
325.168	714.06
325.397	217.06
325.626	121.06
325.855	127.06
326.084	116.06
326.313	118.06
326.542	140.06
326.77	228.06
326.999	402.06
327.228	800.06
327.457	1479.06
327.686	1194.06
327.914	329.06
328.143	190.06
328.372	167.06
328.6	123.06
328.829	110.06
329.058	112.06
329.287	124.06
329.515	113.06
329.744	96.06
329.972	121.06
330.201	148.06
330.43	182.06
330.658	141.06
330.887	144.06
331.115	125.06
331.344	107.06
331.572	84.06
331.801	111.06
332.03	96.06
332.258	104.06
332.486	95.06
332.715	105.06
332.943	106.06
333.172	102.06
333.4	95.06
333.629	107.06
333.857	100.06
334.085	119.06
334.314	145.06
334.542	208.06
334.771	185.06
334.999	114.06
335.227	97.06
335.455	100.06
335.684	99.06
335.912	105.06
336.14	98.06
336.369	120.06
336.597	113.06
336.825	104.06
337.053	95.06
337.281	79.06
337.51	92.06
337.738	85.06
337.966	83.06
338.194	73.06
338.422	109.06
338.65	104.06
338.878	102.06
339.106	95.06
339.334	89.06
339.562	100.06
339.79	93.06
340.018	79.06
340.246	101.06
340.474	92.06
340.702	95.06
340.93	93.06
341.158	97.06
341.386	87.06
341.614	88.06
341.842	102.06
342.07	87.06
342.298	85.06
342.526	81.06
342.754	82.06
342.981	97.06
343.209	99.06
343.437	88.06
343.665	77.06
343.893	97.06
344.12	87.06
344.348	83.06
344.576	93.06
344.804	99.06
345.031	99.06
345.259	97.06
345.487	98.06
345.714	91.06
345.942	107.06
346.17	100.06
346.397	83.06
346.625	93.06
346.853	96.06
347.08	75.06
347.308	86.06
347.535	87.06
347.763	101.06
347.99	101.06
348.218	97.06
348.445	104.06
348.673	89.06
348.9	88.06
349.128	98.06
349.355	92.06
349.583	104.06
349.81	92.06
350.037	72.06
350.265	100.06
350.492	96.06
350.72	89.06
350.947	103.06
351.174	104.06
351.402	102.06
351.629	83.06
351.856	108.06
352.083	95.06
352.311	104.06
352.538	91.06
352.765	106.06
352.992	107.06
353.22	100.06
353.447	112.06
353.674	96.06
353.901	105.06
354.128	96.06
354.355	101.06
354.583	110.06
354.81	101.06
355.037	101.06
355.264	93.06
355.491	93.06
355.718	107.06
355.945	105.06
356.172	91.06
356.399	92.06
356.626	100.06
356.853	104.06
357.08	84.06
357.307	83.06
357.534	87.06
357.761	90.06
357.988	88.06
358.215	111.06
358.441	92.06
358.668	91.06
358.895	84.06
359.122	90.06
359.349	92.06
359.576	75.06
359.802	98.06
360.029	107.06
360.256	106.06
360.483	99.06
360.709	95.06
360.936	104.06
361.163	87.06
361.39	98.06
361.616	104.06
361.843	102.06
362.07	92.06
362.296	87.06
362.523	88.06
362.749	102.06
362.976	92.06
363.203	87.06
363.429	93.06
363.656	92.06
363.882	95.06
364.109	89.06
364.335	92.06
364.562	94.06
364.788	87.06
365.015	89.06
365.241	88.06
365.468	97.06
365.694	114.06
365.92	91.06
366.147	86.06
366.373	87.06
366.599	86.06
366.826	92.06
367.052	90.06
367.278	98.06
367.505	93.06
367.731	84.06
367.957	83.06
368.184	85.06
368.41	92.06
368.636	110.06
368.862	124.06
369.089	106.06
369.315	98.06
369.541	87.06
369.767	86.06
369.993	99.06
370.219	98.06
370.445	84.06
370.672	90.06
370.898	84.06
371.124	85.06
371.35	88.06
371.576	80.06
371.802	87.06
372.028	87.06
372.254	84.06
372.48	96.06
372.706	97.06
372.932	90.06
373.158	93.06
373.384	85.06
373.61	93.06
373.835	96.06
374.061	97.06
374.287	93.06
374.513	82.06
374.739	85.06
374.965	86.06
375.191	89.06
375.416	98.06
375.642	90.06
375.868	86.06
376.094	92.06
376.319	85.06
376.545	80.06
376.771	98.06
376.997	103.06
377.222	96.06
377.448	91.06
377.674	82.06
377.899	94.06
378.125	97.06
378.35	100.06
378.576	100.06
378.802	90.06
379.027	85.06
379.253	99.06
379.478	97.06
379.704	85.06
379.929	89.06
380.155	114.06
380.38	99.06
380.606	98.06
380.831	91.06
381.057	107.06
381.282	101.06
381.507	92.06
381.733	103.06
381.958	93.06
382.184	105.06
382.409	99.06
382.634	84.06
382.86	91.06
383.085	102.06
383.31	88.06
383.535	99.06
383.761	98.06
383.986	109.06
384.211	96.06
384.436	91.06
384.662	107.06
384.887	107.06
385.112	108.06
385.337	104.06
385.562	98.06
385.787	90.06
386.013	110.06
386.238	103.06
386.463	117.06
386.688	108.06
386.913	111.06
387.138	126.06
387.363	111.06
387.588	93.06
387.813	111.06
388.038	117.06
388.263	105.06
388.488	112.06
388.713	99.06
388.938	99.06
389.163	99.06
389.387	104.06
389.612	94.06
389.837	89.06
390.062	93.06
390.287	101.06
390.512	96.06
390.736	92.06
390.961	97.06
391.186	90.06
391.411	102.06
391.636	94.06
391.86	92.06
392.085	77.06
392.31	83.06
392.534	93.06
392.759	93.06
392.984	78.06
393.208	95.06
393.433	106.06
393.658	94.06
393.882	86.06
394.107	82.06
394.331	85.06
394.556	88.06
394.78	86.06
395.005	109.06
395.229	82.06
395.454	102.06
395.678	96.06
395.903	85.06
396.127	99.06
396.352	71.06
396.576	82.06
396.801	86.06
397.025	82.06
397.249	86.06
397.474	97.06
397.698	91.06
397.922	110.06
398.147	100.06
398.371	81.06
398.595	102.06
398.82	92.06
399.044	79.06
399.268	96.06
399.492	100.06
399.717	83.06
399.941	97.06
400.165	102.06
400.389	91.06
400.613	103.06
400.837	92.06
401.062	91.06
401.286	96.06
401.51	99.06
401.734	97.06
401.958	85.06
402.182	119.06
402.406	136.06
402.63	124.06
402.854	89.06
403.078	95.06
403.302	92.06
403.526	94.06
403.75	92.06
403.974	88.06
404.198	93.06
404.422	96.06
404.645	84.06
404.869	92.06
405.093	99.06
405.317	99.06
405.541	101.06
405.765	100.06
405.988	100.06
406.212	151.06
406.436	220.06
406.66	140.06
406.883	100.06
407.107	82.06
407.331	99.06
407.555	80.06
407.778	106.06
408.002	90.06
408.226	95.06
408.449	84.06
408.673	97.06
408.896	92.06
409.12	90.06
409.344	98.06
409.567	85.06
409.791	82.06
410.014	86.06
410.238	104.06
410.461	87.06
410.685	100.06
410.908	82.06
411.132	104.06
411.355	89.06
411.578	96.06
411.802	91.06
412.025	91.06
412.249	107.06
412.472	94.06
412.695	94.06
412.919	99.06
413.142	94.06
413.365	80.06
413.589	84.06
413.812	84.06
414.035	90.06
414.258	92.06
414.482	101.06
414.705	88.06
414.928	96.06
415.151	79.06
415.374	97.06
415.597	96.06
415.821	88.06
416.044	92.06
416.267	102.06
416.49	81.06
416.713	107.06
416.936	83.06
417.159	102.06
417.382	88.06
417.605	87.06
417.828	95.06
418.051	102.06
418.274	88.06
418.497	84.06
418.72	91.06
418.943	92.06
419.166	80.06
419.389	95.06
419.611	91.06
419.834	85.06
420.057	83.06
420.28	101.06
420.503	92.06
420.726	74.06
420.948	92.06
421.171	87.06
421.394	87.06
421.617	97.06
421.839	78.06
422.062	92.06
422.285	93.06
422.507	109.06
422.73	95.06
422.953	91.06
423.175	80.06
423.398	98.06
423.621	93.06
423.843	71.06
424.066	92.06
424.288	91.06
424.511	101.06
424.733	79.06
424.956	107.06
425.178	101.06
425.401	103.06
425.623	95.06
425.846	94.06
426.068	106.06
426.291	92.06
426.513	88.06
426.735	103.06
426.958	106.06
427.18	97.06
427.402	128.06
427.625	172.06
427.847	128.06
428.069	112.06
428.292	91.06
428.514	93.06
428.736	92.06
428.958	100.06
429.181	83.06
429.403	85.06
429.625	82.06
429.847	97.06
430.069	84.06
430.292	97.06
430.514	103.06
430.736	77.06
430.958	93.06
431.18	89.06
431.402	83.06
431.624	83.06
431.846	85.06
432.068	83.06
432.29	81.06
432.512	95.06
432.734	79.06
432.956	80.06
433.178	95.06
433.4	98.06
433.622	90.06
433.844	98.06
434.066	87.06
434.287	97.06
434.509	81.06
434.731	93.06
434.953	85.06
435.175	87.06
435.397	91.06
435.618	83.06
435.84	107.06
436.062	107.06
436.284	107.06
436.505	88.06
436.727	96.06
436.949	79.06
437.17	92.06
437.392	90.06
437.614	92.06
437.835	104.06
438.057	117.06
438.278	108.06
438.5	100.06
438.721	116.06
438.943	107.06
439.165	79.06
439.386	86.06
439.608	84.06
439.829	89.06
440.05	111.06
440.272	121.06
440.493	114.06
440.715	90.06
440.936	87.06
441.158	99.06
441.379	90.06
441.6	92.06
441.822	105.06
442.043	92.06
442.264	81.06
442.486	102.06
442.707	91.06
442.928	104.06
443.149	132.06
443.371	127.06
443.592	99.06
443.813	107.06
444.034	114.06
444.255	81.06
444.476	89.06
444.698	84.06
444.919	80.06
445.14	129.06
445.361	116.06
445.582	106.06
445.803	116.06
446.024	120.06
446.245	120.06
446.466	107.06
446.687	90.06
446.908	95.06
447.129	93.06
447.35	84.06
447.571	89.06
447.792	100.06
448.013	94.06
448.234	102.06
448.455	107.06
448.675	108.06
448.896	109.06
449.117	83.06
449.338	109.06
449.559	108.06
449.779	127.06
450	92.06
450.221	90.06
450.442	87.06
450.662	100.06
450.883	103.06
451.104	102.06
451.324	98.06
451.545	88.06
451.766	82.06
451.986	82.06
452.207	82.06
452.428	97.06
452.648	88.06
452.869	98.06
453.089	114.06
453.31	124.06
453.53	104.06
453.751	96.06
453.971	112.06
454.192	98.06
454.412	97.06
454.633	69.06
454.853	74.06
455.073	102.06
455.294	99.06
455.514	100.06
455.734	105.06
455.955	84.06
456.175	85.06
456.395	95.06
456.616	91.06
456.836	82.06
457.056	100.06
457.276	95.06
457.497	88.06
457.717	84.06
457.937	84.06
458.157	94.06
458.377	103.06
458.598	111.06
458.818	144.06
459.038	142.06
459.258	111.06
459.478	101.06
459.698	88.06
459.918	99.06
460.138	93.06
460.358	71.06
460.578	75.06
460.798	99.06
461.018	95.06
461.238	97.06
461.458	87.06
461.678	84.06
461.898	81.06
462.118	86.06
462.338	84.06
462.558	86.06
462.777	84.06
462.997	90.06
463.217	100.06
463.437	86.06
463.657	81.06
463.876	107.06
464.096	107.06
464.316	93.06
464.536	91.06
464.755	89.06
464.975	119.06
465.195	162.06
465.414	123.06
465.634	85.06
465.854	88.06
466.073	92.06
466.293	94.06
466.512	77.06
466.732	85.06
466.951	107.06
467.171	96.06
467.391	90.06
467.61	94.06
467.829	109.06
468.049	122.06
468.268	133.06
468.488	102.06
468.707	101.06
468.927	89.06
469.146	77.06
469.365	84.06
469.585	91.06
469.804	100.06
470.023	100.06
470.243	96.06
470.462	87.06
470.681	102.06
470.901	86.06
471.12	90.06
471.339	93.06
471.558	77.06
471.777	88.06
471.997	97.06
472.216	177.06
472.435	247.06
472.654	124.06
472.873	89.06
473.092	72.06
473.311	90.06
473.53	87.06
473.749	83.06
473.968	76.06
474.187	111.06
474.406	82.06
474.625	102.06
474.844	97.06
475.063	84.06
475.282	83.06
475.501	86.06
475.72	88.06
475.939	85.06
476.158	87.06
476.377	117.06
476.596	106.06
476.814	88.06
477.033	91.06
477.252	93.06
477.471	94.06
477.69	77.06
477.908	98.06
478.127	83.06
478.346	91.06
478.564	89.06
478.783	97.06
479.002	88.06
479.22	108.06
479.439	99.06
479.658	92.06
479.876	102.06
480.095	83.06
480.313	89.06
480.532	121.06
480.751	118.06
480.969	165.06
481.188	383.06
481.406	234.06
481.624	106.06
481.843	76.06
482.061	81.06
482.28	91.06
482.498	91.06
482.717	100.06
482.935	83.06
483.153	79.06
483.372	90.06
483.59	85.06
483.808	79.06
484.027	85.06
484.245	78.06
484.463	87.06
484.681	103.06
484.9	73.06
485.118	105.06
485.336	94.06
485.554	95.06
485.772	106.06
485.99	105.06
486.209	98.06
486.427	100.06
486.645	118.06
486.863	107.06
487.081	100.06
487.299	76.06
487.517	99.06
487.735	99.06
487.953	81.06
488.171	93.06
488.389	88.06
488.607	94.06
488.825	85.06
489.043	87.06
489.261	86.06
489.479	85.06
489.696	101.06
489.914	98.06
490.132	88.06
490.35	97.06
490.568	80.06
490.786	90.06
491.003	94.06
491.221	76.06
491.439	96.06
491.657	92.06
491.874	100.06
492.092	94.06
492.31	98.06
492.527	91.06
492.745	93.06
492.963	90.06
493.18	92.06
493.398	95.06
493.615	101.06
493.833	96.06
494.05	84.06
494.268	92.06
494.485	95.06
494.703	86.06
494.92	98.06
495.138	91.06
495.355	97.06
495.573	96.06
495.79	91.06
496.008	99.06
496.225	92.06
496.442	88.06
496.66	105.06
496.877	93.06
497.094	90.06
497.312	95.06
497.529	103.06
497.746	90.06
497.963	91.06
498.181	87.06
498.398	92.06
498.615	107.06
498.832	107.06
499.049	96.06
499.267	92.06
499.484	85.06
499.701	95.06
499.918	95.06
500.135	91.06
500.352	93.06
500.569	98.06
500.786	97.06
501.003	92.06
501.22	96.06
501.437	107.06
501.654	99.06
501.871	98.06
502.088	92.06
502.305	98.06
502.522	87.06
502.739	84.06
502.956	97.06
503.172	82.06
503.389	99.06
503.606	119.06
503.823	91.06
504.04	81.06
504.256	89.06
504.473	101.06
504.69	97.06
504.907	87.06
505.123	86.06
505.34	83.06
505.557	81.06
505.773	81.06
505.99	91.06
506.207	90.06
506.423	91.06
506.64	97.06
506.856	92.06
507.073	104.06
507.289	81.06
507.506	89.06
507.722	111.06
507.939	114.06
508.155	92.06
508.372	105.06
508.588	96.06
508.805	99.06
509.021	92.06
509.238	97.06
509.454	98.06
509.67	107.06
509.887	100.06
510.103	127.06
510.319	207.06
510.536	684.06
510.752	2117.06
510.968	571.06
511.184	151.06
511.401	103.06
511.617	97.06
511.833	82.06
512.049	84.06
512.265	97.06
512.481	96.06
512.698	91.06
512.914	97.06
513.13	105.06
513.346	85.06
513.562	99.06
513.778	97.06
513.994	98.06
514.21	99.06
514.426	120.06
514.642	121.06
514.858	126.06
515.074	144.06
515.29	432.06
