Data from Circ_1986_H10_HRD10591_00013.txt Node
Date: Wed Jan 03 12:15:28 EST 2024
User: Yrep
Spectrometer: HR+D1059
Trigger mode: 1
Integration Time (sec): 1.000000E-1
Scans to average: 1
Electric dark correction enabled: true
Nonlinearity correction enabled: false
Boxcar width: 0
XAxis mode: Wavelengths
Number of Pixels in Spectrum: 2048
>>>>>Begin Spectral Data<<<<<
223.165	-23.75
223.4	-23.75
223.635	-23.75
223.869	-7.75
224.104	-17.75
224.338	-25.75
224.573	-3.75
224.808	-8.75
225.042	-10.75
225.277	-2.75
225.511	-0.75
225.746	-5.75
225.98	9.25
226.215	7.25
226.449	29.25
226.683	10.25
226.918	27.25
227.152	24.25
227.387	37.25
227.621	50.25
227.856	46.25
228.09	31.25
228.324	50.25
228.559	51.25
228.793	72.25
229.027	72.25
229.262	69.25
229.496	80.25
229.73	94.25
229.964	88.25
230.199	71.25
230.433	77.25
230.667	68.25
230.901	84.25
231.136	73.25
231.37	91.25
231.604	68.25
231.838	92.25
232.072	83.25
232.306	95.25
232.541	88.25
232.775	85.25
233.009	78.25
233.243	86.25
233.477	77.25
233.711	82.25
233.945	82.25
234.179	90.25
234.413	85.25
234.647	86.25
234.881	72.25
235.115	89.25
235.349	94.25
235.583	90.25
235.817	81.25
236.051	91.25
236.285	73.25
236.519	101.25
236.753	75.25
236.987	86.25
237.221	89.25
237.455	73.25
237.689	76.25
237.922	76.25
238.156	75.25
238.39	72.25
238.624	69.25
238.858	97.25
239.091	80.25
239.325	77.25
239.559	71.25
239.793	94.25
240.027	67.25
240.26	90.25
240.494	78.25
240.728	64.25
240.961	70.25
241.195	88.25
241.429	74.25
241.662	69.25
241.896	77.25
242.13	85.25
242.363	71.25
242.597	72.25
242.83	68.25
243.064	90.25
243.298	85.25
243.531	80.25
243.765	77.25
243.998	88.25
244.232	80.25
244.465	82.25
244.699	80.25
244.932	77.25
245.166	78.25
245.399	60.25
245.633	77.25
245.866	83.25
246.099	82.25
246.333	79.25
246.566	77.25
246.8	75.25
247.033	95.25
247.266	90.25
247.5	79.25
247.733	86.25
247.966	76.25
248.2	98.25
248.433	82.25
248.666	83.25
248.899	90.25
249.133	80.25
249.366	94.25
249.599	106.25
249.832	85.25
250.066	84.25
250.299	86.25
250.532	84.25
250.765	82.25
250.998	86.25
251.231	85.25
251.465	80.25
251.698	91.25
251.931	72.25
252.164	79.25
252.397	64.25
252.63	68.25
252.863	84.25
253.096	77.25
253.329	80.25
253.562	87.25
253.795	82.25
254.028	100.25
254.261	80.25
254.494	104.25
254.727	97.25
254.96	84.25
255.193	96.25
255.426	73.25
255.659	82.25
255.892	87.25
256.124	79.25
256.357	89.25
256.59	92.25
256.823	88.25
257.056	75.25
257.289	71.25
257.521	86.25
257.754	70.25
257.987	82.25
258.22	85.25
258.452	91.25
258.685	76.25
258.918	79.25
259.151	82.25
259.383	75.25
259.616	78.25
259.849	78.25
260.081	79.25
260.314	84.25
260.547	79.25
260.779	86.25
261.012	90.25
261.244	87.25
261.477	92.25
261.71	94.25
261.942	100.25
262.175	105.25
262.407	71.25
262.64	71.25
262.872	77.25
263.105	83.25
263.337	76.25
263.57	80.25
263.802	83.25
264.035	86.25
264.267	80.25
264.499	77.25
264.732	79.25
264.964	81.25
265.197	90.25
265.429	95.25
265.661	92.25
265.894	88.25
266.126	80.25
266.358	86.25
266.591	78.25
266.823	85.25
267.055	92.25
267.287	96.25
267.52	88.25
267.752	88.25
267.984	93.25
268.216	92.25
268.448	85.25
268.681	84.25
268.913	83.25
269.145	82.25
269.377	86.25
269.609	85.25
269.841	81.25
270.073	74.25
270.306	91.25
270.538	77.25
270.77	91.25
271.002	107.25
271.234	79.25
271.466	86.25
271.698	91.25
271.93	92.25
272.162	99.25
272.394	93.25
272.626	98.25
272.858	86.25
273.09	85.25
273.322	84.25
273.553	96.25
273.785	88.25
274.017	85.25
274.249	95.25
274.481	78.25
274.713	75.25
274.945	80.25
275.176	86.25
275.408	88.25
275.64	83.25
275.872	88.25
276.104	109.25
276.335	90.25
276.567	101.25
276.799	106.25
277.031	91.25
277.262	96.25
277.494	103.25
277.726	94.25
277.957	89.25
278.189	103.25
278.421	79.25
278.652	83.25
278.884	93.25
279.115	92.25
279.347	74.25
279.579	90.25
279.81	87.25
280.042	100.25
280.273	78.25
280.505	77.25
280.736	87.25
280.968	85.25
281.199	95.25
281.431	88.25
281.662	93.25
281.894	87.25
282.125	108.25
282.356	94.25
282.588	128.25
282.819	110.25
283.051	83.25
283.282	103.25
283.513	96.25
283.745	96.25
283.976	93.25
284.207	87.25
284.439	87.25
284.67	86.25
284.901	86.25
285.132	89.25
285.364	66.25
285.595	92.25
285.826	90.25
286.057	91.25
286.288	90.25
286.52	85.25
286.751	91.25
286.982	99.25
287.213	97.25
287.444	86.25
287.675	88.25
287.906	90.25
288.138	92.25
288.369	99.25
288.6	84.25
288.831	76.25
289.062	87.25
289.293	86.25
289.524	87.25
289.755	102.25
289.986	88.25
290.217	104.25
290.448	102.25
290.679	82.25
290.91	99.25
291.141	93.25
291.371	103.25
291.602	78.25
291.833	73.25
292.064	72.25
292.295	98.25
292.526	85.25
292.757	80.25
292.987	92.25
293.218	83.25
293.449	103.25
293.68	89.25
293.91	85.25
294.141	88.25
294.372	95.25
294.603	76.25
294.833	97.25
295.064	102.25
295.295	103.25
295.525	96.25
295.756	99.25
295.987	111.25
296.217	122.25
296.448	107.25
296.679	110.25
296.909	100.25
297.14	86.25
297.37	86.25
297.601	85.25
297.831	102.25
298.062	95.25
298.292	102.25
298.523	91.25
298.753	94.25
298.984	88.25
299.214	94.25
299.445	105.25
299.675	84.25
299.905	93.25
300.136	99.25
300.366	93.25
300.597	86.25
300.827	101.25
301.057	104.25
301.288	103.25
301.518	98.25
301.748	100.25
301.979	106.25
302.209	91.25
302.439	98.25
302.669	102.25
302.9	79.25
303.13	97.25
303.36	84.25
303.59	92.25
303.82	103.25
304.051	99.25
304.281	97.25
304.511	94.25
304.741	82.25
304.971	94.25
305.201	96.25
305.431	96.25
305.661	102.25
305.891	96.25
306.121	98.25
306.352	93.25
306.582	100.25
306.812	89.25
307.042	100.25
307.272	93.25
307.502	104.25
307.731	90.25
307.961	100.25
308.191	85.25
308.421	94.25
308.651	98.25
308.881	100.25
309.111	104.25
309.341	112.25
309.571	95.25
309.8	98.25
310.03	87.25
310.26	93.25
310.49	101.25
310.72	96.25
310.949	86.25
311.179	84.25
311.409	108.25
311.639	101.25
311.868	87.25
312.098	88.25
312.328	87.25
312.557	101.25
312.787	98.25
313.017	84.25
313.246	95.25
313.476	94.25
313.706	107.25
313.935	111.25
314.165	108.25
314.394	96.25
314.624	99.25
314.853	104.25
315.083	87.25
315.312	82.25
315.542	93.25
315.771	89.25
316.001	94.25
316.23	89.25
316.46	89.25
316.689	101.25
316.919	119.25
317.148	104.25
317.377	103.25
317.607	114.25
317.836	86.25
318.065	91.25
318.295	83.25
318.524	90.25
318.753	91.25
318.983	101.25
319.212	108.25
319.441	112.25
319.67	111.25
319.9	95.25
320.129	95.25
320.358	102.25
320.587	97.25
320.816	96.25
321.046	98.25
321.275	104.25
321.504	99.25
321.733	88.25
321.962	104.25
322.191	104.25
322.42	116.25
322.649	101.25
322.878	102.25
323.108	109.25
323.337	115.25
323.566	130.25
323.795	135.25
324.024	171.25
324.253	312.25
324.482	614.25
324.71	1199.25
324.939	1605.25
325.168	594.25
325.397	194.25
325.626	139.25
325.855	127.25
326.084	130.25
326.313	131.25
326.542	134.25
326.77	196.25
326.999	350.25
327.228	687.25
327.457	1284.25
327.686	1008.25
327.914	304.25
328.143	166.25
328.372	120.25
328.6	109.25
328.829	112.25
329.058	127.25
329.287	131.25
329.515	104.25
329.744	94.25
329.972	104.25
330.201	117.25
330.43	125.25
330.658	101.25
330.887	122.25
331.115	126.25
331.344	96.25
331.572	104.25
331.801	96.25
332.03	96.25
332.258	108.25
332.486	96.25
332.715	105.25
332.943	94.25
333.172	98.25
333.4	94.25
333.629	106.25
333.857	116.25
334.085	112.25
334.314	105.25
334.542	115.25
334.771	115.25
334.999	86.25
335.227	102.25
335.455	106.25
335.684	102.25
335.912	109.25
336.14	106.25
336.369	93.25
336.597	96.25
336.825	97.25
337.053	95.25
337.281	85.25
337.51	104.25
337.738	86.25
337.966	102.25
338.194	94.25
338.422	94.25
338.65	102.25
338.878	97.25
339.106	98.25
339.334	95.25
339.562	95.25
339.79	100.25
340.018	92.25
340.246	90.25
340.474	90.25
340.702	95.25
340.93	84.25
341.158	92.25
341.386	107.25
341.614	108.25
341.842	88.25
342.07	100.25
342.298	94.25
342.526	106.25
342.754	103.25
342.981	101.25
343.209	82.25
343.437	112.25
343.665	91.25
343.893	92.25
344.12	104.25
344.348	101.25
344.576	103.25
344.804	98.25
345.031	88.25
345.259	97.25
345.487	91.25
345.714	96.25
345.942	98.25
346.17	106.25
346.397	91.25
346.625	91.25
346.853	79.25
347.08	95.25
347.308	103.25
347.535	93.25
347.763	108.25
347.99	98.25
348.218	101.25
348.445	98.25
348.673	104.25
348.9	91.25
349.128	102.25
349.355	120.25
349.583	102.25
349.81	91.25
350.037	90.25
350.265	108.25
350.492	88.25
350.72	86.25
350.947	109.25
351.174	126.25
351.402	102.25
351.629	101.25
351.856	103.25
352.083	96.25
352.311	112.25
352.538	104.25
352.765	103.25
352.992	93.25
353.22	117.25
353.447	100.25
353.674	106.25
353.901	86.25
354.128	99.25
354.355	107.25
354.583	104.25
354.81	101.25
355.037	91.25
355.264	104.25
355.491	111.25
355.718	103.25
355.945	95.25
356.172	102.25
356.399	106.25
356.626	104.25
356.853	101.25
357.08	101.25
357.307	93.25
357.534	86.25
357.761	111.25
357.988	111.25
358.215	113.25
358.441	97.25
358.668	104.25
358.895	101.25
359.122	102.25
359.349	94.25
359.576	99.25
359.802	86.25
360.029	103.25
360.256	99.25
360.483	102.25
360.709	108.25
360.936	88.25
361.163	106.25
361.39	92.25
361.616	98.25
361.843	87.25
362.07	105.25
362.296	96.25
362.523	90.25
362.749	100.25
362.976	91.25
363.203	95.25
363.429	92.25
363.656	94.25
363.882	104.25
364.109	93.25
364.335	92.25
364.562	103.25
364.788	95.25
365.015	89.25
365.241	115.25
365.468	105.25
365.694	94.25
365.92	104.25
366.147	94.25
366.373	87.25
366.599	92.25
366.826	99.25
367.052	80.25
367.278	92.25
367.505	82.25
367.731	105.25
367.957	101.25
368.184	92.25
368.41	101.25
368.636	103.25
368.862	117.25
369.089	105.25
369.315	94.25
369.541	92.25
369.767	96.25
369.993	96.25
370.219	91.25
370.445	100.25
370.672	94.25
370.898	95.25
371.124	87.25
371.35	100.25
371.576	97.25
371.802	91.25
372.028	96.25
372.254	88.25
372.48	88.25
372.706	96.25
372.932	97.25
373.158	95.25
373.384	95.25
373.61	96.25
373.835	102.25
374.061	96.25
374.287	105.25
374.513	94.25
374.739	114.25
374.965	88.25
375.191	109.25
375.416	90.25
375.642	99.25
375.868	102.25
376.094	85.25
376.319	96.25
376.545	97.25
376.771	98.25
376.997	91.25
377.222	87.25
377.448	96.25
377.674	98.25
377.899	101.25
378.125	88.25
378.35	111.25
378.576	114.25
378.802	106.25
379.027	100.25
379.253	103.25
379.478	95.25
379.704	109.25
379.929	111.25
380.155	116.25
380.38	102.25
380.606	107.25
380.831	116.25
381.057	110.25
381.282	102.25
381.507	111.25
381.733	107.25
381.958	107.25
382.184	103.25
382.409	118.25
382.634	121.25
382.86	104.25
383.085	112.25
383.31	114.25
383.535	114.25
383.761	105.25
383.986	116.25
384.211	114.25
384.436	115.25
384.662	113.25
384.887	124.25
385.112	124.25
385.337	121.25
385.562	124.25
385.787	111.25
386.013	114.25
386.238	130.25
386.463	117.25
386.688	129.25
386.913	111.25
387.138	131.25
387.363	128.25
387.588	107.25
387.813	112.25
388.038	121.25
388.263	140.25
388.488	140.25
388.713	116.25
388.938	89.25
389.163	86.25
389.387	93.25
389.612	110.25
389.837	103.25
390.062	99.25
390.287	107.25
390.512	95.25
390.736	95.25
390.961	91.25
391.186	103.25
391.411	107.25
391.636	95.25
391.86	77.25
392.085	86.25
392.31	86.25
392.534	94.25
392.759	101.25
392.984	84.25
393.208	93.25
393.433	90.25
393.658	94.25
393.882	100.25
394.107	88.25
394.331	80.25
394.556	92.25
394.78	85.25
395.005	84.25
395.229	89.25
395.454	80.25
395.678	74.25
395.903	93.25
396.127	92.25
396.352	82.25
396.576	90.25
396.801	87.25
397.025	99.25
397.249	75.25
397.474	97.25
397.698	91.25
397.922	96.25
398.147	83.25
398.371	86.25
398.595	90.25
398.82	95.25
399.044	104.25
399.268	115.25
399.492	100.25
399.717	94.25
399.941	101.25
400.165	106.25
400.389	104.25
400.613	89.25
400.837	84.25
401.062	88.25
401.286	102.25
401.51	97.25
401.734	105.25
401.958	104.25
402.182	111.25
402.406	120.25
402.63	93.25
402.854	107.25
403.078	103.25
403.302	107.25
403.526	83.25
403.75	98.25
403.974	88.25
404.198	88.25
404.422	87.25
404.645	97.25
404.869	97.25
405.093	89.25
405.317	101.25
405.541	97.25
405.765	95.25
405.988	110.25
406.212	149.25
406.436	176.25
406.66	108.25
406.883	99.25
407.107	98.25
407.331	106.25
407.555	112.25
407.778	88.25
408.002	107.25
408.226	95.25
408.449	97.25
408.673	100.25
408.896	92.25
409.12	95.25
409.344	86.25
409.567	94.25
409.791	102.25
410.014	106.25
410.238	87.25
410.461	107.25
410.685	98.25
410.908	102.25
411.132	102.25
411.355	118.25
411.578	95.25
411.802	106.25
412.025	93.25
412.249	89.25
412.472	86.25
412.695	98.25
412.919	99.25
413.142	92.25
413.365	102.25
413.589	89.25
413.812	92.25
414.035	94.25
414.258	94.25
414.482	104.25
414.705	94.25
414.928	88.25
415.151	91.25
415.374	109.25
415.597	96.25
415.821	96.25
416.044	97.25
416.267	80.25
416.49	87.25
416.713	95.25
416.936	92.25
417.159	86.25
417.382	89.25
417.605	96.25
417.828	98.25
418.051	87.25
418.274	86.25
418.497	89.25
418.72	101.25
418.943	92.25
419.166	100.25
419.389	93.25
419.611	106.25
419.834	95.25
420.057	94.25
420.28	96.25
420.503	91.25
420.726	84.25
420.948	88.25
421.171	112.25
421.394	99.25
421.617	100.25
421.839	89.25
422.062	81.25
422.285	100.25
422.507	105.25
422.73	95.25
422.953	102.25
423.175	94.25
423.398	92.25
423.621	101.25
423.843	100.25
424.066	88.25
424.288	74.25
424.511	102.25
424.733	101.25
424.956	108.25
425.178	102.25
425.401	98.25
425.623	97.25
425.846	95.25
426.068	102.25
426.291	95.25
426.513	95.25
426.735	103.25
426.958	80.25
427.18	103.25
427.402	131.25
427.625	130.25
427.847	113.25
428.069	111.25
428.292	92.25
428.514	94.25
428.736	87.25
428.958	94.25
429.181	83.25
429.403	84.25
429.625	90.25
429.847	86.25
430.069	93.25
430.292	94.25
430.514	97.25
430.736	87.25
430.958	94.25
431.18	80.25
431.402	94.25
431.624	84.25
431.846	89.25
432.068	97.25
432.29	92.25
432.512	84.25
432.734	97.25
432.956	101.25
433.178	102.25
433.4	100.25
433.622	86.25
433.844	90.25
434.066	88.25
434.287	82.25
434.509	108.25
434.731	104.25
434.953	88.25
435.175	104.25
435.397	91.25
435.618	95.25
435.84	111.25
436.062	110.25
436.284	96.25
436.505	109.25
436.727	107.25
436.949	109.25
437.17	114.25
437.392	88.25
437.614	86.25
437.835	110.25
438.057	115.25
438.278	97.25
438.5	83.25
438.721	115.25
438.943	107.25
439.165	80.25
439.386	88.25
439.608	95.25
439.829	95.25
440.05	102.25
440.272	117.25
440.493	110.25
440.715	90.25
440.936	86.25
441.158	93.25
441.379	89.25
441.6	95.25
441.822	93.25
442.043	99.25
442.264	106.25
442.486	94.25
442.707	90.25
442.928	106.25
443.149	103.25
443.371	126.25
443.592	101.25
443.813	116.25
444.034	114.25
444.255	95.25
444.476	86.25
444.698	79.25
444.919	107.25
445.14	140.25
445.361	110.25
445.582	101.25
445.803	118.25
446.024	117.25
446.245	109.25
446.466	111.25
446.687	91.25
446.908	97.25
447.129	100.25
447.35	101.25
447.571	106.25
447.792	99.25
448.013	102.25
448.234	112.25
448.455	93.25
448.675	111.25
448.896	114.25
449.117	97.25
449.338	109.25
449.559	124.25
449.779	125.25
450	93.25
450.221	90.25
450.442	101.25
450.662	100.25
450.883	93.25
451.104	98.25
451.324	102.25
451.545	86.25
451.766	94.25
451.986	91.25
452.207	90.25
452.428	86.25
452.648	80.25
452.869	112.25
453.089	102.25
453.31	110.25
453.53	87.25
453.751	81.25
453.971	87.25
454.192	106.25
454.412	109.25
454.633	102.25
454.853	91.25
455.073	86.25
455.294	90.25
455.514	96.25
455.734	86.25
455.955	99.25
456.175	78.25
456.395	99.25
456.616	94.25
456.836	85.25
457.056	79.25
457.276	72.25
457.497	78.25
457.717	84.25
457.937	72.25
458.157	86.25
458.377	96.25
458.598	112.25
458.818	141.25
459.038	135.25
459.258	107.25
459.478	89.25
459.698	89.25
459.918	95.25
460.138	86.25
460.358	87.25
460.578	79.25
460.798	92.25
461.018	79.25
461.238	96.25
461.458	100.25
461.678	105.25
461.898	94.25
462.118	92.25
462.338	100.25
462.558	107.25
462.777	98.25
462.997	96.25
463.217	94.25
463.437	93.25
463.657	105.25
463.876	102.25
464.096	92.25
464.316	108.25
464.536	99.25
464.755	97.25
464.975	100.25
465.195	122.25
465.414	121.25
465.634	84.25
465.854	89.25
466.073	94.25
466.293	85.25
466.512	90.25
466.732	88.25
466.951	86.25
467.171	83.25
467.391	85.25
467.61	96.25
467.829	98.25
468.049	105.25
468.268	96.25
468.488	86.25
468.707	90.25
468.927	96.25
469.146	94.25
469.365	90.25
469.585	99.25
469.804	88.25
470.023	98.25
470.243	98.25
470.462	94.25
470.681	84.25
470.901	96.25
471.12	91.25
471.339	93.25
471.558	80.25
471.777	90.25
471.997	94.25
472.216	106.25
472.435	102.25
472.654	107.25
472.873	92.25
473.092	100.25
473.311	98.25
473.53	100.25
473.749	101.25
473.968	94.25
474.187	103.25
474.406	98.25
474.625	93.25
474.844	93.25
475.063	99.25
475.282	90.25
475.501	95.25
475.72	114.25
475.939	78.25
476.158	95.25
476.377	90.25
476.596	100.25
476.814	93.25
477.033	88.25
477.252	86.25
477.471	100.25
477.69	88.25
477.908	98.25
478.127	98.25
478.346	96.25
478.564	92.25
478.783	76.25
479.002	82.25
479.22	86.25
479.439	99.25
479.658	94.25
479.876	103.25
480.095	92.25
480.313	98.25
480.532	75.25
480.751	115.25
480.969	104.25
481.188	148.25
481.406	134.25
481.624	84.25
481.843	102.25
482.061	82.25
482.28	84.25
482.498	79.25
482.717	91.25
482.935	92.25
483.153	94.25
483.372	94.25
483.59	98.25
483.808	90.25
484.027	94.25
484.245	80.25
484.463	93.25
484.681	102.25
484.9	93.25
485.118	88.25
485.336	104.25
485.554	108.25
485.772	100.25
485.99	110.25
486.209	102.25
486.427	111.25
486.645	123.25
486.863	112.25
487.081	92.25
487.299	100.25
487.517	95.25
487.735	95.25
487.953	99.25
488.171	103.25
488.389	97.25
488.607	98.25
488.825	91.25
489.043	99.25
489.261	106.25
489.479	74.25
489.696	103.25
489.914	91.25
490.132	100.25
490.35	86.25
490.568	91.25
490.786	103.25
491.003	99.25
491.221	83.25
491.439	90.25
491.657	92.25
491.874	92.25
492.092	104.25
492.31	91.25
492.527	101.25
492.745	92.25
492.963	104.25
493.18	102.25
493.398	104.25
493.615	108.25
493.833	95.25
494.05	98.25
494.268	93.25
494.485	98.25
494.703	89.25
494.92	86.25
495.138	82.25
495.355	106.25
495.573	88.25
495.79	94.25
496.008	99.25
496.225	96.25
496.442	99.25
496.66	115.25
496.877	101.25
497.094	104.25
497.312	95.25
497.529	98.25
497.746	80.25
497.963	93.25
498.181	92.25
498.398	116.25
498.615	102.25
498.832	104.25
499.049	93.25
499.267	96.25
499.484	98.25
499.701	84.25
499.918	102.25
500.135	94.25
500.352	86.25
500.569	106.25
500.786	90.25
501.003	100.25
501.22	104.25
501.437	91.25
501.654	92.25
501.871	108.25
502.088	94.25
502.305	107.25
502.522	90.25
502.739	100.25
502.956	78.25
503.172	98.25
503.389	76.25
503.606	106.25
503.823	102.25
504.04	95.25
504.256	94.25
504.473	87.25
504.69	87.25
504.907	96.25
505.123	96.25
505.34	88.25
505.557	96.25
505.773	98.25
505.99	79.25
506.207	95.25
506.423	93.25
506.64	94.25
506.856	98.25
507.073	105.25
507.289	98.25
507.506	89.25
507.722	105.25
507.939	106.25
508.155	85.25
508.372	75.25
508.588	92.25
508.805	93.25
509.021	94.25
509.238	107.25
509.454	92.25
509.67	100.25
509.887	89.25
510.103	121.25
510.319	185.25
510.536	541.25
510.752	1593.25
510.968	465.25
511.184	144.25
511.401	95.25
511.617	90.25
511.833	105.25
512.049	99.25
512.265	79.25
512.481	96.25
512.698	100.25
512.914	90.25
513.13	93.25
513.346	81.25
513.562	112.25
513.778	98.25
