Data from Circ_1986_H10_HRD10591_00077.txt Node
Date: Wed Jan 03 12:15:41 EST 2024
User: Yrep
Spectrometer: HR+D1059
Trigger mode: 1
Integration Time (sec): 1.000000E-1
Scans to average: 1
Electric dark correction enabled: true
Nonlinearity correction enabled: false
Boxcar width: 0
XAxis mode: Wavelengths
Number of Pixels in Spectrum: 2048
>>>>>Begin Spectral Data<<<<<
223.165	-32.5
223.4	-32.5
223.635	-32.5
223.869	-17.5
224.104	-25.5
224.338	-26.5
224.573	-23.5
224.808	-11.5
225.042	-7.5
225.277	-1.5
225.511	-1.5
225.746	10.5
225.98	17.5
226.215	21.5
226.449	24.5
226.683	20.5
226.918	29.5
227.152	23.5
227.387	27.5
227.621	48.5
227.856	39.5
228.09	36.5
228.324	50.5
228.559	47.5
228.793	51.5
229.027	52.5
229.262	60.5
229.496	53.5
229.73	68.5
229.964	86.5
230.199	76.5
230.433	66.5
230.667	100.5
230.901	86.5
231.136	80.5
231.37	74.5
231.604	76.5
231.838	84.5
232.072	75.5
232.306	75.5
232.541	79.5
232.775	88.5
233.009	85.5
233.243	70.5
233.477	70.5
233.711	80.5
233.945	78.5
234.179	99.5
234.413	91.5
234.647	74.5
234.881	80.5
235.115	84.5
235.349	89.5
235.583	86.5
235.817	74.5
236.051	70.5
236.285	66.5
236.519	56.5
236.753	78.5
236.987	82.5
237.221	81.5
237.455	82.5
237.689	68.5
237.922	91.5
238.156	82.5
238.39	78.5
238.624	93.5
238.858	76.5
239.091	84.5
239.325	79.5
239.559	71.5
239.793	96.5
240.027	77.5
240.26	78.5
240.494	81.5
240.728	66.5
240.961	84.5
241.195	82.5
241.429	59.5
241.662	73.5
241.896	88.5
242.13	83.5
242.363	75.5
242.597	68.5
242.83	71.5
243.064	81.5
243.298	68.5
243.531	70.5
243.765	85.5
243.998	68.5
244.232	90.5
244.465	82.5
244.699	84.5
244.932	71.5
245.166	66.5
245.399	71.5
245.633	82.5
245.866	88.5
246.099	87.5
246.333	69.5
246.566	84.5
246.8	78.5
247.033	84.5
247.266	64.5
247.5	68.5
247.733	76.5
247.966	75.5
248.2	75.5
248.433	68.5
248.666	74.5
248.899	92.5
249.133	67.5
249.366	86.5
249.599	92.5
249.832	73.5
250.066	87.5
250.299	91.5
250.532	82.5
250.765	76.5
250.998	78.5
251.231	59.5
251.465	79.5
251.698	71.5
251.931	87.5
252.164	73.5
252.397	64.5
252.63	80.5
252.863	81.5
253.096	78.5
253.329	82.5
253.562	71.5
253.795	80.5
254.028	80.5
254.261	91.5
254.494	70.5
254.727	79.5
254.96	81.5
255.193	79.5
255.426	76.5
255.659	73.5
255.892	88.5
256.124	74.5
256.357	87.5
256.59	90.5
256.823	59.5
257.056	79.5
257.289	84.5
257.521	86.5
257.754	82.5
257.987	76.5
258.22	85.5
258.452	79.5
258.685	77.5
258.918	89.5
259.151	85.5
259.383	73.5
259.616	87.5
259.849	82.5
260.081	79.5
260.314	82.5
260.547	83.5
260.779	84.5
261.012	79.5
261.244	80.5
261.477	91.5
261.71	97.5
261.942	99.5
262.175	106.5
262.407	80.5
262.64	87.5
262.872	82.5
263.105	59.5
263.337	80.5
263.57	88.5
263.802	86.5
264.035	79.5
264.267	75.5
264.499	78.5
264.732	94.5
264.964	82.5
265.197	75.5
265.429	86.5
265.661	86.5
265.894	84.5
266.126	78.5
266.358	78.5
266.591	80.5
266.823	81.5
267.055	73.5
267.287	82.5
267.52	86.5
267.752	81.5
267.984	80.5
268.216	89.5
268.448	91.5
268.681	74.5
268.913	67.5
269.145	75.5
269.377	93.5
269.609	97.5
269.841	86.5
270.073	86.5
270.306	81.5
270.538	79.5
270.77	68.5
271.002	92.5
271.234	89.5
271.466	89.5
271.698	81.5
271.93	85.5
272.162	79.5
272.394	86.5
272.626	87.5
272.858	82.5
273.09	93.5
273.322	91.5
273.553	82.5
273.785	72.5
274.017	80.5
274.249	81.5
274.481	81.5
274.713	95.5
274.945	87.5
275.176	84.5
275.408	89.5
275.64	90.5
275.872	83.5
276.104	107.5
276.335	81.5
276.567	99.5
276.799	98.5
277.031	99.5
277.262	91.5
277.494	79.5
277.726	99.5
277.957	87.5
278.189	84.5
278.421	90.5
278.652	94.5
278.884	82.5
279.115	86.5
279.347	85.5
279.579	90.5
279.81	91.5
280.042	100.5
280.273	104.5
280.505	94.5
280.736	81.5
280.968	82.5
281.199	86.5
281.431	89.5
281.662	79.5
281.894	95.5
282.125	86.5
282.356	93.5
282.588	127.5
282.819	87.5
283.051	90.5
283.282	84.5
283.513	97.5
283.745	71.5
283.976	66.5
284.207	91.5
284.439	62.5
284.67	88.5
284.901	74.5
285.132	67.5
285.364	87.5
285.595	107.5
285.826	84.5
286.057	95.5
286.288	81.5
286.52	84.5
286.751	85.5
286.982	88.5
287.213	95.5
287.444	78.5
287.675	84.5
287.906	94.5
288.138	86.5
288.369	82.5
288.6	84.5
288.831	78.5
289.062	79.5
289.293	107.5
289.524	85.5
289.755	102.5
289.986	91.5
290.217	86.5
290.448	88.5
290.679	80.5
290.91	81.5
291.141	85.5
291.371	90.5
291.602	82.5
291.833	96.5
292.064	87.5
292.295	80.5
292.526	76.5
292.757	86.5
292.987	92.5
293.218	85.5
293.449	94.5
293.68	83.5
293.91	102.5
294.141	86.5
294.372	88.5
294.603	87.5
294.833	86.5
295.064	80.5
295.295	82.5
295.525	104.5
295.756	90.5
295.987	109.5
296.217	126.5
296.448	119.5
296.679	106.5
296.909	90.5
297.14	90.5
297.37	84.5
297.601	85.5
297.831	74.5
298.062	82.5
298.292	91.5
298.523	80.5
298.753	92.5
298.984	82.5
299.214	99.5
299.445	95.5
299.675	92.5
299.905	77.5
300.136	85.5
300.366	90.5
300.597	89.5
300.827	90.5
301.057	87.5
301.288	100.5
301.518	86.5
301.748	103.5
301.979	102.5
302.209	91.5
302.439	86.5
302.669	93.5
302.9	94.5
303.13	81.5
303.36	90.5
303.59	99.5
303.82	98.5
304.051	101.5
304.281	92.5
304.511	91.5
304.741	80.5
304.971	90.5
305.201	98.5
305.431	95.5
305.661	93.5
305.891	95.5
306.121	106.5
306.352	99.5
306.582	103.5
306.812	89.5
307.042	90.5
307.272	96.5
307.502	99.5
307.731	93.5
307.961	86.5
308.191	86.5
308.421	84.5
308.651	91.5
308.881	105.5
309.111	93.5
309.341	97.5
309.571	95.5
309.8	90.5
310.03	95.5
310.26	107.5
310.49	102.5
310.72	107.5
310.949	105.5
311.179	94.5
311.409	95.5
311.639	89.5
311.868	92.5
312.098	108.5
312.328	85.5
312.557	92.5
312.787	110.5
313.017	103.5
313.246	92.5
313.476	89.5
313.706	74.5
313.935	97.5
314.165	92.5
314.394	101.5
314.624	92.5
314.853	106.5
315.083	103.5
315.312	102.5
315.542	97.5
315.771	96.5
316.001	85.5
316.23	96.5
316.46	71.5
316.689	93.5
316.919	92.5
317.148	102.5
317.377	81.5
317.607	94.5
317.836	89.5
318.065	94.5
318.295	101.5
318.524	95.5
318.753	78.5
318.983	100.5
319.212	111.5
319.441	90.5
319.67	102.5
319.9	101.5
320.129	92.5
320.358	108.5
320.587	88.5
320.816	97.5
321.046	81.5
321.275	84.5
321.504	96.5
321.733	108.5
321.962	95.5
322.191	94.5
322.42	86.5
322.649	118.5
322.878	105.5
323.108	118.5
323.337	102.5
323.566	123.5
323.795	150.5
324.024	187.5
324.253	344.5
324.482	740.5
324.71	1425.5
324.939	1980.5
325.168	695.5
325.397	224.5
325.626	145.5
325.855	135.5
326.084	119.5
326.313	130.5
326.542	154.5
326.77	196.5
326.999	408.5
327.228	812.5
327.457	1477.5
327.686	1200.5
327.914	340.5
328.143	192.5
328.372	165.5
328.6	132.5
328.829	106.5
329.058	122.5
329.287	109.5
329.515	103.5
329.744	110.5
329.972	122.5
330.201	161.5
330.43	201.5
330.658	140.5
330.887	130.5
331.115	116.5
331.344	103.5
331.572	94.5
331.801	97.5
332.03	94.5
332.258	95.5
332.486	100.5
332.715	91.5
332.943	95.5
333.172	81.5
333.4	99.5
333.629	101.5
333.857	119.5
334.085	124.5
334.314	161.5
334.542	203.5
334.771	193.5
334.999	122.5
335.227	96.5
335.455	117.5
335.684	89.5
335.912	92.5
336.14	94.5
336.369	102.5
336.597	97.5
336.825	97.5
337.053	92.5
337.281	83.5
337.51	81.5
337.738	90.5
337.966	87.5
338.194	98.5
338.422	99.5
338.65	96.5
338.878	81.5
339.106	90.5
339.334	92.5
339.562	84.5
339.79	80.5
340.018	95.5
340.246	87.5
340.474	98.5
340.702	98.5
340.93	99.5
341.158	98.5
341.386	94.5
341.614	105.5
341.842	87.5
342.07	95.5
342.298	98.5
342.526	94.5
342.754	98.5
342.981	87.5
343.209	91.5
343.437	98.5
343.665	97.5
343.893	92.5
344.12	104.5
344.348	86.5
344.576	83.5
344.804	93.5
345.031	91.5
345.259	99.5
345.487	92.5
345.714	85.5
345.942	98.5
346.17	95.5
346.397	75.5
346.625	92.5
346.853	101.5
347.08	93.5
347.308	95.5
347.535	98.5
347.763	96.5
347.99	96.5
348.218	99.5
348.445	119.5
348.673	96.5
348.9	98.5
349.128	74.5
349.355	83.5
349.583	100.5
349.81	82.5
350.037	85.5
350.265	94.5
350.492	99.5
350.72	80.5
350.947	108.5
351.174	91.5
351.402	93.5
351.629	106.5
351.856	107.5
352.083	98.5
352.311	98.5
352.538	99.5
352.765	105.5
352.992	105.5
353.22	96.5
353.447	108.5
353.674	98.5
353.901	106.5
354.128	86.5
354.355	97.5
354.583	92.5
354.81	89.5
355.037	91.5
355.264	91.5
355.491	86.5
355.718	92.5
355.945	116.5
356.172	106.5
356.399	103.5
356.626	100.5
356.853	102.5
357.08	87.5
357.307	96.5
357.534	105.5
357.761	99.5
357.988	97.5
358.215	93.5
358.441	99.5
358.668	102.5
358.895	96.5
359.122	92.5
359.349	85.5
359.576	84.5
359.802	102.5
360.029	114.5
360.256	104.5
360.483	91.5
360.709	83.5
360.936	97.5
361.163	108.5
361.39	101.5
361.616	83.5
361.843	104.5
362.07	98.5
362.296	105.5
362.523	94.5
362.749	82.5
362.976	88.5
363.203	99.5
363.429	87.5
363.656	92.5
363.882	92.5
364.109	85.5
364.335	102.5
364.562	95.5
364.788	98.5
365.015	112.5
365.241	98.5
365.468	92.5
365.694	103.5
365.92	89.5
366.147	96.5
366.373	86.5
366.599	90.5
366.826	93.5
367.052	86.5
367.278	94.5
367.505	84.5
367.731	89.5
367.957	86.5
368.184	90.5
368.41	103.5
368.636	111.5
368.862	101.5
369.089	92.5
369.315	90.5
369.541	89.5
369.767	88.5
369.993	88.5
370.219	93.5
370.445	82.5
370.672	85.5
370.898	100.5
371.124	91.5
371.35	98.5
371.576	80.5
371.802	89.5
372.028	109.5
372.254	90.5
372.48	79.5
372.706	95.5
372.932	89.5
373.158	76.5
373.384	75.5
373.61	97.5
373.835	87.5
374.061	79.5
374.287	86.5
374.513	82.5
374.739	91.5
374.965	84.5
375.191	87.5
375.416	96.5
375.642	90.5
375.868	90.5
376.094	86.5
376.319	84.5
376.545	86.5
376.771	94.5
376.997	82.5
377.222	94.5
377.448	105.5
377.674	75.5
377.899	92.5
378.125	113.5
378.35	98.5
378.576	83.5
378.802	97.5
379.027	98.5
379.253	82.5
379.478	84.5
379.704	102.5
379.929	94.5
380.155	96.5
380.38	83.5
380.606	99.5
380.831	97.5
381.057	111.5
381.282	95.5
381.507	89.5
381.733	102.5
381.958	112.5
382.184	90.5
382.409	89.5
382.634	98.5
382.86	104.5
383.085	95.5
383.31	104.5
383.535	91.5
383.761	106.5
383.986	90.5
384.211	92.5
384.436	108.5
384.662	101.5
384.887	91.5
385.112	115.5
385.337	98.5
385.562	117.5
385.787	99.5
386.013	107.5
386.238	116.5
386.463	110.5
386.688	98.5
386.913	100.5
387.138	104.5
387.363	111.5
387.588	98.5
387.813	99.5
388.038	97.5
388.263	99.5
388.488	112.5
388.713	85.5
388.938	84.5
389.163	99.5
389.387	90.5
389.612	81.5
389.837	95.5
390.062	96.5
390.287	98.5
390.512	77.5
390.736	100.5
390.961	86.5
391.186	100.5
391.411	92.5
391.636	83.5
391.86	72.5
392.085	86.5
392.31	87.5
392.534	92.5
392.759	83.5
392.984	92.5
393.208	69.5
393.433	89.5
393.658	96.5
393.882	74.5
394.107	86.5
394.331	80.5
394.556	81.5
394.78	75.5
395.005	80.5
395.229	74.5
395.454	92.5
395.678	96.5
395.903	94.5
396.127	94.5
396.352	84.5
396.576	92.5
396.801	92.5
397.025	90.5
397.249	96.5
397.474	93.5
397.698	93.5
397.922	81.5
398.147	89.5
398.371	80.5
398.595	88.5
398.82	92.5
399.044	88.5
399.268	89.5
399.492	74.5
399.717	103.5
399.941	83.5
400.165	105.5
400.389	83.5
400.613	88.5
400.837	76.5
401.062	86.5
401.286	78.5
401.51	96.5
401.734	87.5
401.958	84.5
402.182	119.5
402.406	153.5
402.63	113.5
402.854	87.5
403.078	78.5
403.302	70.5
403.526	83.5
403.75	96.5
403.974	83.5
404.198	84.5
404.422	82.5
404.645	95.5
404.869	98.5
405.093	100.5
405.317	106.5
405.541	94.5
405.765	100.5
405.988	114.5
406.212	174.5
406.436	189.5
406.66	130.5
406.883	94.5
407.107	97.5
407.331	92.5
407.555	93.5
407.778	103.5
408.002	81.5
408.226	94.5
408.449	84.5
408.673	90.5
408.896	94.5
409.12	94.5
409.344	85.5
409.567	85.5
409.791	83.5
410.014	91.5
410.238	95.5
410.461	83.5
410.685	78.5
410.908	97.5
411.132	102.5
411.355	89.5
411.578	83.5
411.802	91.5
412.025	82.5
412.249	86.5
412.472	95.5
412.695	82.5
412.919	92.5
413.142	91.5
413.365	89.5
413.589	95.5
413.812	96.5
414.035	87.5
414.258	103.5
414.482	78.5
414.705	94.5
414.928	86.5
415.151	100.5
415.374	90.5
415.597	104.5
415.821	90.5
416.044	95.5
416.267	88.5
416.49	78.5
416.713	96.5
416.936	89.5
417.159	83.5
417.382	92.5
417.605	98.5
417.828	94.5
418.051	93.5
418.274	88.5
418.497	96.5
418.72	83.5
418.943	93.5
419.166	85.5
419.389	88.5
419.611	90.5
419.834	85.5
420.057	91.5
420.28	93.5
420.503	91.5
420.726	96.5
420.948	90.5
421.171	92.5
421.394	103.5
421.617	85.5
421.839	81.5
422.062	95.5
422.285	104.5
422.507	100.5
422.73	97.5
422.953	92.5
423.175	67.5
423.398	75.5
423.621	95.5
423.843	81.5
424.066	96.5
424.288	94.5
424.511	92.5
424.733	106.5
424.956	107.5
425.178	94.5
425.401	98.5
425.623	96.5
425.846	94.5
426.068	89.5
426.291	100.5
426.513	90.5
426.735	84.5
426.958	99.5
427.18	104.5
427.402	123.5
427.625	131.5
427.847	124.5
428.069	130.5
428.292	95.5
428.514	93.5
428.736	84.5
428.958	87.5
429.181	91.5
429.403	67.5
429.625	82.5
429.847	91.5
430.069	91.5
430.292	98.5
430.514	87.5
430.736	83.5
430.958	97.5
431.18	99.5
431.402	84.5
431.624	83.5
431.846	83.5
432.068	89.5
432.29	80.5
432.512	91.5
432.734	94.5
432.956	91.5
433.178	101.5
433.4	98.5
433.622	90.5
433.844	103.5
434.066	92.5
434.287	72.5
434.509	86.5
434.731	79.5
434.953	97.5
435.175	74.5
435.397	98.5
435.618	95.5
435.84	87.5
436.062	119.5
436.284	121.5
436.505	107.5
436.727	100.5
436.949	97.5
437.17	75.5
437.392	84.5
437.614	87.5
437.835	107.5
438.057	100.5
438.278	116.5
438.5	94.5
438.721	125.5
438.943	98.5
439.165	94.5
439.386	85.5
439.608	90.5
439.829	104.5
440.05	112.5
440.272	131.5
440.493	98.5
440.715	88.5
440.936	70.5
441.158	86.5
441.379	98.5
441.6	86.5
441.822	89.5
442.043	94.5
442.264	98.5
442.486	90.5
442.707	93.5
442.928	87.5
443.149	107.5
443.371	109.5
443.592	110.5
443.813	102.5
444.034	112.5
444.255	91.5
444.476	106.5
444.698	97.5
444.919	89.5
445.14	123.5
445.361	108.5
445.582	106.5
445.803	123.5
446.024	124.5
446.245	122.5
446.466	99.5
446.687	72.5
446.908	84.5
447.129	99.5
447.35	86.5
447.571	93.5
447.792	85.5
448.013	94.5
448.234	108.5
448.455	98.5
448.675	103.5
448.896	99.5
449.117	90.5
449.338	97.5
449.559	112.5
449.779	116.5
450	66.5
450.221	81.5
450.442	98.5
450.662	102.5
450.883	111.5
451.104	117.5
451.324	91.5
451.545	91.5
451.766	72.5
451.986	94.5
452.207	86.5
452.428	96.5
452.648	101.5
452.869	98.5
453.089	98.5
453.31	108.5
453.53	83.5
453.751	77.5
453.971	100.5
454.192	105.5
454.412	89.5
454.633	89.5
454.853	82.5
455.073	83.5
455.294	84.5
455.514	92.5
455.734	81.5
455.955	77.5
456.175	101.5
456.395	87.5
456.616	81.5
456.836	74.5
457.056	84.5
457.276	86.5
457.497	86.5
457.717	83.5
457.937	95.5
458.157	93.5
458.377	99.5
458.598	97.5
458.818	131.5
459.038	132.5
459.258	95.5
459.478	80.5
459.698	86.5
459.918	88.5
460.138	87.5
460.358	86.5
460.578	87.5
460.798	98.5
461.018	101.5
461.238	69.5
461.458	90.5
461.678	90.5
461.898	95.5
462.118	86.5
462.338	82.5
462.558	82.5
462.777	86.5
462.997	82.5
463.217	91.5
463.437	95.5
463.657	99.5
463.876	85.5
464.096	91.5
464.316	102.5
464.536	99.5
464.755	91.5
464.975	115.5
465.195	151.5
465.414	118.5
465.634	97.5
465.854	91.5
466.073	89.5
466.293	90.5
466.512	87.5
466.732	93.5
466.951	87.5
467.171	90.5
467.391	91.5
467.61	99.5
467.829	96.5
468.049	119.5
468.268	123.5
468.488	100.5
468.707	104.5
468.927	90.5
469.146	78.5
469.365	86.5
469.585	89.5
469.804	102.5
470.023	91.5
470.243	93.5
470.462	96.5
470.681	85.5
470.901	86.5
471.12	107.5
471.339	91.5
471.558	91.5
471.777	94.5
471.997	102.5
472.216	171.5
472.435	266.5
472.654	116.5
472.873	101.5
473.092	82.5
473.311	78.5
473.53	90.5
473.749	92.5
473.968	101.5
474.187	105.5
474.406	89.5
474.625	95.5
474.844	91.5
475.063	74.5
475.282	87.5
475.501	87.5
475.72	76.5
475.939	85.5
476.158	86.5
476.377	90.5
476.596	90.5
476.814	92.5
477.033	76.5
477.252	92.5
477.471	76.5
477.69	82.5
477.908	94.5
478.127	99.5
478.346	89.5
478.564	82.5
478.783	101.5
479.002	74.5
479.22	85.5
479.439	94.5
479.658	108.5
479.876	83.5
480.095	102.5
480.313	94.5
480.532	91.5
480.751	126.5
480.969	164.5
481.188	438.5
481.406	305.5
481.624	112.5
481.843	95.5
482.061	84.5
482.28	94.5
482.498	74.5
482.717	88.5
482.935	91.5
483.153	80.5
483.372	96.5
483.59	76.5
483.808	81.5
484.027	86.5
484.245	92.5
484.463	95.5
484.681	86.5
484.9	103.5
485.118	97.5
485.336	90.5
485.554	107.5
485.772	92.5
485.99	100.5
486.209	87.5
486.427	107.5
486.645	96.5
486.863	99.5
487.081	100.5
487.299	85.5
487.517	97.5
487.735	89.5
487.953	102.5
488.171	101.5
488.389	88.5
488.607	107.5
488.825	89.5
489.043	83.5
489.261	101.5
489.479	87.5
489.696	100.5
489.914	95.5
490.132	80.5
490.35	94.5
490.568	84.5
490.786	92.5
491.003	93.5
491.221	100.5
491.439	102.5
491.657	92.5
491.874	94.5
492.092	81.5
492.31	96.5
492.527	96.5
492.745	90.5
492.963	75.5
493.18	101.5
493.398	89.5
493.615	98.5
493.833	92.5
494.05	94.5
494.268	74.5
494.485	97.5
494.703	85.5
494.92	88.5
495.138	93.5
495.355	80.5
495.573	94.5
495.79	81.5
496.008	105.5
496.225	104.5
496.442	81.5
496.66	84.5
496.877	92.5
497.094	98.5
497.312	93.5
497.529	89.5
497.746	104.5
497.963	83.5
498.181	91.5
498.398	82.5
498.615	82.5
498.832	96.5
499.049	88.5
499.267	98.5
499.484	89.5
499.701	86.5
499.918	94.5
500.135	75.5
500.352	80.5
500.569	81.5
500.786	94.5
501.003	78.5
501.22	89.5
501.437	94.5
501.654	89.5
501.871	107.5
502.088	71.5
502.305	92.5
502.522	80.5
502.739	90.5
502.956	104.5
503.172	94.5
503.389	89.5
503.606	102.5
503.823	94.5
504.04	96.5
504.256	80.5
504.473	86.5
504.69	83.5
504.907	90.5
505.123	85.5
505.34	87.5
505.557	92.5
505.773	87.5
505.99	96.5
506.207	95.5
506.423	84.5
506.64	98.5
506.856	86.5
507.073	102.5
507.289	87.5
507.506	99.5
507.722	92.5
507.939	105.5
508.155	85.5
508.372	75.5
508.588	90.5
508.805	92.5
509.021	101.5
509.238	83.5
509.454	111.5
509.67	88.5
509.887	108.5
510.103	121.5
510.319	203.5
510.536	616.5
510.752	1881.5
510.968	526.5
511.184	130.5
511.401	114.5
511.617	100.5
511.833	83.5
512.049	92.5
512.265	96.5
512.481	88.5
512.698	79.5
512.914	89.5
513.13	81.5
513.346	84.5
513.562	89.5
513.778	93.5
513.994	92.5
514.21	94.5
514.426	122.5
514.642	124.5
514.858	121.5
515.074	144.5
515.29	361.5
515.506	1200.5
515.721	432.5
515.937	134.5
516.153	106.5
516.369	95.5
516.585	95.5
516.801	96.5
517.016	99.5
517.232	86.5
517.448	100.5
517.664	93.5
517.879	86.5
518.095	99.5
518.311	98.5
518.527	91.5
518.742	88.5
518.958	98.5
519.173	79.5
519.389	91.5
519.605	94.5
519.82	90.5
520.036	94.5
520.251	131.5
520.467	97.5
520.682	118.5
520.898	104.5
521.113	102.5
521.329	127.5
521.544	177.5
521.76	480.5
521.975	1936.5
522.19	1139.5
522.406	262.5
522.621	115.5
522.836	87.5
523.052	98.5
523.267	92.5
523.482	100.5
523.698	107.5
523.913	105.5
524.128	94.5
524.343	86.5
524.559	96.5
524.774	93.5
524.989	97.5
525.204	118.5
525.419	94.5
525.634	80.5
525.849	99.5
526.064	85.5
526.28	90.5
526.495	84.5
526.71	89.5
526.925	98.5
527.14	94.5
527.355	84.5
527.57	96.5
527.785	83.5
527.999	89.5
528.214	94.5
528.429	82.5
528.644	86.5
528.859	80.5
529.074	80.5
529.289	123.5
529.503	158.5
529.718	85.5
529.933	94.5
530.148	94.5
530.363	83.5
530.577	89.5
530.792	92.5
531.007	83.5
531.221	94.5
531.436	91.5
531.651	97.5
531.865	92.5
532.08	89.5
532.295	90.5
532.509	107.5
532.724	87.5
532.938	94.5
533.153	105.5
533.367	93.5
533.582	95.5
533.796	99.5
534.011	87.5
534.225	95.5
534.44	90.5
534.654	86.5
534.868	81.5
535.083	92.5
535.297	92.5
535.511	105.5
535.726	104.5
