Data from Circ_1986_H10_HRD10591_00068.txt Node
Date: Wed Jan 03 12:15:39 EST 2024
User: Yrep
Spectrometer: HR+D1059
Trigger mode: 1
Integration Time (sec): 1.000000E-1
Scans to average: 1
Electric dark correction enabled: true
Nonlinearity correction enabled: false
Boxcar width: 0
XAxis mode: Wavelengths
Number of Pixels in Spectrum: 2048
>>>>>Begin Spectral Data<<<<<
223.165	-23
223.4	-23
223.635	-23
223.869	-25
224.104	-31
224.338	-18
224.573	-30
224.808	-8
225.042	6
225.277	-7
225.511	4
225.746	6
225.98	7
226.215	11
226.449	19
226.683	23
226.918	27
227.152	39
227.387	32
227.621	39
227.856	32
228.09	40
228.324	41
228.559	51
228.793	173
229.027	434
229.262	513
229.496	605
229.73	795
229.964	796
230.199	533
230.433	482
230.667	477
230.901	454
231.136	438
231.37	454
231.604	454
231.838	478
232.072	459
232.306	482
232.541	483
232.775	477
233.009	478
233.243	485
233.477	512
233.711	496
233.945	503
234.179	532
234.413	528
234.647	514
234.881	540
235.115	533
235.349	550
235.583	567
235.817	594
236.051	663
236.285	638
236.519	614
236.753	692
236.987	894
237.221	1377
237.455	1504
237.689	867
237.922	744
238.156	743
238.39	685
238.624	673
238.858	649
239.091	675
239.325	661
239.559	696
239.793	703
240.027	761
240.26	926
240.494	973
240.728	979
240.961	938
241.195	854
241.429	815
241.662	807
241.896	801
242.13	808
242.363	833
242.597	847
242.83	857
243.064	836
243.298	874
243.531	872
243.765	863
243.998	892
244.232	892
244.465	905
244.699	944
244.932	950
245.166	936
245.399	927
245.633	922
245.866	960
246.099	969
246.333	1008
246.566	1001
246.8	1005
247.033	1052
247.266	1101
247.5	1156
247.733	1156
247.966	1170
248.2	1193
248.433	1192
248.666	1252
248.899	1376
249.133	1509
249.366	1493
249.599	1405
249.832	1305
250.066	1359
250.299	1508
250.532	1823
250.765	1939
250.998	1962
251.231	1788
251.465	1613
251.698	1537
251.931	1521
252.164	1470
252.397	1527
252.63	1519
252.863	1602
253.096	1689
253.329	1787
253.562	1681
253.795	1618
254.028	1588
254.261	1677
254.494	1843
254.727	2205
254.96	2308
255.193	2037
255.426	1944
255.659	1964
255.892	2284
256.124	2726
256.357	2529
256.59	2138
256.823	1858
257.056	1793
257.289	1725
257.521	1728
257.754	1681
257.987	1627
258.22	1585
258.452	1628
258.685	1675
258.918	1620
259.151	1703
259.383	1738
259.616	1722
259.849	1804
260.081	1970
260.314	2145
260.547	2064
260.779	1900
261.012	1797
261.244	1752
261.477	1696
261.71	1731
261.942	1817
262.175	1853
262.407	1743
262.64	1691
262.872	1665
263.105	1654
263.337	1679
263.57	1745
263.802	1734
264.035	1699
264.267	1682
264.499	1676
264.732	1732
264.964	1723
265.197	1707
265.429	1755
265.661	1727
265.894	1744
266.126	1773
266.358	1773
266.591	1854
266.823	1897
267.055	1854
267.287	1869
267.52	1872
267.752	1876
267.984	1862
268.216	1875
268.448	1955
268.681	2025
268.913	2104
269.145	2324
269.377	2381
269.609	2292
269.841	2248
270.073	2336
270.306	2611
270.538	2768
270.77	2677
271.002	2473
271.234	2445
271.466	2609
271.698	2729
271.93	2734
272.162	2749
272.394	2639
272.626	2485
272.858	2359
273.09	2310
273.322	2293
273.553	2235
273.785	2236
274.017	2270
274.249	2262
274.481	2299
274.713	2324
274.945	2337
275.176	2301
275.408	2287
275.64	2327
275.872	2288
276.104	2347
276.335	2344
276.567	2461
276.799	2606
277.031	2842
277.262	2910
277.494	2840
277.726	2600
277.957	2542
278.189	2496
278.421	2364
278.652	2409
278.884	2394
279.115	2408
279.347	2423
279.579	2454
279.81	2418
280.042	2477
280.273	2527
280.505	2518
280.736	2470
280.968	2464
281.199	2508
281.431	2519
281.662	2526
281.894	2511
282.125	2530
282.356	2686
282.588	2810
282.819	2706
283.051	2590
283.282	2519
283.513	2555
283.745	2653
283.976	2678
284.207	2689
284.439	2641
284.67	2624
284.901	2640
285.132	2648
285.364	2606
285.595	2668
285.826	2621
286.057	2704
286.288	2657
286.52	2692
286.751	2699
286.982	2743
287.213	2754
287.444	2749
287.675	2799
287.906	2895
288.138	2961
288.369	2898
288.6	2867
288.831	2895
289.062	2863
289.293	2854
289.524	2835
289.755	2823
289.986	2838
290.217	2847
290.448	2822
290.679	2828
290.91	2807
291.141	2827
291.371	2813
291.602	2788
291.833	2782
292.064	2782
292.295	2805
292.526	2829
292.757	2803
292.987	2864
293.218	2853
293.449	2905
293.68	2834
293.91	2861
294.141	2866
294.372	2805
294.603	2838
294.833	2813
295.064	2838
295.295	2861
295.525	2826
295.756	2924
295.987	3022
296.217	3159
296.448	3093
296.679	2914
296.909	2911
297.14	2935
297.37	2971
297.601	3025
297.831	3005
298.062	2994
298.292	3040
298.523	3123
298.753	3105
298.984	3015
299.214	3095
299.445	3087
299.675	3112
299.905	3140
300.136	3080
300.366	3122
300.597	3191
300.827	3241
301.057	3312
301.288	3309
301.518	3299
301.748	3289
301.979	3303
302.209	3342
302.439	3310
302.669	3215
302.9	3266
303.13	3193
303.36	3322
303.59	3305
303.82	3369
304.051	3316
304.281	3339
304.511	3231
304.741	3275
304.971	3239
305.201	3184
305.431	3217
305.661	3286
305.891	3188
306.121	3176
306.352	3294
306.582	3240
306.812	3233
307.042	3260
307.272	3221
307.502	3245
307.731	3266
307.961	3264
308.191	3276
308.421	3240
308.651	3248
308.881	3293
309.111	3325
309.341	3241
309.571	3348
309.8	3439
310.03	3553
310.26	3526
310.49	3520
310.72	3601
310.949	3673
311.179	3683
311.409	3525
311.639	3576
311.868	3552
312.098	3617
312.328	3683
312.557	3816
312.787	3892
313.017	3814
313.246	3784
313.476	3577
313.706	3671
313.935	3725
314.165	3806
314.394	3901
314.624	3833
314.853	3749
315.083	3713
315.312	3697
315.542	3726
315.771	3665
316.001	3614
316.23	3607
316.46	3620
316.689	3695
316.919	3709
317.148	3746
317.377	3716
317.607	3709
317.836	3693
318.065	3620
318.295	3623
318.524	3629
318.753	3630
318.983	3640
319.212	3644
319.441	3667
319.67	3699
319.9	3631
320.129	3607
320.358	3707
320.587	3762
320.816	3671
321.046	3779
321.275	3771
321.504	3772
321.733	3804
321.962	3810
322.191	3919
322.42	4067
322.649	4065
322.878	4192
323.108	4253
323.337	4458
323.566	4529
323.795	4805
324.024	5256
324.253	6738
324.482	10012
324.71	14568
324.939	15625
325.168	12302
325.397	6243
325.626	5085
325.855	4791
326.084	4700
326.313	4747
326.542	4823
326.77	5366
326.999	6625
327.228	9485
327.457	13791
327.686	13320
327.914	7274
328.143	6082
328.372	5911
328.6	5502
328.829	5316
329.058	5511
329.287	5508
329.515	5241
329.744	5272
329.972	5679
330.201	6386
330.43	6879
330.658	6289
330.887	6061
331.115	5559
331.344	5070
331.572	5003
331.801	5088
332.03	5056
332.258	5006
332.486	5041
332.715	5118
332.943	5362
333.172	5485
333.4	5698
333.629	5901
333.857	6199
334.085	6648
334.314	7368
334.542	8382
334.771	7916
334.999	6323
335.227	5723
335.455	5384
335.684	5266
335.912	5147
336.14	5004
336.369	4972
336.597	4965
336.825	4946
337.053	4901
337.281	4771
337.51	4717
337.738	4719
337.966	4680
338.194	4697
338.422	4586
338.65	4460
338.878	4479
339.106	4495
339.334	4485
339.562	4340
339.79	4350
340.018	4323
340.246	4311
340.474	4392
340.702	4343
340.93	4325
341.158	4324
341.386	4316
341.614	4370
341.842	4244
342.07	4211
342.298	4232
342.526	4210
342.754	4214
342.981	4239
343.209	4378
343.437	4596
343.665	4764
343.893	4958
344.12	5078
344.348	4857
344.576	4701
344.804	4631
345.031	4497
345.259	4481
345.487	4376
345.714	4305
345.942	4147
346.17	4174
346.397	4092
346.625	4103
346.853	4080
347.08	4094
347.308	4124
347.535	4220
347.763	4182
347.99	4183
348.218	4210
348.445	4255
348.673	4131
348.9	4050
349.128	4024
349.355	4044
349.583	3991
349.81	3936
350.037	3997
350.265	4000
350.492	3998
350.72	4004
350.947	3947
351.174	4073
351.402	4161
351.629	4115
351.856	4093
352.083	4118
352.311	4141
352.538	4138
352.765	4121
352.992	4091
353.22	3974
353.447	4055
353.674	3949
353.901	3887
354.128	3860
354.355	3866
354.583	3908
354.81	3889
355.037	3824
355.264	3824
355.491	3879
355.718	3867
355.945	3917
356.172	3829
356.399	3850
356.626	3907
356.853	3922
357.08	3857
357.307	3891
357.534	3851
357.761	3856
357.988	3958
358.215	3854
358.441	3899
358.668	3948
358.895	3952
359.122	3942
359.349	4064
359.576	4173
359.802	4303
360.029	4446
360.256	4439
360.483	4284
360.709	4148
360.936	4050
361.163	4125
361.39	4150
361.616	4168
361.843	3997
362.07	4101
362.296	4108
362.523	4077
362.749	4112
362.976	3980
363.203	3958
363.429	3897
363.656	4041
363.882	3963
364.109	3973
364.335	3915
364.562	3963
364.788	3991
365.015	3997
365.241	3891
365.468	3980
365.694	4027
365.92	3976
366.147	3968
366.373	3936
366.599	3908
366.826	3855
367.052	3925
367.278	3965
367.505	3976
367.731	4006
367.957	3968
368.184	4012
368.41	4055
368.636	4161
368.862	4201
369.089	4075
369.315	4084
369.541	4030
369.767	4091
369.993	4080
370.219	4112
370.445	4142
370.672	4137
370.898	4157
371.124	4209
371.35	4243
371.576	4198
371.802	4216
372.028	4192
372.254	4175
372.48	4209
372.706	4302
372.932	4331
373.158	4305
373.384	4239
373.61	4262
373.835	4294
374.061	4288
374.287	4302
374.513	4403
374.739	4490
374.965	4584
375.191	4588
375.416	4559
375.642	4344
375.868	4333
376.094	4372
376.319	4271
376.545	4271
376.771	4316
376.997	4154
377.222	4229
377.448	4163
377.674	4216
377.899	4187
378.125	4180
378.35	4142
378.576	4206
378.802	4138
379.027	4144
379.253	4208
379.478	4168
379.704	4166
379.929	4211
380.155	4213
380.38	4181
380.606	4256
380.831	4235
381.057	4270
381.282	4218
381.507	4201
381.733	4340
381.958	4271
382.184	4382
382.409	4358
382.634	4453
382.86	4448
383.085	4504
383.31	4498
383.535	4659
383.761	4658
383.986	4793
384.211	4836
384.436	4927
384.662	4984
384.887	5006
385.112	5025
385.337	5054
385.562	5035
385.787	5092
386.013	5199
386.238	5186
386.463	5152
386.688	5145
386.913	5038
387.138	5031
387.363	5019
387.588	4951
387.813	5011
388.038	4991
388.263	5038
388.488	5072
388.713	5045
388.938	5058
389.163	4991
389.387	4990
389.612	4944
389.837	5003
390.062	4974
390.287	4959
390.512	4929
390.736	4963
390.961	5122
391.186	5207
391.411	5333
391.636	5380
391.86	5563
392.085	5632
392.31	5502
392.534	5404
392.759	5322
392.984	5259
393.208	5266
393.433	5246
393.658	5199
393.882	5222
394.107	5211
394.331	5311
394.556	5265
394.78	5314
395.005	5378
395.229	5397
395.454	5531
395.678	5632
395.903	5689
396.127	5743
396.352	5516
396.576	5369
396.801	5334
397.025	5414
397.249	5511
397.474	5630
397.698	5637
397.922	5749
398.147	5915
398.371	6018
398.595	6061
398.82	6349
399.044	6895
399.268	7674
399.492	8675
399.717	9324
399.941	9073
400.165	8463
400.389	7805
400.613	7109
400.837	6602
401.062	6438
401.286	6359
401.51	6402
401.734	6262
401.958	6414
402.182	6492
402.406	6653
402.63	6636
402.854	6714
403.078	6875
403.302	7057
403.526	7119
403.75	7151
403.974	7334
404.198	7289
404.422	7375
404.645	7386
404.869	7432
405.093	7867
405.317	8359
405.541	8239
405.765	7563
405.988	7229
406.212	7382
406.436	7391
406.66	7636
406.883	7539
407.107	8013
407.331	8637
407.555	9127
407.778	8781
408.002	8130
408.226	7709
408.449	7584
408.673	7446
408.896	7599
409.12	7740
409.344	7388
409.567	7031
409.791	6982
410.014	6856
410.238	6794
410.461	6779
410.685	6848
410.908	6997
411.132	7168
411.355	7235
411.578	6863
411.802	6755
412.025	6797
412.249	7040
412.472	7524
412.695	8033
412.919	7281
413.142	6924
413.365	6636
413.589	6629
413.812	6440
414.035	6265
414.258	6320
414.482	6372
414.705	6419
414.928	6296
415.151	6327
415.374	6254
415.597	6260
415.821	6196
416.044	6190
416.267	6179
416.49	6187
416.713	6094
416.936	6217
417.159	6237
417.382	6320
417.605	6370
417.828	6508
418.051	6529
418.274	6412
418.497	6323
418.72	6436
418.943	6312
419.166	6771
419.389	7192
419.611	7125
419.834	6971
420.057	6972
420.28	7008
420.503	6835
420.726	6726
420.948	6718
421.171	6973
421.394	6998
421.617	6508
421.839	6409
422.062	6530
422.285	6643
422.507	7343
422.73	7892
422.953	7227
423.175	6831
423.398	6892
423.621	6923
423.843	7077
424.066	7017
424.288	6932
424.511	7048
424.733	7509
424.956	8045
425.178	7599
425.401	7759
425.623	7527
425.846	6663
426.068	6503
426.291	6439
426.513	6484
426.735	6588
426.958	6925
427.18	7769
427.402	8897
427.625	9019
427.847	7991
428.069	7491
428.292	6664
428.514	6111
428.736	5916
428.958	6033
429.181	5698
429.403	5676
429.625	5924
429.847	6218
430.069	6781
430.292	6356
430.514	5735
430.736	5717
430.958	5685
431.18	5599
431.402	5605
431.624	5577
431.846	5620
432.068	5622
432.29	5714
432.512	5606
432.734	5720
432.956	5663
433.178	5816
433.4	5763
433.622	5601
433.844	5614
434.066	5686
434.287	5675
434.509	5960
434.731	6203
434.953	6296
435.175	6528
435.397	6567
435.618	6400
435.84	6807
436.062	7680
436.284	7528
436.505	6447
436.727	6114
436.949	5783
437.17	5721
437.392	5710
437.614	5831
437.835	6276
438.057	7158
438.278	7777
438.5	7647
438.721	8540
438.943	7485
439.165	6253
439.386	6151
439.608	6136
439.829	6260
440.05	6587
440.272	6910
440.493	6307
440.715	6013
440.936	6027
441.158	5975
441.379	6095
441.6	6393
441.822	6719
442.043	7091
442.264	7872
442.486	7477
442.707	6716
442.928	6587
443.149	6743
443.371	6913
443.592	7487
443.813	8550
444.034	8399
444.255	7344
444.476	7127
444.698	7313
444.919	7381
445.14	7225
445.361	7077
445.582	7235
445.803	7780
446.024	8483
446.245	8055
446.466	7303
446.687	6267
446.908	6011
447.129	5705
447.35	5574
447.571	5488
447.792	5405
448.013	5540
448.234	5656
448.455	6318
448.675	7582
448.896	7996
449.117	6566
449.338	6783
449.559	8004
449.779	8321
450	6362
450.221	5691
450.442	5494
450.662	5370
450.883	5438
451.104	5475
451.324	5333
451.545	5243
451.766	5081
451.986	5027
452.207	4965
452.428	4949
452.648	4986
452.869	5009
453.089	5094
453.31	5204
453.53	4959
453.751	4936
453.971	4996
454.192	5045
454.412	4912
454.633	4803
454.853	4774
455.073	4782
455.294	5195
455.514	5809
455.734	5259
455.955	4773
456.175	4644
456.395	4525
456.616	4510
456.836	4537
457.056	4513
457.276	4484
457.497	4660
457.717	4632
457.937	4727
458.157	4796
458.377	4871
458.598	5176
458.818	5801
459.038	6503
459.258	6499
459.478	5824
459.698	5673
459.918	5736
460.138	5909
460.358	6161
460.578	6114
460.798	6237
461.018	6195
461.238	6129
461.458	6061
461.678	5977
461.898	6171
462.118	6186
462.338	6598
462.558	6683
462.777	7023
462.997	7432
463.217	7918
463.437	7730
463.657	7126
463.876	6903
464.096	6958
464.316	6980
464.536	7046
464.755	6779
464.975	6713
465.195	6821
465.414	6823
465.634	6061
465.854	5667
466.073	5472
466.293	5373
466.512	5267
466.732	5142
466.951	5176
467.171	5147
467.391	5207
467.61	5295
467.829	5276
468.049	5429
468.268	5488
468.488	5110
468.707	4987
468.927	4951
469.146	4975
469.365	4993
469.585	5051
469.804	5206
470.023	5425
470.243	5299
470.462	5397
470.681	5522
470.901	5461
471.12	5317
471.339	5298
471.558	5266
471.777	5213
471.997	5180
472.216	5653
472.435	6677
472.654	5851
472.873	5328
473.092	5167
473.311	5131
473.53	5102
473.749	5132
473.968	5649
474.187	6641
474.406	6181
474.625	5229
474.844	5101
475.063	4998
475.282	5029
475.501	5022
475.72	5095
475.939	5137
476.158	5181
476.377	5147
476.596	5218
476.814	5303
477.033	5397
477.252	5419
477.471	5515
477.69	5554
477.908	5716
478.127	5820
478.346	5918
478.564	5933
478.783	6133
479.002	6222
479.22	6252
479.439	6287
479.658	6444
479.876	6443
480.095	6737
480.313	7206
480.532	7104
480.751	7080
480.969	7473
481.188	9376
481.406	9157
481.624	7460
481.843	6696
482.061	6441
482.28	6252
482.498	6158
482.717	6009
482.935	6070
483.153	5908
483.372	5915
483.59	5984
483.808	5878
484.027	5912
484.245	5893
484.463	5954
484.681	6008
484.9	6088
485.118	6238
485.336	6091
485.554	6206
485.772	6263
485.99	6300
486.209	6371
486.427	6339
486.645	6407
486.863	6445
487.081	6420
487.299	6440
487.517	6306
487.735	6314
487.953	6257
488.171	6353
488.389	6412
488.607	6361
488.825	6394
489.043	6414
489.261	6463
489.479	6529
489.696	6583
489.914	6698
490.132	6808
490.35	6802
490.568	6856
490.786	7075
491.003	7217
491.221	7313
491.439	7515
491.657	7619
491.874	7627
492.092	7759
492.31	7743
492.527	7763
492.745	7910
492.963	7969
493.18	7935
493.398	7954
493.615	8067
493.833	8006
494.05	7957
494.268	7858
494.485	7862
494.703	7762
494.92	7721
495.138	7721
495.355	7688
495.573	7710
495.79	7715
496.008	7739
496.225	7678
496.442	7617
496.66	7695
496.877	7709
497.094	7812
497.312	7932
497.529	8152
497.746	8238
497.963	8396
498.181	8894
498.398	9093
498.615	9475
498.832	9864
499.049	10321
499.267	11005
499.484	11709
499.701	12468
499.918	13186
500.135	14109
500.352	14651
500.569	14838
500.786	14761
501.003	14345
501.22	13659
501.437	12881
501.654	12121
501.871	11365
502.088	10683
502.305	10093
502.522	9547
502.739	9200
502.956	8757
503.172	8586
503.389	8196
503.606	8120
503.823	8031
504.04	7949
504.256	8032
504.473	8149
504.69	8326
504.907	7880
505.123	7532
505.34	7369
505.557	7223
505.773	7077
505.99	7019
506.207	6949
506.423	6935
506.64	6804
506.856	6667
507.073	6663
507.289	6582
507.506	6498
507.722	6617
507.939	6622
508.155	6478
508.372	6265
508.588	6223
508.805	6209
509.021	6313
509.238	6431
509.454	6438
509.67	6382
509.887	6198
510.103	6175
510.319	6244
510.536	7407
510.752	10492
510.968	7246
511.184	6056
511.401	6018
511.617	6063
511.833	6181
512.049	6364
512.265	6167
512.481	5996
512.698	5915
512.914	5967
513.13	5833
513.346	5812
513.562	5867
513.778	5832
513.994	5952
514.21	5907
514.426	6089
514.642	6405
514.858	6521
515.074	6883
515.29	8155
515.506	10587
515.721	7835
515.937	6656
516.153	6547
516.369	6458
516.585	6590
516.801	6610
517.016	6871
517.232	7092
517.448	7255
517.664	7482
517.879	7399
518.095	7271
518.311	7193
518.527	6934
518.742	6744
518.958	6518
519.173	6260
519.389	6180
519.605	6086
519.82	5952
520.036	6127
520.251	6163
520.467	6244
520.682	6182
520.898	6164
521.113	6271
521.329	6510
521.544	7062
521.76	8929
521.975	13253
522.19	10287
522.406	6738
522.621	5856
522.836	5598
523.052	5430
523.267	5217
523.482	5171
523.698	5161
523.913	5139
524.128	5000
524.343	4987
524.559	4903
524.774	4868
524.989	4866
525.204	4963
525.419	4973
525.634	4852
525.849	4864
526.064	4787
526.28	4767
526.495	4780
526.71	4680
526.925	4696
527.14	4747
527.355	4664
527.57	4639
527.785	4693
527.999	4700
528.214	4712
528.429	4729
528.644	4701
528.859	4731
529.074	4714
529.289	4938
529.503	5335
529.718	5110
529.933	4875
530.148	4792
530.363	4655
530.577	4676
530.792	4621
531.007	4603
531.221	4663
531.436	4610
531.651	4637
531.865	4595
532.08	4600
532.295	4573
532.509	4649
532.724	4564
532.938	4602
533.153	4572
533.367	4544
533.582	4542
533.796	4524
534.011	4541
534.225	4574
534.44	4480
534.654	4492
534.868	4429
535.083	4500
535.297	4385
535.511	4482
535.726	4520
535.94	4511
536.154	4404
536.369	4373
536.583	4326
536.797	4306
537.011	4311
537.225	4241
537.44	4219
537.654	4275
537.868	4244
538.082	4288
538.296	4287
538.51	4279
538.724	4286
538.938	4185
539.153	4212
539.367	4321
539.581	4273
539.795	4173
540.009	4206
540.222	4171
540.436	4218
540.65	4197
540.864	4246
541.078	4225
541.292	4182
541.506	4168
541.72	4121
541.934	4031
542.147	4049
