Data from Circ_1986_H10_HRD10591_00088.txt Node
Date: Wed Jan 03 12:15:43 EST 2024
User: Yrep
Spectrometer: HR+D1059
Trigger mode: 1
Integration Time (sec): 1.000000E-1
Scans to average: 1
Electric dark correction enabled: true
Nonlinearity correction enabled: false
Boxcar width: 0
XAxis mode: Wavelengths
Number of Pixels in Spectrum: 2048
>>>>>Begin Spectral Data<<<<<
223.165	-8.19
223.4	-8.19
223.635	-8.19
223.869	-26.19
224.104	-29.19
224.338	-22.19
224.573	-26.19
224.808	1.81
225.042	-3.19
225.277	-10.19
225.511	4.81
225.746	7.81
225.98	8.81
226.215	16.81
226.449	26.81
226.683	10.81
226.918	10.81
227.152	36.81
227.387	39.81
227.621	19.81
227.856	53.81
228.09	41.81
228.324	46.81
228.559	67.81
228.793	58.81
229.027	57.81
229.262	66.81
229.496	81.81
229.73	82.81
229.964	84.81
230.199	79.81
230.433	68.81
230.667	81.81
230.901	82.81
231.136	88.81
231.37	83.81
231.604	88.81
231.838	81.81
232.072	88.81
232.306	108.81
232.541	95.81
232.775	80.81
233.009	82.81
233.243	82.81
233.477	89.81
233.711	74.81
233.945	67.81
234.179	78.81
234.413	84.81
234.647	80.81
234.881	83.81
235.115	76.81
235.349	74.81
235.583	77.81
235.817	74.81
236.051	98.81
236.285	87.81
236.519	73.81
236.753	86.81
236.987	95.81
237.221	84.81
237.455	87.81
237.689	91.81
237.922	77.81
238.156	71.81
238.39	73.81
238.624	82.81
238.858	81.81
239.091	67.81
239.325	72.81
239.559	86.81
239.793	75.81
240.027	76.81
240.26	68.81
240.494	66.81
240.728	85.81
240.961	91.81
241.195	85.81
241.429	91.81
241.662	76.81
241.896	86.81
242.13	92.81
242.363	81.81
242.597	64.81
242.83	70.81
243.064	80.81
243.298	80.81
243.531	84.81
243.765	89.81
243.998	83.81
244.232	103.81
244.465	90.81
244.699	94.81
244.932	81.81
245.166	81.81
245.399	76.81
245.633	83.81
245.866	85.81
246.099	65.81
246.333	97.81
246.566	68.81
246.8	85.81
247.033	84.81
247.266	74.81
247.5	88.81
247.733	69.81
247.966	86.81
248.2	77.81
248.433	81.81
248.666	83.81
248.899	87.81
249.133	88.81
249.366	105.81
249.599	88.81
249.832	98.81
250.066	81.81
250.299	94.81
250.532	85.81
250.765	82.81
250.998	78.81
251.231	88.81
251.465	74.81
251.698	70.81
251.931	80.81
252.164	77.81
252.397	81.81
252.63	88.81
252.863	63.81
253.096	67.81
253.329	90.81
253.562	81.81
253.795	78.81
254.028	88.81
254.261	93.81
254.494	87.81
254.727	85.81
254.96	80.81
255.193	81.81
255.426	79.81
255.659	83.81
255.892	85.81
256.124	79.81
256.357	87.81
256.59	82.81
256.823	88.81
257.056	82.81
257.289	77.81
257.521	88.81
257.754	90.81
257.987	80.81
258.22	101.81
258.452	87.81
258.685	67.81
258.918	90.81
259.151	85.81
259.383	81.81
259.616	89.81
259.849	88.81
260.081	81.81
260.314	89.81
260.547	106.81
260.779	73.81
261.012	87.81
261.244	91.81
261.477	91.81
261.71	89.81
261.942	109.81
262.175	104.81
262.407	91.81
262.64	97.81
262.872	73.81
263.105	89.81
263.337	76.81
263.57	89.81
263.802	83.81
264.035	77.81
264.267	80.81
264.499	77.81
264.732	97.81
264.964	81.81
265.197	76.81
265.429	99.81
265.661	79.81
265.894	80.81
266.126	93.81
266.358	67.81
266.591	77.81
266.823	76.81
267.055	82.81
267.287	97.81
267.52	105.81
267.752	92.81
267.984	85.81
268.216	81.81
268.448	94.81
268.681	77.81
268.913	98.81
269.145	80.81
269.377	67.81
269.609	72.81
269.841	87.81
270.073	89.81
270.306	73.81
270.538	97.81
270.77	91.81
271.002	81.81
271.234	77.81
271.466	84.81
271.698	91.81
271.93	93.81
272.162	103.81
272.394	87.81
272.626	90.81
272.858	84.81
273.09	74.81
273.322	90.81
273.553	90.81
273.785	76.81
274.017	83.81
274.249	88.81
274.481	92.81
274.713	88.81
274.945	72.81
275.176	91.81
275.408	97.81
275.64	92.81
275.872	79.81
276.104	94.81
276.335	104.81
276.567	93.81
276.799	96.81
277.031	101.81
277.262	87.81
277.494	95.81
277.726	83.81
277.957	86.81
278.189	83.81
278.421	86.81
278.652	79.81
278.884	84.81
279.115	95.81
279.347	87.81
279.579	95.81
279.81	103.81
280.042	95.81
280.273	109.81
280.505	92.81
280.736	80.81
280.968	67.81
281.199	77.81
281.431	83.81
281.662	95.81
281.894	85.81
282.125	98.81
282.356	123.81
282.588	129.81
282.819	103.81
283.051	89.81
283.282	91.81
283.513	83.81
283.745	96.81
283.976	86.81
284.207	92.81
284.439	95.81
284.67	93.81
284.901	76.81
285.132	87.81
285.364	71.81
285.595	94.81
285.826	82.81
286.057	97.81
286.288	92.81
286.52	94.81
286.751	92.81
286.982	85.81
287.213	91.81
287.444	90.81
287.675	88.81
287.906	98.81
288.138	95.81
288.369	97.81
288.6	92.81
288.831	76.81
289.062	100.81
289.293	91.81
289.524	60.81
289.755	85.81
289.986	72.81
290.217	93.81
290.448	79.81
290.679	95.81
290.91	92.81
291.141	98.81
291.371	96.81
291.602	88.81
291.833	85.81
292.064	87.81
292.295	86.81
292.526	85.81
292.757	91.81
292.987	88.81
293.218	93.81
293.449	101.81
293.68	83.81
293.91	93.81
294.141	94.81
294.372	93.81
294.603	85.81
294.833	76.81
295.064	83.81
295.295	79.81
295.525	97.81
295.756	89.81
295.987	114.81
296.217	130.81
296.448	100.81
296.679	89.81
296.909	81.81
297.14	87.81
297.37	92.81
297.601	88.81
297.831	83.81
298.062	89.81
298.292	100.81
298.523	103.81
298.753	84.81
298.984	87.81
299.214	88.81
299.445	77.81
299.675	83.81
299.905	107.81
300.136	89.81
300.366	89.81
300.597	105.81
300.827	89.81
301.057	100.81
301.288	95.81
301.518	84.81
301.748	78.81
301.979	90.81
302.209	98.81
302.439	79.81
302.669	82.81
302.9	87.81
303.13	105.81
303.36	105.81
303.59	107.81
303.82	96.81
304.051	91.81
304.281	96.81
304.511	100.81
304.741	99.81
304.971	87.81
305.201	93.81
305.431	82.81
305.661	86.81
305.891	101.81
306.121	100.81
306.352	93.81
306.582	117.81
306.812	101.81
307.042	98.81
307.272	103.81
307.502	106.81
307.731	90.81
307.961	86.81
308.191	93.81
308.421	93.81
308.651	97.81
308.881	89.81
309.111	97.81
309.341	93.81
309.571	103.81
309.8	82.81
310.03	88.81
310.26	91.81
310.49	92.81
310.72	97.81
310.949	90.81
311.179	81.81
311.409	86.81
311.639	91.81
311.868	91.81
312.098	92.81
312.328	100.81
312.557	91.81
312.787	101.81
313.017	99.81
313.246	82.81
313.476	98.81
313.706	95.81
313.935	101.81
314.165	79.81
314.394	100.81
314.624	87.81
314.853	105.81
315.083	93.81
315.312	91.81
315.542	100.81
315.771	89.81
316.001	94.81
316.23	89.81
316.46	79.81
316.689	93.81
316.919	83.81
317.148	100.81
317.377	92.81
317.607	102.81
317.836	95.81
318.065	100.81
318.295	99.81
318.524	91.81
318.753	69.81
318.983	88.81
319.212	105.81
319.441	109.81
319.67	106.81
319.9	94.81
320.129	93.81
320.358	84.81
320.587	108.81
320.816	103.81
321.046	87.81
321.275	106.81
321.504	98.81
321.733	103.81
321.962	99.81
322.191	89.81
322.42	92.81
322.649	106.81
322.878	106.81
323.108	97.81
323.337	115.81
323.566	123.81
323.795	143.81
324.024	194.81
324.253	355.81
324.482	780.81
324.71	1543.81
324.939	2103.81
325.168	774.81
325.397	228.81
325.626	153.81
325.855	140.81
326.084	123.81
326.313	133.81
326.542	140.81
326.77	213.81
326.999	427.81
327.228	889.81
327.457	1635.81
327.686	1304.81
327.914	363.81
328.143	201.81
328.372	165.81
328.6	134.81
328.829	111.81
329.058	120.81
329.287	127.81
329.515	116.81
329.744	103.81
329.972	128.81
330.201	160.81
330.43	212.81
330.658	146.81
330.887	130.81
331.115	115.81
331.344	96.81
331.572	103.81
331.801	102.81
332.03	89.81
332.258	108.81
332.486	87.81
332.715	88.81
332.943	111.81
333.172	91.81
333.4	96.81
333.629	98.81
333.857	115.81
334.085	119.81
334.314	169.81
334.542	235.81
334.771	232.81
334.999	118.81
335.227	101.81
335.455	96.81
335.684	88.81
335.912	99.81
336.14	118.81
336.369	101.81
336.597	99.81
336.825	93.81
337.053	91.81
337.281	96.81
337.51	92.81
337.738	91.81
337.966	91.81
338.194	111.81
338.422	101.81
338.65	75.81
338.878	99.81
339.106	98.81
339.334	98.81
339.562	91.81
339.79	77.81
340.018	88.81
340.246	90.81
340.474	89.81
340.702	91.81
340.93	94.81
341.158	84.81
341.386	101.81
341.614	91.81
341.842	87.81
342.07	89.81
342.298	92.81
342.526	102.81
342.754	90.81
342.981	90.81
343.209	86.81
343.437	109.81
343.665	85.81
343.893	90.81
344.12	98.81
344.348	83.81
344.576	77.81
344.804	91.81
345.031	103.81
345.259	99.81
345.487	107.81
345.714	85.81
345.942	83.81
346.17	97.81
346.397	104.81
346.625	91.81
346.853	103.81
347.08	97.81
347.308	106.81
347.535	106.81
347.763	105.81
347.99	92.81
348.218	109.81
348.445	100.81
348.673	87.81
348.9	99.81
349.128	104.81
349.355	106.81
349.583	97.81
349.81	93.81
350.037	72.81
350.265	101.81
350.492	89.81
350.72	86.81
350.947	99.81
351.174	89.81
351.402	94.81
351.629	91.81
351.856	100.81
352.083	99.81
352.311	94.81
352.538	101.81
352.765	94.81
352.992	103.81
353.22	96.81
353.447	98.81
353.674	85.81
353.901	91.81
354.128	76.81
354.355	92.81
354.583	99.81
354.81	87.81
355.037	91.81
355.264	74.81
355.491	95.81
355.718	99.81
355.945	106.81
356.172	99.81
356.399	93.81
356.626	104.81
356.853	85.81
357.08	79.81
357.307	98.81
357.534	90.81
357.761	82.81
357.988	89.81
358.215	76.81
358.441	82.81
358.668	81.81
358.895	81.81
359.122	83.81
359.349	95.81
359.576	90.81
359.802	91.81
360.029	102.81
360.256	95.81
360.483	83.81
360.709	80.81
360.936	85.81
361.163	100.81
361.39	104.81
361.616	88.81
361.843	72.81
362.07	93.81
362.296	93.81
362.523	89.81
362.749	87.81
362.976	89.81
363.203	91.81
363.429	93.81
363.656	74.81
363.882	85.81
364.109	95.81
364.335	91.81
364.562	95.81
364.788	87.81
365.015	92.81
365.241	95.81
365.468	117.81
365.694	106.81
365.92	101.81
366.147	100.81
366.373	79.81
366.599	89.81
366.826	87.81
367.052	100.81
367.278	100.81
367.505	90.81
367.731	99.81
367.957	86.81
368.184	98.81
368.41	94.81
368.636	106.81
368.862	110.81
369.089	105.81
369.315	97.81
369.541	92.81
369.767	84.81
369.993	88.81
370.219	108.81
370.445	90.81
370.672	82.81
370.898	94.81
371.124	99.81
371.35	99.81
371.576	96.81
371.802	95.81
372.028	67.81
372.254	78.81
372.48	83.81
372.706	86.81
372.932	104.81
373.158	89.81
373.384	87.81
373.61	96.81
373.835	86.81
374.061	83.81
374.287	93.81
374.513	101.81
374.739	80.81
374.965	76.81
375.191	72.81
375.416	92.81
375.642	89.81
375.868	96.81
376.094	81.81
376.319	81.81
376.545	76.81
376.771	91.81
376.997	88.81
377.222	92.81
377.448	79.81
377.674	68.81
377.899	101.81
378.125	84.81
378.35	83.81
378.576	95.81
378.802	84.81
379.027	91.81
379.253	93.81
379.478	95.81
379.704	102.81
379.929	103.81
380.155	85.81
380.38	85.81
380.606	93.81
380.831	115.81
381.057	91.81
381.282	102.81
381.507	90.81
381.733	100.81
381.958	97.81
382.184	90.81
382.409	115.81
382.634	100.81
382.86	103.81
383.085	95.81
383.31	114.81
383.535	117.81
383.761	97.81
383.986	96.81
384.211	104.81
384.436	98.81
384.662	100.81
384.887	93.81
385.112	107.81
385.337	103.81
385.562	98.81
385.787	108.81
386.013	103.81
386.238	113.81
386.463	108.81
386.688	100.81
386.913	101.81
387.138	88.81
387.363	102.81
387.588	99.81
387.813	98.81
388.038	96.81
388.263	97.81
388.488	101.81
388.713	103.81
388.938	86.81
389.163	105.81
389.387	98.81
389.612	101.81
389.837	80.81
390.062	84.81
390.287	91.81
390.512	92.81
390.736	102.81
390.961	92.81
391.186	104.81
391.411	95.81
391.636	105.81
391.86	94.81
392.085	84.81
392.31	88.81
392.534	88.81
392.759	100.81
392.984	88.81
393.208	86.81
393.433	86.81
393.658	89.81
393.882	83.81
394.107	92.81
394.331	93.81
394.556	76.81
394.78	91.81
395.005	85.81
395.229	90.81
395.454	90.81
395.678	92.81
395.903	85.81
396.127	97.81
396.352	99.81
396.576	76.81
396.801	86.81
397.025	76.81
397.249	93.81
397.474	82.81
397.698	89.81
397.922	97.81
398.147	90.81
398.371	83.81
398.595	74.81
398.82	83.81
399.044	98.81
399.268	98.81
399.492	80.81
399.717	85.81
399.941	88.81
400.165	92.81
400.389	87.81
400.613	95.81
400.837	85.81
401.062	89.81
401.286	69.81
401.51	84.81
401.734	98.81
401.958	111.81
402.182	116.81
402.406	129.81
402.63	107.81
402.854	79.81
403.078	93.81
403.302	88.81
403.526	93.81
403.75	93.81
403.974	97.81
404.198	94.81
404.422	94.81
404.645	84.81
404.869	94.81
405.093	80.81
405.317	114.81
405.541	102.81
405.765	111.81
405.988	115.81
406.212	161.81
406.436	199.81
406.66	141.81
406.883	95.81
407.107	91.81
407.331	100.81
407.555	108.81
407.778	95.81
408.002	82.81
408.226	95.81
408.449	79.81
408.673	93.81
408.896	91.81
409.12	93.81
409.344	103.81
409.567	89.81
409.791	87.81
410.014	96.81
410.238	92.81
410.461	95.81
410.685	77.81
410.908	100.81
411.132	90.81
411.355	88.81
411.578	97.81
411.802	94.81
412.025	91.81
412.249	101.81
412.472	85.81
412.695	100.81
412.919	102.81
413.142	89.81
413.365	97.81
413.589	81.81
413.812	82.81
414.035	85.81
414.258	90.81
414.482	91.81
414.705	91.81
414.928	88.81
415.151	94.81
415.374	93.81
415.597	89.81
415.821	79.81
416.044	88.81
416.267	96.81
416.49	87.81
416.713	94.81
416.936	84.81
417.159	85.81
417.382	92.81
417.605	90.81
417.828	96.81
418.051	91.81
418.274	91.81
418.497	87.81
418.72	90.81
418.943	83.81
419.166	90.81
419.389	98.81
419.611	82.81
419.834	80.81
420.057	72.81
420.28	90.81
420.503	86.81
420.726	105.81
420.948	86.81
421.171	93.81
421.394	85.81
421.617	89.81
421.839	85.81
422.062	87.81
422.285	80.81
422.507	96.81
422.73	104.81
422.953	101.81
423.175	87.81
423.398	100.81
423.621	87.81
423.843	84.81
424.066	86.81
424.288	67.81
424.511	87.81
424.733	98.81
424.956	102.81
425.178	93.81
425.401	103.81
425.623	93.81
425.846	97.81
426.068	96.81
426.291	92.81
426.513	93.81
426.735	93.81
426.958	88.81
427.18	102.81
427.402	120.81
427.625	160.81
427.847	130.81
428.069	126.81
428.292	96.81
428.514	89.81
428.736	90.81
428.958	83.81
429.181	86.81
429.403	91.81
429.625	85.81
429.847	97.81
430.069	99.81
430.292	91.81
430.514	73.81
430.736	93.81
430.958	92.81
431.18	81.81
431.402	83.81
431.624	79.81
431.846	81.81
432.068	87.81
432.29	101.81
432.512	96.81
432.734	86.81
432.956	88.81
433.178	94.81
433.4	93.81
433.622	72.81
433.844	93.81
434.066	76.81
434.287	86.81
434.509	97.81
434.731	93.81
434.953	95.81
435.175	76.81
435.397	91.81
435.618	93.81
435.84	96.81
436.062	111.81
436.284	119.81
436.505	89.81
436.727	109.81
436.949	88.81
437.17	75.81
437.392	83.81
437.614	97.81
437.835	115.81
438.057	82.81
438.278	99.81
438.5	101.81
438.721	119.81
438.943	97.81
439.165	78.81
439.386	86.81
439.608	102.81
439.829	102.81
440.05	94.81
440.272	129.81
440.493	104.81
440.715	73.81
440.936	90.81
441.158	77.81
441.379	81.81
441.6	92.81
441.822	98.81
442.043	103.81
442.264	109.81
442.486	96.81
442.707	97.81
442.928	112.81
443.149	130.81
443.371	128.81
443.592	105.81
443.813	107.81
444.034	92.81
444.255	94.81
444.476	87.81
444.698	98.81
444.919	93.81
445.14	137.81
445.361	129.81
445.582	112.81
445.803	124.81
446.024	115.81
446.245	136.81
446.466	111.81
446.687	98.81
446.908	89.81
447.129	76.81
447.35	82.81
447.571	97.81
447.792	72.81
448.013	89.81
448.234	117.81
448.455	93.81
448.675	106.81
448.896	107.81
449.117	93.81
449.338	94.81
449.559	104.81
449.779	125.81
450	99.81
450.221	99.81
450.442	85.81
450.662	81.81
450.883	85.81
451.104	110.81
451.324	101.81
451.545	104.81
451.766	103.81
451.986	81.81
452.207	85.81
452.428	99.81
452.648	108.81
452.869	109.81
453.089	112.81
453.31	112.81
453.53	104.81
453.751	95.81
453.971	100.81
454.192	102.81
454.412	91.81
454.633	92.81
454.853	92.81
455.073	95.81
455.294	99.81
455.514	104.81
455.734	101.81
455.955	79.81
456.175	87.81
456.395	89.81
456.616	89.81
456.836	83.81
457.056	94.81
457.276	96.81
457.497	89.81
457.717	80.81
457.937	76.81
458.157	96.81
458.377	99.81
458.598	100.81
458.818	137.81
459.038	137.81
459.258	108.81
459.478	79.81
459.698	84.81
459.918	81.81
460.138	94.81
460.358	87.81
460.578	96.81
460.798	90.81
461.018	83.81
461.238	93.81
461.458	86.81
461.678	83.81
461.898	84.81
462.118	81.81
462.338	93.81
462.558	87.81
462.777	79.81
462.997	75.81
463.217	91.81
463.437	84.81
463.657	92.81
463.876	97.81
464.096	90.81
464.316	91.81
464.536	94.81
464.755	107.81
464.975	108.81
465.195	149.81
465.414	143.81
465.634	106.81
465.854	69.81
466.073	81.81
466.293	92.81
466.512	83.81
466.732	89.81
466.951	89.81
467.171	106.81
467.391	90.81
467.61	94.81
467.829	104.81
468.049	130.81
468.268	145.81
468.488	91.81
468.707	67.81
468.927	68.81
469.146	93.81
469.365	84.81
469.585	93.81
469.804	90.81
470.023	90.81
470.243	101.81
470.462	89.81
470.681	105.81
470.901	99.81
471.12	90.81
471.339	82.81
471.558	85.81
471.777	92.81
471.997	95.81
472.216	190.81
472.435	298.81
472.654	115.81
472.873	86.81
473.092	91.81
473.311	85.81
473.53	95.81
473.749	91.81
473.968	105.81
474.187	111.81
474.406	84.81
474.625	86.81
474.844	95.81
475.063	109.81
475.282	91.81
475.501	89.81
475.72	87.81
475.939	83.81
476.158	82.81
476.377	77.81
476.596	87.81
476.814	93.81
477.033	90.81
477.252	81.81
477.471	91.81
477.69	83.81
477.908	93.81
478.127	95.81
478.346	95.81
478.564	93.81
478.783	102.81
479.002	90.81
479.22	101.81
479.439	105.81
479.658	102.81
479.876	83.81
480.095	76.81
480.313	96.81
480.532	96.81
480.751	98.81
480.969	191.81
481.188	492.81
481.406	303.81
481.624	113.81
481.843	89.81
482.061	98.81
482.28	87.81
482.498	87.81
482.717	88.81
482.935	96.81
483.153	94.81
483.372	98.81
483.59	89.81
483.808	87.81
484.027	85.81
484.245	90.81
484.463	86.81
484.681	90.81
484.9	85.81
485.118	100.81
485.336	92.81
485.554	95.81
485.772	105.81
485.99	105.81
486.209	115.81
486.427	113.81
486.645	106.81
486.863	112.81
487.081	104.81
487.299	99.81
487.517	101.81
487.735	103.81
487.953	93.81
488.171	88.81
488.389	96.81
488.607	95.81
488.825	93.81
489.043	92.81
489.261	93.81
489.479	99.81
489.696	87.81
489.914	102.81
490.132	100.81
490.35	77.81
490.568	85.81
490.786	99.81
491.003	95.81
491.221	105.81
491.439	96.81
491.657	99.81
491.874	84.81
492.092	82.81
492.31	101.81
492.527	99.81
492.745	101.81
492.963	92.81
493.18	81.81
493.398	89.81
493.615	91.81
493.833	104.81
494.05	94.81
494.268	90.81
494.485	92.81
494.703	95.81
494.92	95.81
495.138	87.81
495.355	84.81
495.573	83.81
495.79	87.81
496.008	110.81
496.225	91.81
496.442	83.81
496.66	109.81
496.877	84.81
497.094	76.81
497.312	96.81
497.529	107.81
497.746	89.81
497.963	91.81
498.181	86.81
498.398	96.81
498.615	103.81
498.832	103.81
499.049	82.81
499.267	84.81
499.484	84.81
499.701	80.81
499.918	90.81
500.135	106.81
500.352	84.81
500.569	81.81
500.786	100.81
501.003	75.81
501.22	85.81
501.437	93.81
501.654	82.81
501.871	90.81
502.088	94.81
502.305	92.81
502.522	96.81
502.739	99.81
502.956	99.81
503.172	101.81
503.389	98.81
503.606	91.81
503.823	97.81
504.04	93.81
504.256	92.81
504.473	105.81
504.69	102.81
504.907	95.81
505.123	89.81
505.34	75.81
505.557	92.81
505.773	101.81
505.99	85.81
506.207	86.81
506.423	92.81
506.64	73.81
506.856	81.81
507.073	87.81
507.289	100.81
507.506	97.81
507.722	101.81
507.939	114.81
508.155	87.81
508.372	111.81
508.588	98.81
508.805	90.81
509.021	79.81
509.238	113.81
509.454	114.81
509.67	108.81
509.887	97.81
510.103	109.81
510.319	195.81
510.536	667.81
510.752	2109.81
510.968	592.81
511.184	161.81
511.401	99.81
511.617	105.81
511.833	109.81
512.049	105.81
512.265	99.81
512.481	82.81
512.698	100.81
512.914	97.81
513.13	110.81
513.346	99.81
513.562	101.81
513.778	100.81
513.994	112.81
514.21	117.81
514.426	106.81
514.642	127.81
514.858	124.81
515.074	164.81
515.29	431.81
515.506	1288.81
