Data from Circ_1986_H10_HRD10591_00070.txt Node
Date: Wed Jan 03 12:15:40 EST 2024
User: Yrep
Spectrometer: HR+D1059
Trigger mode: 1
Integration Time (sec): 1.000000E-1
Scans to average: 1
Electric dark correction enabled: true
Nonlinearity correction enabled: false
Boxcar width: 0
XAxis mode: Wavelengths
Number of Pixels in Spectrum: 2048
>>>>>Begin Spectral Data<<<<<
223.165	-25.62
223.4	-25.62
223.635	-25.62
223.869	-14.62
224.104	-10.62
224.338	-16.62
224.573	-14.62
224.808	-9.62
225.042	-6.62
225.277	-8.62
225.511	1.38
225.746	10.38
225.98	6.38
226.215	19.38
226.449	5.38
226.683	19.38
226.918	22.38
227.152	22.38
227.387	43.38
227.621	37.38
227.856	44.38
228.09	37.38
228.324	47.38
228.559	62.38
228.793	64.38
229.027	69.38
229.262	59.38
229.496	69.38
229.73	83.38
229.964	86.38
230.199	88.38
230.433	73.38
230.667	68.38
230.901	74.38
231.136	86.38
231.37	91.38
231.604	78.38
231.838	84.38
232.072	82.38
232.306	78.38
232.541	73.38
232.775	91.38
233.009	79.38
233.243	84.38
233.477	92.38
233.711	84.38
233.945	75.38
234.179	84.38
234.413	84.38
234.647	86.38
234.881	75.38
235.115	72.38
235.349	82.38
235.583	64.38
235.817	83.38
236.051	90.38
236.285	84.38
236.519	81.38
236.753	66.38
236.987	66.38
237.221	91.38
237.455	95.38
237.689	78.38
237.922	70.38
238.156	71.38
238.39	74.38
238.624	75.38
238.858	72.38
239.091	67.38
239.325	64.38
239.559	77.38
239.793	75.38
240.027	77.38
240.26	74.38
240.494	85.38
240.728	71.38
240.961	68.38
241.195	76.38
241.429	73.38
241.662	64.38
241.896	70.38
242.13	73.38
242.363	70.38
242.597	59.38
242.83	71.38
243.064	74.38
243.298	78.38
243.531	75.38
243.765	76.38
243.998	79.38
244.232	78.38
244.465	83.38
244.699	70.38
244.932	76.38
245.166	73.38
245.399	71.38
245.633	80.38
245.866	89.38
246.099	85.38
246.333	76.38
246.566	71.38
246.8	86.38
247.033	71.38
247.266	81.38
247.5	82.38
247.733	66.38
247.966	69.38
248.2	67.38
248.433	88.38
248.666	88.38
248.899	87.38
249.133	73.38
249.366	82.38
249.599	96.38
249.832	92.38
250.066	81.38
250.299	76.38
250.532	78.38
250.765	65.38
250.998	73.38
251.231	72.38
251.465	67.38
251.698	80.38
251.931	84.38
252.164	72.38
252.397	67.38
252.63	83.38
252.863	98.38
253.096	80.38
253.329	68.38
253.562	87.38
253.795	80.38
254.028	82.38
254.261	84.38
254.494	71.38
254.727	83.38
254.96	58.38
255.193	74.38
255.426	79.38
255.659	71.38
255.892	87.38
256.124	80.38
256.357	88.38
256.59	76.38
256.823	85.38
257.056	89.38
257.289	96.38
257.521	71.38
257.754	79.38
257.987	66.38
258.22	75.38
258.452	87.38
258.685	84.38
258.918	90.38
259.151	79.38
259.383	82.38
259.616	79.38
259.849	76.38
260.081	85.38
260.314	74.38
260.547	78.38
260.779	81.38
261.012	87.38
261.244	86.38
261.477	81.38
261.71	85.38
261.942	114.38
262.175	113.38
262.407	89.38
262.64	79.38
262.872	79.38
263.105	75.38
263.337	86.38
263.57	87.38
263.802	79.38
264.035	93.38
264.267	83.38
264.499	76.38
264.732	81.38
264.964	87.38
265.197	86.38
265.429	89.38
265.661	76.38
265.894	80.38
266.126	86.38
266.358	76.38
266.591	87.38
266.823	88.38
267.055	104.38
267.287	77.38
267.52	86.38
267.752	83.38
267.984	95.38
268.216	88.38
268.448	74.38
268.681	89.38
268.913	84.38
269.145	87.38
269.377	92.38
269.609	90.38
269.841	92.38
270.073	91.38
270.306	68.38
270.538	75.38
270.77	74.38
271.002	87.38
271.234	79.38
271.466	85.38
271.698	73.38
271.93	73.38
272.162	95.38
272.394	106.38
272.626	99.38
272.858	76.38
273.09	74.38
273.322	63.38
273.553	74.38
273.785	95.38
274.017	89.38
274.249	93.38
274.481	92.38
274.713	94.38
274.945	80.38
275.176	95.38
275.408	73.38
275.64	73.38
275.872	87.38
276.104	76.38
276.335	90.38
276.567	102.38
276.799	101.38
277.031	95.38
277.262	91.38
277.494	93.38
277.726	106.38
277.957	87.38
278.189	80.38
278.421	88.38
278.652	88.38
278.884	92.38
279.115	81.38
279.347	91.38
279.579	94.38
279.81	87.38
280.042	90.38
280.273	98.38
280.505	87.38
280.736	96.38
280.968	94.38
281.199	83.38
281.431	86.38
281.662	84.38
281.894	91.38
282.125	87.38
282.356	104.38
282.588	124.38
282.819	116.38
283.051	82.38
283.282	96.38
283.513	94.38
283.745	99.38
283.976	92.38
284.207	90.38
284.439	73.38
284.67	88.38
284.901	99.38
285.132	104.38
285.364	79.38
285.595	78.38
285.826	84.38
286.057	86.38
286.288	86.38
286.52	91.38
286.751	95.38
286.982	95.38
287.213	93.38
287.444	84.38
287.675	96.38
287.906	103.38
288.138	94.38
288.369	75.38
288.6	91.38
288.831	85.38
289.062	88.38
289.293	87.38
289.524	86.38
289.755	94.38
289.986	88.38
290.217	90.38
290.448	95.38
290.679	93.38
290.91	79.38
291.141	88.38
291.371	86.38
291.602	94.38
291.833	88.38
292.064	84.38
292.295	78.38
292.526	82.38
292.757	91.38
292.987	82.38
293.218	96.38
293.449	102.38
293.68	99.38
293.91	96.38
294.141	95.38
294.372	81.38
294.603	82.38
294.833	94.38
295.064	70.38
295.295	74.38
295.525	95.38
295.756	92.38
295.987	110.38
296.217	123.38
296.448	112.38
296.679	96.38
296.909	82.38
297.14	88.38
297.37	102.38
297.601	90.38
297.831	90.38
298.062	94.38
298.292	80.38
298.523	91.38
298.753	90.38
298.984	93.38
299.214	89.38
299.445	88.38
299.675	89.38
299.905	96.38
300.136	93.38
300.366	95.38
300.597	94.38
300.827	93.38
301.057	105.38
301.288	94.38
301.518	92.38
301.748	83.38
301.979	92.38
302.209	91.38
302.439	91.38
302.669	82.38
302.9	91.38
303.13	93.38
303.36	97.38
303.59	98.38
303.82	105.38
304.051	107.38
304.281	86.38
304.511	90.38
304.741	88.38
304.971	87.38
305.201	84.38
305.431	82.38
305.661	95.38
305.891	103.38
306.121	73.38
306.352	89.38
306.582	102.38
306.812	95.38
307.042	80.38
307.272	92.38
307.502	104.38
307.731	93.38
307.961	88.38
308.191	80.38
308.421	83.38
308.651	95.38
308.881	101.38
309.111	98.38
309.341	94.38
309.571	80.38
309.8	89.38
310.03	72.38
310.26	86.38
310.49	87.38
310.72	104.38
310.949	82.38
311.179	103.38
311.409	102.38
311.639	91.38
311.868	85.38
312.098	86.38
312.328	91.38
312.557	93.38
312.787	95.38
313.017	111.38
313.246	106.38
313.476	85.38
313.706	82.38
313.935	92.38
314.165	105.38
314.394	94.38
314.624	87.38
314.853	79.38
315.083	101.38
315.312	80.38
315.542	88.38
315.771	97.38
316.001	83.38
316.23	101.38
316.46	89.38
316.689	81.38
316.919	84.38
317.148	106.38
317.377	102.38
317.607	99.38
317.836	106.38
318.065	83.38
318.295	85.38
318.524	91.38
318.753	88.38
318.983	104.38
319.212	114.38
319.441	90.38
319.67	99.38
319.9	93.38
320.129	87.38
320.358	103.38
320.587	105.38
320.816	90.38
321.046	108.38
321.275	97.38
321.504	102.38
321.733	90.38
321.962	88.38
322.191	102.38
322.42	103.38
322.649	112.38
322.878	116.38
323.108	117.38
323.337	113.38
323.566	114.38
323.795	130.38
324.024	184.38
324.253	326.38
324.482	705.38
324.71	1372.38
324.939	1870.38
325.168	696.38
325.397	226.38
325.626	139.38
325.855	114.38
326.084	112.38
326.313	130.38
326.542	124.38
326.77	198.38
326.999	389.38
327.228	782.38
327.457	1468.38
327.686	1158.38
327.914	313.38
328.143	174.38
328.372	166.38
328.6	122.38
328.829	103.38
329.058	128.38
329.287	120.38
329.515	116.38
329.744	117.38
329.972	120.38
330.201	161.38
330.43	197.38
330.658	144.38
330.887	132.38
331.115	131.38
331.344	109.38
331.572	92.38
331.801	94.38
332.03	93.38
332.258	105.38
332.486	94.38
332.715	95.38
332.943	90.38
333.172	111.38
333.4	102.38
333.629	115.38
333.857	105.38
334.085	124.38
334.314	157.38
334.542	217.38
334.771	214.38
334.999	135.38
335.227	120.38
335.455	100.38
335.684	105.38
335.912	82.38
336.14	99.38
336.369	97.38
336.597	96.38
336.825	85.38
337.053	105.38
337.281	97.38
337.51	89.38
337.738	84.38
337.966	89.38
338.194	86.38
338.422	102.38
338.65	102.38
338.878	87.38
339.106	102.38
339.334	96.38
339.562	93.38
339.79	84.38
340.018	80.38
340.246	75.38
340.474	88.38
340.702	92.38
340.93	88.38
341.158	105.38
341.386	96.38
341.614	84.38
341.842	82.38
342.07	98.38
342.298	95.38
342.526	92.38
342.754	95.38
342.981	97.38
343.209	102.38
343.437	90.38
343.665	84.38
343.893	85.38
344.12	95.38
344.348	98.38
344.576	92.38
344.804	95.38
345.031	95.38
345.259	88.38
345.487	102.38
345.714	88.38
345.942	100.38
346.17	82.38
346.397	98.38
346.625	88.38
346.853	82.38
347.08	88.38
347.308	99.38
347.535	103.38
347.763	100.38
347.99	88.38
348.218	87.38
348.445	93.38
348.673	90.38
348.9	106.38
349.128	84.38
349.355	94.38
349.583	108.38
349.81	96.38
350.037	94.38
350.265	103.38
350.492	88.38
350.72	87.38
350.947	98.38
351.174	107.38
351.402	94.38
351.629	90.38
351.856	100.38
352.083	89.38
352.311	122.38
352.538	99.38
352.765	90.38
352.992	101.38
353.22	102.38
353.447	110.38
353.674	98.38
353.901	88.38
354.128	89.38
354.355	86.38
354.583	94.38
354.81	102.38
355.037	92.38
355.264	99.38
355.491	96.38
355.718	98.38
355.945	88.38
356.172	89.38
356.399	97.38
356.626	108.38
356.853	91.38
357.08	88.38
357.307	92.38
357.534	80.38
357.761	97.38
357.988	98.38
358.215	88.38
358.441	91.38
358.668	91.38
358.895	87.38
359.122	94.38
359.349	85.38
359.576	76.38
359.802	92.38
360.029	108.38
360.256	108.38
360.483	84.38
360.709	80.38
360.936	91.38
361.163	95.38
361.39	93.38
361.616	92.38
361.843	80.38
362.07	86.38
362.296	100.38
362.523	88.38
362.749	97.38
362.976	99.38
363.203	98.38
363.429	89.38
363.656	86.38
363.882	86.38
364.109	86.38
364.335	75.38
364.562	94.38
364.788	82.38
365.015	97.38
365.241	93.38
365.468	113.38
365.694	100.38
365.92	106.38
366.147	102.38
366.373	86.38
366.599	89.38
366.826	73.38
367.052	69.38
367.278	96.38
367.505	86.38
367.731	90.38
367.957	97.38
368.184	94.38
368.41	92.38
368.636	115.38
368.862	108.38
369.089	107.38
369.315	103.38
369.541	90.38
369.767	80.38
369.993	79.38
370.219	86.38
370.445	107.38
370.672	92.38
370.898	101.38
371.124	81.38
371.35	97.38
371.576	91.38
371.802	94.38
372.028	80.38
372.254	83.38
372.48	71.38
372.706	84.38
372.932	82.38
373.158	96.38
373.384	86.38
373.61	105.38
373.835	96.38
374.061	86.38
374.287	93.38
374.513	100.38
374.739	82.38
374.965	89.38
375.191	82.38
375.416	87.38
375.642	98.38
375.868	104.38
376.094	86.38
376.319	99.38
376.545	94.38
376.771	93.38
376.997	98.38
377.222	98.38
377.448	94.38
377.674	90.38
377.899	78.38
378.125	98.38
378.35	88.38
378.576	100.38
378.802	75.38
379.027	92.38
379.253	102.38
379.478	107.38
379.704	90.38
379.929	79.38
380.155	70.38
380.38	91.38
380.606	98.38
380.831	101.38
381.057	97.38
381.282	106.38
381.507	97.38
381.733	102.38
381.958	107.38
382.184	94.38
382.409	93.38
382.634	90.38
382.86	107.38
383.085	101.38
383.31	91.38
383.535	94.38
383.761	90.38
383.986	97.38
384.211	96.38
384.436	93.38
384.662	86.38
384.887	94.38
385.112	91.38
385.337	115.38
385.562	95.38
385.787	107.38
386.013	111.38
386.238	109.38
386.463	106.38
386.688	117.38
386.913	105.38
387.138	103.38
387.363	103.38
387.588	98.38
387.813	115.38
388.038	106.38
388.263	116.38
388.488	121.38
388.713	104.38
388.938	95.38
389.163	99.38
389.387	96.38
389.612	108.38
389.837	79.38
390.062	94.38
390.287	92.38
390.512	88.38
390.736	94.38
390.961	78.38
391.186	105.38
391.411	96.38
391.636	106.38
391.86	72.38
392.085	86.38
392.31	82.38
392.534	97.38
392.759	90.38
392.984	78.38
393.208	70.38
393.433	90.38
393.658	80.38
393.882	66.38
394.107	95.38
394.331	79.38
394.556	95.38
394.78	74.38
395.005	95.38
395.229	86.38
395.454	85.38
395.678	90.38
395.903	82.38
396.127	93.38
396.352	97.38
396.576	82.38
396.801	100.38
397.025	73.38
397.249	86.38
397.474	90.38
397.698	90.38
397.922	78.38
398.147	82.38
398.371	83.38
398.595	73.38
398.82	89.38
399.044	88.38
399.268	75.38
399.492	92.38
399.717	90.38
399.941	90.38
400.165	78.38
400.389	80.38
400.613	81.38
400.837	84.38
401.062	94.38
401.286	86.38
401.51	89.38
401.734	98.38
401.958	90.38
402.182	119.38
402.406	147.38
402.63	114.38
402.854	109.38
403.078	99.38
403.302	87.38
403.526	92.38
403.75	80.38
403.974	83.38
404.198	92.38
404.422	91.38
404.645	80.38
404.869	92.38
405.093	103.38
405.317	106.38
405.541	96.38
405.765	97.38
405.988	97.38
406.212	139.38
406.436	218.38
406.66	137.38
406.883	102.38
407.107	95.38
407.331	107.38
407.555	88.38
407.778	97.38
408.002	98.38
408.226	74.38
408.449	96.38
408.673	98.38
408.896	97.38
409.12	97.38
409.344	96.38
409.567	98.38
409.791	102.38
410.014	104.38
410.238	106.38
410.461	90.38
410.685	78.38
410.908	98.38
411.132	114.38
411.355	92.38
411.578	81.38
411.802	87.38
412.025	92.38
412.249	80.38
412.472	91.38
412.695	105.38
412.919	88.38
413.142	88.38
413.365	85.38
413.589	94.38
413.812	97.38
414.035	96.38
414.258	91.38
414.482	103.38
414.705	89.38
414.928	98.38
415.151	91.38
415.374	100.38
415.597	95.38
415.821	72.38
416.044	85.38
416.267	92.38
416.49	85.38
416.713	88.38
416.936	87.38
417.159	82.38
417.382	84.38
417.605	82.38
417.828	91.38
418.051	94.38
418.274	85.38
418.497	73.38
418.72	91.38
418.943	92.38
419.166	98.38
419.389	79.38
419.611	90.38
419.834	97.38
420.057	88.38
420.28	96.38
420.503	89.38
420.726	96.38
420.948	89.38
421.171	77.38
421.394	85.38
421.617	88.38
421.839	84.38
422.062	92.38
422.285	101.38
422.507	104.38
422.73	101.38
422.953	106.38
423.175	76.38
423.398	80.38
423.621	84.38
423.843	90.38
424.066	106.38
424.288	80.38
424.511	78.38
424.733	75.38
424.956	94.38
425.178	90.38
425.401	96.38
425.623	80.38
425.846	74.38
426.068	78.38
426.291	73.38
426.513	91.38
426.735	99.38
426.958	91.38
427.18	94.38
427.402	132.38
427.625	144.38
427.847	140.38
428.069	126.38
428.292	95.38
428.514	91.38
428.736	80.38
428.958	82.38
429.181	105.38
429.403	84.38
429.625	75.38
429.847	94.38
430.069	92.38
430.292	93.38
430.514	90.38
430.736	92.38
430.958	88.38
431.18	84.38
431.402	85.38
431.624	96.38
431.846	96.38
432.068	89.38
432.29	87.38
432.512	86.38
432.734	88.38
432.956	82.38
433.178	93.38
433.4	96.38
433.622	98.38
433.844	115.38
434.066	102.38
434.287	86.38
434.509	79.38
434.731	99.38
434.953	82.38
435.175	75.38
435.397	89.38
435.618	101.38
435.84	82.38
436.062	127.38
436.284	111.38
436.505	104.38
436.727	84.38
436.949	91.38
437.17	86.38
437.392	73.38
437.614	102.38
437.835	107.38
438.057	108.38
438.278	105.38
438.5	104.38
438.721	116.38
438.943	106.38
439.165	82.38
439.386	88.38
439.608	78.38
439.829	87.38
440.05	108.38
440.272	135.38
440.493	96.38
440.715	88.38
440.936	90.38
441.158	81.38
441.379	83.38
441.6	74.38
441.822	98.38
442.043	90.38
442.264	114.38
442.486	102.38
442.707	93.38
442.928	112.38
443.149	120.38
443.371	104.38
443.592	91.38
443.813	104.38
444.034	99.38
444.255	96.38
444.476	89.38
444.698	76.38
444.919	88.38
445.14	138.38
445.361	114.38
445.582	115.38
445.803	135.38
446.024	136.38
446.245	128.38
446.466	115.38
446.687	85.38
446.908	89.38
447.129	94.38
447.35	91.38
447.571	106.38
447.792	98.38
448.013	100.38
448.234	115.38
448.455	80.38
448.675	114.38
448.896	137.38
449.117	101.38
449.338	102.38
449.559	110.38
449.779	130.38
450	100.38
450.221	87.38
450.442	78.38
450.662	91.38
450.883	106.38
451.104	99.38
451.324	91.38
451.545	90.38
451.766	87.38
451.986	90.38
452.207	89.38
452.428	104.38
452.648	104.38
452.869	112.38
453.089	112.38
453.31	113.38
453.53	94.38
453.751	95.38
453.971	96.38
454.192	112.38
454.412	106.38
454.633	83.38
454.853	86.38
455.073	80.38
455.294	85.38
455.514	103.38
455.734	91.38
455.955	84.38
456.175	91.38
456.395	97.38
456.616	86.38
456.836	86.38
457.056	96.38
457.276	99.38
457.497	79.38
457.717	98.38
457.937	70.38
458.157	86.38
458.377	94.38
458.598	96.38
458.818	140.38
459.038	146.38
459.258	110.38
459.478	97.38
459.698	73.38
459.918	79.38
460.138	97.38
460.358	91.38
460.578	84.38
460.798	100.38
461.018	105.38
461.238	80.38
461.458	78.38
461.678	99.38
461.898	88.38
462.118	95.38
462.338	99.38
462.558	85.38
462.777	79.38
462.997	86.38
463.217	73.38
463.437	90.38
463.657	81.38
463.876	87.38
464.096	88.38
464.316	86.38
464.536	94.38
464.755	98.38
464.975	120.38
465.195	151.38
465.414	146.38
465.634	94.38
465.854	94.38
466.073	84.38
466.293	91.38
466.512	94.38
466.732	79.38
466.951	91.38
467.171	87.38
467.391	94.38
467.61	102.38
467.829	91.38
468.049	114.38
468.268	137.38
468.488	87.38
468.707	84.38
468.927	84.38
469.146	76.38
469.365	98.38
469.585	104.38
469.804	96.38
470.023	113.38
470.243	88.38
470.462	106.38
470.681	91.38
470.901	87.38
471.12	84.38
471.339	79.38
471.558	91.38
471.777	75.38
471.997	96.38
472.216	180.38
472.435	269.38
472.654	117.38
472.873	86.38
473.092	79.38
473.311	88.38
473.53	95.38
473.749	78.38
473.968	87.38
474.187	86.38
474.406	104.38
474.625	81.38
474.844	91.38
475.063	97.38
475.282	90.38
475.501	96.38
475.72	74.38
475.939	86.38
476.158	94.38
476.377	75.38
476.596	94.38
476.814	98.38
477.033	90.38
477.252	82.38
477.471	81.38
477.69	95.38
477.908	87.38
478.127	80.38
478.346	90.38
478.564	90.38
478.783	99.38
479.002	82.38
479.22	85.38
479.439	98.38
479.658	105.38
479.876	100.38
480.095	82.38
480.313	84.38
480.532	84.38
480.751	112.38
480.969	168.38
481.188	407.38
481.406	275.38
481.624	99.38
481.843	97.38
482.061	96.38
482.28	87.38
482.498	90.38
482.717	103.38
482.935	92.38
483.153	90.38
483.372	73.38
483.59	76.38
483.808	86.38
484.027	83.38
484.245	86.38
484.463	82.38
484.681	107.38
484.9	91.38
485.118	99.38
485.336	110.38
485.554	102.38
485.772	98.38
485.99	93.38
486.209	101.38
486.427	106.38
486.645	114.38
486.863	108.38
487.081	88.38
487.299	86.38
487.517	91.38
487.735	99.38
487.953	104.38
488.171	102.38
488.389	97.38
488.607	104.38
488.825	87.38
489.043	92.38
489.261	89.38
489.479	83.38
489.696	82.38
489.914	104.38
490.132	85.38
490.35	91.38
490.568	102.38
490.786	76.38
491.003	92.38
491.221	81.38
491.439	100.38
491.657	91.38
491.874	92.38
492.092	92.38
492.31	82.38
492.527	76.38
492.745	88.38
492.963	91.38
493.18	87.38
493.398	92.38
493.615	94.38
493.833	94.38
494.05	93.38
494.268	91.38
494.485	83.38
494.703	89.38
494.92	96.38
495.138	94.38
495.355	82.38
495.573	96.38
495.79	92.38
496.008	101.38
496.225	95.38
496.442	97.38
496.66	105.38
496.877	91.38
497.094	73.38
497.312	96.38
497.529	92.38
497.746	88.38
497.963	85.38
498.181	87.38
498.398	89.38
498.615	97.38
498.832	99.38
499.049	83.38
499.267	90.38
499.484	83.38
499.701	96.38
499.918	102.38
500.135	97.38
500.352	100.38
500.569	89.38
500.786	89.38
501.003	72.38
501.22	91.38
501.437	86.38
501.654	98.38
501.871	107.38
502.088	84.38
502.305	91.38
502.522	87.38
502.739	103.38
502.956	90.38
503.172	104.38
503.389	100.38
503.606	114.38
503.823	103.38
504.04	104.38
504.256	84.38
504.473	96.38
504.69	88.38
504.907	95.38
505.123	75.38
505.34	100.38
505.557	99.38
505.773	75.38
505.99	92.38
506.207	83.38
506.423	103.38
506.64	104.38
506.856	88.38
507.073	106.38
507.289	96.38
507.506	88.38
507.722	99.38
507.939	105.38
508.155	95.38
508.372	101.38
508.588	100.38
508.805	102.38
509.021	96.38
509.238	104.38
509.454	99.38
509.67	105.38
509.887	112.38
510.103	126.38
510.319	183.38
510.536	620.38
510.752	1885.38
510.968	526.38
511.184	143.38
511.401	107.38
511.617	101.38
511.833	91.38
512.049	90.38
512.265	94.38
512.481	86.38
512.698	90.38
512.914	90.38
513.13	82.38
513.346	99.38
513.562	82.38
513.778	94.38
513.994	95.38
514.21	86.38
514.426	106.38
514.642	129.38
514.858	110.38
515.074	155.38
515.29	373.38
515.506	1186.38
515.721	421.38
