Data from Circ_1986_H10_HRD10591_00006.txt Node
Date: Wed Jan 03 12:15:27 EST 2024
User: Yrep
Spectrometer: HR+D1059
Trigger mode: 1
Integration Time (sec): 1.000000E-1
Scans to average: 1
Electric dark correction enabled: true
Nonlinearity correction enabled: false
Boxcar width: 0
XAxis mode: Wavelengths
Number of Pixels in Spectrum: 2048
>>>>>Begin Spectral Data<<<<<
223.165	-10.19
223.4	-10.19
223.635	-10.19
223.869	-24.19
224.104	-22.19
224.338	-21.19
224.573	-21.19
224.808	-13.19
225.042	4.81
225.277	-4.19
225.511	-9.19
225.746	9.81
225.98	22.81
226.215	5.81
226.449	24.81
226.683	19.81
226.918	9.81
227.152	27.81
227.387	51.81
227.621	45.81
227.856	57.81
228.09	48.81
228.324	49.81
228.559	57.81
228.793	61.81
229.027	61.81
229.262	60.81
229.496	71.81
229.73	79.81
229.964	89.81
230.199	72.81
230.433	73.81
230.667	68.81
230.901	83.81
231.136	83.81
231.37	69.81
231.604	85.81
231.838	85.81
232.072	74.81
232.306	69.81
232.541	85.81
232.775	86.81
233.009	77.81
233.243	75.81
233.477	87.81
233.711	89.81
233.945	75.81
234.179	80.81
234.413	83.81
234.647	84.81
234.881	73.81
235.115	76.81
235.349	72.81
235.583	80.81
235.817	85.81
236.051	76.81
236.285	80.81
236.519	83.81
236.753	72.81
236.987	61.81
237.221	79.81
237.455	84.81
237.689	69.81
237.922	83.81
238.156	72.81
238.39	75.81
238.624	87.81
238.858	98.81
239.091	95.81
239.325	79.81
239.559	81.81
239.793	70.81
240.027	73.81
240.26	90.81
240.494	79.81
240.728	75.81
240.961	81.81
241.195	73.81
241.429	89.81
241.662	72.81
241.896	85.81
242.13	65.81
242.363	74.81
242.597	79.81
242.83	91.81
243.064	68.81
243.298	73.81
243.531	88.81
243.765	73.81
243.998	81.81
244.232	71.81
244.465	87.81
244.699	96.81
244.932	66.81
245.166	85.81
245.399	81.81
245.633	77.81
245.866	83.81
246.099	85.81
246.333	82.81
246.566	83.81
246.8	72.81
247.033	89.81
247.266	77.81
247.5	74.81
247.733	90.81
247.966	87.81
248.2	79.81
248.433	75.81
248.666	80.81
248.899	89.81
249.133	92.81
249.366	99.81
249.599	108.81
249.832	85.81
250.066	66.81
250.299	80.81
250.532	81.81
250.765	86.81
250.998	66.81
251.231	75.81
251.465	79.81
251.698	91.81
251.931	86.81
252.164	77.81
252.397	83.81
252.63	84.81
252.863	74.81
253.096	70.81
253.329	83.81
253.562	85.81
253.795	74.81
254.028	87.81
254.261	80.81
254.494	83.81
254.727	91.81
254.96	87.81
255.193	76.81
255.426	87.81
255.659	76.81
255.892	75.81
256.124	78.81
256.357	77.81
256.59	86.81
256.823	79.81
257.056	87.81
257.289	72.81
257.521	102.81
257.754	82.81
257.987	83.81
258.22	86.81
258.452	89.81
258.685	75.81
258.918	104.81
259.151	79.81
259.383	75.81
259.616	83.81
259.849	88.81
260.081	92.81
260.314	76.81
260.547	85.81
260.779	86.81
261.012	92.81
261.244	73.81
261.477	76.81
261.71	101.81
261.942	89.81
262.175	100.81
262.407	79.81
262.64	90.81
262.872	96.81
263.105	79.81
263.337	84.81
263.57	77.81
263.802	83.81
264.035	76.81
264.267	95.81
264.499	78.81
264.732	94.81
264.964	73.81
265.197	82.81
265.429	79.81
265.661	75.81
265.894	92.81
266.126	89.81
266.358	90.81
266.591	84.81
266.823	90.81
267.055	79.81
267.287	93.81
267.52	103.81
267.752	73.81
267.984	88.81
268.216	76.81
268.448	100.81
268.681	89.81
268.913	98.81
269.145	83.81
269.377	88.81
269.609	93.81
269.841	84.81
270.073	82.81
270.306	91.81
270.538	90.81
270.77	87.81
271.002	83.81
271.234	102.81
271.466	89.81
271.698	73.81
271.93	68.81
272.162	89.81
272.394	102.81
272.626	94.81
272.858	84.81
273.09	87.81
273.322	96.81
273.553	93.81
273.785	61.81
274.017	84.81
274.249	88.81
274.481	84.81
274.713	83.81
274.945	89.81
275.176	96.81
275.408	77.81
275.64	82.81
275.872	85.81
276.104	75.81
276.335	77.81
276.567	90.81
276.799	103.81
277.031	103.81
277.262	100.81
277.494	98.81
277.726	84.81
277.957	96.81
278.189	81.81
278.421	82.81
278.652	82.81
278.884	81.81
279.115	86.81
279.347	91.81
279.579	84.81
279.81	81.81
280.042	82.81
280.273	85.81
280.505	103.81
280.736	76.81
280.968	94.81
281.199	83.81
281.431	80.81
281.662	101.81
281.894	87.81
282.125	92.81
282.356	107.81
282.588	117.81
282.819	100.81
283.051	103.81
283.282	89.81
283.513	95.81
283.745	89.81
283.976	93.81
284.207	83.81
284.439	85.81
284.67	82.81
284.901	90.81
285.132	79.81
285.364	86.81
285.595	99.81
285.826	96.81
286.057	89.81
286.288	96.81
286.52	86.81
286.751	78.81
286.982	114.81
287.213	88.81
287.444	87.81
287.675	90.81
287.906	88.81
288.138	94.81
288.369	88.81
288.6	89.81
288.831	105.81
289.062	89.81
289.293	86.81
289.524	93.81
289.755	98.81
289.986	101.81
290.217	94.81
290.448	85.81
290.679	85.81
290.91	96.81
291.141	88.81
291.371	95.81
291.602	95.81
291.833	91.81
292.064	88.81
292.295	74.81
292.526	91.81
292.757	85.81
292.987	87.81
293.218	83.81
293.449	87.81
293.68	101.81
293.91	89.81
294.141	104.81
294.372	95.81
294.603	102.81
294.833	93.81
295.064	95.81
295.295	100.81
295.525	99.81
295.756	102.81
295.987	86.81
296.217	132.81
296.448	95.81
296.679	91.81
296.909	91.81
297.14	87.81
297.37	97.81
297.601	83.81
297.831	84.81
298.062	101.81
298.292	93.81
298.523	97.81
298.753	93.81
298.984	83.81
299.214	80.81
299.445	87.81
299.675	89.81
299.905	92.81
300.136	86.81
300.366	89.81
300.597	90.81
300.827	83.81
301.057	83.81
301.288	96.81
301.518	91.81
301.748	95.81
301.979	99.81
302.209	97.81
302.439	101.81
302.669	87.81
302.9	91.81
303.13	83.81
303.36	91.81
303.59	95.81
303.82	95.81
304.051	90.81
304.281	88.81
304.511	92.81
304.741	92.81
304.971	100.81
305.201	83.81
305.431	95.81
305.661	95.81
305.891	89.81
306.121	105.81
306.352	89.81
306.582	90.81
306.812	95.81
307.042	97.81
307.272	98.81
307.502	93.81
307.731	88.81
307.961	93.81
308.191	94.81
308.421	92.81
308.651	102.81
308.881	83.81
309.111	91.81
309.341	95.81
309.571	90.81
309.8	100.81
310.03	82.81
310.26	90.81
310.49	93.81
310.72	104.81
310.949	96.81
311.179	92.81
311.409	82.81
311.639	88.81
311.868	87.81
312.098	88.81
312.328	80.81
312.557	106.81
312.787	88.81
313.017	95.81
313.246	92.81
313.476	80.81
313.706	84.81
313.935	105.81
314.165	85.81
314.394	94.81
314.624	92.81
314.853	100.81
315.083	104.81
315.312	89.81
315.542	99.81
315.771	97.81
316.001	70.81
316.23	91.81
316.46	87.81
316.689	95.81
316.919	110.81
317.148	101.81
317.377	98.81
317.607	98.81
317.836	94.81
318.065	100.81
318.295	81.81
318.524	77.81
318.753	84.81
318.983	97.81
319.212	105.81
319.441	113.81
319.67	101.81
319.9	104.81
320.129	85.81
320.358	95.81
320.587	74.81
320.816	105.81
321.046	90.81
321.275	103.81
321.504	100.81
321.733	110.81
321.962	100.81
322.191	105.81
322.42	112.81
322.649	107.81
322.878	116.81
323.108	110.81
323.337	106.81
323.566	119.81
323.795	138.81
324.024	164.81
324.253	307.81
324.482	591.81
324.71	1201.81
324.939	1585.81
325.168	602.81
325.397	188.81
325.626	144.81
325.855	96.81
326.084	132.81
326.313	124.81
326.542	135.81
326.77	181.81
326.999	362.81
327.228	689.81
327.457	1272.81
327.686	1005.81
327.914	286.81
328.143	171.81
328.372	120.81
328.6	115.81
328.829	94.81
329.058	116.81
329.287	109.81
329.515	99.81
329.744	107.81
329.972	95.81
330.201	75.81
330.43	113.81
330.658	108.81
330.887	107.81
331.115	108.81
331.344	97.81
331.572	94.81
331.801	100.81
332.03	100.81
332.258	89.81
332.486	72.81
332.715	85.81
332.943	97.81
333.172	100.81
333.4	94.81
333.629	89.81
333.857	109.81
334.085	106.81
334.314	93.81
334.542	109.81
334.771	100.81
334.999	109.81
335.227	102.81
335.455	96.81
335.684	101.81
335.912	107.81
336.14	107.81
336.369	105.81
336.597	86.81
336.825	88.81
337.053	100.81
337.281	94.81
337.51	98.81
337.738	91.81
337.966	84.81
338.194	89.81
338.422	93.81
338.65	107.81
338.878	82.81
339.106	85.81
339.334	92.81
339.562	99.81
339.79	87.81
340.018	91.81
340.246	92.81
340.474	85.81
340.702	93.81
340.93	109.81
341.158	87.81
341.386	87.81
341.614	94.81
341.842	93.81
342.07	91.81
342.298	77.81
342.526	94.81
342.754	101.81
342.981	87.81
343.209	86.81
343.437	101.81
343.665	85.81
343.893	94.81
344.12	86.81
344.348	97.81
344.576	81.81
344.804	92.81
345.031	87.81
345.259	92.81
345.487	87.81
345.714	92.81
345.942	88.81
346.17	86.81
346.397	91.81
346.625	95.81
346.853	89.81
347.08	88.81
347.308	95.81
347.535	90.81
347.763	83.81
347.99	95.81
348.218	111.81
348.445	98.81
348.673	87.81
348.9	97.81
349.128	104.81
349.355	91.81
349.583	96.81
349.81	93.81
350.037	108.81
350.265	103.81
350.492	81.81
350.72	108.81
350.947	101.81
351.174	98.81
351.402	109.81
351.629	104.81
351.856	117.81
352.083	93.81
352.311	93.81
352.538	114.81
352.765	104.81
352.992	114.81
353.22	97.81
353.447	87.81
353.674	99.81
353.901	97.81
354.128	94.81
354.355	103.81
354.583	101.81
354.81	105.81
355.037	99.81
355.264	97.81
355.491	101.81
355.718	87.81
355.945	99.81
356.172	103.81
356.399	106.81
356.626	104.81
356.853	102.81
357.08	103.81
357.307	98.81
357.534	93.81
357.761	100.81
357.988	108.81
358.215	111.81
358.441	101.81
358.668	97.81
358.895	108.81
359.122	91.81
359.349	95.81
359.576	102.81
359.802	96.81
360.029	106.81
360.256	93.81
360.483	97.81
360.709	96.81
360.936	96.81
361.163	90.81
361.39	95.81
361.616	96.81
361.843	97.81
362.07	92.81
362.296	89.81
362.523	95.81
362.749	94.81
362.976	77.81
363.203	92.81
363.429	72.81
363.656	91.81
363.882	76.81
364.109	94.81
364.335	93.81
364.562	74.81
364.788	103.81
365.015	93.81
365.241	93.81
365.468	98.81
365.694	101.81
365.92	93.81
366.147	84.81
366.373	88.81
366.599	98.81
366.826	90.81
367.052	81.81
367.278	87.81
367.505	96.81
367.731	97.81
367.957	93.81
368.184	87.81
368.41	84.81
368.636	102.81
368.862	101.81
369.089	112.81
369.315	83.81
369.541	81.81
369.767	87.81
369.993	102.81
370.219	74.81
370.445	103.81
370.672	83.81
370.898	93.81
371.124	83.81
371.35	90.81
371.576	80.81
371.802	99.81
372.028	90.81
372.254	94.81
372.48	86.81
372.706	75.81
372.932	87.81
373.158	85.81
373.384	106.81
373.61	114.81
373.835	90.81
374.061	91.81
374.287	92.81
374.513	91.81
374.739	93.81
374.965	82.81
375.191	90.81
375.416	89.81
375.642	95.81
375.868	87.81
376.094	88.81
376.319	88.81
376.545	100.81
376.771	105.81
376.997	86.81
377.222	108.81
377.448	95.81
377.674	96.81
377.899	101.81
378.125	98.81
378.35	103.81
378.576	82.81
378.802	98.81
379.027	96.81
379.253	95.81
379.478	103.81
379.704	95.81
379.929	92.81
380.155	109.81
380.38	88.81
380.606	106.81
380.831	114.81
381.057	98.81
381.282	114.81
381.507	107.81
381.733	119.81
381.958	115.81
382.184	105.81
382.409	107.81
382.634	114.81
382.86	106.81
383.085	119.81
383.31	116.81
383.535	129.81
383.761	109.81
383.986	116.81
384.211	116.81
384.436	116.81
384.662	124.81
384.887	128.81
385.112	143.81
385.337	136.81
385.562	151.81
385.787	133.81
386.013	137.81
386.238	114.81
386.463	122.81
386.688	143.81
386.913	132.81
387.138	131.81
387.363	118.81
387.588	119.81
387.813	121.81
388.038	141.81
388.263	157.81
388.488	143.81
388.713	112.81
388.938	101.81
389.163	97.81
389.387	89.81
389.612	98.81
389.837	85.81
390.062	83.81
390.287	94.81
390.512	101.81
390.736	102.81
390.961	109.81
391.186	97.81
391.411	75.81
391.636	87.81
391.86	97.81
392.085	82.81
392.31	106.81
392.534	66.81
392.759	90.81
392.984	95.81
393.208	95.81
393.433	96.81
393.658	106.81
393.882	92.81
394.107	88.81
394.331	96.81
394.556	85.81
394.78	98.81
395.005	84.81
395.229	87.81
395.454	95.81
395.678	86.81
395.903	96.81
396.127	92.81
396.352	87.81
396.576	70.81
396.801	91.81
397.025	95.81
397.249	98.81
397.474	96.81
397.698	102.81
397.922	84.81
398.147	60.81
398.371	92.81
398.595	87.81
398.82	83.81
399.044	106.81
399.268	87.81
399.492	101.81
399.717	82.81
399.941	97.81
400.165	99.81
400.389	101.81
400.613	92.81
400.837	100.81
401.062	85.81
401.286	94.81
401.51	74.81
401.734	103.81
401.958	76.81
402.182	111.81
402.406	124.81
402.63	99.81
402.854	98.81
403.078	98.81
403.302	93.81
403.526	93.81
403.75	70.81
403.974	93.81
404.198	87.81
404.422	86.81
404.645	96.81
404.869	98.81
405.093	84.81
405.317	107.81
405.541	88.81
405.765	110.81
405.988	103.81
406.212	147.81
406.436	155.81
406.66	108.81
406.883	101.81
407.107	99.81
407.331	91.81
407.555	97.81
407.778	100.81
408.002	71.81
408.226	81.81
408.449	86.81
408.673	100.81
408.896	97.81
409.12	92.81
409.344	99.81
409.567	96.81
409.791	91.81
410.014	102.81
410.238	98.81
410.461	95.81
410.685	91.81
410.908	92.81
411.132	106.81
411.355	105.81
411.578	97.81
411.802	91.81
412.025	95.81
412.249	96.81
412.472	85.81
412.695	97.81
412.919	98.81
413.142	84.81
413.365	97.81
413.589	86.81
413.812	83.81
414.035	95.81
414.258	88.81
414.482	95.81
414.705	83.81
414.928	106.81
415.151	99.81
415.374	106.81
415.597	93.81
415.821	87.81
416.044	90.81
416.267	92.81
416.49	100.81
416.713	101.81
416.936	84.81
417.159	99.81
417.382	83.81
417.605	84.81
417.828	96.81
418.051	96.81
418.274	98.81
418.497	82.81
418.72	94.81
418.943	95.81
419.166	92.81
419.389	90.81
419.611	96.81
419.834	93.81
420.057	82.81
420.28	90.81
420.503	101.81
420.726	97.81
420.948	91.81
421.171	92.81
421.394	82.81
421.617	100.81
421.839	95.81
422.062	90.81
422.285	90.81
422.507	97.81
422.73	80.81
422.953	108.81
423.175	93.81
423.398	87.81
423.621	90.81
423.843	82.81
424.066	94.81
424.288	92.81
424.511	97.81
424.733	101.81
424.956	101.81
425.178	97.81
425.401	96.81
425.623	97.81
425.846	97.81
426.068	92.81
426.291	87.81
426.513	83.81
426.735	88.81
426.958	97.81
427.18	116.81
427.402	125.81
427.625	127.81
427.847	118.81
428.069	99.81
428.292	96.81
428.514	81.81
428.736	81.81
428.958	82.81
429.181	81.81
429.403	85.81
429.625	92.81
429.847	92.81
430.069	89.81
430.292	101.81
430.514	80.81
430.736	73.81
430.958	115.81
431.18	80.81
431.402	90.81
431.624	82.81
431.846	92.81
432.068	83.81
432.29	85.81
432.512	85.81
432.734	81.81
432.956	98.81
433.178	100.81
433.4	94.81
433.622	85.81
433.844	82.81
434.066	110.81
434.287	79.81
434.509	91.81
434.731	83.81
434.953	83.81
435.175	92.81
435.397	95.81
435.618	95.81
435.84	95.81
436.062	108.81
436.284	121.81
436.505	102.81
436.727	99.81
436.949	83.81
437.17	86.81
437.392	80.81
437.614	96.81
437.835	106.81
438.057	104.81
438.278	109.81
438.5	100.81
438.721	103.81
438.943	100.81
439.165	95.81
439.386	89.81
439.608	91.81
439.829	92.81
440.05	106.81
440.272	115.81
440.493	95.81
440.715	92.81
440.936	90.81
441.158	93.81
441.379	81.81
441.6	89.81
441.822	100.81
442.043	102.81
442.264	96.81
442.486	100.81
442.707	83.81
442.928	79.81
443.149	116.81
443.371	116.81
443.592	103.81
443.813	89.81
444.034	93.81
444.255	83.81
444.476	98.81
444.698	85.81
444.919	85.81
445.14	128.81
445.361	124.81
445.582	98.81
445.803	103.81
446.024	105.81
446.245	131.81
446.466	109.81
446.687	87.81
446.908	76.81
447.129	79.81
447.35	81.81
447.571	106.81
447.792	95.81
448.013	103.81
448.234	92.81
448.455	102.81
448.675	111.81
448.896	115.81
449.117	104.81
449.338	85.81
449.559	129.81
449.779	119.81
450	87.81
450.221	87.81
450.442	75.81
450.662	85.81
450.883	105.81
451.104	100.81
451.324	83.81
451.545	101.81
451.766	95.81
451.986	98.81
452.207	96.81
452.428	86.81
452.648	90.81
452.869	113.81
453.089	110.81
453.31	94.81
453.53	88.81
453.751	98.81
453.971	103.81
454.192	100.81
454.412	95.81
454.633	99.81
454.853	85.81
455.073	88.81
455.294	91.81
455.514	85.81
455.734	81.81
455.955	86.81
456.175	80.81
456.395	76.81
456.616	79.81
456.836	74.81
457.056	85.81
457.276	79.81
457.497	75.81
457.717	100.81
457.937	89.81
458.157	88.81
458.377	91.81
458.598	103.81
458.818	117.81
459.038	133.81
459.258	101.81
459.478	90.81
459.698	83.81
459.918	85.81
460.138	90.81
460.358	79.81
460.578	92.81
460.798	97.81
461.018	83.81
461.238	81.81
461.458	92.81
461.678	88.81
461.898	100.81
462.118	95.81
462.338	85.81
462.558	93.81
462.777	94.81
462.997	86.81
463.217	112.81
463.437	83.81
463.657	91.81
463.876	90.81
464.096	90.81
464.316	88.81
464.536	90.81
464.755	81.81
464.975	95.81
465.195	140.81
465.414	122.81
465.634	88.81
465.854	93.81
466.073	99.81
466.293	102.81
466.512	81.81
466.732	79.81
466.951	81.81
467.171	109.81
467.391	94.81
467.61	108.81
467.829	97.81
468.049	95.81
468.268	92.81
468.488	85.81
468.707	72.81
468.927	76.81
469.146	75.81
469.365	85.81
469.585	91.81
469.804	105.81
470.023	95.81
470.243	89.81
470.462	88.81
470.681	94.81
470.901	80.81
471.12	88.81
471.339	96.81
471.558	73.81
471.777	90.81
471.997	89.81
472.216	94.81
472.435	96.81
472.654	103.81
472.873	85.81
473.092	95.81
473.311	97.81
473.53	74.81
473.749	87.81
473.968	92.81
474.187	96.81
474.406	87.81
474.625	93.81
474.844	81.81
475.063	109.81
475.282	83.81
475.501	82.81
475.72	86.81
475.939	113.81
476.158	83.81
476.377	83.81
476.596	89.81
476.814	76.81
477.033	95.81
477.252	91.81
477.471	92.81
477.69	90.81
477.908	97.81
478.127	71.81
478.346	90.81
478.564	87.81
478.783	89.81
479.002	96.81
479.22	80.81
479.439	79.81
479.658	99.81
479.876	95.81
480.095	75.81
480.313	81.81
480.532	86.81
480.751	94.81
480.969	103.81
481.188	133.81
481.406	104.81
481.624	105.81
481.843	103.81
482.061	88.81
482.28	87.81
482.498	104.81
482.717	98.81
482.935	92.81
483.153	98.81
483.372	79.81
483.59	84.81
483.808	86.81
484.027	89.81
484.245	104.81
484.463	83.81
484.681	89.81
484.9	102.81
485.118	99.81
485.336	79.81
485.554	89.81
485.772	106.81
485.99	89.81
486.209	109.81
486.427	108.81
486.645	110.81
486.863	109.81
487.081	112.81
487.299	91.81
487.517	103.81
487.735	83.81
487.953	90.81
488.171	95.81
488.389	88.81
488.607	83.81
488.825	92.81
489.043	88.81
489.261	80.81
489.479	108.81
489.696	103.81
489.914	85.81
490.132	80.81
490.35	90.81
490.568	92.81
490.786	87.81
491.003	107.81
491.221	88.81
491.439	105.81
491.657	89.81
491.874	96.81
492.092	84.81
492.31	102.81
492.527	97.81
492.745	84.81
492.963	87.81
493.18	89.81
493.398	92.81
493.615	111.81
493.833	94.81
494.05	94.81
494.268	94.81
494.485	85.81
494.703	79.81
494.92	85.81
495.138	89.81
495.355	87.81
495.573	104.81
495.79	84.81
496.008	103.81
496.225	97.81
496.442	83.81
496.66	96.81
496.877	101.81
497.094	98.81
497.312	92.81
497.529	89.81
497.746	92.81
497.963	82.81
498.181	94.81
498.398	94.81
498.615	100.81
498.832	99.81
499.049	105.81
499.267	88.81
499.484	73.81
499.701	89.81
499.918	92.81
500.135	99.81
500.352	90.81
500.569	100.81
500.786	96.81
501.003	100.81
501.22	78.81
501.437	81.81
501.654	90.81
501.871	97.81
502.088	89.81
502.305	80.81
502.522	72.81
502.739	99.81
502.956	98.81
503.172	93.81
503.389	101.81
503.606	100.81
503.823	90.81
504.04	84.81
504.256	96.81
504.473	112.81
504.69	88.81
504.907	99.81
505.123	78.81
505.34	75.81
505.557	80.81
505.773	93.81
505.99	100.81
506.207	91.81
506.423	97.81
506.64	98.81
506.856	95.81
507.073	96.81
507.289	98.81
507.506	100.81
507.722	101.81
507.939	109.81
508.155	94.81
508.372	96.81
508.588	93.81
508.805	90.81
509.021	114.81
509.238	84.81
509.454	82.81
509.67	99.81
509.887	99.81
510.103	117.81
510.319	173.81
510.536	519.81
510.752	1465.81
510.968	415.81
511.184	130.81
511.401	87.81
511.617	100.81
511.833	88.81
512.049	91.81
512.265	88.81
512.481	93.81
512.698	86.81
512.914	99.81
513.13	90.81
513.346	100.81
513.562	88.81
513.778	89.81
513.994	96.81
514.21	98.81
514.426	124.81
514.642	118.81
514.858	107.81
515.074	132.81
515.29	309.81
515.506	868.81
