Data from Circ_1986_H10_HRD10591_00009.txt Node
Date: Wed Jan 03 12:15:27 EST 2024
User: Yrep
Spectrometer: HR+D1059
Trigger mode: 1
Integration Time (sec): 1.000000E-1
Scans to average: 1
Electric dark correction enabled: true
Nonlinearity correction enabled: false
Boxcar width: 0
XAxis mode: Wavelengths
Number of Pixels in Spectrum: 2048
>>>>>Begin Spectral Data<<<<<
223.165	-22.88
223.4	-22.88
223.635	-22.88
223.869	-29.88
224.104	-33.88
224.338	-23.88
224.573	-8.88
224.808	-21.88
225.042	-18.88
225.277	10.12
225.511	13.12
225.746	0.12
225.98	17.12
226.215	20.12
226.449	24.12
226.683	30.12
226.918	19.12
227.152	26.12
227.387	39.12
227.621	23.12
227.856	40.12
228.09	50.12
228.324	46.12
228.559	64.12
228.793	55.12
229.027	59.12
229.262	66.12
229.496	71.12
229.73	72.12
229.964	70.12
230.199	73.12
230.433	78.12
230.667	81.12
230.901	77.12
231.136	62.12
231.37	82.12
231.604	68.12
231.838	88.12
232.072	88.12
232.306	88.12
232.541	86.12
232.775	76.12
233.009	72.12
233.243	87.12
233.477	84.12
233.711	96.12
233.945	74.12
234.179	69.12
234.413	95.12
234.647	69.12
234.881	82.12
235.115	85.12
235.349	80.12
235.583	77.12
235.817	79.12
236.051	82.12
236.285	67.12
236.519	76.12
236.753	89.12
236.987	71.12
237.221	69.12
237.455	84.12
237.689	77.12
237.922	75.12
238.156	72.12
238.39	69.12
238.624	75.12
238.858	76.12
239.091	86.12
239.325	53.12
239.559	71.12
239.793	67.12
240.027	80.12
240.26	82.12
240.494	68.12
240.728	75.12
240.961	95.12
241.195	75.12
241.429	72.12
241.662	74.12
241.896	50.12
242.13	76.12
242.363	80.12
242.597	79.12
242.83	81.12
243.064	76.12
243.298	67.12
243.531	75.12
243.765	64.12
243.998	70.12
244.232	85.12
244.465	74.12
244.699	80.12
244.932	76.12
245.166	74.12
245.399	73.12
245.633	76.12
245.866	86.12
246.099	65.12
246.333	85.12
246.566	74.12
246.8	87.12
247.033	71.12
247.266	76.12
247.5	76.12
247.733	65.12
247.966	84.12
248.2	87.12
248.433	74.12
248.666	79.12
248.899	80.12
249.133	82.12
249.366	96.12
249.599	83.12
249.832	80.12
250.066	80.12
250.299	68.12
250.532	68.12
250.765	84.12
250.998	79.12
251.231	63.12
251.465	92.12
251.698	80.12
251.931	70.12
252.164	62.12
252.397	77.12
252.63	82.12
252.863	82.12
253.096	91.12
253.329	94.12
253.562	86.12
253.795	76.12
254.028	81.12
254.261	84.12
254.494	80.12
254.727	73.12
254.96	90.12
255.193	80.12
255.426	78.12
255.659	71.12
255.892	80.12
256.124	76.12
256.357	82.12
256.59	81.12
256.823	70.12
257.056	69.12
257.289	83.12
257.521	78.12
257.754	87.12
257.987	78.12
258.22	81.12
258.452	87.12
258.685	78.12
258.918	96.12
259.151	83.12
259.383	86.12
259.616	79.12
259.849	90.12
260.081	74.12
260.314	80.12
260.547	80.12
260.779	93.12
261.012	88.12
261.244	84.12
261.477	81.12
261.71	90.12
261.942	97.12
262.175	103.12
262.407	69.12
262.64	87.12
262.872	86.12
263.105	84.12
263.337	91.12
263.57	76.12
263.802	76.12
264.035	89.12
264.267	73.12
264.499	87.12
264.732	82.12
264.964	84.12
265.197	67.12
265.429	87.12
265.661	82.12
265.894	74.12
266.126	97.12
266.358	80.12
266.591	80.12
266.823	94.12
267.055	75.12
267.287	96.12
267.52	91.12
267.752	82.12
267.984	83.12
268.216	86.12
268.448	85.12
268.681	82.12
268.913	92.12
269.145	84.12
269.377	92.12
269.609	95.12
269.841	73.12
270.073	83.12
270.306	80.12
270.538	86.12
270.77	87.12
271.002	86.12
271.234	81.12
271.466	73.12
271.698	72.12
271.93	87.12
272.162	69.12
272.394	80.12
272.626	85.12
272.858	83.12
273.09	91.12
273.322	90.12
273.553	93.12
273.785	100.12
274.017	88.12
274.249	80.12
274.481	87.12
274.713	87.12
274.945	82.12
275.176	78.12
275.408	59.12
275.64	79.12
275.872	88.12
276.104	77.12
276.335	73.12
276.567	80.12
276.799	92.12
277.031	97.12
277.262	86.12
277.494	81.12
277.726	95.12
277.957	88.12
278.189	79.12
278.421	73.12
278.652	81.12
278.884	76.12
279.115	74.12
279.347	83.12
279.579	85.12
279.81	85.12
280.042	92.12
280.273	92.12
280.505	78.12
280.736	89.12
280.968	84.12
281.199	84.12
281.431	93.12
281.662	93.12
281.894	94.12
282.125	103.12
282.356	88.12
282.588	110.12
282.819	98.12
283.051	90.12
283.282	84.12
283.513	92.12
283.745	92.12
283.976	95.12
284.207	92.12
284.439	80.12
284.67	78.12
284.901	80.12
285.132	95.12
285.364	87.12
285.595	96.12
285.826	82.12
286.057	89.12
286.288	81.12
286.52	88.12
286.751	87.12
286.982	86.12
287.213	82.12
287.444	99.12
287.675	88.12
287.906	80.12
288.138	68.12
288.369	96.12
288.6	89.12
288.831	89.12
289.062	81.12
289.293	88.12
289.524	78.12
289.755	89.12
289.986	90.12
290.217	74.12
290.448	80.12
290.679	74.12
290.91	88.12
291.141	81.12
291.371	95.12
291.602	101.12
291.833	95.12
292.064	99.12
292.295	93.12
292.526	88.12
292.757	89.12
292.987	96.12
293.218	97.12
293.449	84.12
293.68	78.12
293.91	89.12
294.141	89.12
294.372	77.12
294.603	85.12
294.833	78.12
295.064	82.12
295.295	79.12
295.525	87.12
295.756	99.12
295.987	96.12
296.217	120.12
296.448	116.12
296.679	83.12
296.909	91.12
297.14	98.12
297.37	100.12
297.601	82.12
297.831	91.12
298.062	87.12
298.292	96.12
298.523	97.12
298.753	92.12
298.984	78.12
299.214	85.12
299.445	89.12
299.675	83.12
299.905	81.12
300.136	93.12
300.366	92.12
300.597	81.12
300.827	86.12
301.057	101.12
301.288	98.12
301.518	84.12
301.748	79.12
301.979	98.12
302.209	99.12
302.439	91.12
302.669	93.12
302.9	92.12
303.13	80.12
303.36	99.12
303.59	96.12
303.82	100.12
304.051	101.12
304.281	96.12
304.511	89.12
304.741	90.12
304.971	85.12
305.201	99.12
305.431	94.12
305.661	90.12
305.891	72.12
306.121	96.12
306.352	99.12
306.582	94.12
306.812	90.12
307.042	91.12
307.272	82.12
307.502	80.12
307.731	97.12
307.961	94.12
308.191	82.12
308.421	93.12
308.651	81.12
308.881	93.12
309.111	92.12
309.341	103.12
309.571	99.12
309.8	85.12
310.03	104.12
310.26	84.12
310.49	91.12
310.72	90.12
310.949	90.12
311.179	101.12
311.409	81.12
311.639	87.12
311.868	98.12
312.098	99.12
312.328	93.12
312.557	100.12
312.787	93.12
313.017	93.12
313.246	95.12
313.476	83.12
313.706	100.12
313.935	106.12
314.165	88.12
314.394	100.12
314.624	92.12
314.853	96.12
315.083	100.12
315.312	90.12
315.542	90.12
315.771	85.12
316.001	105.12
316.23	85.12
316.46	64.12
316.689	79.12
316.919	97.12
317.148	92.12
317.377	103.12
317.607	87.12
317.836	93.12
318.065	97.12
318.295	92.12
318.524	82.12
318.753	88.12
318.983	87.12
319.212	88.12
319.441	105.12
319.67	85.12
319.9	102.12
320.129	88.12
320.358	94.12
320.587	83.12
320.816	93.12
321.046	92.12
321.275	94.12
321.504	98.12
321.733	99.12
321.962	95.12
322.191	116.12
322.42	98.12
322.649	86.12
322.878	107.12
323.108	107.12
323.337	110.12
323.566	117.12
323.795	137.12
324.024	166.12
324.253	322.12
324.482	654.12
324.71	1288.12
324.939	1700.12
325.168	638.12
325.397	197.12
325.626	140.12
325.855	114.12
326.084	114.12
326.313	117.12
326.542	138.12
326.77	210.12
326.999	377.12
327.228	742.12
327.457	1372.12
327.686	1046.12
327.914	279.12
328.143	161.12
328.372	130.12
328.6	135.12
328.829	108.12
329.058	112.12
329.287	111.12
329.515	96.12
329.744	112.12
329.972	106.12
330.201	106.12
330.43	117.12
330.658	110.12
330.887	128.12
331.115	100.12
331.344	85.12
331.572	95.12
331.801	84.12
332.03	105.12
332.258	93.12
332.486	93.12
332.715	101.12
332.943	95.12
333.172	86.12
333.4	99.12
333.629	101.12
333.857	109.12
334.085	112.12
334.314	100.12
334.542	123.12
334.771	124.12
334.999	90.12
335.227	98.12
335.455	96.12
335.684	109.12
335.912	97.12
336.14	97.12
336.369	82.12
336.597	96.12
336.825	86.12
337.053	102.12
337.281	92.12
337.51	102.12
337.738	98.12
337.966	91.12
338.194	93.12
338.422	78.12
338.65	85.12
338.878	96.12
339.106	88.12
339.334	89.12
339.562	109.12
339.79	88.12
340.018	78.12
340.246	89.12
340.474	95.12
340.702	90.12
340.93	91.12
341.158	93.12
341.386	98.12
341.614	75.12
341.842	96.12
342.07	82.12
342.298	85.12
342.526	95.12
342.754	96.12
342.981	99.12
343.209	87.12
343.437	84.12
343.665	94.12
343.893	95.12
344.12	94.12
344.348	104.12
344.576	106.12
344.804	83.12
345.031	84.12
345.259	87.12
345.487	89.12
345.714	101.12
345.942	92.12
346.17	97.12
346.397	93.12
346.625	98.12
346.853	88.12
347.08	82.12
347.308	85.12
347.535	104.12
347.763	96.12
347.99	101.12
348.218	115.12
348.445	107.12
348.673	95.12
348.9	93.12
349.128	71.12
349.355	98.12
349.583	88.12
349.81	82.12
350.037	95.12
350.265	91.12
350.492	96.12
350.72	96.12
350.947	105.12
351.174	107.12
351.402	100.12
351.629	96.12
351.856	93.12
352.083	116.12
352.311	110.12
352.538	95.12
352.765	99.12
352.992	117.12
353.22	93.12
353.447	107.12
353.674	106.12
353.901	110.12
354.128	109.12
354.355	104.12
354.583	92.12
354.81	92.12
355.037	108.12
355.264	100.12
355.491	96.12
355.718	98.12
355.945	86.12
356.172	89.12
356.399	101.12
356.626	100.12
356.853	100.12
357.08	97.12
357.307	96.12
357.534	88.12
357.761	78.12
357.988	100.12
358.215	92.12
358.441	103.12
358.668	94.12
358.895	101.12
359.122	85.12
359.349	92.12
359.576	84.12
359.802	106.12
360.029	92.12
360.256	99.12
360.483	108.12
360.709	106.12
360.936	105.12
361.163	90.12
361.39	84.12
361.616	105.12
361.843	82.12
362.07	94.12
362.296	89.12
362.523	101.12
362.749	95.12
362.976	80.12
363.203	95.12
363.429	84.12
363.656	81.12
363.882	74.12
364.109	66.12
364.335	86.12
364.562	94.12
364.788	95.12
365.015	91.12
365.241	101.12
365.468	98.12
365.694	92.12
365.92	107.12
366.147	92.12
366.373	95.12
366.599	80.12
366.826	84.12
367.052	88.12
367.278	83.12
367.505	78.12
367.731	105.12
367.957	84.12
368.184	83.12
368.41	92.12
368.636	120.12
368.862	109.12
369.089	85.12
369.315	95.12
369.541	94.12
369.767	82.12
369.993	88.12
370.219	82.12
370.445	90.12
370.672	97.12
370.898	75.12
371.124	84.12
371.35	91.12
371.576	91.12
371.802	93.12
372.028	91.12
372.254	90.12
372.48	74.12
372.706	84.12
372.932	82.12
373.158	81.12
373.384	95.12
373.61	78.12
373.835	85.12
374.061	89.12
374.287	87.12
374.513	91.12
374.739	88.12
374.965	83.12
375.191	80.12
375.416	94.12
375.642	97.12
375.868	100.12
376.094	85.12
376.319	97.12
376.545	107.12
376.771	95.12
376.997	96.12
377.222	87.12
377.448	95.12
377.674	97.12
377.899	86.12
378.125	104.12
378.35	77.12
378.576	104.12
378.802	113.12
379.027	95.12
379.253	114.12
379.478	100.12
379.704	84.12
379.929	115.12
380.155	101.12
380.38	95.12
380.606	105.12
380.831	101.12
381.057	114.12
381.282	108.12
381.507	108.12
381.733	97.12
381.958	125.12
382.184	121.12
382.409	119.12
382.634	110.12
382.86	116.12
383.085	108.12
383.31	101.12
383.535	124.12
383.761	112.12
383.986	102.12
384.211	113.12
384.436	126.12
384.662	125.12
384.887	129.12
385.112	130.12
385.337	143.12
385.562	121.12
385.787	132.12
386.013	132.12
386.238	136.12
386.463	136.12
386.688	127.12
386.913	126.12
387.138	125.12
387.363	132.12
387.588	113.12
387.813	113.12
388.038	124.12
388.263	143.12
388.488	145.12
388.713	111.12
388.938	84.12
389.163	101.12
389.387	92.12
389.612	93.12
389.837	88.12
390.062	104.12
390.287	100.12
390.512	84.12
390.736	85.12
390.961	76.12
391.186	91.12
391.411	100.12
391.636	88.12
391.86	83.12
392.085	94.12
392.31	81.12
392.534	87.12
392.759	88.12
392.984	81.12
393.208	81.12
393.433	92.12
393.658	85.12
393.882	98.12
394.107	88.12
394.331	95.12
394.556	94.12
394.78	85.12
395.005	78.12
395.229	88.12
395.454	92.12
395.678	87.12
395.903	80.12
396.127	80.12
396.352	90.12
396.576	90.12
396.801	90.12
397.025	84.12
397.249	76.12
397.474	90.12
397.698	78.12
397.922	89.12
398.147	84.12
398.371	92.12
398.595	105.12
398.82	90.12
399.044	86.12
399.268	82.12
399.492	77.12
399.717	87.12
399.941	94.12
400.165	106.12
400.389	86.12
400.613	88.12
400.837	83.12
401.062	78.12
401.286	93.12
401.51	81.12
401.734	81.12
401.958	87.12
402.182	116.12
402.406	136.12
402.63	115.12
402.854	95.12
403.078	83.12
403.302	87.12
403.526	76.12
403.75	102.12
403.974	86.12
404.198	82.12
404.422	89.12
404.645	93.12
404.869	95.12
405.093	83.12
405.317	94.12
405.541	99.12
405.765	96.12
405.988	97.12
406.212	133.12
406.436	184.12
406.66	126.12
406.883	90.12
407.107	90.12
407.331	92.12
407.555	101.12
407.778	93.12
408.002	92.12
408.226	98.12
408.449	86.12
408.673	96.12
408.896	85.12
409.12	88.12
409.344	94.12
409.567	107.12
409.791	90.12
410.014	84.12
410.238	103.12
410.461	93.12
410.685	82.12
410.908	85.12
411.132	100.12
411.355	97.12
411.578	96.12
411.802	94.12
412.025	101.12
412.249	110.12
412.472	85.12
412.695	99.12
412.919	93.12
413.142	94.12
413.365	96.12
413.589	104.12
413.812	85.12
414.035	89.12
414.258	100.12
414.482	74.12
414.705	93.12
414.928	91.12
415.151	94.12
415.374	103.12
415.597	91.12
415.821	97.12
416.044	97.12
416.267	89.12
416.49	90.12
416.713	86.12
416.936	100.12
417.159	84.12
417.382	81.12
417.605	106.12
417.828	101.12
418.051	98.12
418.274	86.12
418.497	74.12
418.72	88.12
418.943	69.12
419.166	86.12
419.389	97.12
419.611	74.12
419.834	82.12
420.057	80.12
420.28	88.12
420.503	78.12
420.726	79.12
420.948	86.12
421.171	101.12
421.394	96.12
421.617	76.12
421.839	82.12
422.062	99.12
422.285	97.12
422.507	110.12
422.73	102.12
422.953	88.12
423.175	101.12
423.398	95.12
423.621	76.12
423.843	90.12
424.066	76.12
424.288	96.12
424.511	82.12
424.733	79.12
424.956	95.12
425.178	96.12
425.401	94.12
425.623	87.12
425.846	92.12
426.068	95.12
426.291	76.12
426.513	80.12
426.735	78.12
426.958	86.12
427.18	100.12
427.402	112.12
427.625	146.12
427.847	117.12
428.069	98.12
428.292	84.12
428.514	92.12
428.736	80.12
428.958	83.12
429.181	91.12
429.403	84.12
429.625	89.12
429.847	85.12
430.069	101.12
430.292	89.12
430.514	91.12
430.736	88.12
430.958	87.12
431.18	83.12
431.402	93.12
431.624	79.12
431.846	87.12
432.068	89.12
432.29	77.12
432.512	98.12
432.734	108.12
432.956	93.12
433.178	92.12
433.4	93.12
433.622	85.12
433.844	98.12
434.066	87.12
434.287	84.12
434.509	98.12
434.731	92.12
434.953	86.12
435.175	95.12
435.397	71.12
435.618	86.12
435.84	87.12
436.062	94.12
436.284	96.12
436.505	88.12
436.727	89.12
436.949	95.12
437.17	87.12
437.392	94.12
437.614	85.12
437.835	82.12
438.057	88.12
438.278	97.12
438.5	105.12
438.721	106.12
438.943	90.12
439.165	81.12
439.386	87.12
439.608	94.12
439.829	96.12
440.05	117.12
440.272	106.12
440.493	85.12
440.715	82.12
440.936	96.12
441.158	95.12
441.379	89.12
441.6	93.12
441.822	92.12
442.043	97.12
442.264	97.12
442.486	91.12
442.707	96.12
442.928	87.12
443.149	106.12
443.371	116.12
443.592	94.12
443.813	113.12
444.034	101.12
444.255	86.12
444.476	85.12
444.698	91.12
444.919	81.12
445.14	136.12
445.361	118.12
445.582	113.12
445.803	114.12
446.024	122.12
446.245	116.12
446.466	116.12
446.687	105.12
446.908	89.12
447.129	82.12
447.35	85.12
447.571	93.12
447.792	90.12
448.013	90.12
448.234	106.12
448.455	84.12
448.675	104.12
448.896	112.12
449.117	96.12
449.338	99.12
449.559	116.12
449.779	119.12
450	87.12
450.221	93.12
450.442	85.12
450.662	89.12
450.883	90.12
451.104	109.12
451.324	67.12
451.545	93.12
451.766	80.12
451.986	84.12
452.207	83.12
452.428	90.12
452.648	101.12
452.869	103.12
453.089	113.12
453.31	95.12
453.53	89.12
453.751	84.12
453.971	97.12
454.192	92.12
454.412	96.12
454.633	94.12
454.853	94.12
455.073	84.12
455.294	94.12
455.514	95.12
455.734	84.12
455.955	85.12
456.175	93.12
456.395	90.12
456.616	98.12
456.836	87.12
457.056	79.12
457.276	93.12
457.497	96.12
457.717	88.12
457.937	73.12
458.157	78.12
458.377	81.12
458.598	88.12
458.818	131.12
459.038	121.12
459.258	96.12
459.478	94.12
459.698	98.12
459.918	100.12
460.138	70.12
460.358	92.12
460.578	81.12
460.798	91.12
461.018	95.12
461.238	82.12
461.458	89.12
461.678	88.12
461.898	93.12
462.118	97.12
462.338	81.12
462.558	79.12
462.777	98.12
462.997	75.12
463.217	75.12
463.437	85.12
463.657	73.12
463.876	80.12
464.096	91.12
464.316	82.12
464.536	78.12
464.755	100.12
464.975	96.12
465.195	131.12
465.414	137.12
465.634	84.12
465.854	95.12
466.073	72.12
466.293	86.12
466.512	91.12
466.732	76.12
466.951	80.12
467.171	82.12
467.391	101.12
467.61	85.12
467.829	83.12
468.049	89.12
468.268	90.12
468.488	89.12
468.707	80.12
468.927	100.12
469.146	82.12
469.365	93.12
469.585	78.12
469.804	96.12
470.023	100.12
470.243	84.12
470.462	96.12
470.681	97.12
470.901	105.12
471.12	80.12
471.339	89.12
471.558	83.12
471.777	92.12
471.997	91.12
472.216	104.12
472.435	99.12
472.654	84.12
472.873	99.12
473.092	86.12
473.311	64.12
473.53	78.12
473.749	85.12
473.968	110.12
474.187	92.12
474.406	98.12
474.625	92.12
474.844	85.12
475.063	79.12
475.282	84.12
475.501	102.12
475.72	98.12
475.939	86.12
476.158	80.12
476.377	76.12
476.596	89.12
476.814	90.12
477.033	84.12
477.252	76.12
477.471	77.12
477.69	97.12
477.908	102.12
478.127	97.12
478.346	77.12
478.564	78.12
478.783	93.12
479.002	85.12
479.22	72.12
479.439	101.12
479.658	93.12
479.876	99.12
480.095	75.12
480.313	97.12
480.532	98.12
480.751	94.12
480.969	95.12
481.188	132.12
481.406	112.12
481.624	85.12
481.843	81.12
482.061	95.12
482.28	85.12
482.498	70.12
482.717	82.12
482.935	94.12
483.153	88.12
483.372	97.12
483.59	86.12
483.808	87.12
484.027	88.12
484.245	87.12
484.463	96.12
484.681	102.12
484.9	82.12
485.118	106.12
485.336	104.12
485.554	99.12
485.772	104.12
485.99	98.12
486.209	104.12
486.427	104.12
486.645	109.12
486.863	103.12
487.081	90.12
487.299	105.12
487.517	92.12
487.735	102.12
487.953	93.12
488.171	97.12
488.389	83.12
488.607	98.12
488.825	96.12
489.043	100.12
489.261	98.12
489.479	86.12
489.696	101.12
489.914	87.12
490.132	88.12
490.35	98.12
490.568	89.12
490.786	89.12
491.003	81.12
491.221	86.12
491.439	87.12
491.657	97.12
491.874	101.12
492.092	90.12
492.31	88.12
492.527	85.12
492.745	77.12
492.963	85.12
493.18	86.12
493.398	88.12
493.615	99.12
493.833	83.12
494.05	88.12
494.268	85.12
494.485	88.12
494.703	85.12
494.92	83.12
495.138	87.12
495.355	84.12
495.573	86.12
495.79	81.12
496.008	95.12
496.225	73.12
496.442	80.12
496.66	99.12
496.877	76.12
497.094	99.12
497.312	98.12
497.529	87.12
497.746	60.12
497.963	92.12
498.181	84.12
498.398	92.12
498.615	119.12
498.832	85.12
499.049	86.12
499.267	90.12
499.484	90.12
499.701	89.12
499.918	90.12
500.135	85.12
500.352	91.12
500.569	103.12
500.786	89.12
501.003	92.12
501.22	86.12
501.437	88.12
501.654	101.12
501.871	116.12
502.088	73.12
502.305	89.12
502.522	86.12
502.739	102.12
502.956	96.12
503.172	106.12
503.389	105.12
503.606	108.12
503.823	98.12
504.04	83.12
504.256	80.12
504.473	82.12
504.69	93.12
504.907	93.12
505.123	92.12
505.34	104.12
505.557	91.12
505.773	98.12
505.99	88.12
506.207	92.12
506.423	107.12
506.64	68.12
506.856	73.12
507.073	72.12
507.289	89.12
507.506	100.12
507.722	95.12
507.939	114.12
508.155	94.12
508.372	92.12
508.588	94.12
508.805	90.12
509.021	108.12
509.238	89.12
509.454	84.12
509.67	93.12
509.887	105.12
510.103	117.12
510.319	171.12
510.536	588.12
510.752	1663.12
510.968	465.12
511.184	110.12
511.401	110.12
511.617	102.12
511.833	98.12
512.049	96.12
512.265	98.12
512.481	94.12
512.698	76.12
512.914	95.12
513.13	93.12
513.346	85.12
513.562	82.12
513.778	91.12
513.994	88.12
514.21	90.12
514.426	100.12
514.642	113.12
514.858	116.12
515.074	144.12
515.29	340.12
515.506	988.12
515.721	358.12
515.937	135.12
516.153	96.12
