Data from Circ_1986_H10_HRD10591_00076.txt Node
Date: Wed Jan 03 12:15:41 EST 2024
User: Yrep
Spectrometer: HR+D1059
Trigger mode: 1
Integration Time (sec): 1.000000E-1
Scans to average: 1
Electric dark correction enabled: true
Nonlinearity correction enabled: false
Boxcar width: 0
XAxis mode: Wavelengths
Number of Pixels in Spectrum: 2048
>>>>>Begin Spectral Data<<<<<
223.165	-5.5
223.4	-5.5
223.635	-5.5
223.869	-27.5
224.104	-9.5
224.338	-23.5
224.573	-20.5
224.808	-5.5
225.042	-9.5
225.277	3.5
225.511	-4.5
225.746	-0.5
225.98	4.5
226.215	13.5
226.449	13.5
226.683	20.5
226.918	26.5
227.152	24.5
227.387	39.5
227.621	44.5
227.856	47.5
228.09	43.5
228.324	69.5
228.559	56.5
228.793	71.5
229.027	57.5
229.262	67.5
229.496	70.5
229.73	85.5
229.964	91.5
230.199	73.5
230.433	80.5
230.667	69.5
230.901	79.5
231.136	84.5
231.37	96.5
231.604	85.5
231.838	73.5
232.072	77.5
232.306	78.5
232.541	93.5
232.775	71.5
233.009	103.5
233.243	89.5
233.477	86.5
233.711	64.5
233.945	74.5
234.179	82.5
234.413	84.5
234.647	63.5
234.881	83.5
235.115	84.5
235.349	80.5
235.583	69.5
235.817	67.5
236.051	85.5
236.285	81.5
236.519	77.5
236.753	64.5
236.987	67.5
237.221	86.5
237.455	100.5
237.689	77.5
237.922	93.5
238.156	78.5
238.39	80.5
238.624	84.5
238.858	85.5
239.091	83.5
239.325	83.5
239.559	76.5
239.793	82.5
240.027	77.5
240.26	84.5
240.494	78.5
240.728	84.5
240.961	65.5
241.195	90.5
241.429	83.5
241.662	75.5
241.896	73.5
242.13	75.5
242.363	59.5
242.597	75.5
242.83	91.5
243.064	99.5
243.298	86.5
243.531	66.5
243.765	76.5
243.998	84.5
244.232	84.5
244.465	78.5
244.699	76.5
244.932	76.5
245.166	71.5
245.399	89.5
245.633	64.5
245.866	84.5
246.099	80.5
246.333	86.5
246.566	66.5
246.8	86.5
247.033	78.5
247.266	82.5
247.5	82.5
247.733	78.5
247.966	74.5
248.2	88.5
248.433	88.5
248.666	76.5
248.899	89.5
249.133	80.5
249.366	96.5
249.599	101.5
249.832	84.5
250.066	71.5
250.299	77.5
250.532	80.5
250.765	77.5
250.998	84.5
251.231	84.5
251.465	82.5
251.698	84.5
251.931	73.5
252.164	92.5
252.397	90.5
252.63	92.5
252.863	73.5
253.096	83.5
253.329	90.5
253.562	88.5
253.795	74.5
254.028	84.5
254.261	82.5
254.494	92.5
254.727	86.5
254.96	92.5
255.193	80.5
255.426	99.5
255.659	82.5
255.892	96.5
256.124	83.5
256.357	89.5
256.59	83.5
256.823	81.5
257.056	78.5
257.289	84.5
257.521	82.5
257.754	82.5
257.987	92.5
258.22	84.5
258.452	91.5
258.685	76.5
258.918	88.5
259.151	92.5
259.383	76.5
259.616	97.5
259.849	80.5
260.081	80.5
260.314	86.5
260.547	89.5
260.779	86.5
261.012	94.5
261.244	91.5
261.477	85.5
261.71	92.5
261.942	118.5
262.175	110.5
262.407	75.5
262.64	97.5
262.872	100.5
263.105	95.5
263.337	74.5
263.57	98.5
263.802	98.5
264.035	81.5
264.267	92.5
264.499	78.5
264.732	87.5
264.964	73.5
265.197	88.5
265.429	78.5
265.661	83.5
265.894	87.5
266.126	90.5
266.358	89.5
266.591	85.5
266.823	99.5
267.055	86.5
267.287	82.5
267.52	98.5
267.752	76.5
267.984	92.5
268.216	80.5
268.448	84.5
268.681	96.5
268.913	86.5
269.145	72.5
269.377	90.5
269.609	85.5
269.841	82.5
270.073	75.5
270.306	93.5
270.538	84.5
270.77	95.5
271.002	90.5
271.234	86.5
271.466	94.5
271.698	92.5
271.93	74.5
272.162	91.5
272.394	91.5
272.626	97.5
272.858	94.5
273.09	93.5
273.322	96.5
273.553	99.5
273.785	86.5
274.017	89.5
274.249	90.5
274.481	93.5
274.713	92.5
274.945	98.5
275.176	96.5
275.408	94.5
275.64	86.5
275.872	96.5
276.104	94.5
276.335	95.5
276.567	108.5
276.799	93.5
277.031	125.5
277.262	93.5
277.494	91.5
277.726	97.5
277.957	88.5
278.189	86.5
278.421	92.5
278.652	93.5
278.884	91.5
279.115	96.5
279.347	80.5
279.579	93.5
279.81	101.5
280.042	97.5
280.273	97.5
280.505	91.5
280.736	95.5
280.968	82.5
281.199	82.5
281.431	90.5
281.662	93.5
281.894	94.5
282.125	95.5
282.356	123.5
282.588	139.5
282.819	113.5
283.051	100.5
283.282	85.5
283.513	97.5
283.745	101.5
283.976	101.5
284.207	90.5
284.439	78.5
284.67	83.5
284.901	92.5
285.132	84.5
285.364	74.5
285.595	96.5
285.826	94.5
286.057	100.5
286.288	87.5
286.52	85.5
286.751	107.5
286.982	89.5
287.213	87.5
287.444	73.5
287.675	89.5
287.906	88.5
288.138	76.5
288.369	85.5
288.6	102.5
288.831	88.5
289.062	88.5
289.293	93.5
289.524	97.5
289.755	90.5
289.986	100.5
290.217	98.5
290.448	93.5
290.679	98.5
290.91	85.5
291.141	90.5
291.371	96.5
291.602	76.5
291.833	87.5
292.064	97.5
292.295	96.5
292.526	89.5
292.757	93.5
292.987	105.5
293.218	94.5
293.449	88.5
293.68	97.5
293.91	105.5
294.141	75.5
294.372	96.5
294.603	92.5
294.833	90.5
295.064	96.5
295.295	103.5
295.525	112.5
295.756	104.5
295.987	101.5
296.217	135.5
296.448	120.5
296.679	102.5
296.909	99.5
297.14	84.5
297.37	100.5
297.601	95.5
297.831	98.5
298.062	105.5
298.292	86.5
298.523	91.5
298.753	93.5
298.984	85.5
299.214	105.5
299.445	99.5
299.675	97.5
299.905	100.5
300.136	97.5
300.366	95.5
300.597	93.5
300.827	106.5
301.057	103.5
301.288	109.5
301.518	91.5
301.748	93.5
301.979	100.5
302.209	101.5
302.439	98.5
302.669	85.5
302.9	84.5
303.13	107.5
303.36	96.5
303.59	111.5
303.82	98.5
304.051	99.5
304.281	92.5
304.511	108.5
304.741	90.5
304.971	93.5
305.201	88.5
305.431	90.5
305.661	88.5
305.891	91.5
306.121	88.5
306.352	105.5
306.582	101.5
306.812	106.5
307.042	100.5
307.272	111.5
307.502	99.5
307.731	103.5
307.961	100.5
308.191	84.5
308.421	82.5
308.651	101.5
308.881	93.5
309.111	105.5
309.341	87.5
309.571	99.5
309.8	96.5
310.03	101.5
310.26	88.5
310.49	84.5
310.72	100.5
310.949	114.5
311.179	108.5
311.409	89.5
311.639	106.5
311.868	104.5
312.098	95.5
312.328	105.5
312.557	107.5
312.787	100.5
313.017	106.5
313.246	96.5
313.476	97.5
313.706	82.5
313.935	88.5
314.165	109.5
314.394	99.5
314.624	112.5
314.853	107.5
315.083	106.5
315.312	97.5
315.542	102.5
315.771	106.5
316.001	106.5
316.23	100.5
316.46	84.5
316.689	96.5
316.919	104.5
317.148	84.5
317.377	88.5
317.607	88.5
317.836	91.5
318.065	91.5
318.295	97.5
318.524	86.5
318.753	116.5
318.983	100.5
319.212	108.5
319.441	106.5
319.67	101.5
319.9	91.5
320.129	100.5
320.358	109.5
320.587	102.5
320.816	95.5
321.046	107.5
321.275	101.5
321.504	99.5
321.733	90.5
321.962	93.5
322.191	100.5
322.42	113.5
322.649	117.5
322.878	126.5
323.108	126.5
323.337	123.5
323.566	153.5
323.795	158.5
324.024	197.5
324.253	402.5
324.482	874.5
324.71	1786.5
324.939	2325.5
325.168	862.5
325.397	259.5
325.626	165.5
325.855	140.5
326.084	139.5
326.313	131.5
326.542	159.5
326.77	231.5
326.999	476.5
327.228	992.5
327.457	1831.5
327.686	1476.5
327.914	401.5
328.143	220.5
328.372	184.5
328.6	147.5
328.829	128.5
329.058	127.5
329.287	145.5
329.515	115.5
329.744	125.5
329.972	144.5
330.201	208.5
330.43	243.5
330.658	174.5
330.887	162.5
331.115	124.5
331.344	106.5
331.572	121.5
331.801	106.5
332.03	101.5
332.258	90.5
332.486	101.5
332.715	93.5
332.943	93.5
333.172	100.5
333.4	84.5
333.629	121.5
333.857	105.5
334.085	132.5
334.314	187.5
334.542	267.5
334.771	238.5
334.999	136.5
335.227	115.5
335.455	101.5
335.684	104.5
335.912	121.5
336.14	89.5
336.369	108.5
336.597	114.5
336.825	93.5
337.053	94.5
337.281	83.5
337.51	83.5
337.738	85.5
337.966	101.5
338.194	98.5
338.422	94.5
338.65	99.5
338.878	82.5
339.106	97.5
339.334	96.5
339.562	86.5
339.79	100.5
340.018	100.5
340.246	85.5
340.474	95.5
340.702	104.5
340.93	88.5
341.158	94.5
341.386	101.5
341.614	93.5
341.842	107.5
342.07	108.5
342.298	86.5
342.526	95.5
342.754	96.5
342.981	96.5
343.209	87.5
343.437	105.5
343.665	88.5
343.893	84.5
344.12	101.5
344.348	86.5
344.576	87.5
344.804	81.5
345.031	98.5
345.259	99.5
345.487	117.5
345.714	83.5
345.942	92.5
346.17	102.5
346.397	100.5
346.625	90.5
346.853	95.5
347.08	91.5
347.308	92.5
347.535	82.5
347.763	106.5
347.99	106.5
348.218	97.5
348.445	109.5
348.673	100.5
348.9	96.5
349.128	102.5
349.355	101.5
349.583	102.5
349.81	82.5
350.037	88.5
350.265	94.5
350.492	90.5
350.72	90.5
350.947	109.5
351.174	102.5
351.402	109.5
351.629	93.5
351.856	98.5
352.083	88.5
352.311	112.5
352.538	111.5
352.765	110.5
352.992	123.5
353.22	117.5
353.447	101.5
353.674	106.5
353.901	105.5
354.128	107.5
354.355	105.5
354.583	91.5
354.81	109.5
355.037	102.5
355.264	96.5
355.491	96.5
355.718	91.5
355.945	95.5
356.172	81.5
356.399	92.5
356.626	91.5
356.853	82.5
357.08	104.5
357.307	96.5
357.534	97.5
357.761	72.5
357.988	100.5
358.215	95.5
358.441	107.5
358.668	94.5
358.895	96.5
359.122	89.5
359.349	98.5
359.576	95.5
359.802	98.5
360.029	117.5
360.256	105.5
360.483	106.5
360.709	99.5
360.936	102.5
361.163	98.5
361.39	112.5
361.616	97.5
361.843	100.5
362.07	108.5
362.296	100.5
362.523	101.5
362.749	106.5
362.976	91.5
363.203	104.5
363.429	95.5
363.656	102.5
363.882	104.5
364.109	99.5
364.335	106.5
364.562	104.5
364.788	98.5
365.015	102.5
365.241	107.5
365.468	115.5
365.694	102.5
365.92	91.5
366.147	97.5
366.373	92.5
366.599	96.5
366.826	95.5
367.052	94.5
367.278	103.5
367.505	100.5
367.731	114.5
367.957	101.5
368.184	99.5
368.41	116.5
368.636	127.5
368.862	118.5
369.089	122.5
369.315	99.5
369.541	95.5
369.767	106.5
369.993	87.5
370.219	92.5
370.445	85.5
370.672	100.5
370.898	93.5
371.124	85.5
371.35	79.5
371.576	94.5
371.802	86.5
372.028	92.5
372.254	94.5
372.48	87.5
372.706	89.5
372.932	103.5
373.158	92.5
373.384	84.5
373.61	83.5
373.835	98.5
374.061	80.5
374.287	99.5
374.513	104.5
374.739	94.5
374.965	101.5
375.191	99.5
375.416	92.5
375.642	100.5
375.868	93.5
376.094	88.5
376.319	93.5
376.545	69.5
376.771	84.5
376.997	90.5
377.222	104.5
377.448	93.5
377.674	97.5
377.899	94.5
378.125	94.5
378.35	87.5
378.576	97.5
378.802	96.5
379.027	97.5
379.253	95.5
379.478	88.5
379.704	99.5
379.929	86.5
380.155	94.5
380.38	88.5
380.606	91.5
380.831	103.5
381.057	107.5
381.282	112.5
381.507	92.5
381.733	98.5
381.958	92.5
382.184	101.5
382.409	106.5
382.634	103.5
382.86	102.5
383.085	100.5
383.31	102.5
383.535	98.5
383.761	86.5
383.986	101.5
384.211	94.5
384.436	114.5
384.662	97.5
384.887	113.5
385.112	100.5
385.337	108.5
385.562	108.5
385.787	124.5
386.013	102.5
386.238	108.5
386.463	115.5
386.688	103.5
386.913	101.5
387.138	100.5
387.363	106.5
387.588	91.5
387.813	105.5
388.038	109.5
388.263	113.5
388.488	104.5
388.713	88.5
388.938	109.5
389.163	90.5
389.387	104.5
389.612	105.5
389.837	95.5
390.062	84.5
390.287	93.5
390.512	113.5
390.736	94.5
390.961	103.5
391.186	90.5
391.411	82.5
391.636	85.5
391.86	70.5
392.085	81.5
392.31	88.5
392.534	94.5
392.759	92.5
392.984	85.5
393.208	88.5
393.433	86.5
393.658	88.5
393.882	89.5
394.107	91.5
394.331	82.5
394.556	97.5
394.78	100.5
395.005	98.5
395.229	101.5
395.454	84.5
395.678	80.5
395.903	74.5
396.127	89.5
396.352	97.5
396.576	83.5
396.801	96.5
397.025	104.5
397.249	93.5
397.474	94.5
397.698	101.5
397.922	88.5
398.147	95.5
398.371	82.5
398.595	104.5
398.82	97.5
399.044	84.5
399.268	81.5
399.492	86.5
399.717	90.5
399.941	87.5
400.165	102.5
400.389	97.5
400.613	86.5
400.837	88.5
401.062	96.5
401.286	96.5
401.51	101.5
401.734	96.5
401.958	113.5
402.182	120.5
402.406	166.5
402.63	139.5
402.854	117.5
403.078	92.5
403.302	93.5
403.526	84.5
403.75	94.5
403.974	85.5
404.198	77.5
404.422	97.5
404.645	100.5
404.869	94.5
405.093	103.5
405.317	122.5
405.541	106.5
405.765	102.5
405.988	105.5
406.212	182.5
406.436	231.5
406.66	144.5
406.883	110.5
407.107	104.5
407.331	92.5
407.555	86.5
407.778	112.5
408.002	94.5
408.226	89.5
408.449	87.5
408.673	83.5
408.896	96.5
409.12	99.5
409.344	100.5
409.567	92.5
409.791	100.5
410.014	94.5
410.238	87.5
410.461	106.5
410.685	102.5
410.908	102.5
411.132	103.5
411.355	95.5
411.578	91.5
411.802	100.5
412.025	88.5
412.249	90.5
412.472	113.5
412.695	100.5
412.919	89.5
413.142	96.5
413.365	101.5
413.589	87.5
413.812	92.5
414.035	110.5
414.258	101.5
414.482	90.5
414.705	87.5
414.928	84.5
415.151	114.5
415.374	89.5
415.597	66.5
415.821	85.5
416.044	82.5
416.267	82.5
416.49	91.5
416.713	103.5
416.936	103.5
417.159	90.5
417.382	92.5
417.605	94.5
417.828	100.5
418.051	92.5
418.274	78.5
418.497	94.5
418.72	92.5
418.943	115.5
419.166	99.5
419.389	82.5
419.611	82.5
419.834	84.5
420.057	85.5
420.28	96.5
420.503	99.5
420.726	101.5
420.948	90.5
421.171	109.5
421.394	96.5
421.617	84.5
421.839	91.5
422.062	93.5
422.285	89.5
422.507	109.5
422.73	104.5
422.953	108.5
423.175	73.5
423.398	81.5
423.621	88.5
423.843	83.5
424.066	98.5
424.288	93.5
424.511	95.5
424.733	116.5
424.956	106.5
425.178	100.5
425.401	99.5
425.623	90.5
425.846	101.5
426.068	94.5
426.291	93.5
426.513	92.5
426.735	85.5
426.958	80.5
427.18	115.5
427.402	146.5
427.625	172.5
427.847	147.5
428.069	129.5
428.292	104.5
428.514	98.5
428.736	85.5
428.958	87.5
429.181	75.5
429.403	89.5
429.625	88.5
429.847	105.5
430.069	101.5
430.292	84.5
430.514	96.5
430.736	105.5
430.958	94.5
431.18	83.5
431.402	100.5
431.624	80.5
431.846	82.5
432.068	97.5
432.29	85.5
432.512	91.5
432.734	99.5
432.956	91.5
433.178	92.5
433.4	100.5
433.622	93.5
433.844	78.5
434.066	86.5
434.287	96.5
434.509	94.5
434.731	90.5
434.953	85.5
435.175	101.5
435.397	101.5
435.618	65.5
435.84	98.5
436.062	110.5
436.284	121.5
436.505	123.5
436.727	112.5
436.949	77.5
437.17	88.5
437.392	88.5
437.614	92.5
437.835	112.5
438.057	130.5
438.278	102.5
438.5	106.5
438.721	120.5
438.943	104.5
439.165	86.5
439.386	89.5
439.608	101.5
439.829	102.5
440.05	118.5
440.272	155.5
440.493	106.5
440.715	89.5
440.936	87.5
441.158	104.5
441.379	82.5
441.6	99.5
441.822	96.5
442.043	98.5
442.264	102.5
442.486	102.5
442.707	91.5
442.928	118.5
443.149	139.5
443.371	117.5
443.592	112.5
443.813	115.5
444.034	116.5
444.255	86.5
444.476	86.5
444.698	82.5
444.919	91.5
445.14	144.5
445.361	123.5
445.582	122.5
445.803	149.5
446.024	145.5
446.245	139.5
446.466	108.5
446.687	91.5
446.908	89.5
447.129	80.5
447.35	98.5
447.571	99.5
447.792	89.5
448.013	98.5
448.234	109.5
448.455	100.5
448.675	114.5
448.896	117.5
449.117	89.5
449.338	103.5
449.559	129.5
449.779	132.5
450	92.5
450.221	86.5
450.442	88.5
450.662	78.5
450.883	109.5
451.104	117.5
451.324	89.5
451.545	94.5
451.766	88.5
451.986	98.5
452.207	90.5
452.428	92.5
452.648	93.5
452.869	122.5
453.089	110.5
453.31	120.5
453.53	110.5
453.751	112.5
453.971	100.5
454.192	124.5
454.412	98.5
454.633	91.5
454.853	99.5
455.073	100.5
455.294	91.5
455.514	106.5
455.734	91.5
455.955	81.5
456.175	90.5
456.395	87.5
456.616	84.5
456.836	72.5
457.056	70.5
457.276	96.5
457.497	77.5
457.717	93.5
457.937	83.5
458.157	92.5
458.377	82.5
458.598	88.5
458.818	146.5
459.038	160.5
459.258	123.5
459.478	92.5
459.698	95.5
459.918	80.5
460.138	85.5
460.358	86.5
460.578	90.5
460.798	84.5
461.018	93.5
461.238	82.5
461.458	74.5
461.678	86.5
461.898	91.5
462.118	96.5
462.338	84.5
462.558	76.5
462.777	83.5
462.997	90.5
463.217	93.5
463.437	94.5
463.657	88.5
463.876	81.5
464.096	78.5
464.316	99.5
464.536	91.5
464.755	111.5
464.975	106.5
465.195	172.5
465.414	146.5
465.634	90.5
465.854	101.5
466.073	89.5
466.293	92.5
466.512	90.5
466.732	92.5
466.951	98.5
467.171	105.5
467.391	100.5
467.61	118.5
467.829	112.5
468.049	132.5
468.268	170.5
468.488	101.5
468.707	80.5
468.927	92.5
469.146	82.5
469.365	86.5
469.585	105.5
469.804	100.5
470.023	115.5
470.243	107.5
470.462	97.5
470.681	110.5
470.901	97.5
471.12	99.5
471.339	100.5
471.558	95.5
471.777	88.5
471.997	96.5
472.216	193.5
472.435	326.5
472.654	139.5
472.873	101.5
473.092	94.5
473.311	91.5
473.53	89.5
473.749	81.5
473.968	98.5
474.187	108.5
474.406	93.5
474.625	104.5
474.844	93.5
475.063	95.5
475.282	82.5
475.501	92.5
475.72	93.5
475.939	98.5
476.158	91.5
476.377	86.5
476.596	102.5
476.814	98.5
477.033	91.5
477.252	96.5
477.471	94.5
477.69	95.5
477.908	89.5
478.127	101.5
478.346	87.5
478.564	86.5
478.783	104.5
479.002	93.5
479.22	95.5
479.439	109.5
479.658	104.5
479.876	93.5
480.095	90.5
480.313	86.5
480.532	95.5
480.751	115.5
480.969	222.5
481.188	548.5
481.406	342.5
481.624	123.5
481.843	89.5
482.061	108.5
482.28	74.5
482.498	100.5
482.717	77.5
482.935	93.5
483.153	86.5
483.372	92.5
483.59	93.5
483.808	74.5
484.027	94.5
484.245	84.5
484.463	98.5
484.681	89.5
484.9	104.5
485.118	108.5
485.336	94.5
485.554	102.5
485.772	112.5
485.99	109.5
486.209	113.5
486.427	117.5
486.645	100.5
486.863	98.5
487.081	98.5
487.299	92.5
487.517	100.5
487.735	77.5
487.953	75.5
488.171	100.5
488.389	93.5
488.607	99.5
488.825	96.5
489.043	80.5
489.261	102.5
489.479	91.5
489.696	92.5
489.914	94.5
490.132	85.5
490.35	91.5
490.568	90.5
490.786	102.5
491.003	81.5
491.221	93.5
491.439	106.5
491.657	79.5
491.874	82.5
492.092	100.5
492.31	88.5
492.527	97.5
492.745	101.5
492.963	91.5
493.18	97.5
493.398	88.5
493.615	93.5
493.833	104.5
494.05	97.5
494.268	110.5
494.485	97.5
494.703	100.5
494.92	74.5
495.138	90.5
495.355	101.5
495.573	108.5
495.79	91.5
496.008	87.5
496.225	97.5
496.442	95.5
496.66	109.5
496.877	89.5
497.094	95.5
497.312	74.5
497.529	92.5
497.746	96.5
497.963	99.5
498.181	90.5
498.398	94.5
498.615	101.5
498.832	115.5
499.049	97.5
499.267	101.5
499.484	89.5
499.701	92.5
499.918	87.5
500.135	81.5
500.352	93.5
500.569	94.5
500.786	89.5
501.003	68.5
501.22	82.5
501.437	84.5
501.654	97.5
501.871	105.5
502.088	84.5
502.305	82.5
502.522	88.5
502.739	82.5
502.956	98.5
503.172	90.5
503.389	89.5
503.606	113.5
503.823	89.5
504.04	90.5
504.256	95.5
504.473	92.5
504.69	101.5
504.907	101.5
505.123	96.5
505.34	99.5
505.557	105.5
505.773	94.5
505.99	96.5
506.207	86.5
506.423	85.5
506.64	93.5
506.856	83.5
507.073	86.5
507.289	77.5
507.506	94.5
507.722	111.5
507.939	125.5
508.155	89.5
508.372	89.5
508.588	93.5
508.805	101.5
509.021	94.5
509.238	100.5
509.454	97.5
509.67	95.5
509.887	115.5
510.103	141.5
510.319	231.5
510.536	823.5
510.752	2534.5
510.968	676.5
511.184	164.5
511.401	117.5
511.617	119.5
511.833	96.5
512.049	96.5
512.265	93.5
512.481	100.5
512.698	96.5
512.914	100.5
513.13	94.5
513.346	95.5
513.562	92.5
513.778	103.5
513.994	106.5
514.21	111.5
514.426	110.5
514.642	126.5
514.858	139.5
515.074	183.5
515.29	508.5
515.506	1586.5
515.721	576.5
515.937	166.5
516.153	119.5
516.369	120.5
516.585	102.5
516.801	107.5
517.016	106.5
517.232	92.5
517.448	97.5
517.664	95.5
517.879	99.5
518.095	80.5
518.311	86.5
518.527	85.5
518.742	96.5
518.958	98.5
519.173	101.5
519.389	99.5
519.605	103.5
519.82	91.5
520.036	106.5
520.251	116.5
520.467	110.5
520.682	97.5
520.898	102.5
521.113	116.5
521.329	140.5
521.544	218.5
521.76	616.5
521.975	2689.5
522.19	1592.5
522.406	343.5
522.621	136.5
522.836	101.5
523.052	96.5
523.267	100.5
523.482	99.5
523.698	108.5
523.913	131.5
524.128	100.5
524.343	89.5
524.559	89.5
524.774	104.5
524.989	79.5
525.204	104.5
525.419	113.5
525.634	89.5
525.849	76.5
526.064	90.5
526.28	102.5
526.495	88.5
526.71	91.5
526.925	102.5
527.14	96.5
527.355	81.5
527.57	84.5
527.785	89.5
527.999	94.5
528.214	101.5
528.429	107.5
528.644	72.5
528.859	112.5
529.074	101.5
529.289	138.5
529.503	186.5
529.718	107.5
529.933	98.5
530.148	87.5
530.363	98.5
530.577	80.5
530.792	91.5
531.007	93.5
531.221	96.5
531.436	98.5
531.651	108.5
531.865	100.5
532.08	113.5
532.295	94.5
532.509	92.5
532.724	103.5
532.938	94.5
533.153	100.5
