Data from Circ_1986_H10_HRD10591_00064.txt Node
Date: Wed Jan 03 12:15:38 EST 2024
User: Yrep
Spectrometer: HR+D1059
Trigger mode: 1
Integration Time (sec): 1.000000E-1
Scans to average: 1
Electric dark correction enabled: true
Nonlinearity correction enabled: false
Boxcar width: 0
XAxis mode: Wavelengths
Number of Pixels in Spectrum: 2048
>>>>>Begin Spectral Data<<<<<
223.165	-18.81
223.4	-18.81
223.635	-18.81
223.869	-11.81
224.104	-29.81
224.338	-27.81
224.573	-9.81
224.808	4.19
225.042	-6.81
225.277	-4.81
225.511	6.19
225.746	-6.81
225.98	9.19
226.215	3.19
226.449	18.19
226.683	27.19
226.918	25.19
227.152	23.19
227.387	40.19
227.621	45.19
227.856	67.19
228.09	52.19
228.324	53.19
228.559	64.19
228.793	54.19
229.027	63.19
229.262	70.19
229.496	66.19
229.73	89.19
229.964	75.19
230.199	87.19
230.433	66.19
230.667	75.19
230.901	72.19
231.136	77.19
231.37	76.19
231.604	81.19
231.838	81.19
232.072	83.19
232.306	88.19
232.541	79.19
232.775	92.19
233.009	87.19
233.243	81.19
233.477	74.19
233.711	91.19
233.945	88.19
234.179	87.19
234.413	93.19
234.647	69.19
234.881	82.19
235.115	75.19
235.349	75.19
235.583	87.19
235.817	67.19
236.051	72.19
236.285	82.19
236.519	83.19
236.753	84.19
236.987	74.19
237.221	69.19
237.455	100.19
237.689	82.19
237.922	80.19
238.156	74.19
238.39	80.19
238.624	67.19
238.858	79.19
239.091	80.19
239.325	87.19
239.559	78.19
239.793	78.19
240.027	83.19
240.26	71.19
240.494	89.19
240.728	100.19
240.961	85.19
241.195	66.19
241.429	71.19
241.662	74.19
241.896	72.19
242.13	83.19
242.363	79.19
242.597	82.19
242.83	76.19
243.064	84.19
243.298	81.19
243.531	74.19
243.765	82.19
243.998	87.19
244.232	70.19
244.465	89.19
244.699	85.19
244.932	69.19
245.166	76.19
245.399	72.19
245.633	76.19
245.866	73.19
246.099	72.19
246.333	69.19
246.566	67.19
246.8	69.19
247.033	89.19
247.266	70.19
247.5	65.19
247.733	63.19
247.966	76.19
248.2	76.19
248.433	75.19
248.666	93.19
248.899	87.19
249.133	75.19
249.366	89.19
249.599	83.19
249.832	77.19
250.066	89.19
250.299	79.19
250.532	89.19
250.765	72.19
250.998	80.19
251.231	71.19
251.465	94.19
251.698	89.19
251.931	84.19
252.164	69.19
252.397	69.19
252.63	74.19
252.863	83.19
253.096	89.19
253.329	76.19
253.562	75.19
253.795	71.19
254.028	88.19
254.261	85.19
254.494	88.19
254.727	94.19
254.96	76.19
255.193	83.19
255.426	83.19
255.659	72.19
255.892	83.19
256.124	92.19
256.357	89.19
256.59	81.19
256.823	88.19
257.056	92.19
257.289	82.19
257.521	73.19
257.754	97.19
257.987	82.19
258.22	87.19
258.452	71.19
258.685	83.19
258.918	87.19
259.151	91.19
259.383	77.19
259.616	89.19
259.849	73.19
260.081	77.19
260.314	90.19
260.547	90.19
260.779	94.19
261.012	87.19
261.244	81.19
261.477	99.19
261.71	87.19
261.942	117.19
262.175	116.19
262.407	84.19
262.64	73.19
262.872	83.19
263.105	73.19
263.337	84.19
263.57	90.19
263.802	74.19
264.035	74.19
264.267	67.19
264.499	68.19
264.732	69.19
264.964	88.19
265.197	79.19
265.429	91.19
265.661	73.19
265.894	73.19
266.126	97.19
266.358	87.19
266.591	91.19
266.823	83.19
267.055	83.19
267.287	72.19
267.52	79.19
267.752	90.19
267.984	83.19
268.216	85.19
268.448	72.19
268.681	80.19
268.913	79.19
269.145	88.19
269.377	92.19
269.609	83.19
269.841	81.19
270.073	78.19
270.306	91.19
270.538	103.19
270.77	72.19
271.002	96.19
271.234	89.19
271.466	79.19
271.698	84.19
271.93	69.19
272.162	97.19
272.394	88.19
272.626	94.19
272.858	83.19
273.09	92.19
273.322	96.19
273.553	81.19
273.785	84.19
274.017	71.19
274.249	88.19
274.481	83.19
274.713	79.19
274.945	77.19
275.176	81.19
275.408	85.19
275.64	82.19
275.872	96.19
276.104	86.19
276.335	84.19
276.567	91.19
276.799	108.19
277.031	98.19
277.262	86.19
277.494	101.19
277.726	93.19
277.957	79.19
278.189	68.19
278.421	79.19
278.652	103.19
278.884	92.19
279.115	95.19
279.347	89.19
279.579	91.19
279.81	79.19
280.042	87.19
280.273	87.19
280.505	79.19
280.736	80.19
280.968	93.19
281.199	76.19
281.431	66.19
281.662	72.19
281.894	88.19
282.125	83.19
282.356	105.19
282.588	127.19
282.819	117.19
283.051	99.19
283.282	73.19
283.513	87.19
283.745	100.19
283.976	91.19
284.207	77.19
284.439	87.19
284.67	100.19
284.901	87.19
285.132	90.19
285.364	90.19
285.595	99.19
285.826	97.19
286.057	97.19
286.288	91.19
286.52	92.19
286.751	87.19
286.982	77.19
287.213	90.19
287.444	89.19
287.675	90.19
287.906	92.19
288.138	90.19
288.369	89.19
288.6	82.19
288.831	85.19
289.062	86.19
289.293	89.19
289.524	100.19
289.755	93.19
289.986	84.19
290.217	83.19
290.448	96.19
290.679	72.19
290.91	90.19
291.141	91.19
291.371	89.19
291.602	87.19
291.833	84.19
292.064	81.19
292.295	97.19
292.526	86.19
292.757	90.19
292.987	91.19
293.218	97.19
293.449	61.19
293.68	76.19
293.91	80.19
294.141	76.19
294.372	93.19
294.603	95.19
294.833	92.19
295.064	87.19
295.295	81.19
295.525	83.19
295.756	100.19
295.987	91.19
296.217	131.19
296.448	111.19
296.679	81.19
296.909	76.19
297.14	77.19
297.37	96.19
297.601	98.19
297.831	81.19
298.062	86.19
298.292	87.19
298.523	90.19
298.753	98.19
298.984	92.19
299.214	89.19
299.445	96.19
299.675	89.19
299.905	99.19
300.136	82.19
300.366	80.19
300.597	98.19
300.827	93.19
301.057	77.19
301.288	98.19
301.518	104.19
301.748	93.19
301.979	103.19
302.209	95.19
302.439	95.19
302.669	89.19
302.9	87.19
303.13	77.19
303.36	102.19
303.59	90.19
303.82	103.19
304.051	103.19
304.281	98.19
304.511	79.19
304.741	91.19
304.971	85.19
305.201	93.19
305.431	84.19
305.661	98.19
305.891	101.19
306.121	98.19
306.352	92.19
306.582	97.19
306.812	108.19
307.042	95.19
307.272	103.19
307.502	96.19
307.731	98.19
307.961	85.19
308.191	97.19
308.421	95.19
308.651	98.19
308.881	91.19
309.111	83.19
309.341	91.19
309.571	102.19
309.8	96.19
310.03	84.19
310.26	107.19
310.49	91.19
310.72	87.19
310.949	105.19
311.179	91.19
311.409	97.19
311.639	100.19
311.868	110.19
312.098	99.19
312.328	92.19
312.557	111.19
312.787	101.19
313.017	91.19
313.246	90.19
313.476	92.19
313.706	103.19
313.935	101.19
314.165	115.19
314.394	114.19
314.624	97.19
314.853	94.19
315.083	98.19
315.312	89.19
315.542	103.19
315.771	101.19
316.001	93.19
316.23	74.19
316.46	85.19
316.689	85.19
316.919	78.19
317.148	90.19
317.377	84.19
317.607	91.19
317.836	86.19
318.065	93.19
318.295	83.19
318.524	95.19
318.753	101.19
318.983	83.19
319.212	97.19
319.441	91.19
319.67	122.19
319.9	96.19
320.129	104.19
320.358	88.19
320.587	85.19
320.816	89.19
321.046	88.19
321.275	106.19
321.504	99.19
321.733	86.19
321.962	101.19
322.191	110.19
322.42	115.19
322.649	102.19
322.878	115.19
323.108	113.19
323.337	138.19
323.566	133.19
323.795	148.19
324.024	191.19
324.253	347.19
324.482	712.19
324.71	1455.19
324.939	2038.19
325.168	739.19
325.397	215.19
325.626	121.19
325.855	130.19
326.084	129.19
326.313	137.19
326.542	147.19
326.77	197.19
326.999	395.19
327.228	859.19
327.457	1552.19
327.686	1279.19
327.914	343.19
328.143	197.19
328.372	179.19
328.6	136.19
328.829	114.19
329.058	119.19
329.287	124.19
329.515	117.19
329.744	126.19
329.972	120.19
330.201	162.19
330.43	203.19
330.658	157.19
330.887	135.19
331.115	109.19
331.344	100.19
331.572	92.19
331.801	102.19
332.03	103.19
332.258	103.19
332.486	89.19
332.715	98.19
332.943	93.19
333.172	103.19
333.4	106.19
333.629	112.19
333.857	114.19
334.085	123.19
334.314	146.19
334.542	235.19
334.771	199.19
334.999	122.19
335.227	93.19
335.455	98.19
335.684	94.19
335.912	96.19
336.14	104.19
336.369	82.19
336.597	85.19
336.825	84.19
337.053	108.19
337.281	97.19
337.51	95.19
337.738	97.19
337.966	92.19
338.194	91.19
338.422	106.19
338.65	100.19
338.878	98.19
339.106	96.19
339.334	103.19
339.562	97.19
339.79	96.19
340.018	98.19
340.246	92.19
340.474	89.19
340.702	95.19
340.93	83.19
341.158	96.19
341.386	102.19
341.614	93.19
341.842	92.19
342.07	91.19
342.298	108.19
342.526	85.19
342.754	99.19
342.981	82.19
343.209	81.19
343.437	109.19
343.665	87.19
343.893	98.19
344.12	90.19
344.348	101.19
344.576	86.19
344.804	91.19
345.031	100.19
345.259	97.19
345.487	93.19
345.714	95.19
345.942	86.19
346.17	89.19
346.397	93.19
346.625	101.19
346.853	92.19
347.08	88.19
347.308	97.19
347.535	93.19
347.763	78.19
347.99	102.19
348.218	99.19
348.445	109.19
348.673	103.19
348.9	87.19
349.128	103.19
349.355	103.19
349.583	95.19
349.81	92.19
350.037	91.19
350.265	101.19
350.492	87.19
350.72	104.19
350.947	87.19
351.174	125.19
351.402	96.19
351.629	82.19
351.856	103.19
352.083	89.19
352.311	101.19
352.538	111.19
352.765	103.19
352.992	108.19
353.22	115.19
353.447	104.19
353.674	104.19
353.901	109.19
354.128	90.19
354.355	90.19
354.583	109.19
354.81	95.19
355.037	86.19
355.264	103.19
355.491	99.19
355.718	101.19
355.945	90.19
356.172	102.19
356.399	91.19
356.626	104.19
356.853	97.19
357.08	81.19
357.307	102.19
357.534	103.19
357.761	92.19
357.988	96.19
358.215	91.19
358.441	100.19
358.668	87.19
358.895	90.19
359.122	96.19
359.349	91.19
359.576	91.19
359.802	91.19
360.029	92.19
360.256	98.19
360.483	97.19
360.709	96.19
360.936	103.19
361.163	102.19
361.39	86.19
361.616	93.19
361.843	108.19
362.07	89.19
362.296	83.19
362.523	83.19
362.749	76.19
362.976	87.19
363.203	104.19
363.429	92.19
363.656	83.19
363.882	88.19
364.109	106.19
364.335	80.19
364.562	83.19
364.788	100.19
365.015	88.19
365.241	106.19
365.468	97.19
365.694	107.19
365.92	84.19
366.147	99.19
366.373	91.19
366.599	95.19
366.826	79.19
367.052	97.19
367.278	87.19
367.505	89.19
367.731	90.19
367.957	80.19
368.184	91.19
368.41	97.19
368.636	112.19
368.862	104.19
369.089	107.19
369.315	98.19
369.541	93.19
369.767	93.19
369.993	95.19
370.219	105.19
370.445	97.19
370.672	97.19
370.898	92.19
371.124	92.19
371.35	91.19
371.576	87.19
371.802	97.19
372.028	99.19
372.254	88.19
372.48	91.19
372.706	89.19
372.932	89.19
373.158	97.19
373.384	93.19
373.61	89.19
373.835	96.19
374.061	98.19
374.287	98.19
374.513	92.19
374.739	88.19
374.965	90.19
375.191	97.19
375.416	95.19
375.642	89.19
375.868	93.19
376.094	90.19
376.319	104.19
376.545	90.19
376.771	96.19
376.997	93.19
377.222	90.19
377.448	104.19
377.674	94.19
377.899	85.19
378.125	103.19
378.35	88.19
378.576	93.19
378.802	106.19
379.027	103.19
379.253	84.19
379.478	93.19
379.704	91.19
379.929	86.19
380.155	107.19
380.38	95.19
380.606	85.19
380.831	95.19
381.057	104.19
381.282	92.19
381.507	88.19
381.733	96.19
381.958	98.19
382.184	101.19
382.409	104.19
382.634	95.19
382.86	93.19
383.085	92.19
383.31	106.19
383.535	100.19
383.761	99.19
383.986	108.19
384.211	116.19
384.436	107.19
384.662	91.19
384.887	105.19
385.112	102.19
385.337	111.19
385.562	109.19
385.787	100.19
386.013	116.19
386.238	120.19
386.463	105.19
386.688	92.19
386.913	98.19
387.138	116.19
387.363	106.19
387.588	91.19
387.813	100.19
388.038	106.19
388.263	109.19
388.488	129.19
388.713	93.19
388.938	95.19
389.163	91.19
389.387	89.19
389.612	98.19
389.837	92.19
390.062	101.19
390.287	99.19
390.512	101.19
390.736	80.19
390.961	83.19
391.186	101.19
391.411	93.19
391.636	103.19
391.86	91.19
392.085	90.19
392.31	80.19
392.534	87.19
392.759	84.19
392.984	85.19
393.208	100.19
393.433	93.19
393.658	100.19
393.882	76.19
394.107	86.19
394.331	89.19
394.556	90.19
394.78	104.19
395.005	89.19
395.229	91.19
395.454	90.19
395.678	82.19
395.903	91.19
396.127	90.19
396.352	88.19
396.576	88.19
396.801	72.19
397.025	85.19
397.249	81.19
397.474	71.19
397.698	79.19
397.922	89.19
398.147	91.19
398.371	84.19
398.595	83.19
398.82	97.19
399.044	91.19
399.268	76.19
399.492	87.19
399.717	76.19
399.941	90.19
400.165	103.19
400.389	99.19
400.613	77.19
400.837	74.19
401.062	91.19
401.286	91.19
401.51	97.19
401.734	93.19
401.958	103.19
402.182	126.19
402.406	135.19
402.63	119.19
402.854	97.19
403.078	104.19
403.302	91.19
403.526	100.19
403.75	99.19
403.974	101.19
404.198	86.19
404.422	91.19
404.645	83.19
404.869	86.19
405.093	92.19
405.317	94.19
405.541	107.19
405.765	83.19
405.988	108.19
406.212	148.19
406.436	205.19
406.66	146.19
406.883	96.19
407.107	92.19
407.331	95.19
407.555	114.19
407.778	95.19
408.002	90.19
408.226	84.19
408.449	82.19
408.673	93.19
408.896	98.19
409.12	93.19
409.344	93.19
409.567	74.19
409.791	101.19
410.014	86.19
410.238	96.19
410.461	90.19
410.685	93.19
410.908	99.19
411.132	105.19
411.355	108.19
411.578	97.19
411.802	76.19
412.025	83.19
412.249	95.19
412.472	98.19
412.695	105.19
412.919	90.19
413.142	87.19
413.365	90.19
413.589	86.19
413.812	87.19
414.035	77.19
414.258	99.19
414.482	89.19
414.705	89.19
414.928	88.19
415.151	106.19
415.374	83.19
415.597	99.19
415.821	85.19
416.044	95.19
416.267	85.19
416.49	90.19
416.713	86.19
416.936	83.19
417.159	82.19
417.382	94.19
417.605	81.19
417.828	94.19
418.051	82.19
418.274	96.19
418.497	103.19
418.72	76.19
418.943	103.19
419.166	101.19
419.389	92.19
419.611	89.19
419.834	79.19
420.057	66.19
420.28	91.19
420.503	74.19
420.726	97.19
420.948	89.19
421.171	98.19
421.394	97.19
421.617	97.19
421.839	90.19
422.062	93.19
422.285	97.19
422.507	85.19
422.73	101.19
422.953	97.19
423.175	99.19
423.398	97.19
423.621	95.19
423.843	89.19
424.066	86.19
424.288	101.19
424.511	74.19
424.733	94.19
424.956	94.19
425.178	101.19
425.401	104.19
425.623	99.19
425.846	91.19
426.068	84.19
426.291	87.19
426.513	96.19
426.735	84.19
426.958	87.19
427.18	112.19
427.402	125.19
427.625	160.19
427.847	136.19
428.069	111.19
428.292	107.19
428.514	87.19
428.736	93.19
428.958	89.19
429.181	95.19
429.403	80.19
429.625	91.19
429.847	89.19
430.069	91.19
430.292	93.19
430.514	83.19
430.736	83.19
430.958	85.19
431.18	83.19
431.402	96.19
431.624	91.19
431.846	90.19
432.068	96.19
432.29	95.19
432.512	88.19
432.734	97.19
432.956	95.19
433.178	105.19
433.4	85.19
433.622	88.19
433.844	79.19
434.066	99.19
434.287	81.19
434.509	80.19
434.731	99.19
434.953	82.19
435.175	83.19
435.397	89.19
435.618	95.19
435.84	95.19
436.062	129.19
436.284	111.19
436.505	114.19
436.727	109.19
436.949	100.19
437.17	91.19
437.392	76.19
437.614	84.19
437.835	96.19
438.057	107.19
438.278	100.19
438.5	93.19
438.721	113.19
438.943	82.19
439.165	93.19
439.386	99.19
439.608	98.19
439.829	105.19
440.05	116.19
440.272	129.19
440.493	107.19
440.715	105.19
440.936	92.19
441.158	95.19
441.379	76.19
441.6	87.19
441.822	99.19
442.043	100.19
442.264	94.19
442.486	104.19
442.707	91.19
442.928	85.19
443.149	111.19
443.371	131.19
443.592	111.19
443.813	103.19
444.034	107.19
444.255	77.19
444.476	80.19
444.698	86.19
444.919	86.19
445.14	144.19
445.361	113.19
445.582	118.19
445.803	127.19
446.024	123.19
446.245	136.19
446.466	102.19
446.687	103.19
446.908	85.19
447.129	91.19
447.35	82.19
447.571	97.19
447.792	85.19
448.013	100.19
448.234	80.19
448.455	115.19
448.675	104.19
448.896	107.19
449.117	89.19
449.338	112.19
449.559	126.19
449.779	125.19
450	99.19
450.221	90.19
450.442	88.19
450.662	99.19
450.883	96.19
451.104	102.19
451.324	100.19
451.545	85.19
451.766	83.19
451.986	86.19
452.207	83.19
452.428	87.19
452.648	97.19
452.869	115.19
453.089	93.19
453.31	122.19
453.53	99.19
453.751	97.19
453.971	101.19
454.192	95.19
454.412	104.19
454.633	90.19
454.853	76.19
455.073	92.19
455.294	74.19
455.514	95.19
455.734	94.19
455.955	76.19
456.175	89.19
456.395	92.19
456.616	86.19
456.836	87.19
457.056	84.19
457.276	98.19
457.497	84.19
457.717	85.19
457.937	94.19
458.157	72.19
458.377	99.19
458.598	103.19
458.818	134.19
459.038	125.19
459.258	99.19
459.478	97.19
459.698	91.19
459.918	86.19
460.138	95.19
460.358	84.19
460.578	103.19
460.798	85.19
461.018	77.19
461.238	76.19
461.458	91.19
461.678	69.19
461.898	84.19
462.118	85.19
462.338	87.19
462.558	87.19
462.777	82.19
462.997	73.19
463.217	85.19
463.437	95.19
463.657	85.19
463.876	103.19
464.096	88.19
464.316	89.19
464.536	77.19
464.755	101.19
464.975	101.19
465.195	159.19
465.414	147.19
465.634	93.19
465.854	95.19
466.073	85.19
466.293	93.19
466.512	80.19
466.732	72.19
466.951	65.19
467.171	93.19
467.391	91.19
467.61	99.19
467.829	96.19
468.049	118.19
468.268	125.19
468.488	106.19
468.707	91.19
468.927	74.19
469.146	87.19
469.365	83.19
469.585	83.19
469.804	99.19
470.023	106.19
470.243	84.19
470.462	87.19
470.681	100.19
470.901	101.19
471.12	96.19
471.339	91.19
471.558	83.19
471.777	91.19
471.997	89.19
472.216	166.19
472.435	263.19
472.654	115.19
472.873	95.19
473.092	95.19
473.311	80.19
473.53	81.19
473.749	95.19
473.968	85.19
474.187	101.19
474.406	101.19
474.625	82.19
474.844	87.19
475.063	73.19
475.282	90.19
475.501	95.19
475.72	92.19
475.939	88.19
476.158	94.19
476.377	94.19
476.596	98.19
476.814	106.19
477.033	91.19
477.252	85.19
477.471	84.19
477.69	79.19
477.908	73.19
478.127	103.19
478.346	90.19
478.564	87.19
478.783	95.19
479.002	94.19
479.22	105.19
479.439	111.19
479.658	88.19
479.876	91.19
480.095	94.19
480.313	87.19
480.532	103.19
480.751	107.19
480.969	179.19
481.188	418.19
481.406	263.19
481.624	108.19
481.843	90.19
482.061	92.19
482.28	93.19
482.498	91.19
482.717	89.19
482.935	97.19
483.153	77.19
483.372	88.19
483.59	95.19
483.808	111.19
484.027	100.19
484.245	93.19
484.463	76.19
484.681	103.19
484.9	101.19
485.118	104.19
485.336	92.19
485.554	104.19
485.772	91.19
485.99	109.19
486.209	109.19
486.427	106.19
486.645	119.19
486.863	114.19
487.081	88.19
487.299	98.19
487.517	89.19
487.735	81.19
487.953	99.19
488.171	96.19
488.389	87.19
488.607	96.19
488.825	91.19
489.043	83.19
489.261	86.19
489.479	83.19
489.696	85.19
489.914	101.19
490.132	81.19
490.35	75.19
490.568	93.19
490.786	82.19
491.003	76.19
491.221	82.19
491.439	96.19
491.657	89.19
491.874	88.19
492.092	75.19
492.31	99.19
492.527	98.19
492.745	93.19
492.963	99.19
493.18	98.19
493.398	90.19
493.615	108.19
493.833	101.19
494.05	82.19
494.268	100.19
494.485	91.19
494.703	90.19
494.92	91.19
495.138	79.19
495.355	87.19
495.573	95.19
495.79	83.19
496.008	88.19
496.225	97.19
496.442	93.19
496.66	79.19
496.877	87.19
497.094	98.19
497.312	91.19
497.529	90.19
497.746	81.19
497.963	91.19
498.181	95.19
498.398	106.19
498.615	105.19
498.832	95.19
499.049	97.19
499.267	99.19
499.484	94.19
499.701	101.19
499.918	95.19
500.135	94.19
500.352	104.19
500.569	93.19
500.786	93.19
501.003	95.19
501.22	91.19
501.437	90.19
501.654	101.19
501.871	100.19
502.088	90.19
502.305	94.19
502.522	92.19
502.739	88.19
502.956	98.19
503.172	89.19
503.389	83.19
503.606	108.19
503.823	101.19
504.04	91.19
504.256	107.19
504.473	79.19
504.69	101.19
504.907	98.19
505.123	91.19
505.34	84.19
505.557	105.19
505.773	89.19
505.99	88.19
506.207	95.19
506.423	85.19
506.64	89.19
506.856	82.19
507.073	85.19
507.289	88.19
507.506	100.19
507.722	108.19
507.939	86.19
508.155	96.19
508.372	99.19
508.588	102.19
508.805	94.19
509.021	98.19
509.238	87.19
509.454	102.19
509.67	95.19
509.887	107.19
510.103	125.19
510.319	204.19
510.536	617.19
510.752	1905.19
510.968	549.19
511.184	145.19
511.401	114.19
511.617	103.19
511.833	97.19
512.049	85.19
512.265	92.19
512.481	98.19
512.698	87.19
512.914	97.19
513.13	101.19
513.346	96.19
513.562	104.19
513.778	109.19
513.994	93.19
514.21	101.19
514.426	117.19
514.642	125.19
514.858	122.19
515.074	133.19
515.29	367.19
515.506	1183.19
