Data from Circ_1986_H10_HRD10591_00021.txt Node
Date: Wed Jan 03 12:15:30 EST 2024
User: Yrep
Spectrometer: HR+D1059
Trigger mode: 1
Integration Time (sec): 1.000000E-1
Scans to average: 1
Electric dark correction enabled: true
Nonlinearity correction enabled: false
Boxcar width: 0
XAxis mode: Wavelengths
Number of Pixels in Spectrum: 2048
>>>>>Begin Spectral Data<<<<<
223.165	-22.25
223.4	-22.25
223.635	-22.25
223.869	-28.25
224.104	-11.25
224.338	-8.25
224.573	-12.25
224.808	-18.25
225.042	-14.25
225.277	-9.25
225.511	-22.25
225.746	6.75
225.98	2.75
226.215	18.75
226.449	23.75
226.683	27.75
226.918	28.75
227.152	37.75
227.387	33.75
227.621	46.75
227.856	42.75
228.09	41.75
228.324	62.75
228.559	57.75
228.793	63.75
229.027	61.75
229.262	64.75
229.496	66.75
229.73	70.75
229.964	79.75
230.199	81.75
230.433	71.75
230.667	69.75
230.901	77.75
231.136	72.75
231.37	72.75
231.604	74.75
231.838	84.75
232.072	77.75
232.306	77.75
232.541	83.75
232.775	86.75
233.009	79.75
233.243	75.75
233.477	84.75
233.711	71.75
233.945	76.75
234.179	85.75
234.413	71.75
234.647	79.75
234.881	85.75
235.115	84.75
235.349	73.75
235.583	83.75
235.817	97.75
236.051	79.75
236.285	80.75
236.519	66.75
236.753	70.75
236.987	73.75
237.221	76.75
237.455	70.75
237.689	77.75
237.922	87.75
238.156	77.75
238.39	86.75
238.624	84.75
238.858	90.75
239.091	76.75
239.325	82.75
239.559	80.75
239.793	83.75
240.027	84.75
240.26	83.75
240.494	79.75
240.728	69.75
240.961	91.75
241.195	83.75
241.429	73.75
241.662	75.75
241.896	74.75
242.13	72.75
242.363	65.75
242.597	60.75
242.83	85.75
243.064	71.75
243.298	76.75
243.531	72.75
243.765	72.75
243.998	78.75
244.232	72.75
244.465	77.75
244.699	74.75
244.932	69.75
245.166	79.75
245.399	79.75
245.633	87.75
245.866	82.75
246.099	83.75
246.333	71.75
246.566	76.75
246.8	73.75
247.033	70.75
247.266	80.75
247.5	91.75
247.733	83.75
247.966	72.75
248.2	92.75
248.433	72.75
248.666	68.75
248.899	84.75
249.133	92.75
249.366	81.75
249.599	87.75
249.832	79.75
250.066	82.75
250.299	76.75
250.532	80.75
250.765	74.75
250.998	77.75
251.231	77.75
251.465	83.75
251.698	67.75
251.931	74.75
252.164	79.75
252.397	87.75
252.63	76.75
252.863	83.75
253.096	82.75
253.329	91.75
253.562	80.75
253.795	94.75
254.028	87.75
254.261	72.75
254.494	85.75
254.727	88.75
254.96	77.75
255.193	74.75
255.426	70.75
255.659	81.75
255.892	94.75
256.124	73.75
256.357	73.75
256.59	89.75
256.823	80.75
257.056	76.75
257.289	89.75
257.521	87.75
257.754	76.75
257.987	85.75
258.22	84.75
258.452	73.75
258.685	69.75
258.918	81.75
259.151	72.75
259.383	90.75
259.616	80.75
259.849	85.75
260.081	86.75
260.314	85.75
260.547	94.75
260.779	79.75
261.012	82.75
261.244	83.75
261.477	85.75
261.71	93.75
261.942	97.75
262.175	111.75
262.407	87.75
262.64	85.75
262.872	87.75
263.105	82.75
263.337	89.75
263.57	98.75
263.802	71.75
264.035	81.75
264.267	93.75
264.499	86.75
264.732	93.75
264.964	81.75
265.197	97.75
265.429	81.75
265.661	88.75
265.894	73.75
266.126	77.75
266.358	70.75
266.591	89.75
266.823	85.75
267.055	80.75
267.287	79.75
267.52	87.75
267.752	80.75
267.984	90.75
268.216	86.75
268.448	86.75
268.681	75.75
268.913	81.75
269.145	76.75
269.377	95.75
269.609	67.75
269.841	80.75
270.073	85.75
270.306	81.75
270.538	67.75
270.77	78.75
271.002	85.75
271.234	83.75
271.466	91.75
271.698	91.75
271.93	86.75
272.162	90.75
272.394	97.75
272.626	78.75
272.858	81.75
273.09	87.75
273.322	79.75
273.553	91.75
273.785	91.75
274.017	82.75
274.249	79.75
274.481	80.75
274.713	85.75
274.945	95.75
275.176	89.75
275.408	83.75
275.64	71.75
275.872	77.75
276.104	104.75
276.335	101.75
276.567	101.75
276.799	112.75
277.031	97.75
277.262	88.75
277.494	89.75
277.726	80.75
277.957	84.75
278.189	84.75
278.421	93.75
278.652	90.75
278.884	91.75
279.115	86.75
279.347	85.75
279.579	85.75
279.81	82.75
280.042	81.75
280.273	81.75
280.505	86.75
280.736	86.75
280.968	76.75
281.199	90.75
281.431	95.75
281.662	90.75
281.894	77.75
282.125	95.75
282.356	104.75
282.588	120.75
282.819	115.75
283.051	98.75
283.282	86.75
283.513	91.75
283.745	84.75
283.976	74.75
284.207	88.75
284.439	89.75
284.67	72.75
284.901	91.75
285.132	95.75
285.364	89.75
285.595	97.75
285.826	85.75
286.057	105.75
286.288	89.75
286.52	86.75
286.751	93.75
286.982	83.75
287.213	75.75
287.444	82.75
287.675	93.75
287.906	99.75
288.138	98.75
288.369	101.75
288.6	94.75
288.831	89.75
289.062	90.75
289.293	94.75
289.524	76.75
289.755	103.75
289.986	87.75
290.217	90.75
290.448	92.75
290.679	96.75
290.91	96.75
291.141	88.75
291.371	92.75
291.602	93.75
291.833	69.75
292.064	87.75
292.295	92.75
292.526	105.75
292.757	83.75
292.987	95.75
293.218	79.75
293.449	80.75
293.68	89.75
293.91	90.75
294.141	87.75
294.372	94.75
294.603	95.75
294.833	87.75
295.064	87.75
295.295	93.75
295.525	95.75
295.756	90.75
295.987	98.75
296.217	135.75
296.448	113.75
296.679	92.75
296.909	83.75
297.14	94.75
297.37	91.75
297.601	85.75
297.831	91.75
298.062	107.75
298.292	95.75
298.523	84.75
298.753	82.75
298.984	90.75
299.214	89.75
299.445	94.75
299.675	85.75
299.905	84.75
300.136	97.75
300.366	65.75
300.597	92.75
300.827	90.75
301.057	95.75
301.288	99.75
301.518	90.75
301.748	83.75
301.979	80.75
302.209	82.75
302.439	91.75
302.669	91.75
302.9	100.75
303.13	81.75
303.36	94.75
303.59	99.75
303.82	116.75
304.051	92.75
304.281	95.75
304.511	76.75
304.741	109.75
304.971	92.75
305.201	85.75
305.431	96.75
305.661	76.75
305.891	88.75
306.121	113.75
306.352	114.75
306.582	112.75
306.812	95.75
307.042	108.75
307.272	87.75
307.502	98.75
307.731	98.75
307.961	96.75
308.191	84.75
308.421	82.75
308.651	92.75
308.881	83.75
309.111	100.75
309.341	99.75
309.571	95.75
309.8	96.75
310.03	95.75
310.26	100.75
310.49	106.75
310.72	87.75
310.949	111.75
311.179	110.75
311.409	108.75
311.639	108.75
311.868	96.75
312.098	104.75
312.328	98.75
312.557	104.75
312.787	102.75
313.017	84.75
313.246	97.75
313.476	105.75
313.706	87.75
313.935	97.75
314.165	91.75
314.394	106.75
314.624	106.75
314.853	75.75
315.083	100.75
315.312	101.75
315.542	98.75
315.771	91.75
316.001	90.75
316.23	83.75
316.46	92.75
316.689	86.75
316.919	101.75
317.148	95.75
317.377	83.75
317.607	91.75
317.836	99.75
318.065	80.75
318.295	83.75
318.524	103.75
318.753	93.75
318.983	91.75
319.212	101.75
319.441	99.75
319.67	104.75
319.9	89.75
320.129	97.75
320.358	93.75
320.587	96.75
320.816	94.75
321.046	104.75
321.275	99.75
321.504	92.75
321.733	101.75
321.962	88.75
322.191	97.75
322.42	97.75
322.649	99.75
322.878	112.75
323.108	116.75
323.337	111.75
323.566	127.75
323.795	144.75
324.024	186.75
324.253	344.75
324.482	719.75
324.71	1428.75
324.939	1809.75
325.168	702.75
325.397	226.75
325.626	155.75
325.855	132.75
326.084	123.75
326.313	116.75
326.542	147.75
326.77	200.75
326.999	400.75
327.228	809.75
327.457	1425.75
327.686	1110.75
327.914	309.75
328.143	181.75
328.372	140.75
328.6	124.75
328.829	108.75
329.058	119.75
329.287	123.75
329.515	108.75
329.744	108.75
329.972	109.75
330.201	105.75
330.43	129.75
330.658	117.75
330.887	120.75
331.115	116.75
331.344	95.75
331.572	106.75
331.801	108.75
332.03	104.75
332.258	101.75
332.486	91.75
332.715	87.75
332.943	100.75
333.172	89.75
333.4	87.75
333.629	105.75
333.857	109.75
334.085	110.75
334.314	111.75
334.542	138.75
334.771	126.75
334.999	101.75
335.227	85.75
335.455	99.75
335.684	97.75
335.912	97.75
336.14	100.75
336.369	94.75
336.597	101.75
336.825	103.75
337.053	93.75
337.281	98.75
337.51	103.75
337.738	110.75
337.966	93.75
338.194	89.75
338.422	98.75
338.65	94.75
338.878	100.75
339.106	95.75
339.334	97.75
339.562	101.75
339.79	105.75
340.018	104.75
340.246	81.75
340.474	97.75
340.702	86.75
340.93	82.75
341.158	107.75
341.386	106.75
341.614	90.75
341.842	104.75
342.07	95.75
342.298	85.75
342.526	89.75
342.754	102.75
342.981	85.75
343.209	102.75
343.437	97.75
343.665	98.75
343.893	100.75
344.12	98.75
344.348	84.75
344.576	103.75
344.804	95.75
345.031	95.75
345.259	92.75
345.487	74.75
345.714	93.75
345.942	84.75
346.17	100.75
346.397	80.75
346.625	88.75
346.853	95.75
347.08	87.75
347.308	77.75
347.535	98.75
347.763	99.75
347.99	98.75
348.218	100.75
348.445	95.75
348.673	100.75
348.9	92.75
349.128	95.75
349.355	91.75
349.583	92.75
349.81	92.75
350.037	84.75
350.265	89.75
350.492	96.75
350.72	91.75
350.947	97.75
351.174	92.75
351.402	109.75
351.629	100.75
351.856	102.75
352.083	99.75
352.311	103.75
352.538	106.75
352.765	113.75
352.992	93.75
353.22	100.75
353.447	97.75
353.674	105.75
353.901	111.75
354.128	111.75
354.355	99.75
354.583	99.75
354.81	100.75
355.037	95.75
355.264	100.75
355.491	107.75
355.718	102.75
355.945	101.75
356.172	94.75
356.399	82.75
356.626	85.75
356.853	95.75
357.08	73.75
357.307	84.75
357.534	105.75
357.761	91.75
357.988	88.75
358.215	89.75
358.441	97.75
358.668	97.75
358.895	95.75
359.122	101.75
359.349	91.75
359.576	85.75
359.802	84.75
360.029	115.75
360.256	99.75
360.483	85.75
360.709	89.75
360.936	105.75
361.163	106.75
361.39	93.75
361.616	94.75
361.843	93.75
362.07	99.75
362.296	97.75
362.523	85.75
362.749	101.75
362.976	86.75
363.203	94.75
363.429	85.75
363.656	87.75
363.882	88.75
364.109	91.75
364.335	100.75
364.562	87.75
364.788	81.75
365.015	96.75
365.241	96.75
365.468	109.75
365.694	101.75
365.92	102.75
366.147	91.75
366.373	66.75
366.599	88.75
366.826	77.75
367.052	84.75
367.278	92.75
367.505	107.75
367.731	85.75
367.957	96.75
368.184	92.75
368.41	101.75
368.636	91.75
368.862	114.75
369.089	99.75
369.315	95.75
369.541	103.75
369.767	94.75
369.993	90.75
370.219	102.75
370.445	73.75
370.672	88.75
370.898	89.75
371.124	72.75
371.35	91.75
371.576	83.75
371.802	86.75
372.028	96.75
372.254	93.75
372.48	91.75
372.706	96.75
372.932	91.75
373.158	82.75
373.384	90.75
373.61	106.75
373.835	94.75
374.061	88.75
374.287	91.75
374.513	80.75
374.739	93.75
374.965	89.75
375.191	84.75
375.416	90.75
375.642	100.75
375.868	91.75
376.094	79.75
376.319	91.75
376.545	93.75
376.771	72.75
376.997	103.75
377.222	95.75
377.448	89.75
377.674	77.75
377.899	106.75
378.125	90.75
378.35	97.75
378.576	96.75
378.802	105.75
379.027	97.75
379.253	101.75
379.478	93.75
379.704	96.75
379.929	97.75
380.155	105.75
380.38	113.75
380.606	98.75
380.831	99.75
381.057	105.75
381.282	106.75
381.507	95.75
381.733	118.75
381.958	120.75
382.184	106.75
382.409	100.75
382.634	106.75
382.86	90.75
383.085	106.75
383.31	115.75
383.535	109.75
383.761	115.75
383.986	105.75
384.211	103.75
384.436	106.75
384.662	107.75
384.887	111.75
385.112	121.75
385.337	124.75
385.562	121.75
385.787	108.75
386.013	123.75
386.238	122.75
386.463	107.75
386.688	119.75
386.913	117.75
387.138	125.75
387.363	115.75
387.588	117.75
387.813	127.75
388.038	113.75
388.263	127.75
388.488	109.75
388.713	108.75
388.938	83.75
389.163	91.75
389.387	107.75
389.612	76.75
389.837	99.75
390.062	88.75
390.287	87.75
390.512	99.75
390.736	96.75
390.961	73.75
391.186	87.75
391.411	100.75
391.636	91.75
391.86	84.75
392.085	91.75
392.31	89.75
392.534	93.75
392.759	83.75
392.984	83.75
393.208	84.75
393.433	106.75
393.658	96.75
393.882	88.75
394.107	84.75
394.331	84.75
394.556	92.75
394.78	89.75
395.005	89.75
395.229	90.75
395.454	76.75
395.678	89.75
395.903	87.75
396.127	92.75
396.352	87.75
396.576	89.75
396.801	84.75
397.025	83.75
397.249	82.75
397.474	97.75
397.698	90.75
397.922	83.75
398.147	98.75
398.371	87.75
398.595	87.75
398.82	81.75
399.044	81.75
399.268	88.75
399.492	79.75
399.717	82.75
399.941	92.75
400.165	90.75
400.389	92.75
400.613	83.75
400.837	104.75
401.062	105.75
401.286	102.75
401.51	74.75
401.734	97.75
401.958	112.75
402.182	121.75
402.406	143.75
402.63	108.75
402.854	103.75
403.078	83.75
403.302	83.75
403.526	95.75
403.75	97.75
403.974	84.75
404.198	91.75
404.422	88.75
404.645	97.75
404.869	91.75
405.093	91.75
405.317	92.75
405.541	97.75
405.765	99.75
405.988	105.75
406.212	153.75
406.436	204.75
406.66	145.75
406.883	92.75
407.107	87.75
407.331	92.75
407.555	98.75
407.778	95.75
408.002	85.75
408.226	92.75
408.449	96.75
408.673	99.75
408.896	101.75
409.12	95.75
409.344	87.75
409.567	84.75
409.791	89.75
410.014	86.75
410.238	94.75
410.461	98.75
410.685	100.75
410.908	99.75
411.132	102.75
411.355	97.75
411.578	95.75
411.802	96.75
412.025	89.75
412.249	93.75
412.472	92.75
412.695	99.75
412.919	99.75
413.142	92.75
413.365	87.75
413.589	93.75
413.812	87.75
414.035	107.75
414.258	94.75
414.482	104.75
414.705	80.75
414.928	93.75
415.151	99.75
415.374	86.75
415.597	92.75
415.821	92.75
416.044	78.75
416.267	92.75
416.49	89.75
416.713	87.75
416.936	78.75
417.159	84.75
417.382	89.75
417.605	80.75
417.828	106.75
418.051	99.75
418.274	83.75
418.497	88.75
418.72	86.75
418.943	96.75
419.166	95.75
419.389	103.75
419.611	81.75
419.834	76.75
420.057	97.75
420.28	97.75
420.503	101.75
420.726	97.75
420.948	100.75
421.171	109.75
421.394	101.75
421.617	76.75
421.839	103.75
422.062	91.75
422.285	101.75
422.507	98.75
422.73	107.75
422.953	107.75
423.175	87.75
423.398	95.75
423.621	83.75
423.843	92.75
424.066	69.75
424.288	86.75
424.511	81.75
424.733	102.75
424.956	99.75
425.178	101.75
425.401	108.75
425.623	105.75
425.846	95.75
426.068	90.75
426.291	83.75
426.513	97.75
426.735	99.75
426.958	93.75
427.18	110.75
427.402	132.75
427.625	151.75
427.847	127.75
428.069	91.75
428.292	97.75
428.514	90.75
428.736	74.75
428.958	87.75
429.181	74.75
429.403	85.75
429.625	87.75
429.847	87.75
430.069	92.75
430.292	82.75
430.514	97.75
430.736	79.75
430.958	97.75
431.18	92.75
431.402	91.75
431.624	70.75
431.846	95.75
432.068	89.75
432.29	92.75
432.512	80.75
432.734	92.75
432.956	80.75
433.178	95.75
433.4	102.75
433.622	99.75
433.844	76.75
434.066	89.75
434.287	82.75
434.509	99.75
434.731	91.75
434.953	80.75
435.175	84.75
435.397	79.75
435.618	98.75
435.84	110.75
436.062	115.75
436.284	104.75
436.505	89.75
436.727	96.75
436.949	86.75
437.17	87.75
437.392	90.75
437.614	88.75
437.835	116.75
438.057	123.75
438.278	95.75
438.5	99.75
438.721	111.75
438.943	108.75
439.165	88.75
439.386	83.75
439.608	90.75
439.829	101.75
440.05	107.75
440.272	129.75
440.493	88.75
440.715	95.75
440.936	82.75
441.158	91.75
441.379	101.75
441.6	97.75
441.822	100.75
442.043	88.75
442.264	86.75
442.486	102.75
442.707	92.75
442.928	95.75
443.149	123.75
443.371	120.75
443.592	112.75
443.813	108.75
444.034	99.75
444.255	100.75
444.476	95.75
444.698	82.75
444.919	95.75
445.14	134.75
445.361	126.75
445.582	127.75
445.803	110.75
446.024	120.75
446.245	120.75
446.466	100.75
446.687	75.75
446.908	93.75
447.129	89.75
447.35	99.75
447.571	94.75
447.792	91.75
448.013	92.75
448.234	92.75
448.455	100.75
448.675	119.75
448.896	109.75
449.117	97.75
449.338	99.75
449.559	116.75
449.779	112.75
450	85.75
450.221	89.75
450.442	104.75
450.662	98.75
450.883	91.75
451.104	105.75
451.324	87.75
451.545	112.75
451.766	75.75
451.986	79.75
452.207	107.75
452.428	91.75
452.648	83.75
452.869	101.75
453.089	113.75
453.31	106.75
453.53	96.75
453.751	108.75
453.971	111.75
454.192	103.75
454.412	89.75
454.633	93.75
454.853	83.75
455.073	103.75
455.294	80.75
455.514	119.75
455.734	79.75
455.955	72.75
456.175	79.75
456.395	94.75
456.616	97.75
456.836	107.75
457.056	81.75
457.276	92.75
457.497	87.75
457.717	69.75
457.937	97.75
458.157	98.75
458.377	89.75
458.598	99.75
458.818	132.75
459.038	129.75
459.258	115.75
459.478	92.75
459.698	96.75
459.918	87.75
460.138	79.75
460.358	94.75
460.578	97.75
460.798	106.75
461.018	88.75
461.238	91.75
461.458	88.75
461.678	95.75
461.898	99.75
462.118	100.75
462.338	101.75
462.558	76.75
462.777	70.75
462.997	92.75
463.217	85.75
463.437	98.75
463.657	86.75
463.876	72.75
464.096	85.75
464.316	109.75
464.536	90.75
464.755	116.75
464.975	107.75
465.195	149.75
465.414	144.75
465.634	101.75
465.854	95.75
466.073	93.75
466.293	89.75
466.512	87.75
466.732	84.75
466.951	82.75
467.171	98.75
467.391	99.75
467.61	96.75
467.829	94.75
468.049	109.75
468.268	100.75
468.488	96.75
468.707	97.75
468.927	97.75
469.146	90.75
469.365	73.75
469.585	87.75
469.804	90.75
470.023	81.75
470.243	86.75
470.462	81.75
470.681	104.75
470.901	91.75
471.12	83.75
471.339	95.75
471.558	89.75
471.777	89.75
471.997	96.75
472.216	117.75
472.435	132.75
472.654	113.75
472.873	90.75
473.092	96.75
473.311	88.75
473.53	103.75
473.749	92.75
473.968	93.75
474.187	100.75
474.406	84.75
474.625	85.75
474.844	103.75
475.063	90.75
475.282	94.75
475.501	88.75
475.72	80.75
475.939	92.75
476.158	90.75
476.377	82.75
476.596	92.75
476.814	77.75
477.033	89.75
477.252	79.75
477.471	91.75
477.69	91.75
477.908	85.75
478.127	103.75
478.346	92.75
478.564	91.75
478.783	96.75
479.002	105.75
479.22	94.75
479.439	98.75
479.658	97.75
479.876	99.75
480.095	92.75
480.313	86.75
480.532	97.75
480.751	102.75
480.969	129.75
481.188	184.75
481.406	136.75
481.624	81.75
481.843	89.75
482.061	109.75
482.28	95.75
482.498	100.75
482.717	97.75
482.935	101.75
483.153	97.75
483.372	105.75
483.59	84.75
483.808	82.75
484.027	98.75
484.245	93.75
484.463	84.75
484.681	98.75
484.9	95.75
485.118	87.75
485.336	105.75
485.554	100.75
485.772	106.75
485.99	102.75
486.209	131.75
486.427	104.75
486.645	117.75
486.863	115.75
487.081	108.75
487.299	101.75
487.517	104.75
487.735	95.75
487.953	84.75
488.171	83.75
488.389	87.75
488.607	92.75
488.825	102.75
489.043	83.75
489.261	108.75
489.479	88.75
489.696	86.75
489.914	82.75
490.132	82.75
490.35	104.75
490.568	104.75
490.786	95.75
491.003	83.75
491.221	87.75
491.439	80.75
491.657	86.75
491.874	99.75
492.092	75.75
492.31	86.75
492.527	84.75
492.745	98.75
492.963	96.75
493.18	87.75
493.398	117.75
493.615	94.75
493.833	100.75
494.05	99.75
494.268	104.75
494.485	107.75
494.703	98.75
494.92	93.75
495.138	83.75
495.355	100.75
495.573	111.75
495.79	95.75
496.008	91.75
496.225	107.75
496.442	97.75
496.66	88.75
496.877	102.75
497.094	80.75
497.312	80.75
497.529	85.75
497.746	93.75
497.963	93.75
498.181	97.75
498.398	96.75
498.615	101.75
498.832	98.75
499.049	90.75
499.267	85.75
499.484	97.75
499.701	88.75
499.918	98.75
500.135	90.75
500.352	93.75
500.569	90.75
500.786	98.75
501.003	85.75
501.22	102.75
501.437	92.75
501.654	106.75
501.871	92.75
502.088	96.75
502.305	87.75
502.522	96.75
502.739	87.75
502.956	93.75
503.172	91.75
503.389	90.75
503.606	104.75
503.823	96.75
504.04	69.75
504.256	97.75
504.473	99.75
504.69	97.75
504.907	99.75
505.123	104.75
505.34	91.75
505.557	87.75
505.773	85.75
505.99	92.75
506.207	85.75
506.423	96.75
506.64	95.75
506.856	91.75
507.073	94.75
507.289	91.75
507.506	96.75
507.722	110.75
507.939	106.75
508.155	92.75
508.372	96.75
508.588	83.75
508.805	83.75
509.021	101.75
509.238	99.75
509.454	96.75
509.67	99.75
509.887	102.75
510.103	112.75
510.319	197.75
510.536	669.75
510.752	1942.75
510.968	537.75
511.184	133.75
511.401	110.75
511.617	90.75
511.833	95.75
512.049	99.75
512.265	95.75
512.481	100.75
512.698	93.75
512.914	90.75
513.13	101.75
513.346	103.75
513.562	103.75
513.778	98.75
513.994	103.75
514.21	106.75
514.426	118.75
514.642	115.75
514.858	109.75
515.074	150.75
