Data from Circ_1986_H10_HRD10591_00063.txt Node
Date: Wed Jan 03 12:15:38 EST 2024
User: Yrep
Spectrometer: HR+D1059
Trigger mode: 1
Integration Time (sec): 1.000000E-1
Scans to average: 1
Electric dark correction enabled: true
Nonlinearity correction enabled: false
Boxcar width: 0
XAxis mode: Wavelengths
Number of Pixels in Spectrum: 2048
>>>>>Begin Spectral Data<<<<<
223.165	-25.69
223.4	-25.69
223.635	-25.69
223.869	-18.69
224.104	-24.69
224.338	-23.69
224.573	-7.69
224.808	-14.69
225.042	6.31
225.277	-12.69
225.511	-9.69
225.746	4.31
225.98	4.31
226.215	24.31
226.449	18.31
226.683	23.31
226.918	26.31
227.152	30.31
227.387	40.31
227.621	34.31
227.856	50.31
228.09	49.31
228.324	53.31
228.559	60.31
228.793	62.31
229.027	62.31
229.262	54.31
229.496	72.31
229.73	70.31
229.964	92.31
230.199	76.31
230.433	74.31
230.667	77.31
230.901	71.31
231.136	76.31
231.37	77.31
231.604	74.31
231.838	85.31
232.072	86.31
232.306	68.31
232.541	77.31
232.775	82.31
233.009	91.31
233.243	74.31
233.477	78.31
233.711	77.31
233.945	84.31
234.179	83.31
234.413	77.31
234.647	69.31
234.881	81.31
235.115	86.31
235.349	79.31
235.583	81.31
235.817	78.31
236.051	80.31
236.285	78.31
236.519	68.31
236.753	88.31
236.987	76.31
237.221	70.31
237.455	78.31
237.689	81.31
237.922	66.31
238.156	76.31
238.39	68.31
238.624	63.31
238.858	74.31
239.091	80.31
239.325	71.31
239.559	85.31
239.793	81.31
240.027	72.31
240.26	88.31
240.494	83.31
240.728	65.31
240.961	73.31
241.195	72.31
241.429	71.31
241.662	73.31
241.896	68.31
242.13	65.31
242.363	76.31
242.597	78.31
242.83	73.31
243.064	74.31
243.298	81.31
243.531	79.31
243.765	76.31
243.998	81.31
244.232	71.31
244.465	64.31
244.699	82.31
244.932	85.31
245.166	71.31
245.399	76.31
245.633	81.31
245.866	74.31
246.099	82.31
246.333	80.31
246.566	77.31
246.8	89.31
247.033	84.31
247.266	71.31
247.5	70.31
247.733	58.31
247.966	70.31
248.2	80.31
248.433	66.31
248.666	71.31
248.899	77.31
249.133	76.31
249.366	99.31
249.599	85.31
249.832	76.31
250.066	81.31
250.299	79.31
250.532	86.31
250.765	82.31
250.998	76.31
251.231	68.31
251.465	87.31
251.698	70.31
251.931	81.31
252.164	80.31
252.397	86.31
252.63	82.31
252.863	76.31
253.096	77.31
253.329	94.31
253.562	76.31
253.795	80.31
254.028	77.31
254.261	84.31
254.494	92.31
254.727	78.31
254.96	76.31
255.193	82.31
255.426	77.31
255.659	74.31
255.892	85.31
256.124	78.31
256.357	88.31
256.59	87.31
256.823	77.31
257.056	77.31
257.289	73.31
257.521	72.31
257.754	94.31
257.987	92.31
258.22	94.31
258.452	77.31
258.685	79.31
258.918	77.31
259.151	79.31
259.383	70.31
259.616	80.31
259.849	90.31
260.081	78.31
260.314	88.31
260.547	82.31
260.779	79.31
261.012	97.31
261.244	69.31
261.477	87.31
261.71	78.31
261.942	90.31
262.175	99.31
262.407	89.31
262.64	83.31
262.872	73.31
263.105	88.31
263.337	89.31
263.57	72.31
263.802	87.31
264.035	87.31
264.267	90.31
264.499	102.31
264.732	74.31
264.964	75.31
265.197	83.31
265.429	100.31
265.661	76.31
265.894	90.31
266.126	80.31
266.358	83.31
266.591	79.31
266.823	80.31
267.055	81.31
267.287	83.31
267.52	77.31
267.752	77.31
267.984	83.31
268.216	79.31
268.448	83.31
268.681	63.31
268.913	85.31
269.145	61.31
269.377	79.31
269.609	92.31
269.841	88.31
270.073	85.31
270.306	80.31
270.538	81.31
270.77	76.31
271.002	86.31
271.234	94.31
271.466	75.31
271.698	80.31
271.93	103.31
272.162	103.31
272.394	98.31
272.626	73.31
272.858	88.31
273.09	82.31
273.322	88.31
273.553	74.31
273.785	88.31
274.017	80.31
274.249	79.31
274.481	95.31
274.713	74.31
274.945	80.31
275.176	88.31
275.408	92.31
275.64	81.31
275.872	100.31
276.104	88.31
276.335	79.31
276.567	97.31
276.799	98.31
277.031	85.31
277.262	96.31
277.494	86.31
277.726	88.31
277.957	74.31
278.189	88.31
278.421	85.31
278.652	84.31
278.884	78.31
279.115	76.31
279.347	78.31
279.579	93.31
279.81	82.31
280.042	94.31
280.273	83.31
280.505	87.31
280.736	96.31
280.968	82.31
281.199	96.31
281.431	86.31
281.662	62.31
281.894	83.31
282.125	88.31
282.356	107.31
282.588	122.31
282.819	93.31
283.051	84.31
283.282	78.31
283.513	90.31
283.745	96.31
283.976	86.31
284.207	78.31
284.439	76.31
284.67	90.31
284.901	79.31
285.132	80.31
285.364	83.31
285.595	89.31
285.826	84.31
286.057	72.31
286.288	76.31
286.52	71.31
286.751	76.31
286.982	80.31
287.213	93.31
287.444	95.31
287.675	89.31
287.906	87.31
288.138	92.31
288.369	94.31
288.6	98.31
288.831	100.31
289.062	71.31
289.293	92.31
289.524	80.31
289.755	78.31
289.986	80.31
290.217	89.31
290.448	70.31
290.679	86.31
290.91	77.31
291.141	97.31
291.371	93.31
291.602	81.31
291.833	87.31
292.064	90.31
292.295	78.31
292.526	83.31
292.757	93.31
292.987	85.31
293.218	90.31
293.449	79.31
293.68	96.31
293.91	88.31
294.141	90.31
294.372	81.31
294.603	86.31
294.833	93.31
295.064	74.31
295.295	68.31
295.525	84.31
295.756	88.31
295.987	104.31
296.217	112.31
296.448	112.31
296.679	89.31
296.909	96.31
297.14	89.31
297.37	89.31
297.601	91.31
297.831	82.31
298.062	100.31
298.292	85.31
298.523	84.31
298.753	89.31
298.984	85.31
299.214	103.31
299.445	84.31
299.675	92.31
299.905	98.31
300.136	79.31
300.366	87.31
300.597	87.31
300.827	98.31
301.057	102.31
301.288	111.31
301.518	97.31
301.748	82.31
301.979	90.31
302.209	96.31
302.439	96.31
302.669	94.31
302.9	77.31
303.13	90.31
303.36	96.31
303.59	86.31
303.82	101.31
304.051	79.31
304.281	88.31
304.511	86.31
304.741	83.31
304.971	85.31
305.201	93.31
305.431	81.31
305.661	73.31
305.891	97.31
306.121	92.31
306.352	100.31
306.582	96.31
306.812	100.31
307.042	101.31
307.272	99.31
307.502	98.31
307.731	102.31
307.961	93.31
308.191	78.31
308.421	85.31
308.651	72.31
308.881	90.31
309.111	70.31
309.341	102.31
309.571	93.31
309.8	93.31
310.03	94.31
310.26	91.31
310.49	87.31
310.72	99.31
310.949	102.31
311.179	97.31
311.409	92.31
311.639	108.31
311.868	95.31
312.098	98.31
312.328	89.31
312.557	96.31
312.787	84.31
313.017	80.31
313.246	91.31
313.476	80.31
313.706	93.31
313.935	100.31
314.165	93.31
314.394	96.31
314.624	97.31
314.853	96.31
315.083	94.31
315.312	90.31
315.542	93.31
315.771	86.31
316.001	89.31
316.23	81.31
316.46	88.31
316.689	96.31
316.919	90.31
317.148	105.31
317.377	87.31
317.607	79.31
317.836	99.31
318.065	82.31
318.295	77.31
318.524	88.31
318.753	85.31
318.983	97.31
319.212	94.31
319.441	104.31
319.67	95.31
319.9	89.31
320.129	79.31
320.358	97.31
320.587	90.31
320.816	87.31
321.046	89.31
321.275	104.31
321.504	96.31
321.733	94.31
321.962	88.31
322.191	93.31
322.42	101.31
322.649	106.31
322.878	106.31
323.108	94.31
323.337	102.31
323.566	108.31
323.795	129.31
324.024	181.31
324.253	310.31
324.482	648.31
324.71	1378.31
324.939	1788.31
325.168	652.31
325.397	203.31
325.626	132.31
325.855	129.31
326.084	127.31
326.313	119.31
326.542	116.31
326.77	198.31
326.999	367.31
327.228	762.31
327.457	1397.31
327.686	1102.31
327.914	312.31
328.143	182.31
328.372	168.31
328.6	120.31
328.829	119.31
329.058	108.31
329.287	114.31
329.515	102.31
329.744	104.31
329.972	132.31
330.201	137.31
330.43	186.31
330.658	125.31
330.887	109.31
331.115	113.31
331.344	88.31
331.572	78.31
331.801	89.31
332.03	83.31
332.258	85.31
332.486	104.31
332.715	92.31
332.943	86.31
333.172	99.31
333.4	81.31
333.629	91.31
333.857	104.31
334.085	130.31
334.314	145.31
334.542	217.31
334.771	197.31
334.999	118.31
335.227	97.31
335.455	84.31
335.684	92.31
335.912	93.31
336.14	101.31
336.369	88.31
336.597	99.31
336.825	102.31
337.053	92.31
337.281	90.31
337.51	83.31
337.738	80.31
337.966	87.31
338.194	90.31
338.422	82.31
338.65	79.31
338.878	92.31
339.106	94.31
339.334	93.31
339.562	101.31
339.79	80.31
340.018	84.31
340.246	89.31
340.474	94.31
340.702	100.31
340.93	92.31
341.158	91.31
341.386	82.31
341.614	94.31
341.842	85.31
342.07	94.31
342.298	91.31
342.526	78.31
342.754	79.31
342.981	92.31
343.209	81.31
343.437	96.31
343.665	90.31
343.893	96.31
344.12	95.31
344.348	88.31
344.576	91.31
344.804	100.31
345.031	82.31
345.259	103.31
345.487	85.31
345.714	95.31
345.942	94.31
346.17	82.31
346.397	85.31
346.625	102.31
346.853	86.31
347.08	97.31
347.308	92.31
347.535	96.31
347.763	86.31
347.99	96.31
348.218	80.31
348.445	97.31
348.673	84.31
348.9	87.31
349.128	103.31
349.355	90.31
349.583	89.31
349.81	105.31
350.037	91.31
350.265	96.31
350.492	82.31
350.72	87.31
350.947	94.31
351.174	105.31
351.402	111.31
351.629	106.31
351.856	102.31
352.083	85.31
352.311	99.31
352.538	96.31
352.765	102.31
352.992	104.31
353.22	102.31
353.447	105.31
353.674	87.31
353.901	93.31
354.128	101.31
354.355	98.31
354.583	93.31
354.81	93.31
355.037	90.31
355.264	96.31
355.491	101.31
355.718	95.31
355.945	87.31
356.172	88.31
356.399	85.31
356.626	92.31
356.853	91.31
357.08	82.31
357.307	93.31
357.534	93.31
357.761	78.31
357.988	96.31
358.215	86.31
358.441	102.31
358.668	88.31
358.895	90.31
359.122	97.31
359.349	94.31
359.576	94.31
359.802	98.31
360.029	114.31
360.256	102.31
360.483	88.31
360.709	88.31
360.936	86.31
361.163	76.31
361.39	78.31
361.616	92.31
361.843	100.31
362.07	103.31
362.296	77.31
362.523	84.31
362.749	89.31
362.976	84.31
363.203	98.31
363.429	79.31
363.656	73.31
363.882	72.31
364.109	88.31
364.335	86.31
364.562	88.31
364.788	89.31
365.015	91.31
365.241	100.31
365.468	104.31
365.694	100.31
365.92	101.31
366.147	99.31
366.373	82.31
366.599	80.31
366.826	89.31
367.052	97.31
367.278	98.31
367.505	80.31
367.731	78.31
367.957	82.31
368.184	70.31
368.41	80.31
368.636	102.31
368.862	102.31
369.089	104.31
369.315	83.31
369.541	93.31
369.767	100.31
369.993	90.31
370.219	74.31
370.445	96.31
370.672	57.31
370.898	71.31
371.124	79.31
371.35	95.31
371.576	89.31
371.802	76.31
372.028	92.31
372.254	77.31
372.48	76.31
372.706	97.31
372.932	90.31
373.158	85.31
373.384	86.31
373.61	84.31
373.835	86.31
374.061	93.31
374.287	89.31
374.513	82.31
374.739	85.31
374.965	88.31
375.191	82.31
375.416	89.31
375.642	89.31
375.868	89.31
376.094	80.31
376.319	84.31
376.545	89.31
376.771	99.31
376.997	72.31
377.222	93.31
377.448	98.31
377.674	78.31
377.899	88.31
378.125	105.31
378.35	83.31
378.576	85.31
378.802	84.31
379.027	73.31
379.253	93.31
379.478	88.31
379.704	91.31
379.929	98.31
380.155	93.31
380.38	102.31
380.606	76.31
380.831	95.31
381.057	79.31
381.282	87.31
381.507	94.31
381.733	104.31
381.958	96.31
382.184	91.31
382.409	90.31
382.634	103.31
382.86	94.31
383.085	83.31
383.31	105.31
383.535	98.31
383.761	92.31
383.986	98.31
384.211	95.31
384.436	88.31
384.662	92.31
384.887	85.31
385.112	106.31
385.337	108.31
385.562	105.31
385.787	99.31
386.013	103.31
386.238	111.31
386.463	98.31
386.688	104.31
386.913	78.31
387.138	92.31
387.363	85.31
387.588	107.31
387.813	106.31
388.038	108.31
388.263	105.31
388.488	98.31
388.713	108.31
388.938	84.31
389.163	96.31
389.387	87.31
389.612	69.31
389.837	76.31
390.062	87.31
390.287	86.31
390.512	82.31
390.736	84.31
390.961	83.31
391.186	88.31
391.411	94.31
391.636	94.31
391.86	106.31
392.085	80.31
392.31	70.31
392.534	78.31
392.759	88.31
392.984	87.31
393.208	72.31
393.433	88.31
393.658	87.31
393.882	79.31
394.107	86.31
394.331	78.31
394.556	65.31
394.78	83.31
395.005	94.31
395.229	88.31
395.454	81.31
395.678	97.31
395.903	85.31
396.127	98.31
396.352	98.31
396.576	88.31
396.801	76.31
397.025	80.31
397.249	86.31
397.474	79.31
397.698	74.31
397.922	88.31
398.147	81.31
398.371	90.31
398.595	86.31
398.82	85.31
399.044	91.31
399.268	73.31
399.492	90.31
399.717	72.31
399.941	89.31
400.165	89.31
400.389	80.31
400.613	82.31
400.837	81.31
401.062	97.31
401.286	85.31
401.51	81.31
401.734	93.31
401.958	105.31
402.182	99.31
402.406	134.31
402.63	105.31
402.854	90.31
403.078	87.31
403.302	93.31
403.526	88.31
403.75	91.31
403.974	85.31
404.198	74.31
404.422	90.31
404.645	86.31
404.869	81.31
405.093	100.31
405.317	93.31
405.541	93.31
405.765	72.31
405.988	106.31
406.212	145.31
406.436	184.31
406.66	125.31
406.883	109.31
407.107	95.31
407.331	105.31
407.555	88.31
407.778	101.31
408.002	92.31
408.226	88.31
408.449	78.31
408.673	82.31
408.896	91.31
409.12	90.31
409.344	96.31
409.567	86.31
409.791	78.31
410.014	87.31
410.238	77.31
410.461	89.31
410.685	86.31
410.908	83.31
411.132	103.31
411.355	95.31
411.578	92.31
411.802	87.31
412.025	94.31
412.249	82.31
412.472	80.31
412.695	90.31
412.919	97.31
413.142	80.31
413.365	104.31
413.589	83.31
413.812	89.31
414.035	108.31
414.258	89.31
414.482	98.31
414.705	87.31
414.928	81.31
415.151	94.31
415.374	99.31
415.597	79.31
415.821	67.31
416.044	80.31
416.267	85.31
416.49	82.31
416.713	84.31
416.936	90.31
417.159	84.31
417.382	83.31
417.605	87.31
417.828	81.31
418.051	96.31
418.274	80.31
418.497	86.31
418.72	85.31
418.943	90.31
419.166	93.31
419.389	85.31
419.611	87.31
419.834	94.31
420.057	84.31
420.28	88.31
420.503	84.31
420.726	80.31
420.948	76.31
421.171	73.31
421.394	83.31
421.617	91.31
421.839	89.31
422.062	85.31
422.285	96.31
422.507	90.31
422.73	108.31
422.953	92.31
423.175	90.31
423.398	92.31
423.621	90.31
423.843	82.31
424.066	78.31
424.288	97.31
424.511	96.31
424.733	83.31
424.956	88.31
425.178	83.31
425.401	88.31
425.623	97.31
425.846	88.31
426.068	95.31
426.291	87.31
426.513	87.31
426.735	97.31
426.958	85.31
427.18	97.31
427.402	115.31
427.625	133.31
427.847	126.31
428.069	115.31
428.292	93.31
428.514	83.31
428.736	102.31
428.958	95.31
429.181	86.31
429.403	78.31
429.625	87.31
429.847	72.31
430.069	95.31
430.292	89.31
430.514	98.31
430.736	73.31
430.958	76.31
431.18	78.31
431.402	90.31
431.624	70.31
431.846	68.31
432.068	90.31
432.29	84.31
432.512	87.31
432.734	89.31
432.956	92.31
433.178	96.31
433.4	86.31
433.622	96.31
433.844	89.31
434.066	94.31
434.287	85.31
434.509	83.31
434.731	85.31
434.953	83.31
435.175	83.31
435.397	84.31
435.618	84.31
435.84	112.31
436.062	119.31
436.284	82.31
436.505	104.31
436.727	104.31
436.949	97.31
437.17	90.31
437.392	94.31
437.614	78.31
437.835	102.31
438.057	104.31
438.278	92.31
438.5	102.31
438.721	113.31
438.943	105.31
439.165	87.31
439.386	76.31
439.608	91.31
439.829	91.31
440.05	102.31
440.272	140.31
440.493	92.31
440.715	89.31
440.936	80.31
441.158	82.31
441.379	81.31
441.6	95.31
441.822	86.31
442.043	98.31
442.264	94.31
442.486	102.31
442.707	93.31
442.928	76.31
443.149	97.31
443.371	113.31
443.592	101.31
443.813	92.31
444.034	92.31
444.255	90.31
444.476	69.31
444.698	72.31
444.919	77.31
445.14	119.31
445.361	114.31
445.582	110.31
445.803	122.31
446.024	112.31
446.245	109.31
446.466	88.31
446.687	96.31
446.908	84.31
447.129	90.31
447.35	96.31
447.571	88.31
447.792	77.31
448.013	83.31
448.234	100.31
448.455	88.31
448.675	100.31
448.896	109.31
449.117	88.31
449.338	64.31
449.559	122.31
449.779	113.31
450	88.31
450.221	94.31
450.442	99.31
450.662	86.31
450.883	95.31
451.104	88.31
451.324	89.31
451.545	80.31
451.766	88.31
451.986	66.31
452.207	93.31
452.428	85.31
452.648	77.31
452.869	113.31
453.089	99.31
453.31	106.31
453.53	91.31
453.751	71.31
453.971	94.31
454.192	96.31
454.412	108.31
454.633	81.31
454.853	89.31
455.073	77.31
455.294	92.31
455.514	85.31
455.734	94.31
455.955	85.31
456.175	66.31
456.395	86.31
456.616	84.31
456.836	80.31
457.056	81.31
457.276	78.31
457.497	79.31
457.717	86.31
457.937	84.31
458.157	90.31
458.377	96.31
458.598	108.31
458.818	121.31
459.038	131.31
459.258	97.31
459.478	78.31
459.698	85.31
459.918	85.31
460.138	93.31
460.358	81.31
460.578	94.31
460.798	86.31
461.018	86.31
461.238	90.31
461.458	72.31
461.678	86.31
461.898	87.31
462.118	87.31
462.338	74.31
462.558	84.31
462.777	82.31
462.997	68.31
463.217	77.31
463.437	92.31
463.657	80.31
463.876	94.31
464.096	92.31
464.316	96.31
464.536	104.31
464.755	83.31
464.975	97.31
465.195	141.31
465.414	145.31
465.634	98.31
465.854	81.31
466.073	80.31
466.293	95.31
466.512	81.31
466.732	74.31
466.951	85.31
467.171	82.31
467.391	94.31
467.61	91.31
467.829	98.31
468.049	119.31
468.268	125.31
468.488	101.31
468.707	88.31
468.927	93.31
469.146	87.31
469.365	70.31
469.585	80.31
469.804	88.31
470.023	97.31
470.243	92.31
470.462	105.31
470.681	92.31
470.901	70.31
471.12	85.31
471.339	76.31
471.558	84.31
471.777	87.31
471.997	93.31
472.216	158.31
472.435	264.31
472.654	125.31
472.873	92.31
473.092	66.31
473.311	84.31
473.53	90.31
473.749	80.31
473.968	95.31
474.187	98.31
474.406	98.31
474.625	72.31
474.844	76.31
475.063	88.31
475.282	90.31
475.501	85.31
475.72	90.31
475.939	76.31
476.158	85.31
476.377	98.31
476.596	95.31
476.814	92.31
477.033	83.31
477.252	81.31
477.471	88.31
477.69	78.31
477.908	86.31
478.127	85.31
478.346	90.31
478.564	93.31
478.783	94.31
479.002	101.31
479.22	101.31
479.439	101.31
479.658	96.31
479.876	84.31
480.095	88.31
480.313	96.31
480.532	93.31
480.751	89.31
480.969	154.31
481.188	422.31
481.406	259.31
481.624	113.31
481.843	92.31
482.061	80.31
482.28	92.31
482.498	88.31
482.717	83.31
482.935	81.31
483.153	90.31
483.372	85.31
483.59	90.31
483.808	92.31
484.027	88.31
484.245	86.31
484.463	95.31
484.681	94.31
484.9	97.31
485.118	97.31
485.336	83.31
485.554	104.31
485.772	93.31
485.99	108.31
486.209	112.31
486.427	98.31
486.645	116.31
486.863	113.31
487.081	94.31
487.299	69.31
487.517	85.31
487.735	86.31
487.953	94.31
488.171	84.31
488.389	94.31
488.607	90.31
488.825	97.31
489.043	96.31
489.261	89.31
489.479	90.31
489.696	88.31
489.914	82.31
490.132	96.31
490.35	88.31
490.568	91.31
490.786	91.31
491.003	93.31
491.221	86.31
491.439	85.31
491.657	109.31
491.874	73.31
492.092	85.31
492.31	71.31
492.527	68.31
492.745	73.31
492.963	66.31
493.18	86.31
493.398	83.31
493.615	87.31
493.833	82.31
494.05	72.31
494.268	88.31
494.485	93.31
494.703	91.31
494.92	88.31
495.138	74.31
495.355	84.31
495.573	82.31
495.79	74.31
496.008	84.31
496.225	87.31
496.442	90.31
496.66	73.31
496.877	90.31
497.094	74.31
497.312	77.31
497.529	89.31
497.746	80.31
497.963	85.31
498.181	92.31
498.398	95.31
498.615	101.31
498.832	93.31
499.049	82.31
499.267	93.31
499.484	79.31
499.701	90.31
499.918	85.31
500.135	87.31
500.352	88.31
500.569	90.31
500.786	92.31
501.003	83.31
501.22	74.31
501.437	89.31
501.654	83.31
501.871	93.31
502.088	88.31
502.305	74.31
502.522	98.31
502.739	89.31
502.956	93.31
503.172	81.31
503.389	80.31
503.606	89.31
503.823	100.31
504.04	97.31
504.256	96.31
504.473	88.31
504.69	84.31
504.907	96.31
505.123	100.31
505.34	83.31
505.557	84.31
505.773	73.31
505.99	89.31
506.207	92.31
506.423	85.31
506.64	84.31
506.856	82.31
507.073	89.31
507.289	84.31
507.506	85.31
507.722	101.31
507.939	124.31
508.155	99.31
508.372	82.31
508.588	90.31
508.805	105.31
509.021	84.31
509.238	98.31
509.454	103.31
509.67	98.31
509.887	98.31
510.103	125.31
510.319	189.31
510.536	596.31
510.752	1863.31
510.968	519.31
511.184	134.31
511.401	112.31
511.617	97.31
511.833	99.31
512.049	102.31
512.265	89.31
512.481	86.31
512.698	89.31
512.914	96.31
513.13	77.31
513.346	93.31
513.562	72.31
513.778	87.31
513.994	93.31
514.21	89.31
514.426	102.31
514.642	124.31
514.858	102.31
515.074	160.31
515.29	354.31
515.506	1143.31
515.721	446.31
515.937	131.31
516.153	105.31
516.369	101.31
516.585	101.31
516.801	77.31
517.016	79.31
