Data from Circ_1986_H10_HRD10591_00075.txt Node
Date: Wed Jan 03 12:15:41 EST 2024
User: Yrep
Spectrometer: HR+D1059
Trigger mode: 1
Integration Time (sec): 1.000000E-1
Scans to average: 1
Electric dark correction enabled: true
Nonlinearity correction enabled: false
Boxcar width: 0
XAxis mode: Wavelengths
Number of Pixels in Spectrum: 2048
>>>>>Begin Spectral Data<<<<<
223.165	-11.31
223.4	-11.31
223.635	-11.31
223.869	-11.31
224.104	-32.31
224.338	-44.31
224.573	-9.31
224.808	-6.31
225.042	-3.31
225.277	-7.31
225.511	14.69
225.746	4.69
225.98	17.69
226.215	11.69
226.449	16.69
226.683	19.69
226.918	25.69
227.152	14.69
227.387	33.69
227.621	40.69
227.856	46.69
228.09	39.69
228.324	48.69
228.559	36.69
228.793	50.69
229.027	56.69
229.262	63.69
229.496	82.69
229.73	88.69
229.964	83.69
230.199	68.69
230.433	84.69
230.667	68.69
230.901	83.69
231.136	83.69
231.37	84.69
231.604	78.69
231.838	88.69
232.072	71.69
232.306	82.69
232.541	84.69
232.775	89.69
233.009	101.69
233.243	78.69
233.477	70.69
233.711	87.69
233.945	92.69
234.179	67.69
234.413	80.69
234.647	90.69
234.881	73.69
235.115	84.69
235.349	87.69
235.583	82.69
235.817	72.69
236.051	74.69
236.285	74.69
236.519	70.69
236.753	82.69
236.987	71.69
237.221	92.69
237.455	74.69
237.689	85.69
237.922	71.69
238.156	82.69
238.39	80.69
238.624	62.69
238.858	83.69
239.091	80.69
239.325	82.69
239.559	69.69
239.793	64.69
240.027	75.69
240.26	73.69
240.494	69.69
240.728	86.69
240.961	83.69
241.195	74.69
241.429	74.69
241.662	83.69
241.896	73.69
242.13	83.69
242.363	78.69
242.597	73.69
242.83	82.69
243.064	73.69
243.298	85.69
243.531	100.69
243.765	86.69
243.998	65.69
244.232	78.69
244.465	84.69
244.699	81.69
244.932	72.69
245.166	74.69
245.399	68.69
245.633	84.69
245.866	75.69
246.099	63.69
246.333	74.69
246.566	79.69
246.8	76.69
247.033	57.69
247.266	69.69
247.5	77.69
247.733	80.69
247.966	83.69
248.2	68.69
248.433	80.69
248.666	91.69
248.899	80.69
249.133	75.69
249.366	94.69
249.599	102.69
249.832	95.69
250.066	89.69
250.299	61.69
250.532	86.69
250.765	84.69
250.998	69.69
251.231	82.69
251.465	71.69
251.698	80.69
251.931	96.69
252.164	79.69
252.397	80.69
252.63	79.69
252.863	85.69
253.096	95.69
253.329	82.69
253.562	70.69
253.795	67.69
254.028	80.69
254.261	81.69
254.494	89.69
254.727	79.69
254.96	84.69
255.193	80.69
255.426	76.69
255.659	78.69
255.892	74.69
256.124	84.69
256.357	91.69
256.59	92.69
256.823	85.69
257.056	88.69
257.289	74.69
257.521	75.69
257.754	83.69
257.987	84.69
258.22	72.69
258.452	71.69
258.685	82.69
258.918	77.69
259.151	82.69
259.383	76.69
259.616	87.69
259.849	84.69
260.081	90.69
260.314	83.69
260.547	82.69
260.779	82.69
261.012	90.69
261.244	74.69
261.477	94.69
261.71	91.69
261.942	98.69
262.175	100.69
262.407	89.69
262.64	86.69
262.872	87.69
263.105	93.69
263.337	80.69
263.57	75.69
263.802	70.69
264.035	82.69
264.267	90.69
264.499	80.69
264.732	82.69
264.964	83.69
265.197	86.69
265.429	71.69
265.661	68.69
265.894	82.69
266.126	88.69
266.358	90.69
266.591	86.69
266.823	80.69
267.055	72.69
267.287	83.69
267.52	75.69
267.752	81.69
267.984	90.69
268.216	54.69
268.448	87.69
268.681	83.69
268.913	77.69
269.145	73.69
269.377	72.69
269.609	86.69
269.841	90.69
270.073	78.69
270.306	64.69
270.538	81.69
270.77	91.69
271.002	82.69
271.234	82.69
271.466	83.69
271.698	74.69
271.93	81.69
272.162	95.69
272.394	82.69
272.626	94.69
272.858	94.69
273.09	76.69
273.322	104.69
273.553	72.69
273.785	73.69
274.017	85.69
274.249	87.69
274.481	88.69
274.713	87.69
274.945	91.69
275.176	88.69
275.408	80.69
275.64	82.69
275.872	91.69
276.104	91.69
276.335	94.69
276.567	102.69
276.799	106.69
277.031	98.69
277.262	89.69
277.494	85.69
277.726	76.69
277.957	80.69
278.189	82.69
278.421	76.69
278.652	72.69
278.884	94.69
279.115	85.69
279.347	74.69
279.579	90.69
279.81	80.69
280.042	98.69
280.273	87.69
280.505	96.69
280.736	90.69
280.968	86.69
281.199	91.69
281.431	91.69
281.662	89.69
281.894	92.69
282.125	100.69
282.356	96.69
282.588	120.69
282.819	104.69
283.051	83.69
283.282	92.69
283.513	84.69
283.745	82.69
283.976	94.69
284.207	80.69
284.439	101.69
284.67	73.69
284.901	96.69
285.132	90.69
285.364	82.69
285.595	83.69
285.826	78.69
286.057	87.69
286.288	79.69
286.52	73.69
286.751	100.69
286.982	78.69
287.213	81.69
287.444	83.69
287.675	84.69
287.906	78.69
288.138	91.69
288.369	90.69
288.6	85.69
288.831	93.69
289.062	77.69
289.293	92.69
289.524	83.69
289.755	90.69
289.986	86.69
290.217	96.69
290.448	77.69
290.679	99.69
290.91	92.69
291.141	94.69
291.371	84.69
291.602	83.69
291.833	92.69
292.064	72.69
292.295	86.69
292.526	77.69
292.757	103.69
292.987	78.69
293.218	65.69
293.449	83.69
293.68	90.69
293.91	75.69
294.141	90.69
294.372	82.69
294.603	94.69
294.833	84.69
295.064	87.69
295.295	85.69
295.525	76.69
295.756	89.69
295.987	111.69
296.217	113.69
296.448	111.69
296.679	81.69
296.909	84.69
297.14	94.69
297.37	98.69
297.601	85.69
297.831	86.69
298.062	87.69
298.292	85.69
298.523	94.69
298.753	80.69
298.984	88.69
299.214	87.69
299.445	85.69
299.675	87.69
299.905	95.69
300.136	88.69
300.366	90.69
300.597	94.69
300.827	72.69
301.057	92.69
301.288	104.69
301.518	94.69
301.748	78.69
301.979	104.69
302.209	78.69
302.439	85.69
302.669	87.69
302.9	88.69
303.13	87.69
303.36	86.69
303.59	93.69
303.82	112.69
304.051	104.69
304.281	81.69
304.511	83.69
304.741	80.69
304.971	91.69
305.201	98.69
305.431	80.69
305.661	84.69
305.891	83.69
306.121	97.69
306.352	95.69
306.582	91.69
306.812	90.69
307.042	78.69
307.272	97.69
307.502	105.69
307.731	99.69
307.961	80.69
308.191	86.69
308.421	94.69
308.651	75.69
308.881	90.69
309.111	106.69
309.341	104.69
309.571	118.69
309.8	107.69
310.03	98.69
310.26	80.69
310.49	94.69
310.72	100.69
310.949	99.69
311.179	92.69
311.409	90.69
311.639	95.69
311.868	110.69
312.098	92.69
312.328	107.69
312.557	88.69
312.787	97.69
313.017	97.69
313.246	89.69
313.476	104.69
313.706	96.69
313.935	96.69
314.165	101.69
314.394	96.69
314.624	86.69
314.853	91.69
315.083	99.69
315.312	83.69
315.542	97.69
315.771	96.69
316.001	89.69
316.23	98.69
316.46	91.69
316.689	92.69
316.919	91.69
317.148	85.69
317.377	82.69
317.607	94.69
317.836	89.69
318.065	88.69
318.295	82.69
318.524	89.69
318.753	87.69
318.983	96.69
319.212	80.69
319.441	111.69
319.67	97.69
319.9	96.69
320.129	96.69
320.358	97.69
320.587	86.69
320.816	101.69
321.046	113.69
321.275	94.69
321.504	119.69
321.733	113.69
321.962	109.69
322.191	91.69
322.42	108.69
322.649	102.69
322.878	102.69
323.108	99.69
323.337	125.69
323.566	117.69
323.795	139.69
324.024	187.69
324.253	368.69
324.482	742.69
324.71	1541.69
324.939	2069.69
325.168	767.69
325.397	216.69
325.626	137.69
325.855	142.69
326.084	140.69
326.313	128.69
326.542	161.69
326.77	195.69
326.999	422.69
327.228	847.69
327.457	1532.69
327.686	1290.69
327.914	348.69
328.143	201.69
328.372	160.69
328.6	130.69
328.829	122.69
329.058	111.69
329.287	131.69
329.515	101.69
329.744	98.69
329.972	126.69
330.201	169.69
330.43	199.69
330.658	154.69
330.887	152.69
331.115	115.69
331.344	96.69
331.572	100.69
331.801	95.69
332.03	115.69
332.258	104.69
332.486	94.69
332.715	91.69
332.943	101.69
333.172	99.69
333.4	102.69
333.629	100.69
333.857	112.69
334.085	130.69
334.314	164.69
334.542	249.69
334.771	226.69
334.999	129.69
335.227	99.69
335.455	95.69
335.684	106.69
335.912	92.69
336.14	113.69
336.369	101.69
336.597	88.69
336.825	101.69
337.053	93.69
337.281	87.69
337.51	86.69
337.738	97.69
337.966	93.69
338.194	99.69
338.422	95.69
338.65	86.69
338.878	74.69
339.106	86.69
339.334	89.69
339.562	90.69
339.79	87.69
340.018	80.69
340.246	88.69
340.474	91.69
340.702	105.69
340.93	96.69
341.158	98.69
341.386	101.69
341.614	103.69
341.842	97.69
342.07	98.69
342.298	90.69
342.526	99.69
342.754	85.69
342.981	82.69
343.209	84.69
343.437	89.69
343.665	80.69
343.893	97.69
344.12	80.69
344.348	75.69
344.576	95.69
344.804	95.69
345.031	89.69
345.259	96.69
345.487	93.69
345.714	103.69
345.942	85.69
346.17	89.69
346.397	110.69
346.625	103.69
346.853	88.69
347.08	98.69
347.308	92.69
347.535	88.69
347.763	99.69
347.99	103.69
348.218	103.69
348.445	105.69
348.673	90.69
348.9	100.69
349.128	101.69
349.355	107.69
349.583	99.69
349.81	96.69
350.037	98.69
350.265	96.69
350.492	80.69
350.72	95.69
350.947	108.69
351.174	90.69
351.402	98.69
351.629	89.69
351.856	84.69
352.083	96.69
352.311	97.69
352.538	87.69
352.765	95.69
352.992	115.69
353.22	119.69
353.447	106.69
353.674	115.69
353.901	112.69
354.128	93.69
354.355	81.69
354.583	100.69
354.81	89.69
355.037	89.69
355.264	87.69
355.491	84.69
355.718	96.69
355.945	89.69
356.172	93.69
356.399	100.69
356.626	91.69
356.853	89.69
357.08	88.69
357.307	94.69
357.534	86.69
357.761	90.69
357.988	85.69
358.215	104.69
358.441	98.69
358.668	83.69
358.895	86.69
359.122	85.69
359.349	96.69
359.576	99.69
359.802	102.69
360.029	97.69
360.256	120.69
360.483	98.69
360.709	96.69
360.936	97.69
361.163	71.69
361.39	86.69
361.616	91.69
361.843	99.69
362.07	100.69
362.296	92.69
362.523	90.69
362.749	94.69
362.976	84.69
363.203	97.69
363.429	91.69
363.656	91.69
363.882	94.69
364.109	71.69
364.335	80.69
364.562	88.69
364.788	102.69
365.015	91.69
365.241	105.69
365.468	105.69
365.694	90.69
365.92	103.69
366.147	89.69
366.373	76.69
366.599	80.69
366.826	100.69
367.052	104.69
367.278	97.69
367.505	88.69
367.731	96.69
367.957	95.69
368.184	92.69
368.41	89.69
368.636	110.69
368.862	106.69
369.089	109.69
369.315	86.69
369.541	82.69
369.767	76.69
369.993	95.69
370.219	93.69
370.445	86.69
370.672	83.69
370.898	84.69
371.124	80.69
371.35	83.69
371.576	82.69
371.802	96.69
372.028	88.69
372.254	78.69
372.48	86.69
372.706	83.69
372.932	96.69
373.158	73.69
373.384	101.69
373.61	95.69
373.835	87.69
374.061	89.69
374.287	95.69
374.513	90.69
374.739	86.69
374.965	96.69
375.191	93.69
375.416	97.69
375.642	102.69
375.868	91.69
376.094	87.69
376.319	88.69
376.545	71.69
376.771	99.69
376.997	80.69
377.222	92.69
377.448	88.69
377.674	80.69
377.899	91.69
378.125	94.69
378.35	92.69
378.576	100.69
378.802	109.69
379.027	88.69
379.253	86.69
379.478	83.69
379.704	106.69
379.929	82.69
380.155	79.69
380.38	97.69
380.606	82.69
380.831	92.69
381.057	100.69
381.282	98.69
381.507	82.69
381.733	90.69
381.958	75.69
382.184	82.69
382.409	105.69
382.634	103.69
382.86	92.69
383.085	79.69
383.31	97.69
383.535	99.69
383.761	99.69
383.986	102.69
384.211	90.69
384.436	107.69
384.662	88.69
384.887	107.69
385.112	87.69
385.337	100.69
385.562	107.69
385.787	113.69
386.013	107.69
386.238	106.69
386.463	103.69
386.688	108.69
386.913	95.69
387.138	96.69
387.363	108.69
387.588	106.69
387.813	114.69
388.038	107.69
388.263	103.69
388.488	109.69
388.713	91.69
388.938	112.69
389.163	107.69
389.387	91.69
389.612	102.69
389.837	92.69
390.062	99.69
390.287	94.69
390.512	90.69
390.736	85.69
390.961	92.69
391.186	87.69
391.411	90.69
391.636	86.69
391.86	92.69
392.085	75.69
392.31	99.69
392.534	74.69
392.759	80.69
392.984	86.69
393.208	96.69
393.433	97.69
393.658	83.69
393.882	90.69
394.107	86.69
394.331	70.69
394.556	88.69
394.78	107.69
395.005	82.69
395.229	91.69
395.454	86.69
395.678	78.69
395.903	91.69
396.127	75.69
396.352	72.69
396.576	88.69
396.801	104.69
397.025	85.69
397.249	82.69
397.474	90.69
397.698	84.69
397.922	93.69
398.147	91.69
398.371	69.69
398.595	80.69
398.82	89.69
399.044	87.69
399.268	96.69
399.492	100.69
399.717	84.69
399.941	85.69
400.165	90.69
400.389	81.69
400.613	89.69
400.837	87.69
401.062	86.69
401.286	67.69
401.51	106.69
401.734	82.69
401.958	112.69
402.182	123.69
402.406	142.69
402.63	108.69
402.854	94.69
403.078	92.69
403.302	89.69
403.526	104.69
403.75	82.69
403.974	87.69
404.198	88.69
404.422	79.69
404.645	87.69
404.869	102.69
405.093	97.69
405.317	113.69
405.541	94.69
405.765	102.69
405.988	111.69
406.212	173.69
406.436	219.69
406.66	128.69
406.883	86.69
407.107	95.69
407.331	85.69
407.555	106.69
407.778	75.69
408.002	90.69
408.226	87.69
408.449	81.69
408.673	82.69
408.896	88.69
409.12	95.69
409.344	101.69
409.567	84.69
409.791	90.69
410.014	99.69
410.238	91.69
410.461	82.69
410.685	84.69
410.908	80.69
411.132	105.69
411.355	89.69
411.578	98.69
411.802	102.69
412.025	88.69
412.249	86.69
412.472	88.69
412.695	92.69
412.919	83.69
413.142	96.69
413.365	81.69
413.589	81.69
413.812	98.69
414.035	86.69
414.258	88.69
414.482	92.69
414.705	92.69
414.928	101.69
415.151	98.69
415.374	90.69
415.597	83.69
415.821	84.69
416.044	89.69
416.267	87.69
416.49	80.69
416.713	80.69
416.936	79.69
417.159	104.69
417.382	85.69
417.605	95.69
417.828	90.69
418.051	96.69
418.274	81.69
418.497	85.69
418.72	89.69
418.943	79.69
419.166	88.69
419.389	72.69
419.611	92.69
419.834	92.69
420.057	88.69
420.28	87.69
420.503	93.69
420.726	92.69
420.948	87.69
421.171	99.69
421.394	98.69
421.617	88.69
421.839	89.69
422.062	95.69
422.285	90.69
422.507	95.69
422.73	102.69
422.953	93.69
423.175	93.69
423.398	95.69
423.621	83.69
423.843	88.69
424.066	78.69
424.288	92.69
424.511	85.69
424.733	96.69
424.956	100.69
425.178	95.69
425.401	92.69
425.623	88.69
425.846	100.69
426.068	84.69
426.291	87.69
426.513	79.69
426.735	97.69
426.958	102.69
427.18	93.69
427.402	117.69
427.625	178.69
427.847	150.69
428.069	124.69
428.292	94.69
428.514	98.69
428.736	84.69
428.958	82.69
429.181	82.69
429.403	87.69
429.625	91.69
429.847	95.69
430.069	88.69
430.292	93.69
430.514	81.69
430.736	80.69
430.958	84.69
431.18	91.69
431.402	80.69
431.624	85.69
431.846	69.69
432.068	87.69
432.29	87.69
432.512	80.69
432.734	80.69
432.956	92.69
433.178	90.69
433.4	97.69
433.622	86.69
433.844	94.69
434.066	80.69
434.287	86.69
434.509	93.69
434.731	85.69
434.953	83.69
435.175	83.69
435.397	81.69
435.618	87.69
435.84	111.69
436.062	113.69
436.284	114.69
436.505	115.69
436.727	97.69
436.949	98.69
437.17	99.69
437.392	91.69
437.614	95.69
437.835	114.69
438.057	108.69
438.278	103.69
438.5	101.69
438.721	119.69
438.943	99.69
439.165	91.69
439.386	81.69
439.608	102.69
439.829	103.69
440.05	116.69
440.272	139.69
440.493	73.69
440.715	83.69
440.936	98.69
441.158	90.69
441.379	74.69
441.6	80.69
441.822	89.69
442.043	82.69
442.264	80.69
442.486	101.69
442.707	82.69
442.928	86.69
443.149	131.69
443.371	121.69
443.592	114.69
443.813	107.69
444.034	108.69
444.255	92.69
444.476	97.69
444.698	92.69
444.919	96.69
445.14	130.69
445.361	131.69
445.582	103.69
445.803	120.69
446.024	121.69
446.245	129.69
446.466	110.69
446.687	82.69
446.908	98.69
447.129	81.69
447.35	84.69
447.571	83.69
447.792	95.69
448.013	98.69
448.234	100.69
448.455	106.69
448.675	87.69
448.896	108.69
449.117	107.69
449.338	103.69
449.559	115.69
449.779	128.69
450	90.69
450.221	96.69
450.442	93.69
450.662	88.69
450.883	99.69
451.104	100.69
451.324	94.69
451.545	88.69
451.766	84.69
451.986	94.69
452.207	99.69
452.428	87.69
452.648	100.69
452.869	125.69
453.089	94.69
453.31	107.69
453.53	103.69
453.751	92.69
453.971	94.69
454.192	108.69
454.412	98.69
454.633	97.69
454.853	88.69
455.073	89.69
455.294	98.69
455.514	102.69
455.734	95.69
455.955	89.69
456.175	82.69
456.395	73.69
456.616	86.69
456.836	86.69
457.056	87.69
457.276	103.69
457.497	94.69
457.717	89.69
457.937	91.69
458.157	97.69
458.377	91.69
458.598	98.69
458.818	147.69
459.038	144.69
459.258	107.69
459.478	86.69
459.698	82.69
459.918	78.69
460.138	75.69
460.358	90.69
460.578	84.69
460.798	95.69
461.018	84.69
461.238	103.69
461.458	94.69
461.678	97.69
461.898	92.69
462.118	82.69
462.338	79.69
462.558	88.69
462.777	80.69
462.997	95.69
463.217	94.69
463.437	80.69
463.657	88.69
463.876	82.69
464.096	76.69
464.316	94.69
464.536	89.69
464.755	97.69
464.975	111.69
465.195	148.69
465.414	155.69
465.634	94.69
465.854	86.69
466.073	99.69
466.293	90.69
466.512	90.69
466.732	100.69
466.951	90.69
467.171	86.69
467.391	99.69
467.61	107.69
467.829	106.69
468.049	125.69
468.268	136.69
468.488	90.69
468.707	79.69
468.927	75.69
469.146	85.69
469.365	92.69
469.585	74.69
469.804	93.69
470.023	99.69
470.243	89.69
470.462	87.69
470.681	99.69
470.901	90.69
471.12	80.69
471.339	91.69
471.558	77.69
471.777	88.69
471.997	115.69
472.216	191.69
472.435	287.69
472.654	112.69
472.873	101.69
473.092	99.69
473.311	82.69
473.53	78.69
473.749	102.69
473.968	92.69
474.187	101.69
474.406	79.69
474.625	93.69
474.844	88.69
475.063	80.69
475.282	95.69
475.501	90.69
475.72	97.69
475.939	91.69
476.158	80.69
476.377	88.69
476.596	81.69
476.814	83.69
477.033	74.69
477.252	93.69
477.471	95.69
477.69	89.69
477.908	94.69
478.127	87.69
478.346	90.69
478.564	99.69
478.783	93.69
479.002	96.69
479.22	93.69
479.439	89.69
479.658	106.69
479.876	106.69
480.095	84.69
480.313	71.69
480.532	97.69
480.751	104.69
480.969	182.69
481.188	478.69
481.406	313.69
481.624	108.69
481.843	82.69
482.061	80.69
482.28	87.69
482.498	96.69
482.717	80.69
482.935	80.69
483.153	87.69
483.372	90.69
483.59	84.69
483.808	93.69
484.027	88.69
484.245	77.69
484.463	89.69
484.681	97.69
484.9	92.69
485.118	98.69
485.336	91.69
485.554	85.69
485.772	109.69
485.99	97.69
486.209	84.69
486.427	90.69
486.645	95.69
486.863	94.69
487.081	86.69
487.299	98.69
487.517	100.69
487.735	88.69
487.953	102.69
488.171	91.69
488.389	104.69
488.607	108.69
488.825	90.69
489.043	82.69
489.261	113.69
489.479	100.69
489.696	87.69
489.914	91.69
490.132	90.69
490.35	90.69
490.568	80.69
490.786	86.69
491.003	83.69
491.221	90.69
491.439	94.69
491.657	81.69
491.874	81.69
492.092	81.69
492.31	97.69
492.527	101.69
492.745	96.69
492.963	89.69
493.18	88.69
493.398	94.69
493.615	102.69
493.833	103.69
494.05	97.69
494.268	88.69
494.485	94.69
494.703	95.69
494.92	80.69
495.138	100.69
495.355	104.69
495.573	100.69
495.79	100.69
496.008	89.69
496.225	94.69
496.442	82.69
496.66	91.69
496.877	97.69
497.094	86.69
497.312	98.69
497.529	80.69
497.746	84.69
497.963	86.69
498.181	84.69
498.398	96.69
498.615	118.69
498.832	104.69
499.049	107.69
499.267	88.69
499.484	83.69
499.701	87.69
499.918	93.69
500.135	85.69
500.352	100.69
500.569	92.69
500.786	99.69
501.003	84.69
501.22	88.69
501.437	94.69
501.654	85.69
501.871	108.69
502.088	94.69
502.305	89.69
502.522	84.69
502.739	87.69
502.956	91.69
503.172	101.69
503.389	75.69
503.606	103.69
503.823	86.69
504.04	88.69
504.256	99.69
504.473	100.69
504.69	98.69
504.907	99.69
505.123	89.69
505.34	73.69
505.557	85.69
505.773	100.69
505.99	92.69
506.207	99.69
506.423	103.69
506.64	92.69
506.856	85.69
507.073	102.69
507.289	80.69
507.506	103.69
507.722	118.69
507.939	124.69
508.155	97.69
508.372	99.69
508.588	91.69
508.805	84.69
509.021	97.69
509.238	80.69
509.454	101.69
509.67	91.69
509.887	115.69
510.103	122.69
510.319	210.69
510.536	693.69
510.752	2140.69
510.968	562.69
511.184	151.69
511.401	104.69
511.617	98.69
511.833	89.69
512.049	82.69
512.265	80.69
512.481	84.69
512.698	87.69
512.914	104.69
513.13	103.69
513.346	85.69
513.562	96.69
513.778	96.69
513.994	88.69
514.21	99.69
514.426	103.69
514.642	134.69
514.858	108.69
515.074	170.69
515.29	416.69
515.506	1364.69
515.721	472.69
515.937	148.69
