Data from Circ_1986_H10_HRD10591_00046.txt Node
Date: Wed Jan 03 12:15:35 EST 2024
User: Yrep
Spectrometer: HR+D1059
Trigger mode: 1
Integration Time (sec): 1.000000E-1
Scans to average: 1
Electric dark correction enabled: true
Nonlinearity correction enabled: false
Boxcar width: 0
XAxis mode: Wavelengths
Number of Pixels in Spectrum: 2048
>>>>>Begin Spectral Data<<<<<
223.165	-21.5
223.4	-21.5
223.635	-21.5
223.869	-13.5
224.104	-23.5
224.338	-5.5
224.573	-2.5
224.808	-4.5
225.042	-22.5
225.277	-10.5
225.511	-6.5
225.746	0.5
225.98	2.5
226.215	21.5
226.449	16.5
226.683	15.5
226.918	24.5
227.152	29.5
227.387	37.5
227.621	40.5
227.856	56.5
228.09	42.5
228.324	46.5
228.559	57.5
228.793	56.5
229.027	70.5
229.262	49.5
229.496	71.5
229.73	86.5
229.964	72.5
230.199	84.5
230.433	79.5
230.667	65.5
230.901	68.5
231.136	59.5
231.37	80.5
231.604	87.5
231.838	79.5
232.072	71.5
232.306	72.5
232.541	82.5
232.775	77.5
233.009	87.5
233.243	72.5
233.477	70.5
233.711	68.5
233.945	79.5
234.179	86.5
234.413	81.5
234.647	78.5
234.881	83.5
235.115	83.5
235.349	92.5
235.583	80.5
235.817	80.5
236.051	74.5
236.285	77.5
236.519	95.5
236.753	70.5
236.987	82.5
237.221	80.5
237.455	82.5
237.689	68.5
237.922	92.5
238.156	77.5
238.39	66.5
238.624	85.5
238.858	69.5
239.091	81.5
239.325	69.5
239.559	74.5
239.793	69.5
240.027	71.5
240.26	59.5
240.494	67.5
240.728	61.5
240.961	63.5
241.195	83.5
241.429	72.5
241.662	84.5
241.896	74.5
242.13	63.5
242.363	79.5
242.597	82.5
242.83	68.5
243.064	66.5
243.298	76.5
243.531	72.5
243.765	65.5
243.998	82.5
244.232	72.5
244.465	80.5
244.699	77.5
244.932	70.5
245.166	73.5
245.399	88.5
245.633	82.5
245.866	73.5
246.099	76.5
246.333	62.5
246.566	75.5
246.8	67.5
247.033	76.5
247.266	87.5
247.5	86.5
247.733	77.5
247.966	73.5
248.2	84.5
248.433	74.5
248.666	82.5
248.899	86.5
249.133	92.5
249.366	87.5
249.599	91.5
249.832	85.5
250.066	77.5
250.299	84.5
250.532	87.5
250.765	81.5
250.998	86.5
251.231	80.5
251.465	74.5
251.698	76.5
251.931	85.5
252.164	83.5
252.397	79.5
252.63	70.5
252.863	70.5
253.096	79.5
253.329	60.5
253.562	69.5
253.795	83.5
254.028	80.5
254.261	78.5
254.494	85.5
254.727	76.5
254.96	89.5
255.193	96.5
255.426	72.5
255.659	66.5
255.892	90.5
256.124	84.5
256.357	95.5
256.59	77.5
256.823	86.5
257.056	91.5
257.289	81.5
257.521	78.5
257.754	85.5
257.987	78.5
258.22	66.5
258.452	74.5
258.685	79.5
258.918	85.5
259.151	75.5
259.383	84.5
259.616	71.5
259.849	78.5
260.081	88.5
260.314	84.5
260.547	87.5
260.779	80.5
261.012	83.5
261.244	82.5
261.477	80.5
261.71	69.5
261.942	100.5
262.175	97.5
262.407	93.5
262.64	84.5
262.872	82.5
263.105	93.5
263.337	80.5
263.57	84.5
263.802	73.5
264.035	88.5
264.267	78.5
264.499	86.5
264.732	76.5
264.964	88.5
265.197	73.5
265.429	85.5
265.661	97.5
265.894	89.5
266.126	79.5
266.358	73.5
266.591	82.5
266.823	88.5
267.055	73.5
267.287	77.5
267.52	71.5
267.752	73.5
267.984	71.5
268.216	74.5
268.448	83.5
268.681	81.5
268.913	84.5
269.145	70.5
269.377	86.5
269.609	95.5
269.841	78.5
270.073	78.5
270.306	63.5
270.538	88.5
270.77	72.5
271.002	92.5
271.234	75.5
271.466	76.5
271.698	90.5
271.93	77.5
272.162	98.5
272.394	88.5
272.626	90.5
272.858	84.5
273.09	78.5
273.322	83.5
273.553	72.5
273.785	88.5
274.017	87.5
274.249	77.5
274.481	76.5
274.713	81.5
274.945	80.5
275.176	77.5
275.408	82.5
275.64	95.5
275.872	88.5
276.104	96.5
276.335	86.5
276.567	88.5
276.799	90.5
277.031	95.5
277.262	87.5
277.494	79.5
277.726	77.5
277.957	90.5
278.189	65.5
278.421	97.5
278.652	85.5
278.884	74.5
279.115	82.5
279.347	82.5
279.579	78.5
279.81	87.5
280.042	94.5
280.273	88.5
280.505	92.5
280.736	93.5
280.968	84.5
281.199	74.5
281.431	88.5
281.662	90.5
281.894	86.5
282.125	89.5
282.356	100.5
282.588	135.5
282.819	110.5
283.051	81.5
283.282	80.5
283.513	96.5
283.745	90.5
283.976	79.5
284.207	76.5
284.439	78.5
284.67	86.5
284.901	85.5
285.132	69.5
285.364	80.5
285.595	108.5
285.826	80.5
286.057	81.5
286.288	92.5
286.52	94.5
286.751	80.5
286.982	88.5
287.213	83.5
287.444	87.5
287.675	96.5
287.906	96.5
288.138	78.5
288.369	90.5
288.6	91.5
288.831	90.5
289.062	81.5
289.293	96.5
289.524	94.5
289.755	91.5
289.986	83.5
290.217	93.5
290.448	82.5
290.679	84.5
290.91	84.5
291.141	91.5
291.371	87.5
291.602	78.5
291.833	81.5
292.064	85.5
292.295	91.5
292.526	99.5
292.757	82.5
292.987	92.5
293.218	81.5
293.449	96.5
293.68	91.5
293.91	87.5
294.141	82.5
294.372	91.5
294.603	96.5
294.833	94.5
295.064	82.5
295.295	84.5
295.525	92.5
295.756	95.5
295.987	117.5
296.217	127.5
296.448	106.5
296.679	86.5
296.909	87.5
297.14	84.5
297.37	96.5
297.601	84.5
297.831	90.5
298.062	89.5
298.292	95.5
298.523	89.5
298.753	70.5
298.984	88.5
299.214	88.5
299.445	99.5
299.675	90.5
299.905	99.5
300.136	94.5
300.366	81.5
300.597	84.5
300.827	95.5
301.057	101.5
301.288	90.5
301.518	90.5
301.748	88.5
301.979	85.5
302.209	97.5
302.439	89.5
302.669	88.5
302.9	83.5
303.13	70.5
303.36	84.5
303.59	92.5
303.82	98.5
304.051	76.5
304.281	88.5
304.511	88.5
304.741	73.5
304.971	87.5
305.201	86.5
305.431	76.5
305.661	71.5
305.891	95.5
306.121	101.5
306.352	106.5
306.582	101.5
306.812	82.5
307.042	81.5
307.272	84.5
307.502	88.5
307.731	104.5
307.961	89.5
308.191	94.5
308.421	94.5
308.651	100.5
308.881	85.5
309.111	87.5
309.341	94.5
309.571	96.5
309.8	88.5
310.03	82.5
310.26	92.5
310.49	85.5
310.72	87.5
310.949	85.5
311.179	97.5
311.409	89.5
311.639	94.5
311.868	84.5
312.098	79.5
312.328	102.5
312.557	105.5
312.787	106.5
313.017	86.5
313.246	90.5
313.476	90.5
313.706	88.5
313.935	82.5
314.165	86.5
314.394	85.5
314.624	74.5
314.853	97.5
315.083	86.5
315.312	83.5
315.542	80.5
315.771	95.5
316.001	90.5
316.23	80.5
316.46	80.5
316.689	98.5
316.919	93.5
317.148	91.5
317.377	87.5
317.607	88.5
317.836	88.5
318.065	87.5
318.295	83.5
318.524	80.5
318.753	80.5
318.983	85.5
319.212	93.5
319.441	100.5
319.67	104.5
319.9	82.5
320.129	94.5
320.358	95.5
320.587	111.5
320.816	98.5
321.046	89.5
321.275	84.5
321.504	89.5
321.733	97.5
321.962	101.5
322.191	94.5
322.42	98.5
322.649	108.5
322.878	110.5
323.108	100.5
323.337	113.5
323.566	125.5
323.795	136.5
324.024	169.5
324.253	318.5
324.482	644.5
324.71	1334.5
324.939	1702.5
325.168	658.5
325.397	199.5
325.626	134.5
325.855	114.5
326.084	109.5
326.313	111.5
326.542	136.5
326.77	196.5
326.999	372.5
327.228	769.5
327.457	1348.5
327.686	1066.5
327.914	296.5
328.143	185.5
328.372	151.5
328.6	107.5
328.829	98.5
329.058	118.5
329.287	102.5
329.515	111.5
329.744	116.5
329.972	97.5
330.201	123.5
330.43	151.5
330.658	124.5
330.887	118.5
331.115	106.5
331.344	88.5
331.572	76.5
331.801	93.5
332.03	81.5
332.258	84.5
332.486	86.5
332.715	87.5
332.943	90.5
333.172	96.5
333.4	106.5
333.629	96.5
333.857	125.5
334.085	112.5
334.314	135.5
334.542	169.5
334.771	170.5
334.999	112.5
335.227	97.5
335.455	106.5
335.684	100.5
335.912	101.5
336.14	88.5
336.369	98.5
336.597	79.5
336.825	88.5
337.053	92.5
337.281	80.5
337.51	86.5
337.738	96.5
337.966	90.5
338.194	105.5
338.422	96.5
338.65	93.5
338.878	88.5
339.106	95.5
339.334	95.5
339.562	93.5
339.79	93.5
340.018	82.5
340.246	82.5
340.474	88.5
340.702	86.5
340.93	84.5
341.158	89.5
341.386	84.5
341.614	88.5
341.842	85.5
342.07	79.5
342.298	98.5
342.526	80.5
342.754	84.5
342.981	96.5
343.209	90.5
343.437	89.5
343.665	86.5
343.893	89.5
344.12	93.5
344.348	79.5
344.576	94.5
344.804	86.5
345.031	90.5
345.259	93.5
345.487	85.5
345.714	92.5
345.942	96.5
346.17	110.5
346.397	85.5
346.625	80.5
346.853	88.5
347.08	78.5
347.308	84.5
347.535	91.5
347.763	107.5
347.99	105.5
348.218	94.5
348.445	92.5
348.673	98.5
348.9	75.5
349.128	93.5
349.355	98.5
349.583	89.5
349.81	81.5
350.037	87.5
350.265	89.5
350.492	94.5
350.72	92.5
350.947	93.5
351.174	92.5
351.402	102.5
351.629	104.5
351.856	82.5
352.083	88.5
352.311	90.5
352.538	92.5
352.765	85.5
352.992	105.5
353.22	99.5
353.447	94.5
353.674	81.5
353.901	84.5
354.128	103.5
354.355	80.5
354.583	97.5
354.81	84.5
355.037	91.5
355.264	84.5
355.491	83.5
355.718	83.5
355.945	99.5
356.172	74.5
356.399	80.5
356.626	89.5
356.853	91.5
357.08	76.5
357.307	102.5
357.534	83.5
357.761	118.5
357.988	89.5
358.215	95.5
358.441	104.5
358.668	104.5
358.895	89.5
359.122	86.5
359.349	82.5
359.576	93.5
359.802	90.5
360.029	104.5
360.256	105.5
360.483	101.5
360.709	95.5
360.936	84.5
361.163	73.5
361.39	82.5
361.616	87.5
361.843	92.5
362.07	88.5
362.296	92.5
362.523	91.5
362.749	97.5
362.976	89.5
363.203	97.5
363.429	89.5
363.656	94.5
363.882	90.5
364.109	91.5
364.335	88.5
364.562	81.5
364.788	96.5
365.015	95.5
365.241	95.5
365.468	102.5
365.694	96.5
365.92	89.5
366.147	78.5
366.373	98.5
366.599	82.5
366.826	94.5
367.052	97.5
367.278	86.5
367.505	91.5
367.731	89.5
367.957	105.5
368.184	94.5
368.41	85.5
368.636	109.5
368.862	92.5
369.089	103.5
369.315	80.5
369.541	73.5
369.767	69.5
369.993	93.5
370.219	85.5
370.445	76.5
370.672	91.5
370.898	79.5
371.124	82.5
371.35	84.5
371.576	90.5
371.802	81.5
372.028	84.5
372.254	98.5
372.48	80.5
372.706	82.5
372.932	88.5
373.158	79.5
373.384	88.5
373.61	83.5
373.835	88.5
374.061	90.5
374.287	93.5
374.513	80.5
374.739	70.5
374.965	75.5
375.191	88.5
375.416	103.5
375.642	90.5
375.868	77.5
376.094	96.5
376.319	82.5
376.545	90.5
376.771	81.5
376.997	90.5
377.222	89.5
377.448	96.5
377.674	80.5
377.899	80.5
378.125	96.5
378.35	101.5
378.576	82.5
378.802	86.5
379.027	86.5
379.253	89.5
379.478	85.5
379.704	110.5
379.929	91.5
380.155	96.5
380.38	78.5
380.606	85.5
380.831	87.5
381.057	80.5
381.282	94.5
381.507	83.5
381.733	101.5
381.958	98.5
382.184	80.5
382.409	98.5
382.634	109.5
382.86	86.5
383.085	95.5
383.31	110.5
383.535	93.5
383.761	92.5
383.986	80.5
384.211	100.5
384.436	108.5
384.662	89.5
384.887	90.5
385.112	84.5
385.337	94.5
385.562	110.5
385.787	110.5
386.013	125.5
386.238	100.5
386.463	114.5
386.688	99.5
386.913	96.5
387.138	101.5
387.363	93.5
387.588	92.5
387.813	94.5
388.038	101.5
388.263	115.5
388.488	103.5
388.713	92.5
388.938	82.5
389.163	97.5
389.387	97.5
389.612	96.5
389.837	104.5
390.062	93.5
390.287	88.5
390.512	97.5
390.736	97.5
390.961	71.5
391.186	103.5
391.411	76.5
391.636	76.5
391.86	75.5
392.085	81.5
392.31	72.5
392.534	88.5
392.759	82.5
392.984	96.5
393.208	79.5
393.433	81.5
393.658	83.5
393.882	78.5
394.107	88.5
394.331	84.5
394.556	74.5
394.78	93.5
395.005	72.5
395.229	81.5
395.454	96.5
395.678	90.5
395.903	85.5
396.127	78.5
396.352	70.5
396.576	88.5
396.801	97.5
397.025	86.5
397.249	93.5
397.474	78.5
397.698	82.5
397.922	70.5
398.147	81.5
398.371	76.5
398.595	74.5
398.82	66.5
399.044	79.5
399.268	82.5
399.492	91.5
399.717	86.5
399.941	81.5
400.165	101.5
400.389	100.5
400.613	81.5
400.837	90.5
401.062	88.5
401.286	90.5
401.51	90.5
401.734	97.5
401.958	94.5
402.182	111.5
402.406	134.5
402.63	109.5
402.854	78.5
403.078	92.5
403.302	92.5
403.526	84.5
403.75	74.5
403.974	80.5
404.198	90.5
404.422	79.5
404.645	85.5
404.869	109.5
405.093	103.5
405.317	88.5
405.541	113.5
405.765	82.5
405.988	114.5
406.212	148.5
406.436	177.5
406.66	115.5
406.883	88.5
407.107	87.5
407.331	90.5
407.555	95.5
407.778	76.5
408.002	98.5
408.226	102.5
408.449	85.5
408.673	84.5
408.896	101.5
409.12	104.5
409.344	94.5
409.567	88.5
409.791	98.5
410.014	90.5
410.238	82.5
410.461	95.5
410.685	92.5
410.908	95.5
411.132	114.5
411.355	96.5
411.578	87.5
411.802	92.5
412.025	104.5
412.249	86.5
412.472	94.5
412.695	76.5
412.919	93.5
413.142	95.5
413.365	80.5
413.589	87.5
413.812	84.5
414.035	83.5
414.258	89.5
414.482	85.5
414.705	88.5
414.928	86.5
415.151	87.5
415.374	95.5
415.597	83.5
415.821	97.5
416.044	79.5
416.267	85.5
416.49	94.5
416.713	97.5
416.936	86.5
417.159	84.5
417.382	83.5
417.605	100.5
417.828	98.5
418.051	81.5
418.274	85.5
418.497	70.5
418.72	74.5
418.943	87.5
419.166	86.5
419.389	93.5
419.611	92.5
419.834	90.5
420.057	96.5
420.28	92.5
420.503	90.5
420.726	83.5
420.948	85.5
421.171	94.5
421.394	81.5
421.617	105.5
421.839	79.5
422.062	81.5
422.285	83.5
422.507	82.5
422.73	103.5
422.953	85.5
423.175	87.5
423.398	88.5
423.621	74.5
423.843	77.5
424.066	98.5
424.288	100.5
424.511	101.5
424.733	87.5
424.956	99.5
425.178	88.5
425.401	85.5
425.623	95.5
425.846	97.5
426.068	91.5
426.291	91.5
426.513	81.5
426.735	89.5
426.958	86.5
427.18	116.5
427.402	114.5
427.625	120.5
427.847	120.5
428.069	100.5
428.292	92.5
428.514	83.5
428.736	84.5
428.958	84.5
429.181	94.5
429.403	73.5
429.625	87.5
429.847	82.5
430.069	85.5
430.292	80.5
430.514	82.5
430.736	70.5
430.958	82.5
431.18	81.5
431.402	72.5
431.624	82.5
431.846	76.5
432.068	82.5
432.29	81.5
432.512	98.5
432.734	92.5
432.956	99.5
433.178	102.5
433.4	93.5
433.622	98.5
433.844	95.5
434.066	90.5
434.287	84.5
434.509	91.5
434.731	86.5
434.953	88.5
435.175	84.5
435.397	91.5
435.618	96.5
435.84	87.5
436.062	122.5
436.284	103.5
436.505	106.5
436.727	96.5
436.949	88.5
437.17	67.5
437.392	75.5
437.614	84.5
437.835	85.5
438.057	106.5
438.278	100.5
438.5	93.5
438.721	110.5
438.943	104.5
439.165	82.5
439.386	96.5
439.608	89.5
439.829	96.5
440.05	95.5
440.272	120.5
440.493	73.5
440.715	72.5
440.936	76.5
441.158	83.5
441.379	73.5
441.6	94.5
441.822	78.5
442.043	92.5
442.264	93.5
442.486	80.5
442.707	86.5
442.928	92.5
443.149	100.5
443.371	125.5
443.592	102.5
443.813	106.5
444.034	91.5
444.255	93.5
444.476	96.5
444.698	87.5
444.919	73.5
445.14	136.5
445.361	124.5
445.582	98.5
445.803	122.5
446.024	113.5
446.245	115.5
446.466	98.5
446.687	81.5
446.908	86.5
447.129	77.5
447.35	85.5
447.571	96.5
447.792	76.5
448.013	93.5
448.234	78.5
448.455	99.5
448.675	103.5
448.896	90.5
449.117	87.5
449.338	80.5
449.559	110.5
449.779	122.5
450	85.5
450.221	92.5
450.442	74.5
450.662	92.5
450.883	95.5
451.104	113.5
451.324	94.5
451.545	105.5
451.766	65.5
451.986	68.5
452.207	67.5
452.428	90.5
452.648	96.5
452.869	108.5
453.089	105.5
453.31	96.5
453.53	97.5
453.751	95.5
453.971	101.5
454.192	112.5
454.412	76.5
454.633	77.5
454.853	79.5
455.073	89.5
455.294	80.5
455.514	93.5
455.734	84.5
455.955	101.5
456.175	77.5
456.395	90.5
456.616	79.5
456.836	93.5
457.056	81.5
457.276	80.5
457.497	86.5
457.717	88.5
457.937	95.5
458.157	87.5
458.377	84.5
458.598	93.5
458.818	135.5
459.038	124.5
459.258	104.5
459.478	100.5
459.698	77.5
459.918	78.5
460.138	82.5
460.358	82.5
460.578	92.5
460.798	94.5
461.018	83.5
461.238	80.5
461.458	80.5
461.678	78.5
461.898	86.5
462.118	76.5
462.338	88.5
462.558	92.5
462.777	82.5
462.997	91.5
463.217	84.5
463.437	81.5
463.657	91.5
463.876	86.5
464.096	65.5
464.316	86.5
464.536	92.5
464.755	95.5
464.975	93.5
465.195	107.5
465.414	129.5
465.634	86.5
465.854	91.5
466.073	82.5
466.293	84.5
466.512	88.5
466.732	84.5
466.951	85.5
467.171	94.5
467.391	86.5
467.61	93.5
467.829	92.5
468.049	103.5
468.268	122.5
468.488	88.5
468.707	85.5
468.927	80.5
469.146	92.5
469.365	86.5
469.585	95.5
469.804	90.5
470.023	112.5
470.243	81.5
470.462	81.5
470.681	95.5
470.901	84.5
471.12	76.5
471.339	99.5
471.558	85.5
471.777	97.5
471.997	98.5
472.216	148.5
472.435	203.5
472.654	97.5
472.873	92.5
473.092	90.5
473.311	80.5
473.53	93.5
473.749	80.5
473.968	100.5
474.187	100.5
474.406	84.5
474.625	92.5
474.844	83.5
475.063	88.5
475.282	86.5
475.501	80.5
475.72	99.5
475.939	93.5
476.158	95.5
476.377	85.5
476.596	87.5
476.814	90.5
477.033	71.5
477.252	94.5
477.471	87.5
477.69	82.5
477.908	86.5
478.127	86.5
478.346	89.5
478.564	72.5
478.783	104.5
479.002	90.5
479.22	88.5
479.439	101.5
479.658	98.5
479.876	96.5
480.095	93.5
480.313	103.5
480.532	83.5
480.751	89.5
480.969	141.5
481.188	317.5
481.406	199.5
481.624	95.5
481.843	93.5
482.061	86.5
482.28	78.5
482.498	83.5
482.717	77.5
482.935	86.5
483.153	100.5
483.372	78.5
483.59	80.5
483.808	68.5
484.027	94.5
484.245	93.5
484.463	87.5
484.681	104.5
484.9	98.5
485.118	92.5
485.336	89.5
485.554	88.5
485.772	97.5
485.99	86.5
486.209	94.5
486.427	108.5
486.645	101.5
486.863	98.5
487.081	86.5
487.299	85.5
487.517	89.5
487.735	88.5
487.953	105.5
488.171	85.5
488.389	84.5
488.607	91.5
488.825	88.5
489.043	80.5
489.261	79.5
489.479	84.5
489.696	82.5
489.914	87.5
490.132	89.5
490.35	78.5
490.568	92.5
490.786	81.5
491.003	93.5
491.221	99.5
491.439	98.5
491.657	92.5
491.874	93.5
492.092	102.5
492.31	73.5
492.527	86.5
492.745	106.5
492.963	86.5
493.18	90.5
493.398	82.5
493.615	78.5
493.833	100.5
494.05	93.5
494.268	83.5
494.485	78.5
494.703	89.5
494.92	92.5
495.138	96.5
495.355	96.5
495.573	85.5
495.79	93.5
496.008	92.5
496.225	80.5
496.442	82.5
496.66	99.5
496.877	91.5
497.094	96.5
497.312	88.5
497.529	87.5
497.746	81.5
497.963	66.5
498.181	93.5
498.398	89.5
498.615	114.5
498.832	94.5
499.049	83.5
499.267	100.5
499.484	92.5
499.701	93.5
499.918	95.5
500.135	90.5
500.352	108.5
500.569	82.5
500.786	80.5
501.003	92.5
501.22	84.5
501.437	85.5
501.654	94.5
501.871	105.5
502.088	82.5
502.305	95.5
502.522	103.5
502.739	96.5
502.956	86.5
503.172	85.5
503.389	84.5
503.606	94.5
503.823	95.5
504.04	92.5
504.256	95.5
504.473	91.5
504.69	87.5
504.907	92.5
505.123	105.5
505.34	100.5
505.557	78.5
505.773	102.5
505.99	89.5
506.207	87.5
506.423	100.5
506.64	87.5
506.856	90.5
507.073	96.5
507.289	83.5
507.506	104.5
507.722	93.5
507.939	96.5
508.155	86.5
508.372	89.5
508.588	96.5
508.805	96.5
509.021	100.5
509.238	95.5
509.454	116.5
509.67	100.5
509.887	98.5
510.103	105.5
510.319	202.5
510.536	640.5
510.752	1942.5
510.968	532.5
511.184	146.5
511.401	110.5
511.617	94.5
511.833	88.5
512.049	91.5
512.265	91.5
512.481	79.5
512.698	89.5
512.914	83.5
513.13	94.5
513.346	82.5
513.562	80.5
513.778	78.5
513.994	90.5
514.21	94.5
514.426	115.5
514.642	121.5
514.858	111.5
515.074	148.5
515.29	366.5
515.506	1140.5
515.721	417.5
515.937	128.5
516.153	96.5
516.369	88.5
516.585	89.5
516.801	96.5
517.016	84.5
517.232	98.5
517.448	80.5
517.664	96.5
517.879	92.5
518.095	81.5
518.311	96.5
518.527	92.5
518.742	90.5
518.958	102.5
519.173	85.5
519.389	93.5
519.605	96.5
519.82	90.5
520.036	103.5
520.251	110.5
520.467	113.5
520.682	104.5
520.898	101.5
521.113	106.5
521.329	113.5
521.544	176.5
521.76	436.5
521.975	1833.5
522.19	1113.5
522.406	250.5
522.621	118.5
522.836	101.5
523.052	96.5
523.267	94.5
523.482	94.5
523.698	97.5
523.913	107.5
524.128	96.5
524.343	89.5
524.559	80.5
524.774	78.5
524.989	97.5
525.204	100.5
525.419	68.5
525.634	98.5
525.849	87.5
526.064	71.5
526.28	93.5
526.495	88.5
526.71	89.5
526.925	84.5
527.14	101.5
527.355	89.5
527.57	93.5
527.785	85.5
527.999	90.5
528.214	77.5
528.429	85.5
528.644	84.5
528.859	85.5
529.074	92.5
529.289	98.5
529.503	154.5
529.718	96.5
529.933	89.5
530.148	71.5
530.363	85.5
530.577	92.5
530.792	88.5
531.007	88.5
531.221	77.5
531.436	89.5
531.651	75.5
531.865	83.5
532.08	104.5
532.295	77.5
532.509	90.5
532.724	101.5
532.938	101.5
533.153	76.5
533.367	100.5
533.582	100.5
533.796	101.5
534.011	96.5
534.225	73.5
534.44	80.5
534.654	81.5
534.868	76.5
535.083	84.5
535.297	90.5
535.511	77.5
535.726	87.5
535.94	102.5
536.154	88.5
536.369	79.5
536.583	92.5
536.797	87.5
