Data from Circ_1986_H10_HRD10591_00001.txt Node
Date: Wed Jan 03 12:15:26 EST 2024
User: Yrep
Spectrometer: HR+D1059
Trigger mode: 1
Integration Time (sec): 1.000000E-1
Scans to average: 1
Electric dark correction enabled: true
Nonlinearity correction enabled: false
Boxcar width: 0
XAxis mode: Wavelengths
Number of Pixels in Spectrum: 2048
>>>>>Begin Spectral Data<<<<<
223.165	-1.31
223.4	-1.31
223.635	-1.31
223.869	-20.31
224.104	-11.31
224.338	-10.31
224.573	-15.31
224.808	-15.31
225.042	-13.31
225.277	-14.31
225.511	4.69
225.746	-1.31
225.98	-0.31
226.215	11.69
226.449	20.69
226.683	-0.31
226.918	24.69
227.152	41.69
227.387	28.69
227.621	41.69
227.856	34.69
228.09	41.69
228.324	48.69
228.559	45.69
228.793	46.69
229.027	54.69
229.262	54.69
229.496	63.69
229.73	78.69
229.964	66.69
230.199	66.69
230.433	64.69
230.667	70.69
230.901	69.69
231.136	71.69
231.37	81.69
231.604	83.69
231.838	73.69
232.072	70.69
232.306	86.69
232.541	93.69
232.775	79.69
233.009	80.69
233.243	80.69
233.477	79.69
233.711	84.69
233.945	79.69
234.179	71.69
234.413	84.69
234.647	78.69
234.881	76.69
235.115	81.69
235.349	73.69
235.583	69.69
235.817	81.69
236.051	84.69
236.285	84.69
236.519	70.69
236.753	69.69
236.987	81.69
237.221	65.69
237.455	82.69
237.689	82.69
237.922	76.69
238.156	83.69
238.39	74.69
238.624	72.69
238.858	66.69
239.091	81.69
239.325	76.69
239.559	83.69
239.793	72.69
240.027	61.69
240.26	78.69
240.494	70.69
240.728	94.69
240.961	72.69
241.195	76.69
241.429	70.69
241.662	81.69
241.896	74.69
242.13	72.69
242.363	78.69
242.597	74.69
242.83	74.69
243.064	72.69
243.298	77.69
243.531	81.69
243.765	86.69
243.998	78.69
244.232	82.69
244.465	87.69
244.699	62.69
244.932	81.69
245.166	72.69
245.399	72.69
245.633	78.69
245.866	88.69
246.099	65.69
246.333	74.69
246.566	66.69
246.8	65.69
247.033	73.69
247.266	69.69
247.5	72.69
247.733	76.69
247.966	82.69
248.2	76.69
248.433	69.69
248.666	80.69
248.899	75.69
249.133	70.69
249.366	78.69
249.599	96.69
249.832	82.69
250.066	97.69
250.299	60.69
250.532	73.69
250.765	71.69
250.998	86.69
251.231	80.69
251.465	66.69
251.698	57.69
251.931	60.69
252.164	70.69
252.397	85.69
252.63	71.69
252.863	60.69
253.096	87.69
253.329	85.69
253.562	79.69
253.795	85.69
254.028	88.69
254.261	68.69
254.494	77.69
254.727	72.69
254.96	76.69
255.193	78.69
255.426	81.69
255.659	65.69
255.892	72.69
256.124	65.69
256.357	68.69
256.59	73.69
256.823	87.69
257.056	69.69
257.289	86.69
257.521	82.69
257.754	84.69
257.987	77.69
258.22	74.69
258.452	61.69
258.685	83.69
258.918	86.69
259.151	86.69
259.383	81.69
259.616	81.69
259.849	81.69
260.081	87.69
260.314	74.69
260.547	82.69
260.779	70.69
261.012	69.69
261.244	66.69
261.477	79.69
261.71	98.69
261.942	97.69
262.175	86.69
262.407	87.69
262.64	79.69
262.872	91.69
263.105	95.69
263.337	82.69
263.57	81.69
263.802	87.69
264.035	78.69
264.267	82.69
264.499	85.69
264.732	76.69
264.964	78.69
265.197	88.69
265.429	78.69
265.661	83.69
265.894	86.69
266.126	79.69
266.358	90.69
266.591	77.69
266.823	77.69
267.055	83.69
267.287	84.69
267.52	72.69
267.752	81.69
267.984	88.69
268.216	84.69
268.448	90.69
268.681	79.69
268.913	85.69
269.145	76.69
269.377	89.69
269.609	66.69
269.841	92.69
270.073	90.69
270.306	78.69
270.538	84.69
270.77	69.69
271.002	93.69
271.234	86.69
271.466	95.69
271.698	86.69
271.93	77.69
272.162	85.69
272.394	87.69
272.626	73.69
272.858	73.69
273.09	80.69
273.322	82.69
273.553	89.69
273.785	83.69
274.017	77.69
274.249	94.69
274.481	87.69
274.713	89.69
274.945	84.69
275.176	87.69
275.408	80.69
275.64	92.69
275.872	88.69
276.104	82.69
276.335	90.69
276.567	91.69
276.799	90.69
277.031	92.69
277.262	82.69
277.494	101.69
277.726	88.69
277.957	80.69
278.189	68.69
278.421	88.69
278.652	95.69
278.884	98.69
279.115	83.69
279.347	84.69
279.579	78.69
279.81	86.69
280.042	83.69
280.273	83.69
280.505	86.69
280.736	93.69
280.968	86.69
281.199	76.69
281.431	99.69
281.662	96.69
281.894	101.69
282.125	98.69
282.356	106.69
282.588	94.69
282.819	101.69
283.051	88.69
283.282	93.69
283.513	89.69
283.745	84.69
283.976	92.69
284.207	90.69
284.439	83.69
284.67	74.69
284.901	84.69
285.132	71.69
285.364	88.69
285.595	81.69
285.826	91.69
286.057	78.69
286.288	97.69
286.52	76.69
286.751	80.69
286.982	85.69
287.213	86.69
287.444	76.69
287.675	90.69
287.906	87.69
288.138	98.69
288.369	91.69
288.6	94.69
288.831	88.69
289.062	86.69
289.293	71.69
289.524	73.69
289.755	80.69
289.986	78.69
290.217	97.69
290.448	86.69
290.679	79.69
290.91	81.69
291.141	82.69
291.371	86.69
291.602	85.69
291.833	87.69
292.064	72.69
292.295	81.69
292.526	70.69
292.757	76.69
292.987	81.69
293.218	95.69
293.449	82.69
293.68	88.69
293.91	81.69
294.141	86.69
294.372	82.69
294.603	87.69
294.833	90.69
295.064	84.69
295.295	85.69
295.525	85.69
295.756	89.69
295.987	96.69
296.217	106.69
296.448	104.69
296.679	85.69
296.909	84.69
297.14	92.69
297.37	87.69
297.601	78.69
297.831	92.69
298.062	89.69
298.292	98.69
298.523	76.69
298.753	98.69
298.984	80.69
299.214	86.69
299.445	97.69
299.675	101.69
299.905	89.69
300.136	69.69
300.366	86.69
300.597	73.69
300.827	90.69
301.057	88.69
301.288	96.69
301.518	85.69
301.748	86.69
301.979	94.69
302.209	85.69
302.439	95.69
302.669	95.69
302.9	87.69
303.13	83.69
303.36	109.69
303.59	84.69
303.82	97.69
304.051	83.69
304.281	92.69
304.511	80.69
304.741	67.69
304.971	84.69
305.201	80.69
305.431	77.69
305.661	93.69
305.891	96.69
306.121	86.69
306.352	92.69
306.582	93.69
306.812	79.69
307.042	88.69
307.272	87.69
307.502	85.69
307.731	97.69
307.961	93.69
308.191	96.69
308.421	96.69
308.651	98.69
308.881	85.69
309.111	90.69
309.341	84.69
309.571	90.69
309.8	85.69
310.03	88.69
310.26	95.69
310.49	94.69
310.72	88.69
310.949	93.69
311.179	94.69
311.409	96.69
311.639	90.69
311.868	108.69
312.098	88.69
312.328	77.69
312.557	80.69
312.787	106.69
313.017	96.69
313.246	77.69
313.476	94.69
313.706	90.69
313.935	88.69
314.165	108.69
314.394	98.69
314.624	96.69
314.853	79.69
315.083	84.69
315.312	91.69
315.542	97.69
315.771	80.69
316.001	81.69
316.23	99.69
316.46	101.69
316.689	87.69
316.919	106.69
317.148	93.69
317.377	100.69
317.607	92.69
317.836	82.69
318.065	85.69
318.295	92.69
318.524	88.69
318.753	80.69
318.983	76.69
319.212	95.69
319.441	105.69
319.67	94.69
319.9	83.69
320.129	86.69
320.358	94.69
320.587	84.69
320.816	87.69
321.046	88.69
321.275	97.69
321.504	84.69
321.733	101.69
321.962	96.69
322.191	100.69
322.42	81.69
322.649	103.69
322.878	97.69
323.108	101.69
323.337	101.69
323.566	106.69
323.795	113.69
324.024	170.69
324.253	284.69
324.482	534.69
324.71	1089.69
324.939	1440.69
325.168	533.69
325.397	178.69
325.626	133.69
325.855	106.69
326.084	113.69
326.313	114.69
326.542	114.69
326.77	179.69
326.999	324.69
327.228	652.69
327.457	1134.69
327.686	888.69
327.914	256.69
328.143	135.69
328.372	113.69
328.6	109.69
328.829	110.69
329.058	114.69
329.287	89.69
329.515	102.69
329.744	98.69
329.972	99.69
330.201	99.69
330.43	105.69
330.658	92.69
330.887	102.69
331.115	109.69
331.344	85.69
331.572	95.69
331.801	104.69
332.03	101.69
332.258	93.69
332.486	88.69
332.715	82.69
332.943	97.69
333.172	98.69
333.4	87.69
333.629	92.69
333.857	95.69
334.085	91.69
334.314	103.69
334.542	113.69
334.771	96.69
334.999	80.69
335.227	94.69
335.455	90.69
335.684	93.69
335.912	88.69
336.14	91.69
336.369	95.69
336.597	88.69
336.825	81.69
337.053	72.69
337.281	101.69
337.51	92.69
337.738	84.69
337.966	90.69
338.194	85.69
338.422	101.69
338.65	85.69
338.878	83.69
339.106	97.69
339.334	95.69
339.562	73.69
339.79	99.69
340.018	93.69
340.246	91.69
340.474	98.69
340.702	90.69
340.93	78.69
341.158	98.69
341.386	85.69
341.614	69.69
341.842	82.69
342.07	89.69
342.298	95.69
342.526	96.69
342.754	100.69
342.981	91.69
343.209	85.69
343.437	84.69
343.665	89.69
343.893	88.69
344.12	96.69
344.348	85.69
344.576	93.69
344.804	82.69
345.031	88.69
345.259	82.69
345.487	90.69
345.714	103.69
345.942	95.69
346.17	99.69
346.397	83.69
346.625	97.69
346.853	88.69
347.08	78.69
347.308	101.69
347.535	96.69
347.763	81.69
347.99	96.69
348.218	91.69
348.445	93.69
348.673	89.69
348.9	90.69
349.128	101.69
349.355	96.69
349.583	105.69
349.81	92.69
350.037	77.69
350.265	103.69
350.492	94.69
350.72	84.69
350.947	98.69
351.174	104.69
351.402	85.69
351.629	82.69
351.856	103.69
352.083	89.69
352.311	98.69
352.538	103.69
352.765	94.69
352.992	106.69
353.22	100.69
353.447	97.69
353.674	97.69
353.901	79.69
354.128	92.69
354.355	90.69
354.583	85.69
354.81	75.69
355.037	90.69
355.264	100.69
355.491	98.69
355.718	88.69
355.945	82.69
356.172	97.69
356.399	96.69
356.626	99.69
356.853	104.69
357.08	100.69
357.307	91.69
357.534	84.69
357.761	90.69
357.988	95.69
358.215	104.69
358.441	111.69
358.668	106.69
358.895	106.69
359.122	104.69
359.349	81.69
359.576	85.69
359.802	96.69
360.029	101.69
360.256	101.69
360.483	85.69
360.709	83.69
360.936	96.69
361.163	95.69
361.39	99.69
361.616	81.69
361.843	105.69
362.07	92.69
362.296	94.69
362.523	103.69
362.749	77.69
362.976	73.69
363.203	78.69
363.429	94.69
363.656	96.69
363.882	80.69
364.109	87.69
364.335	88.69
364.562	77.69
364.788	73.69
365.015	87.69
365.241	92.69
365.468	92.69
365.694	101.69
365.92	88.69
366.147	78.69
366.373	97.69
366.599	72.69
366.826	79.69
367.052	89.69
367.278	86.69
367.505	79.69
367.731	84.69
367.957	96.69
368.184	76.69
368.41	96.69
368.636	89.69
368.862	105.69
369.089	105.69
369.315	71.69
369.541	90.69
369.767	76.69
369.993	93.69
370.219	90.69
370.445	94.69
370.672	89.69
370.898	82.69
371.124	82.69
371.35	98.69
371.576	97.69
371.802	92.69
372.028	85.69
372.254	92.69
372.48	87.69
372.706	88.69
372.932	82.69
373.158	100.69
373.384	82.69
373.61	86.69
373.835	87.69
374.061	72.69
374.287	81.69
374.513	87.69
374.739	81.69
374.965	84.69
375.191	98.69
375.416	94.69
375.642	92.69
375.868	93.69
376.094	89.69
376.319	89.69
376.545	99.69
376.771	81.69
376.997	86.69
377.222	106.69
377.448	93.69
377.674	94.69
377.899	104.69
378.125	92.69
378.35	98.69
378.576	114.69
378.802	92.69
379.027	101.69
379.253	99.69
379.478	96.69
379.704	100.69
379.929	93.69
380.155	96.69
380.38	108.69
380.606	109.69
380.831	90.69
381.057	116.69
381.282	102.69
381.507	108.69
381.733	105.69
381.958	116.69
382.184	97.69
382.409	119.69
382.634	114.69
382.86	106.69
383.085	128.69
383.31	123.69
383.535	113.69
383.761	108.69
383.986	124.69
384.211	98.69
384.436	125.69
384.662	120.69
384.887	120.69
385.112	130.69
385.337	133.69
385.562	150.69
385.787	131.69
386.013	140.69
386.238	144.69
386.463	126.69
386.688	129.69
386.913	116.69
387.138	156.69
387.363	130.69
387.588	126.69
387.813	129.69
388.038	144.69
388.263	179.69
388.488	156.69
388.713	98.69
388.938	90.69
389.163	102.69
389.387	96.69
389.612	104.69
389.837	82.69
390.062	83.69
390.287	66.69
390.512	92.69
390.736	92.69
390.961	87.69
391.186	85.69
391.411	92.69
391.636	95.69
391.86	86.69
392.085	88.69
392.31	76.69
392.534	71.69
392.759	83.69
392.984	90.69
393.208	92.69
393.433	80.69
393.658	83.69
393.882	92.69
394.107	81.69
394.331	76.69
394.556	84.69
394.78	93.69
395.005	87.69
395.229	84.69
395.454	96.69
395.678	79.69
395.903	94.69
396.127	89.69
396.352	81.69
396.576	86.69
396.801	87.69
397.025	97.69
397.249	84.69
397.474	89.69
397.698	98.69
397.922	88.69
398.147	87.69
398.371	94.69
398.595	81.69
398.82	95.69
399.044	92.69
399.268	96.69
399.492	89.69
399.717	86.69
399.941	77.69
400.165	89.69
400.389	87.69
400.613	84.69
400.837	92.69
401.062	89.69
401.286	84.69
401.51	100.69
401.734	90.69
401.958	95.69
402.182	102.69
402.406	118.69
402.63	104.69
402.854	90.69
403.078	74.69
403.302	85.69
403.526	91.69
403.75	75.69
403.974	77.69
404.198	88.69
404.422	94.69
404.645	86.69
404.869	82.69
405.093	89.69
405.317	96.69
405.541	86.69
405.765	89.69
405.988	92.69
406.212	140.69
406.436	152.69
406.66	112.69
406.883	94.69
407.107	84.69
407.331	89.69
407.555	98.69
407.778	82.69
408.002	73.69
408.226	94.69
408.449	91.69
408.673	80.69
408.896	96.69
409.12	83.69
409.344	87.69
409.567	80.69
409.791	101.69
410.014	92.69
410.238	96.69
410.461	80.69
410.685	84.69
410.908	96.69
411.132	94.69
411.355	82.69
411.578	90.69
411.802	77.69
412.025	83.69
412.249	77.69
412.472	84.69
412.695	105.69
412.919	86.69
413.142	98.69
413.365	82.69
413.589	104.69
413.812	86.69
414.035	88.69
414.258	88.69
414.482	86.69
414.705	79.69
414.928	95.69
415.151	90.69
415.374	106.69
415.597	88.69
415.821	103.69
416.044	96.69
416.267	87.69
416.49	94.69
416.713	102.69
416.936	92.69
417.159	81.69
417.382	84.69
417.605	69.69
417.828	90.69
418.051	99.69
418.274	98.69
418.497	86.69
418.72	88.69
418.943	92.69
419.166	97.69
419.389	77.69
419.611	103.69
419.834	95.69
420.057	95.69
420.28	93.69
420.503	84.69
420.726	104.69
420.948	89.69
421.171	97.69
421.394	92.69
421.617	100.69
421.839	82.69
422.062	84.69
422.285	80.69
422.507	90.69
422.73	103.69
422.953	82.69
423.175	80.69
423.398	93.69
423.621	84.69
423.843	95.69
424.066	84.69
424.288	88.69
424.511	75.69
424.733	78.69
424.956	109.69
425.178	81.69
425.401	83.69
425.623	79.69
425.846	85.69
426.068	82.69
426.291	84.69
426.513	87.69
426.735	84.69
426.958	88.69
427.18	103.69
427.402	111.69
427.625	120.69
427.847	109.69
428.069	102.69
428.292	92.69
428.514	87.69
428.736	91.69
428.958	84.69
429.181	84.69
429.403	79.69
429.625	85.69
429.847	77.69
430.069	102.69
430.292	90.69
430.514	90.69
430.736	76.69
430.958	91.69
431.18	86.69
431.402	101.69
431.624	95.69
431.846	102.69
432.068	87.69
432.29	77.69
432.512	81.69
432.734	96.69
432.956	73.69
433.178	109.69
433.4	110.69
433.622	78.69
433.844	84.69
434.066	90.69
434.287	84.69
434.509	90.69
434.731	89.69
434.953	80.69
435.175	69.69
435.397	85.69
435.618	89.69
435.84	96.69
436.062	94.69
436.284	101.69
436.505	90.69
436.727	91.69
436.949	90.69
437.17	87.69
437.392	84.69
437.614	83.69
437.835	92.69
438.057	88.69
438.278	103.69
438.5	92.69
438.721	106.69
438.943	88.69
439.165	71.69
439.386	83.69
439.608	100.69
439.829	97.69
440.05	101.69
440.272	119.69
440.493	82.69
440.715	76.69
440.936	80.69
441.158	73.69
441.379	80.69
441.6	90.69
441.822	80.69
442.043	94.69
442.264	90.69
442.486	97.69
442.707	72.69
442.928	100.69
443.149	96.69
443.371	122.69
443.592	97.69
443.813	106.69
444.034	83.69
444.255	68.69
444.476	80.69
444.698	85.69
444.919	89.69
445.14	121.69
445.361	111.69
445.582	95.69
445.803	113.69
446.024	109.69
446.245	99.69
446.466	97.69
446.687	89.69
446.908	93.69
447.129	84.69
447.35	90.69
447.571	85.69
447.792	84.69
448.013	92.69
448.234	98.69
448.455	98.69
448.675	97.69
448.896	97.69
449.117	91.69
449.338	94.69
449.559	103.69
449.779	103.69
450	83.69
450.221	79.69
450.442	63.69
450.662	81.69
450.883	89.69
451.104	92.69
451.324	92.69
451.545	80.69
451.766	76.69
451.986	78.69
452.207	96.69
452.428	92.69
452.648	92.69
452.869	91.69
453.089	106.69
453.31	95.69
453.53	80.69
453.751	84.69
453.971	80.69
454.192	98.69
454.412	103.69
454.633	86.69
454.853	91.69
455.073	66.69
455.294	83.69
455.514	104.69
455.734	89.69
455.955	77.69
456.175	74.69
456.395	78.69
456.616	82.69
456.836	87.69
457.056	79.69
457.276	84.69
457.497	80.69
457.717	81.69
457.937	73.69
458.157	85.69
458.377	101.69
458.598	104.69
458.818	111.69
459.038	123.69
459.258	101.69
459.478	71.69
459.698	79.69
459.918	99.69
460.138	83.69
460.358	82.69
460.578	77.69
460.798	81.69
461.018	82.69
461.238	92.69
461.458	87.69
461.678	72.69
461.898	76.69
462.118	92.69
462.338	101.69
462.558	84.69
462.777	84.69
462.997	79.69
463.217	82.69
463.437	90.69
463.657	73.69
463.876	87.69
464.096	95.69
464.316	81.69
464.536	77.69
464.755	87.69
464.975	90.69
465.195	112.69
465.414	106.69
465.634	76.69
465.854	83.69
466.073	96.69
466.293	89.69
466.512	83.69
466.732	97.69
466.951	83.69
467.171	78.69
467.391	93.69
467.61	87.69
467.829	96.69
468.049	98.69
468.268	90.69
468.488	84.69
468.707	86.69
468.927	91.69
469.146	77.69
469.365	77.69
469.585	92.69
469.804	85.69
470.023	82.69
470.243	85.69
470.462	101.69
470.681	93.69
470.901	86.69
471.12	83.69
471.339	88.69
471.558	90.69
471.777	87.69
471.997	100.69
472.216	90.69
472.435	78.69
472.654	95.69
472.873	92.69
473.092	86.69
473.311	87.69
473.53	92.69
473.749	78.69
473.968	87.69
474.187	94.69
474.406	96.69
474.625	87.69
474.844	81.69
475.063	97.69
475.282	73.69
475.501	84.69
475.72	92.69
475.939	80.69
476.158	97.69
476.377	86.69
476.596	82.69
476.814	78.69
477.033	69.69
477.252	90.69
477.471	86.69
477.69	87.69
477.908	100.69
478.127	84.69
478.346	101.69
478.564	73.69
478.783	92.69
479.002	77.69
479.22	102.69
479.439	103.69
479.658	86.69
479.876	73.69
480.095	77.69
480.313	82.69
480.532	74.69
480.751	86.69
480.969	94.69
481.188	107.69
481.406	96.69
481.624	100.69
481.843	80.69
482.061	89.69
482.28	90.69
482.498	87.69
482.717	101.69
482.935	74.69
483.153	97.69
483.372	86.69
483.59	91.69
483.808	80.69
484.027	80.69
484.245	91.69
484.463	85.69
484.681	90.69
484.9	82.69
485.118	82.69
485.336	84.69
485.554	86.69
485.772	99.69
485.99	104.69
486.209	110.69
486.427	92.69
486.645	107.69
486.863	108.69
487.081	93.69
487.299	97.69
487.517	92.69
487.735	102.69
487.953	76.69
488.171	95.69
488.389	74.69
488.607	103.69
488.825	86.69
489.043	95.69
489.261	86.69
489.479	101.69
489.696	84.69
489.914	94.69
490.132	84.69
490.35	78.69
490.568	94.69
490.786	86.69
491.003	89.69
491.221	84.69
491.439	76.69
491.657	95.69
491.874	77.69
492.092	89.69
492.31	87.69
492.527	82.69
492.745	93.69
492.963	88.69
493.18	89.69
493.398	92.69
493.615	80.69
493.833	96.69
494.05	100.69
494.268	82.69
494.485	78.69
494.703	80.69
494.92	92.69
495.138	85.69
495.355	88.69
495.573	91.69
495.79	84.69
496.008	89.69
496.225	89.69
496.442	93.69
496.66	100.69
496.877	87.69
497.094	100.69
497.312	81.69
497.529	89.69
497.746	101.69
497.963	79.69
498.181	88.69
498.398	93.69
498.615	105.69
498.832	102.69
499.049	88.69
499.267	89.69
499.484	89.69
499.701	84.69
499.918	91.69
500.135	96.69
500.352	92.69
500.569	93.69
500.786	88.69
501.003	96.69
501.22	90.69
501.437	96.69
501.654	82.69
501.871	94.69
502.088	88.69
502.305	81.69
502.522	88.69
502.739	87.69
502.956	80.69
503.172	103.69
503.389	90.69
503.606	87.69
503.823	85.69
504.04	94.69
504.256	93.69
504.473	90.69
504.69	97.69
504.907	93.69
505.123	82.69
505.34	89.69
505.557	71.69
505.773	90.69
505.99	86.69
506.207	85.69
506.423	69.69
506.64	99.69
506.856	96.69
507.073	81.69
507.289	88.69
507.506	93.69
507.722	92.69
507.939	117.69
508.155	95.69
508.372	90.69
508.588	87.69
508.805	94.69
509.021	83.69
509.238	96.69
509.454	91.69
509.67	93.69
509.887	85.69
510.103	112.69
510.319	144.69
510.536	454.69
510.752	1293.69
510.968	383.69
511.184	124.69
511.401	92.69
511.617	96.69
511.833	105.69
512.049	81.69
512.265	84.69
512.481	96.69
512.698	87.69
512.914	84.69
513.13	104.69
513.346	76.69
513.562	81.69
513.778	95.69
513.994	84.69
514.21	96.69
514.426	106.69
514.642	97.69
514.858	111.69
515.074	126.69
515.29	270.69
515.506	736.69
515.721	310.69
515.937	96.69
516.153	106.69
516.369	100.69
516.585	77.69
516.801	92.69
517.016	76.69
