Data from Circ_1986_H10_HRD10591_00041.txt Node
Date: Wed Jan 03 12:15:34 EST 2024
User: Yrep
Spectrometer: HR+D1059
Trigger mode: 1
Integration Time (sec): 1.000000E-1
Scans to average: 1
Electric dark correction enabled: true
Nonlinearity correction enabled: false
Boxcar width: 0
XAxis mode: Wavelengths
Number of Pixels in Spectrum: 2048
>>>>>Begin Spectral Data<<<<<
223.165	-24.25
223.4	-24.25
223.635	-24.25
223.869	-9.25
224.104	-32.25
224.338	-12.25
224.573	-26.25
224.808	-5.25
225.042	-4.25
225.277	6.75
225.511	-4.25
225.746	-4.25
225.98	3.75
226.215	5.75
226.449	16.75
226.683	35.75
226.918	27.75
227.152	25.75
227.387	38.75
227.621	35.75
227.856	51.75
228.09	36.75
228.324	40.75
228.559	60.75
228.793	54.75
229.027	65.75
229.262	58.75
229.496	77.75
229.73	81.75
229.964	73.75
230.199	71.75
230.433	84.75
230.667	76.75
230.901	79.75
231.136	83.75
231.37	67.75
231.604	84.75
231.838	81.75
232.072	87.75
232.306	87.75
232.541	98.75
232.775	79.75
233.009	97.75
233.243	85.75
233.477	84.75
233.711	86.75
233.945	80.75
234.179	79.75
234.413	80.75
234.647	81.75
234.881	74.75
235.115	73.75
235.349	81.75
235.583	76.75
235.817	77.75
236.051	82.75
236.285	83.75
236.519	84.75
236.753	77.75
236.987	85.75
237.221	77.75
237.455	72.75
237.689	87.75
237.922	87.75
238.156	83.75
238.39	71.75
238.624	75.75
238.858	68.75
239.091	68.75
239.325	80.75
239.559	67.75
239.793	77.75
240.027	84.75
240.26	89.75
240.494	77.75
240.728	70.75
240.961	78.75
241.195	85.75
241.429	85.75
241.662	91.75
241.896	76.75
242.13	73.75
242.363	89.75
242.597	58.75
242.83	67.75
243.064	70.75
243.298	79.75
243.531	82.75
243.765	68.75
243.998	76.75
244.232	86.75
244.465	91.75
244.699	82.75
244.932	71.75
245.166	76.75
245.399	86.75
245.633	75.75
245.866	81.75
246.099	83.75
246.333	78.75
246.566	61.75
246.8	81.75
247.033	89.75
247.266	64.75
247.5	96.75
247.733	95.75
247.966	80.75
248.2	77.75
248.433	64.75
248.666	79.75
248.899	99.75
249.133	79.75
249.366	91.75
249.599	90.75
249.832	75.75
250.066	80.75
250.299	83.75
250.532	74.75
250.765	83.75
250.998	84.75
251.231	77.75
251.465	72.75
251.698	83.75
251.931	90.75
252.164	89.75
252.397	87.75
252.63	74.75
252.863	81.75
253.096	97.75
253.329	81.75
253.562	77.75
253.795	75.75
254.028	80.75
254.261	84.75
254.494	78.75
254.727	89.75
254.96	75.75
255.193	86.75
255.426	75.75
255.659	72.75
255.892	86.75
256.124	88.75
256.357	74.75
256.59	90.75
256.823	81.75
257.056	96.75
257.289	73.75
257.521	83.75
257.754	74.75
257.987	65.75
258.22	90.75
258.452	80.75
258.685	91.75
258.918	72.75
259.151	81.75
259.383	81.75
259.616	91.75
259.849	82.75
260.081	94.75
260.314	96.75
260.547	86.75
260.779	92.75
261.012	85.75
261.244	93.75
261.477	75.75
261.71	90.75
261.942	97.75
262.175	114.75
262.407	76.75
262.64	87.75
262.872	92.75
263.105	107.75
263.337	97.75
263.57	77.75
263.802	84.75
264.035	97.75
264.267	92.75
264.499	95.75
264.732	68.75
264.964	79.75
265.197	79.75
265.429	64.75
265.661	87.75
265.894	83.75
266.126	75.75
266.358	87.75
266.591	81.75
266.823	86.75
267.055	85.75
267.287	85.75
267.52	79.75
267.752	86.75
267.984	92.75
268.216	72.75
268.448	86.75
268.681	85.75
268.913	85.75
269.145	103.75
269.377	99.75
269.609	87.75
269.841	71.75
270.073	100.75
270.306	78.75
270.538	86.75
270.77	91.75
271.002	84.75
271.234	74.75
271.466	81.75
271.698	87.75
271.93	96.75
272.162	91.75
272.394	85.75
272.626	74.75
272.858	71.75
273.09	83.75
273.322	97.75
273.553	70.75
273.785	85.75
274.017	75.75
274.249	92.75
274.481	84.75
274.713	84.75
274.945	93.75
275.176	87.75
275.408	89.75
275.64	75.75
275.872	84.75
276.104	77.75
276.335	90.75
276.567	96.75
276.799	73.75
277.031	92.75
277.262	92.75
277.494	89.75
277.726	98.75
277.957	95.75
278.189	84.75
278.421	89.75
278.652	92.75
278.884	95.75
279.115	103.75
279.347	106.75
279.579	100.75
279.81	94.75
280.042	90.75
280.273	94.75
280.505	88.75
280.736	92.75
280.968	94.75
281.199	86.75
281.431	89.75
281.662	89.75
281.894	90.75
282.125	93.75
282.356	104.75
282.588	141.75
282.819	106.75
283.051	96.75
283.282	86.75
283.513	97.75
283.745	96.75
283.976	94.75
284.207	85.75
284.439	89.75
284.67	88.75
284.901	84.75
285.132	90.75
285.364	83.75
285.595	89.75
285.826	94.75
286.057	75.75
286.288	102.75
286.52	99.75
286.751	100.75
286.982	84.75
287.213	91.75
287.444	71.75
287.675	93.75
287.906	89.75
288.138	93.75
288.369	80.75
288.6	87.75
288.831	96.75
289.062	90.75
289.293	91.75
289.524	95.75
289.755	97.75
289.986	88.75
290.217	89.75
290.448	99.75
290.679	85.75
290.91	86.75
291.141	77.75
291.371	83.75
291.602	88.75
291.833	91.75
292.064	96.75
292.295	99.75
292.526	92.75
292.757	76.75
292.987	84.75
293.218	91.75
293.449	88.75
293.68	91.75
293.91	84.75
294.141	90.75
294.372	99.75
294.603	99.75
294.833	85.75
295.064	91.75
295.295	91.75
295.525	107.75
295.756	91.75
295.987	103.75
296.217	111.75
296.448	108.75
296.679	97.75
296.909	86.75
297.14	75.75
297.37	97.75
297.601	84.75
297.831	85.75
298.062	96.75
298.292	100.75
298.523	108.75
298.753	95.75
298.984	83.75
299.214	93.75
299.445	85.75
299.675	93.75
299.905	102.75
300.136	108.75
300.366	100.75
300.597	91.75
300.827	91.75
301.057	86.75
301.288	94.75
301.518	92.75
301.748	90.75
301.979	103.75
302.209	92.75
302.439	99.75
302.669	89.75
302.9	84.75
303.13	100.75
303.36	85.75
303.59	108.75
303.82	87.75
304.051	79.75
304.281	93.75
304.511	101.75
304.741	79.75
304.971	96.75
305.201	91.75
305.431	95.75
305.661	92.75
305.891	94.75
306.121	101.75
306.352	96.75
306.582	84.75
306.812	89.75
307.042	95.75
307.272	90.75
307.502	109.75
307.731	84.75
307.961	95.75
308.191	85.75
308.421	96.75
308.651	109.75
308.881	77.75
309.111	96.75
309.341	95.75
309.571	105.75
309.8	103.75
310.03	85.75
310.26	92.75
310.49	98.75
310.72	93.75
310.949	102.75
311.179	101.75
311.409	105.75
311.639	88.75
311.868	84.75
312.098	92.75
312.328	103.75
312.557	101.75
312.787	107.75
313.017	83.75
313.246	103.75
313.476	92.75
313.706	86.75
313.935	100.75
314.165	91.75
314.394	96.75
314.624	88.75
314.853	77.75
315.083	81.75
315.312	83.75
315.542	91.75
315.771	96.75
316.001	92.75
316.23	103.75
316.46	93.75
316.689	91.75
316.919	99.75
317.148	94.75
317.377	80.75
317.607	97.75
317.836	79.75
318.065	98.75
318.295	94.75
318.524	97.75
318.753	97.75
318.983	92.75
319.212	82.75
319.441	101.75
319.67	103.75
319.9	86.75
320.129	98.75
320.358	97.75
320.587	103.75
320.816	100.75
321.046	106.75
321.275	81.75
321.504	91.75
321.733	89.75
321.962	93.75
322.191	96.75
322.42	84.75
322.649	115.75
322.878	96.75
323.108	111.75
323.337	109.75
323.566	116.75
323.795	143.75
324.024	183.75
324.253	315.75
324.482	628.75
324.71	1288.75
324.939	1682.75
325.168	624.75
325.397	201.75
325.626	128.75
325.855	115.75
326.084	117.75
326.313	125.75
326.542	148.75
326.77	205.75
326.999	344.75
327.228	768.75
327.457	1361.75
327.686	1073.75
327.914	301.75
328.143	179.75
328.372	147.75
328.6	122.75
328.829	133.75
329.058	127.75
329.287	119.75
329.515	118.75
329.744	108.75
329.972	106.75
330.201	120.75
330.43	150.75
330.658	116.75
330.887	128.75
331.115	104.75
331.344	72.75
331.572	112.75
331.801	103.75
332.03	100.75
332.258	92.75
332.486	90.75
332.715	96.75
332.943	91.75
333.172	90.75
333.4	103.75
333.629	117.75
333.857	114.75
334.085	112.75
334.314	123.75
334.542	169.75
334.771	159.75
334.999	101.75
335.227	91.75
335.455	100.75
335.684	93.75
335.912	89.75
336.14	105.75
336.369	108.75
336.597	95.75
336.825	92.75
337.053	78.75
337.281	89.75
337.51	98.75
337.738	99.75
337.966	81.75
338.194	91.75
338.422	89.75
338.65	88.75
338.878	80.75
339.106	80.75
339.334	107.75
339.562	65.75
339.79	87.75
340.018	102.75
340.246	91.75
340.474	98.75
340.702	94.75
340.93	91.75
341.158	94.75
341.386	96.75
341.614	98.75
341.842	86.75
342.07	89.75
342.298	82.75
342.526	87.75
342.754	83.75
342.981	82.75
343.209	89.75
343.437	103.75
343.665	83.75
343.893	88.75
344.12	101.75
344.348	112.75
344.576	81.75
344.804	102.75
345.031	95.75
345.259	91.75
345.487	97.75
345.714	83.75
345.942	91.75
346.17	101.75
346.397	85.75
346.625	77.75
346.853	101.75
347.08	92.75
347.308	104.75
347.535	100.75
347.763	99.75
347.99	92.75
348.218	93.75
348.445	103.75
348.673	111.75
348.9	103.75
349.128	97.75
349.355	108.75
349.583	81.75
349.81	95.75
350.037	96.75
350.265	99.75
350.492	92.75
350.72	95.75
350.947	100.75
351.174	82.75
351.402	100.75
351.629	91.75
351.856	99.75
352.083	107.75
352.311	120.75
352.538	105.75
352.765	108.75
352.992	111.75
353.22	120.75
353.447	103.75
353.674	85.75
353.901	96.75
354.128	95.75
354.355	92.75
354.583	87.75
354.81	108.75
355.037	103.75
355.264	109.75
355.491	96.75
355.718	101.75
355.945	102.75
356.172	96.75
356.399	79.75
356.626	92.75
356.853	89.75
357.08	96.75
357.307	93.75
357.534	102.75
357.761	92.75
357.988	91.75
358.215	92.75
358.441	95.75
358.668	118.75
358.895	91.75
359.122	92.75
359.349	92.75
359.576	80.75
359.802	104.75
360.029	114.75
360.256	97.75
360.483	85.75
360.709	92.75
360.936	91.75
361.163	98.75
361.39	89.75
361.616	100.75
361.843	94.75
362.07	90.75
362.296	99.75
362.523	87.75
362.749	88.75
362.976	78.75
363.203	79.75
363.429	103.75
363.656	95.75
363.882	85.75
364.109	97.75
364.335	98.75
364.562	88.75
364.788	91.75
365.015	104.75
365.241	97.75
365.468	93.75
365.694	96.75
365.92	92.75
366.147	86.75
366.373	84.75
366.599	94.75
366.826	90.75
367.052	88.75
367.278	88.75
367.505	90.75
367.731	80.75
367.957	98.75
368.184	96.75
368.41	92.75
368.636	124.75
368.862	117.75
369.089	107.75
369.315	103.75
369.541	96.75
369.767	95.75
369.993	96.75
370.219	87.75
370.445	88.75
370.672	92.75
370.898	91.75
371.124	91.75
371.35	79.75
371.576	86.75
371.802	81.75
372.028	83.75
372.254	76.75
372.48	91.75
372.706	76.75
372.932	82.75
373.158	99.75
373.384	101.75
373.61	87.75
373.835	97.75
374.061	93.75
374.287	82.75
374.513	97.75
374.739	92.75
374.965	91.75
375.191	82.75
375.416	80.75
375.642	94.75
375.868	91.75
376.094	76.75
376.319	86.75
376.545	100.75
376.771	102.75
376.997	92.75
377.222	81.75
377.448	72.75
377.674	97.75
377.899	104.75
378.125	90.75
378.35	94.75
378.576	98.75
378.802	88.75
379.027	98.75
379.253	96.75
379.478	88.75
379.704	97.75
379.929	95.75
380.155	95.75
380.38	102.75
380.606	107.75
380.831	96.75
381.057	108.75
381.282	88.75
381.507	109.75
381.733	92.75
381.958	95.75
382.184	87.75
382.409	101.75
382.634	108.75
382.86	96.75
383.085	95.75
383.31	91.75
383.535	99.75
383.761	92.75
383.986	107.75
384.211	97.75
384.436	90.75
384.662	98.75
384.887	108.75
385.112	113.75
385.337	119.75
385.562	106.75
385.787	108.75
386.013	115.75
386.238	98.75
386.463	94.75
386.688	121.75
386.913	95.75
387.138	117.75
387.363	112.75
387.588	116.75
387.813	106.75
388.038	102.75
388.263	116.75
388.488	125.75
388.713	106.75
388.938	101.75
389.163	97.75
389.387	107.75
389.612	103.75
389.837	75.75
390.062	93.75
390.287	86.75
390.512	100.75
390.736	90.75
390.961	99.75
391.186	104.75
391.411	90.75
391.636	102.75
391.86	84.75
392.085	81.75
392.31	98.75
392.534	97.75
392.759	97.75
392.984	83.75
393.208	89.75
393.433	83.75
393.658	84.75
393.882	76.75
394.107	80.75
394.331	90.75
394.556	98.75
394.78	73.75
395.005	79.75
395.229	91.75
395.454	96.75
395.678	89.75
395.903	102.75
396.127	88.75
396.352	91.75
396.576	73.75
396.801	92.75
397.025	91.75
397.249	84.75
397.474	97.75
397.698	71.75
397.922	93.75
398.147	83.75
398.371	94.75
398.595	95.75
398.82	79.75
399.044	77.75
399.268	93.75
399.492	99.75
399.717	99.75
399.941	88.75
400.165	82.75
400.389	81.75
400.613	87.75
400.837	87.75
401.062	83.75
401.286	87.75
401.51	106.75
401.734	95.75
401.958	93.75
402.182	106.75
402.406	124.75
402.63	99.75
402.854	74.75
403.078	94.75
403.302	99.75
403.526	85.75
403.75	85.75
403.974	92.75
404.198	97.75
404.422	92.75
404.645	71.75
404.869	88.75
405.093	100.75
405.317	104.75
405.541	117.75
405.765	94.75
405.988	114.75
406.212	137.75
406.436	168.75
406.66	121.75
406.883	99.75
407.107	97.75
407.331	82.75
407.555	96.75
407.778	94.75
408.002	87.75
408.226	95.75
408.449	85.75
408.673	85.75
408.896	96.75
409.12	95.75
409.344	88.75
409.567	92.75
409.791	89.75
410.014	101.75
410.238	91.75
410.461	100.75
410.685	84.75
410.908	99.75
411.132	99.75
411.355	96.75
411.578	99.75
411.802	96.75
412.025	84.75
412.249	92.75
412.472	100.75
412.695	100.75
412.919	85.75
413.142	92.75
413.365	98.75
413.589	81.75
413.812	96.75
414.035	103.75
414.258	82.75
414.482	104.75
414.705	97.75
414.928	86.75
415.151	98.75
415.374	94.75
415.597	103.75
415.821	101.75
416.044	91.75
416.267	85.75
416.49	83.75
416.713	92.75
416.936	82.75
417.159	87.75
417.382	99.75
417.605	71.75
417.828	89.75
418.051	91.75
418.274	96.75
418.497	80.75
418.72	85.75
418.943	83.75
419.166	85.75
419.389	86.75
419.611	91.75
419.834	105.75
420.057	87.75
420.28	85.75
420.503	83.75
420.726	90.75
420.948	79.75
421.171	99.75
421.394	92.75
421.617	88.75
421.839	76.75
422.062	95.75
422.285	100.75
422.507	99.75
422.73	110.75
422.953	84.75
423.175	71.75
423.398	91.75
423.621	99.75
423.843	96.75
424.066	92.75
424.288	85.75
424.511	94.75
424.733	93.75
424.956	98.75
425.178	87.75
425.401	107.75
425.623	101.75
425.846	94.75
426.068	83.75
426.291	79.75
426.513	89.75
426.735	92.75
426.958	93.75
427.18	99.75
427.402	113.75
427.625	135.75
427.847	117.75
428.069	108.75
428.292	89.75
428.514	92.75
428.736	89.75
428.958	84.75
429.181	84.75
429.403	93.75
429.625	88.75
429.847	90.75
430.069	95.75
430.292	90.75
430.514	88.75
430.736	77.75
430.958	74.75
431.18	74.75
431.402	87.75
431.624	82.75
431.846	87.75
432.068	104.75
432.29	91.75
432.512	98.75
432.734	87.75
432.956	95.75
433.178	92.75
433.4	101.75
433.622	99.75
433.844	80.75
434.066	88.75
434.287	96.75
434.509	95.75
434.731	84.75
434.953	92.75
435.175	110.75
435.397	105.75
435.618	105.75
435.84	88.75
436.062	111.75
436.284	101.75
436.505	87.75
436.727	105.75
436.949	81.75
437.17	87.75
437.392	90.75
437.614	84.75
437.835	95.75
438.057	109.75
438.278	106.75
438.5	92.75
438.721	100.75
438.943	88.75
439.165	89.75
439.386	85.75
439.608	95.75
439.829	106.75
440.05	118.75
440.272	130.75
440.493	91.75
440.715	93.75
440.936	74.75
441.158	84.75
441.379	96.75
441.6	92.75
441.822	84.75
442.043	93.75
442.264	89.75
442.486	99.75
442.707	89.75
442.928	107.75
443.149	110.75
443.371	122.75
443.592	102.75
443.813	104.75
444.034	88.75
444.255	87.75
444.476	100.75
444.698	100.75
444.919	91.75
445.14	124.75
445.361	127.75
445.582	110.75
445.803	109.75
446.024	123.75
446.245	120.75
446.466	103.75
446.687	94.75
446.908	95.75
447.129	94.75
447.35	95.75
447.571	105.75
447.792	98.75
448.013	115.75
448.234	101.75
448.455	106.75
448.675	95.75
448.896	97.75
449.117	96.75
449.338	90.75
449.559	116.75
449.779	111.75
450	100.75
450.221	91.75
450.442	85.75
450.662	93.75
450.883	94.75
451.104	108.75
451.324	90.75
451.545	75.75
451.766	87.75
451.986	84.75
452.207	89.75
452.428	92.75
452.648	86.75
452.869	103.75
453.089	96.75
453.31	122.75
453.53	104.75
453.751	95.75
453.971	96.75
454.192	103.75
454.412	100.75
454.633	107.75
454.853	79.75
455.073	108.75
455.294	84.75
455.514	88.75
455.734	79.75
455.955	85.75
456.175	85.75
456.395	98.75
456.616	84.75
456.836	92.75
457.056	86.75
457.276	93.75
457.497	84.75
457.717	84.75
457.937	82.75
458.157	88.75
458.377	98.75
458.598	103.75
458.818	132.75
459.038	135.75
459.258	114.75
459.478	85.75
459.698	103.75
459.918	96.75
460.138	97.75
460.358	93.75
460.578	91.75
460.798	88.75
461.018	93.75
461.238	80.75
461.458	90.75
461.678	79.75
461.898	97.75
462.118	81.75
462.338	95.75
462.558	87.75
462.777	88.75
462.997	85.75
463.217	72.75
463.437	84.75
463.657	85.75
463.876	76.75
464.096	79.75
464.316	87.75
464.536	87.75
464.755	100.75
464.975	113.75
465.195	146.75
465.414	118.75
465.634	91.75
465.854	99.75
466.073	93.75
466.293	90.75
466.512	87.75
466.732	85.75
466.951	109.75
467.171	84.75
467.391	107.75
467.61	101.75
467.829	96.75
468.049	118.75
468.268	118.75
468.488	88.75
468.707	92.75
468.927	95.75
469.146	81.75
469.365	86.75
469.585	91.75
469.804	88.75
470.023	96.75
470.243	93.75
470.462	96.75
470.681	96.75
470.901	86.75
471.12	90.75
471.339	79.75
471.558	96.75
471.777	97.75
471.997	108.75
472.216	135.75
472.435	181.75
472.654	97.75
472.873	86.75
473.092	90.75
473.311	87.75
473.53	96.75
473.749	87.75
473.968	85.75
474.187	106.75
474.406	106.75
474.625	90.75
474.844	102.75
475.063	79.75
475.282	84.75
475.501	89.75
475.72	105.75
475.939	80.75
476.158	85.75
476.377	89.75
476.596	87.75
476.814	93.75
477.033	91.75
477.252	91.75
477.471	90.75
477.69	92.75
477.908	98.75
478.127	77.75
478.346	86.75
478.564	84.75
478.783	98.75
479.002	84.75
479.22	75.75
479.439	99.75
479.658	92.75
479.876	79.75
480.095	87.75
480.313	82.75
480.532	89.75
480.751	116.75
480.969	149.75
481.188	274.75
481.406	180.75
481.624	117.75
481.843	89.75
482.061	85.75
482.28	96.75
482.498	90.75
482.717	97.75
482.935	81.75
483.153	85.75
483.372	88.75
483.59	93.75
483.808	91.75
484.027	92.75
484.245	89.75
484.463	87.75
484.681	120.75
484.9	97.75
485.118	98.75
485.336	93.75
485.554	103.75
485.772	101.75
485.99	102.75
486.209	121.75
486.427	101.75
486.645	100.75
486.863	95.75
487.081	105.75
487.299	88.75
487.517	94.75
487.735	81.75
487.953	86.75
488.171	89.75
488.389	96.75
488.607	91.75
488.825	93.75
489.043	91.75
489.261	92.75
489.479	85.75
489.696	85.75
489.914	89.75
490.132	98.75
490.35	94.75
490.568	105.75
490.786	100.75
491.003	73.75
491.221	96.75
491.439	92.75
491.657	79.75
491.874	99.75
492.092	84.75
492.31	79.75
492.527	90.75
492.745	99.75
492.963	95.75
493.18	98.75
493.398	105.75
493.615	101.75
493.833	80.75
494.05	89.75
494.268	81.75
494.485	92.75
494.703	95.75
494.92	98.75
495.138	87.75
495.355	99.75
495.573	83.75
495.79	96.75
496.008	104.75
496.225	83.75
496.442	87.75
496.66	85.75
496.877	91.75
497.094	108.75
497.312	93.75
497.529	97.75
497.746	86.75
497.963	97.75
498.181	84.75
498.398	105.75
498.615	97.75
498.832	106.75
499.049	102.75
499.267	84.75
499.484	94.75
499.701	91.75
499.918	98.75
500.135	102.75
500.352	82.75
500.569	94.75
500.786	83.75
501.003	98.75
501.22	89.75
501.437	97.75
501.654	95.75
501.871	108.75
502.088	98.75
502.305	89.75
502.522	90.75
502.739	90.75
502.956	94.75
503.172	89.75
503.389	86.75
503.606	93.75
503.823	96.75
504.04	98.75
504.256	84.75
504.473	99.75
504.69	101.75
504.907	95.75
505.123	99.75
505.34	80.75
505.557	93.75
505.773	89.75
505.99	81.75
506.207	106.75
506.423	83.75
506.64	94.75
506.856	95.75
507.073	77.75
507.289	90.75
507.506	87.75
507.722	96.75
507.939	103.75
508.155	88.75
508.372	89.75
508.588	98.75
508.805	89.75
509.021	99.75
509.238	121.75
509.454	98.75
509.67	102.75
509.887	113.75
510.103	125.75
510.319	176.75
510.536	565.75
510.752	1660.75
510.968	483.75
511.184	125.75
511.401	102.75
511.617	106.75
511.833	88.75
512.049	87.75
512.265	99.75
512.481	86.75
512.698	97.75
512.914	91.75
513.13	99.75
513.346	88.75
513.562	78.75
513.778	90.75
513.994	99.75
514.21	93.75
514.426	110.75
514.642	117.75
514.858	110.75
515.074	139.75
515.29	323.75
515.506	961.75
515.721	379.75
