Data from Circ_1986_H10_HRD10591_00067.txt Node
Date: Wed Jan 03 12:15:39 EST 2024
User: Yrep
Spectrometer: HR+D1059
Trigger mode: 1
Integration Time (sec): 1.000000E-1
Scans to average: 1
Electric dark correction enabled: true
Nonlinearity correction enabled: false
Boxcar width: 0
XAxis mode: Wavelengths
Number of Pixels in Spectrum: 2048
>>>>>Begin Spectral Data<<<<<
223.165	-13.44
223.4	-13.44
223.635	-13.44
223.869	-18.44
224.104	-16.44
224.338	-8.44
224.573	-15.44
224.808	0.56
225.042	-9.44
225.277	-6.44
225.511	-3.44
225.746	4.56
225.98	-12.44
226.215	10.56
226.449	5.56
226.683	17.56
226.918	33.56
227.152	31.56
227.387	48.56
227.621	35.56
227.856	45.56
228.09	40.56
228.324	56.56
228.559	67.56
228.793	66.56
229.027	74.56
229.262	68.56
229.496	80.56
229.73	85.56
229.964	84.56
230.199	72.56
230.433	74.56
230.667	74.56
230.901	83.56
231.136	69.56
231.37	83.56
231.604	83.56
231.838	84.56
232.072	81.56
232.306	85.56
232.541	83.56
232.775	73.56
233.009	90.56
233.243	57.56
233.477	81.56
233.711	85.56
233.945	73.56
234.179	92.56
234.413	77.56
234.647	69.56
234.881	74.56
235.115	74.56
235.349	74.56
235.583	83.56
235.817	79.56
236.051	74.56
236.285	75.56
236.519	65.56
236.753	84.56
236.987	81.56
237.221	81.56
237.455	89.56
237.689	86.56
237.922	82.56
238.156	71.56
238.39	73.56
238.624	69.56
238.858	76.56
239.091	89.56
239.325	86.56
239.559	76.56
239.793	83.56
240.027	91.56
240.26	70.56
240.494	83.56
240.728	75.56
240.961	81.56
241.195	85.56
241.429	76.56
241.662	83.56
241.896	67.56
242.13	85.56
242.363	80.56
242.597	74.56
242.83	79.56
243.064	76.56
243.298	71.56
243.531	83.56
243.765	83.56
243.998	77.56
244.232	79.56
244.465	75.56
244.699	93.56
244.932	70.56
245.166	84.56
245.399	91.56
245.633	72.56
245.866	72.56
246.099	71.56
246.333	83.56
246.566	81.56
246.8	87.56
247.033	72.56
247.266	81.56
247.5	85.56
247.733	67.56
247.966	83.56
248.2	68.56
248.433	72.56
248.666	70.56
248.899	79.56
249.133	81.56
249.366	83.56
249.599	95.56
249.832	95.56
250.066	99.56
250.299	82.56
250.532	75.56
250.765	81.56
250.998	77.56
251.231	72.56
251.465	80.56
251.698	85.56
251.931	77.56
252.164	71.56
252.397	71.56
252.63	84.56
252.863	76.56
253.096	81.56
253.329	75.56
253.562	77.56
253.795	89.56
254.028	86.56
254.261	85.56
254.494	79.56
254.727	77.56
254.96	79.56
255.193	88.56
255.426	85.56
255.659	82.56
255.892	93.56
256.124	83.56
256.357	82.56
256.59	67.56
256.823	81.56
257.056	95.56
257.289	82.56
257.521	81.56
257.754	93.56
257.987	102.56
258.22	90.56
258.452	80.56
258.685	91.56
258.918	87.56
259.151	75.56
259.383	81.56
259.616	85.56
259.849	83.56
260.081	68.56
260.314	87.56
260.547	84.56
260.779	73.56
261.012	94.56
261.244	95.56
261.477	83.56
261.71	104.56
261.942	101.56
262.175	105.56
262.407	91.56
262.64	79.56
262.872	82.56
263.105	91.56
263.337	106.56
263.57	79.56
263.802	92.56
264.035	97.56
264.267	100.56
264.499	57.56
264.732	81.56
264.964	66.56
265.197	91.56
265.429	97.56
265.661	82.56
265.894	91.56
266.126	82.56
266.358	73.56
266.591	97.56
266.823	90.56
267.055	69.56
267.287	91.56
267.52	71.56
267.752	74.56
267.984	95.56
268.216	82.56
268.448	77.56
268.681	77.56
268.913	80.56
269.145	90.56
269.377	90.56
269.609	86.56
269.841	82.56
270.073	79.56
270.306	107.56
270.538	86.56
270.77	83.56
271.002	77.56
271.234	78.56
271.466	83.56
271.698	92.56
271.93	78.56
272.162	105.56
272.394	97.56
272.626	76.56
272.858	80.56
273.09	89.56
273.322	88.56
273.553	92.56
273.785	80.56
274.017	92.56
274.249	89.56
274.481	74.56
274.713	89.56
274.945	85.56
275.176	85.56
275.408	92.56
275.64	82.56
275.872	86.56
276.104	81.56
276.335	91.56
276.567	86.56
276.799	112.56
277.031	89.56
277.262	85.56
277.494	89.56
277.726	95.56
277.957	92.56
278.189	93.56
278.421	78.56
278.652	76.56
278.884	89.56
279.115	95.56
279.347	88.56
279.579	75.56
279.81	73.56
280.042	88.56
280.273	91.56
280.505	73.56
280.736	90.56
280.968	85.56
281.199	85.56
281.431	95.56
281.662	89.56
281.894	88.56
282.125	83.56
282.356	103.56
282.588	127.56
282.819	99.56
283.051	88.56
283.282	85.56
283.513	96.56
283.745	80.56
283.976	93.56
284.207	98.56
284.439	87.56
284.67	89.56
284.901	90.56
285.132	90.56
285.364	74.56
285.595	83.56
285.826	63.56
286.057	87.56
286.288	97.56
286.52	81.56
286.751	77.56
286.982	90.56
287.213	103.56
287.444	86.56
287.675	85.56
287.906	88.56
288.138	88.56
288.369	87.56
288.6	98.56
288.831	91.56
289.062	93.56
289.293	93.56
289.524	73.56
289.755	81.56
289.986	89.56
290.217	116.56
290.448	100.56
290.679	100.56
290.91	86.56
291.141	86.56
291.371	87.56
291.602	92.56
291.833	88.56
292.064	84.56
292.295	80.56
292.526	82.56
292.757	87.56
292.987	85.56
293.218	87.56
293.449	97.56
293.68	80.56
293.91	89.56
294.141	100.56
294.372	104.56
294.603	96.56
294.833	98.56
295.064	88.56
295.295	81.56
295.525	84.56
295.756	104.56
295.987	113.56
296.217	137.56
296.448	121.56
296.679	97.56
296.909	98.56
297.14	93.56
297.37	82.56
297.601	96.56
297.831	84.56
298.062	97.56
298.292	83.56
298.523	106.56
298.753	91.56
298.984	107.56
299.214	94.56
299.445	92.56
299.675	87.56
299.905	80.56
300.136	90.56
300.366	84.56
300.597	98.56
300.827	98.56
301.057	97.56
301.288	103.56
301.518	100.56
301.748	90.56
301.979	99.56
302.209	87.56
302.439	103.56
302.669	92.56
302.9	95.56
303.13	87.56
303.36	104.56
303.59	99.56
303.82	101.56
304.051	91.56
304.281	94.56
304.511	87.56
304.741	107.56
304.971	97.56
305.201	94.56
305.431	76.56
305.661	83.56
305.891	93.56
306.121	101.56
306.352	103.56
306.582	113.56
306.812	103.56
307.042	86.56
307.272	100.56
307.502	90.56
307.731	93.56
307.961	109.56
308.191	84.56
308.421	81.56
308.651	88.56
308.881	103.56
309.111	85.56
309.341	103.56
309.571	91.56
309.8	89.56
310.03	79.56
310.26	93.56
310.49	94.56
310.72	98.56
310.949	93.56
311.179	101.56
311.409	91.56
311.639	93.56
311.868	84.56
312.098	95.56
312.328	104.56
312.557	104.56
312.787	113.56
313.017	107.56
313.246	89.56
313.476	94.56
313.706	101.56
313.935	95.56
314.165	100.56
314.394	111.56
314.624	101.56
314.853	99.56
315.083	99.56
315.312	97.56
315.542	94.56
315.771	101.56
316.001	87.56
316.23	89.56
316.46	88.56
316.689	90.56
316.919	99.56
317.148	110.56
317.377	87.56
317.607	88.56
317.836	93.56
318.065	84.56
318.295	93.56
318.524	100.56
318.753	93.56
318.983	106.56
319.212	97.56
319.441	103.56
319.67	108.56
319.9	90.56
320.129	97.56
320.358	101.56
320.587	97.56
320.816	92.56
321.046	97.56
321.275	87.56
321.504	88.56
321.733	81.56
321.962	96.56
322.191	115.56
322.42	100.56
322.649	109.56
322.878	120.56
323.108	118.56
323.337	106.56
323.566	122.56
323.795	143.56
324.024	184.56
324.253	356.56
324.482	737.56
324.71	1506.56
324.939	1989.56
325.168	738.56
325.397	225.56
325.626	141.56
325.855	119.56
326.084	109.56
326.313	146.56
326.542	141.56
326.77	228.56
326.999	424.56
327.228	849.56
327.457	1543.56
327.686	1240.56
327.914	341.56
328.143	186.56
328.372	175.56
328.6	142.56
328.829	123.56
329.058	104.56
329.287	128.56
329.515	107.56
329.744	120.56
329.972	139.56
330.201	166.56
330.43	190.56
330.658	146.56
330.887	135.56
331.115	127.56
331.344	98.56
331.572	105.56
331.801	116.56
332.03	99.56
332.258	98.56
332.486	99.56
332.715	91.56
332.943	84.56
333.172	101.56
333.4	96.56
333.629	106.56
333.857	113.56
334.085	128.56
334.314	162.56
334.542	208.56
334.771	202.56
334.999	125.56
335.227	116.56
335.455	96.56
335.684	88.56
335.912	93.56
336.14	104.56
336.369	108.56
336.597	105.56
336.825	87.56
337.053	104.56
337.281	96.56
337.51	99.56
337.738	97.56
337.966	93.56
338.194	87.56
338.422	91.56
338.65	99.56
338.878	86.56
339.106	104.56
339.334	99.56
339.562	99.56
339.79	73.56
340.018	82.56
340.246	96.56
340.474	92.56
340.702	96.56
340.93	87.56
341.158	97.56
341.386	104.56
341.614	90.56
341.842	99.56
342.07	94.56
342.298	91.56
342.526	96.56
342.754	92.56
342.981	90.56
343.209	92.56
343.437	97.56
343.665	90.56
343.893	84.56
344.12	94.56
344.348	91.56
344.576	106.56
344.804	114.56
345.031	91.56
345.259	83.56
345.487	93.56
345.714	90.56
345.942	84.56
346.17	90.56
346.397	92.56
346.625	101.56
346.853	91.56
347.08	92.56
347.308	106.56
347.535	109.56
347.763	93.56
347.99	111.56
348.218	103.56
348.445	90.56
348.673	93.56
348.9	93.56
349.128	109.56
349.355	92.56
349.583	105.56
349.81	107.56
350.037	85.56
350.265	92.56
350.492	111.56
350.72	99.56
350.947	95.56
351.174	106.56
351.402	112.56
351.629	97.56
351.856	108.56
352.083	90.56
352.311	117.56
352.538	102.56
352.765	113.56
352.992	122.56
353.22	116.56
353.447	113.56
353.674	102.56
353.901	98.56
354.128	100.56
354.355	99.56
354.583	106.56
354.81	95.56
355.037	115.56
355.264	103.56
355.491	85.56
355.718	93.56
355.945	106.56
356.172	105.56
356.399	103.56
356.626	104.56
356.853	83.56
357.08	106.56
357.307	93.56
357.534	86.56
357.761	96.56
357.988	109.56
358.215	104.56
358.441	77.56
358.668	83.56
358.895	92.56
359.122	101.56
359.349	98.56
359.576	98.56
359.802	99.56
360.029	124.56
360.256	113.56
360.483	88.56
360.709	91.56
360.936	102.56
361.163	102.56
361.39	93.56
361.616	97.56
361.843	99.56
362.07	89.56
362.296	88.56
362.523	87.56
362.749	93.56
362.976	84.56
363.203	85.56
363.429	82.56
363.656	90.56
363.882	80.56
364.109	81.56
364.335	89.56
364.562	100.56
364.788	86.56
365.015	82.56
365.241	113.56
365.468	116.56
365.694	106.56
365.92	79.56
366.147	83.56
366.373	88.56
366.599	97.56
366.826	96.56
367.052	95.56
367.278	80.56
367.505	96.56
367.731	96.56
367.957	104.56
368.184	105.56
368.41	99.56
368.636	94.56
368.862	100.56
369.089	89.56
369.315	98.56
369.541	96.56
369.767	96.56
369.993	92.56
370.219	87.56
370.445	82.56
370.672	83.56
370.898	98.56
371.124	95.56
371.35	93.56
371.576	98.56
371.802	88.56
372.028	101.56
372.254	81.56
372.48	71.56
372.706	86.56
372.932	101.56
373.158	85.56
373.384	93.56
373.61	92.56
373.835	95.56
374.061	78.56
374.287	85.56
374.513	84.56
374.739	83.56
374.965	94.56
375.191	83.56
375.416	93.56
375.642	94.56
375.868	90.56
376.094	99.56
376.319	90.56
376.545	87.56
376.771	91.56
376.997	85.56
377.222	91.56
377.448	100.56
377.674	81.56
377.899	88.56
378.125	100.56
378.35	95.56
378.576	104.56
378.802	87.56
379.027	101.56
379.253	107.56
379.478	83.56
379.704	85.56
379.929	99.56
380.155	90.56
380.38	96.56
380.606	102.56
380.831	91.56
381.057	104.56
381.282	96.56
381.507	90.56
381.733	74.56
381.958	85.56
382.184	101.56
382.409	100.56
382.634	93.56
382.86	116.56
383.085	98.56
383.31	119.56
383.535	92.56
383.761	101.56
383.986	112.56
384.211	98.56
384.436	108.56
384.662	89.56
384.887	103.56
385.112	103.56
385.337	101.56
385.562	106.56
385.787	113.56
386.013	104.56
386.238	128.56
386.463	107.56
386.688	106.56
386.913	105.56
387.138	109.56
387.363	99.56
387.588	109.56
387.813	106.56
388.038	100.56
388.263	107.56
388.488	113.56
388.713	92.56
388.938	95.56
389.163	84.56
389.387	94.56
389.612	96.56
389.837	93.56
390.062	99.56
390.287	103.56
390.512	86.56
390.736	96.56
390.961	102.56
391.186	99.56
391.411	90.56
391.636	100.56
391.86	98.56
392.085	91.56
392.31	89.56
392.534	90.56
392.759	83.56
392.984	85.56
393.208	89.56
393.433	88.56
393.658	92.56
393.882	91.56
394.107	99.56
394.331	92.56
394.556	86.56
394.78	92.56
395.005	82.56
395.229	74.56
395.454	86.56
395.678	101.56
395.903	79.56
396.127	97.56
396.352	85.56
396.576	83.56
396.801	89.56
397.025	79.56
397.249	85.56
397.474	88.56
397.698	100.56
397.922	81.56
398.147	69.56
398.371	94.56
398.595	74.56
398.82	73.56
399.044	91.56
399.268	79.56
399.492	86.56
399.717	96.56
399.941	99.56
400.165	83.56
400.389	97.56
400.613	89.56
400.837	94.56
401.062	106.56
401.286	101.56
401.51	98.56
401.734	92.56
401.958	116.56
402.182	126.56
402.406	143.56
402.63	98.56
402.854	100.56
403.078	88.56
403.302	102.56
403.526	89.56
403.75	86.56
403.974	75.56
404.198	87.56
404.422	99.56
404.645	90.56
404.869	85.56
405.093	102.56
405.317	99.56
405.541	99.56
405.765	95.56
405.988	100.56
406.212	156.56
406.436	222.56
406.66	143.56
406.883	99.56
407.107	97.56
407.331	98.56
407.555	96.56
407.778	83.56
408.002	90.56
408.226	95.56
408.449	81.56
408.673	84.56
408.896	105.56
409.12	99.56
409.344	102.56
409.567	95.56
409.791	87.56
410.014	79.56
410.238	89.56
410.461	108.56
410.685	95.56
410.908	92.56
411.132	88.56
411.355	97.56
411.578	104.56
411.802	103.56
412.025	87.56
412.249	80.56
412.472	97.56
412.695	104.56
412.919	93.56
413.142	102.56
413.365	104.56
413.589	79.56
413.812	98.56
414.035	104.56
414.258	88.56
414.482	100.56
414.705	86.56
414.928	84.56
415.151	99.56
415.374	107.56
415.597	97.56
415.821	90.56
416.044	93.56
416.267	98.56
416.49	115.56
416.713	97.56
416.936	86.56
417.159	80.56
417.382	83.56
417.605	86.56
417.828	106.56
418.051	91.56
418.274	91.56
418.497	80.56
418.72	91.56
418.943	81.56
419.166	91.56
419.389	106.56
419.611	93.56
419.834	97.56
420.057	100.56
420.28	101.56
420.503	80.56
420.726	93.56
420.948	81.56
421.171	91.56
421.394	88.56
421.617	94.56
421.839	95.56
422.062	84.56
422.285	102.56
422.507	94.56
422.73	107.56
422.953	83.56
423.175	95.56
423.398	95.56
423.621	87.56
423.843	91.56
424.066	84.56
424.288	91.56
424.511	89.56
424.733	89.56
424.956	105.56
425.178	90.56
425.401	103.56
425.623	89.56
425.846	81.56
426.068	107.56
426.291	101.56
426.513	82.56
426.735	102.56
426.958	93.56
427.18	113.56
427.402	135.56
427.625	159.56
427.847	131.56
428.069	136.56
428.292	95.56
428.514	90.56
428.736	93.56
428.958	85.56
429.181	91.56
429.403	86.56
429.625	88.56
429.847	97.56
430.069	103.56
430.292	87.56
430.514	89.56
430.736	88.56
430.958	83.56
431.18	75.56
431.402	87.56
431.624	87.56
431.846	83.56
432.068	88.56
432.29	87.56
432.512	82.56
432.734	96.56
432.956	95.56
433.178	84.56
433.4	99.56
433.622	103.56
433.844	100.56
434.066	106.56
434.287	100.56
434.509	97.56
434.731	81.56
434.953	83.56
435.175	79.56
435.397	89.56
435.618	88.56
435.84	104.56
436.062	125.56
436.284	115.56
436.505	108.56
436.727	93.56
436.949	83.56
437.17	85.56
437.392	95.56
437.614	86.56
437.835	87.56
438.057	107.56
438.278	109.56
438.5	97.56
438.721	112.56
438.943	107.56
439.165	78.56
439.386	97.56
439.608	104.56
439.829	99.56
440.05	111.56
440.272	135.56
440.493	104.56
440.715	97.56
440.936	80.56
441.158	91.56
441.379	99.56
441.6	96.56
441.822	76.56
442.043	105.56
442.264	88.56
442.486	103.56
442.707	85.56
442.928	106.56
443.149	109.56
443.371	102.56
443.592	113.56
443.813	100.56
444.034	91.56
444.255	102.56
444.476	83.56
444.698	96.56
444.919	76.56
445.14	138.56
445.361	110.56
445.582	113.56
445.803	123.56
446.024	127.56
446.245	136.56
446.466	102.56
446.687	99.56
446.908	88.56
447.129	92.56
447.35	82.56
447.571	101.56
447.792	95.56
448.013	105.56
448.234	87.56
448.455	100.56
448.675	95.56
448.896	100.56
449.117	107.56
449.338	99.56
449.559	121.56
449.779	136.56
450	97.56
450.221	95.56
450.442	85.56
450.662	86.56
450.883	109.56
451.104	108.56
451.324	95.56
451.545	91.56
451.766	91.56
451.986	86.56
452.207	96.56
452.428	93.56
452.648	97.56
452.869	107.56
453.089	109.56
453.31	108.56
453.53	102.56
453.751	91.56
453.971	107.56
454.192	104.56
454.412	75.56
454.633	74.56
454.853	95.56
455.073	88.56
455.294	95.56
455.514	98.56
455.734	93.56
455.955	95.56
456.175	87.56
456.395	79.56
456.616	84.56
456.836	97.56
457.056	97.56
457.276	85.56
457.497	105.56
457.717	82.56
457.937	88.56
458.157	87.56
458.377	103.56
458.598	106.56
458.818	145.56
459.038	143.56
459.258	108.56
459.478	99.56
459.698	95.56
459.918	86.56
460.138	93.56
460.358	86.56
460.578	93.56
460.798	94.56
461.018	95.56
461.238	95.56
461.458	92.56
461.678	86.56
461.898	84.56
462.118	90.56
462.338	100.56
462.558	102.56
462.777	79.56
462.997	98.56
463.217	85.56
463.437	93.56
463.657	77.56
463.876	91.56
464.096	92.56
464.316	96.56
464.536	91.56
464.755	101.56
464.975	95.56
465.195	149.56
465.414	134.56
465.634	99.56
465.854	83.56
466.073	83.56
466.293	92.56
466.512	99.56
466.732	79.56
466.951	80.56
467.171	101.56
467.391	91.56
467.61	100.56
467.829	111.56
468.049	124.56
468.268	137.56
468.488	86.56
468.707	72.56
468.927	73.56
469.146	93.56
469.365	99.56
469.585	91.56
469.804	71.56
470.023	88.56
470.243	95.56
470.462	103.56
470.681	91.56
470.901	85.56
471.12	90.56
471.339	91.56
471.558	93.56
471.777	106.56
471.997	110.56
472.216	168.56
472.435	262.56
472.654	122.56
472.873	116.56
473.092	102.56
473.311	108.56
473.53	85.56
473.749	91.56
473.968	91.56
474.187	96.56
474.406	107.56
474.625	85.56
474.844	97.56
475.063	100.56
475.282	97.56
475.501	80.56
475.72	100.56
475.939	98.56
476.158	69.56
476.377	87.56
476.596	98.56
476.814	86.56
477.033	91.56
477.252	84.56
477.471	89.56
477.69	81.56
477.908	80.56
478.127	92.56
478.346	84.56
478.564	94.56
478.783	83.56
479.002	99.56
479.22	90.56
479.439	96.56
479.658	98.56
479.876	95.56
480.095	96.56
480.313	99.56
480.532	96.56
480.751	104.56
480.969	178.56
481.188	453.56
481.406	300.56
481.624	107.56
481.843	92.56
482.061	85.56
482.28	93.56
482.498	101.56
482.717	88.56
482.935	115.56
483.153	87.56
483.372	92.56
483.59	101.56
483.808	90.56
484.027	92.56
484.245	87.56
484.463	91.56
484.681	107.56
484.9	100.56
485.118	102.56
485.336	77.56
485.554	95.56
485.772	110.56
485.99	105.56
486.209	97.56
486.427	93.56
486.645	102.56
486.863	113.56
487.081	95.56
487.299	101.56
487.517	101.56
487.735	88.56
487.953	96.56
488.171	88.56
488.389	85.56
488.607	85.56
488.825	89.56
489.043	83.56
489.261	91.56
489.479	96.56
489.696	79.56
489.914	89.56
490.132	95.56
490.35	78.56
490.568	93.56
490.786	110.56
491.003	88.56
491.221	92.56
491.439	82.56
491.657	87.56
491.874	91.56
492.092	101.56
492.31	96.56
492.527	90.56
492.745	91.56
492.963	101.56
493.18	95.56
493.398	106.56
493.615	107.56
493.833	88.56
494.05	97.56
494.268	88.56
494.485	93.56
494.703	97.56
494.92	70.56
495.138	87.56
495.355	99.56
495.573	91.56
495.79	96.56
496.008	91.56
496.225	91.56
496.442	89.56
496.66	102.56
496.877	97.56
497.094	89.56
497.312	91.56
497.529	97.56
497.746	84.56
497.963	82.56
498.181	91.56
498.398	89.56
498.615	102.56
498.832	109.56
499.049	96.56
499.267	86.56
499.484	90.56
499.701	89.56
499.918	105.56
500.135	91.56
500.352	94.56
500.569	90.56
500.786	85.56
501.003	81.56
501.22	84.56
501.437	95.56
501.654	95.56
501.871	96.56
502.088	85.56
502.305	79.56
502.522	96.56
502.739	98.56
502.956	94.56
503.172	96.56
503.389	91.56
503.606	110.56
503.823	112.56
504.04	103.56
504.256	98.56
504.473	89.56
504.69	102.56
504.907	93.56
505.123	97.56
505.34	93.56
505.557	94.56
505.773	93.56
505.99	89.56
506.207	104.56
506.423	84.56
506.64	92.56
506.856	95.56
507.073	93.56
507.289	94.56
507.506	92.56
507.722	107.56
507.939	104.56
508.155	96.56
508.372	92.56
508.588	101.56
508.805	92.56
509.021	99.56
509.238	93.56
509.454	89.56
509.67	97.56
509.887	106.56
510.103	135.56
510.319	204.56
510.536	708.56
510.752	2067.56
510.968	582.56
511.184	151.56
511.401	109.56
511.617	105.56
511.833	95.56
512.049	82.56
512.265	100.56
512.481	99.56
512.698	87.56
512.914	94.56
513.13	92.56
513.346	104.56
513.562	99.56
513.778	100.56
513.994	95.56
514.21	101.56
514.426	91.56
514.642	133.56
514.858	119.56
515.074	155.56
