Data from Circ_1986_H10_HRD10591_00007.txt Node
Date: Wed Jan 03 12:15:27 EST 2024
User: Yrep
Spectrometer: HR+D1059
Trigger mode: 1
Integration Time (sec): 1.000000E-1
Scans to average: 1
Electric dark correction enabled: true
Nonlinearity correction enabled: false
Boxcar width: 0
XAxis mode: Wavelengths
Number of Pixels in Spectrum: 2048
>>>>>Begin Spectral Data<<<<<
223.165	-14.19
223.4	-14.19
223.635	-14.19
223.869	-29.19
224.104	-10.19
224.338	-17.19
224.573	-4.19
224.808	0.81
225.042	-9.19
225.277	-14.19
225.511	-4.19
225.746	15.81
225.98	1.81
226.215	12.81
226.449	20.81
226.683	7.81
226.918	20.81
227.152	21.81
227.387	26.81
227.621	52.81
227.856	39.81
228.09	42.81
228.324	49.81
228.559	62.81
228.793	52.81
229.027	48.81
229.262	54.81
229.496	53.81
229.73	74.81
229.964	82.81
230.199	74.81
230.433	84.81
230.667	90.81
230.901	83.81
231.136	80.81
231.37	94.81
231.604	80.81
231.838	72.81
232.072	68.81
232.306	84.81
232.541	74.81
232.775	67.81
233.009	64.81
233.243	78.81
233.477	73.81
233.711	77.81
233.945	86.81
234.179	93.81
234.413	75.81
234.647	82.81
234.881	85.81
235.115	62.81
235.349	74.81
235.583	73.81
235.817	73.81
236.051	72.81
236.285	80.81
236.519	70.81
236.753	66.81
236.987	76.81
237.221	83.81
237.455	87.81
237.689	86.81
237.922	69.81
238.156	64.81
238.39	78.81
238.624	86.81
238.858	66.81
239.091	75.81
239.325	77.81
239.559	92.81
239.793	78.81
240.027	79.81
240.26	78.81
240.494	72.81
240.728	87.81
240.961	80.81
241.195	71.81
241.429	69.81
241.662	78.81
241.896	73.81
242.13	76.81
242.363	65.81
242.597	80.81
242.83	75.81
243.064	82.81
243.298	84.81
243.531	84.81
243.765	68.81
243.998	76.81
244.232	80.81
244.465	78.81
244.699	80.81
244.932	69.81
245.166	57.81
245.399	78.81
245.633	84.81
245.866	72.81
246.099	84.81
246.333	71.81
246.566	82.81
246.8	78.81
247.033	77.81
247.266	82.81
247.5	74.81
247.733	89.81
247.966	97.81
248.2	79.81
248.433	81.81
248.666	77.81
248.899	95.81
249.133	84.81
249.366	90.81
249.599	75.81
249.832	63.81
250.066	84.81
250.299	89.81
250.532	73.81
250.765	86.81
250.998	80.81
251.231	88.81
251.465	76.81
251.698	71.81
251.931	94.81
252.164	79.81
252.397	63.81
252.63	82.81
252.863	85.81
253.096	82.81
253.329	76.81
253.562	87.81
253.795	68.81
254.028	66.81
254.261	76.81
254.494	68.81
254.727	79.81
254.96	79.81
255.193	68.81
255.426	68.81
255.659	72.81
255.892	78.81
256.124	77.81
256.357	84.81
256.59	74.81
256.823	81.81
257.056	74.81
257.289	88.81
257.521	81.81
257.754	74.81
257.987	83.81
258.22	91.81
258.452	69.81
258.685	83.81
258.918	83.81
259.151	86.81
259.383	81.81
259.616	70.81
259.849	80.81
260.081	88.81
260.314	81.81
260.547	61.81
260.779	88.81
261.012	73.81
261.244	77.81
261.477	81.81
261.71	82.81
261.942	88.81
262.175	94.81
262.407	81.81
262.64	78.81
262.872	74.81
263.105	100.81
263.337	70.81
263.57	79.81
263.802	94.81
264.035	83.81
264.267	78.81
264.499	73.81
264.732	78.81
264.964	80.81
265.197	92.81
265.429	85.81
265.661	93.81
265.894	85.81
266.126	87.81
266.358	76.81
266.591	86.81
266.823	70.81
267.055	88.81
267.287	81.81
267.52	81.81
267.752	80.81
267.984	86.81
268.216	77.81
268.448	80.81
268.681	84.81
268.913	81.81
269.145	88.81
269.377	80.81
269.609	85.81
269.841	79.81
270.073	97.81
270.306	72.81
270.538	76.81
270.77	80.81
271.002	85.81
271.234	84.81
271.466	79.81
271.698	74.81
271.93	67.81
272.162	70.81
272.394	85.81
272.626	80.81
272.858	100.81
273.09	68.81
273.322	94.81
273.553	81.81
273.785	91.81
274.017	68.81
274.249	80.81
274.481	83.81
274.713	64.81
274.945	85.81
275.176	79.81
275.408	82.81
275.64	78.81
275.872	71.81
276.104	71.81
276.335	80.81
276.567	95.81
276.799	96.81
277.031	92.81
277.262	83.81
277.494	84.81
277.726	86.81
277.957	89.81
278.189	87.81
278.421	91.81
278.652	68.81
278.884	85.81
279.115	85.81
279.347	86.81
279.579	87.81
279.81	90.81
280.042	103.81
280.273	85.81
280.505	79.81
280.736	86.81
280.968	88.81
281.199	88.81
281.431	80.81
281.662	73.81
281.894	92.81
282.125	95.81
282.356	91.81
282.588	106.81
282.819	94.81
283.051	93.81
283.282	66.81
283.513	77.81
283.745	89.81
283.976	80.81
284.207	95.81
284.439	78.81
284.67	101.81
284.901	80.81
285.132	73.81
285.364	77.81
285.595	81.81
285.826	98.81
286.057	78.81
286.288	76.81
286.52	80.81
286.751	68.81
286.982	82.81
287.213	84.81
287.444	73.81
287.675	77.81
287.906	88.81
288.138	88.81
288.369	87.81
288.6	96.81
288.831	75.81
289.062	98.81
289.293	82.81
289.524	84.81
289.755	94.81
289.986	89.81
290.217	84.81
290.448	74.81
290.679	86.81
290.91	80.81
291.141	89.81
291.371	94.81
291.602	86.81
291.833	83.81
292.064	86.81
292.295	84.81
292.526	97.81
292.757	88.81
292.987	64.81
293.218	65.81
293.449	81.81
293.68	81.81
293.91	94.81
294.141	93.81
294.372	71.81
294.603	79.81
294.833	93.81
295.064	80.81
295.295	78.81
295.525	72.81
295.756	98.81
295.987	99.81
296.217	116.81
296.448	115.81
296.679	80.81
296.909	80.81
297.14	85.81
297.37	90.81
297.601	97.81
297.831	96.81
298.062	83.81
298.292	87.81
298.523	85.81
298.753	86.81
298.984	69.81
299.214	86.81
299.445	88.81
299.675	86.81
299.905	77.81
300.136	89.81
300.366	85.81
300.597	83.81
300.827	94.81
301.057	92.81
301.288	95.81
301.518	88.81
301.748	77.81
301.979	100.81
302.209	94.81
302.439	82.81
302.669	77.81
302.9	95.81
303.13	99.81
303.36	83.81
303.59	94.81
303.82	104.81
304.051	86.81
304.281	102.81
304.511	86.81
304.741	86.81
304.971	93.81
305.201	81.81
305.431	86.81
305.661	96.81
305.891	89.81
306.121	97.81
306.352	95.81
306.582	109.81
306.812	93.81
307.042	81.81
307.272	80.81
307.502	85.81
307.731	84.81
307.961	80.81
308.191	92.81
308.421	85.81
308.651	84.81
308.881	84.81
309.111	81.81
309.341	91.81
309.571	97.81
309.8	102.81
310.03	99.81
310.26	85.81
310.49	89.81
310.72	93.81
310.949	92.81
311.179	101.81
311.409	83.81
311.639	96.81
311.868	104.81
312.098	84.81
312.328	98.81
312.557	98.81
312.787	98.81
313.017	91.81
313.246	104.81
313.476	80.81
313.706	97.81
313.935	84.81
314.165	84.81
314.394	89.81
314.624	98.81
314.853	93.81
315.083	84.81
315.312	80.81
315.542	86.81
315.771	92.81
316.001	80.81
316.23	93.81
316.46	81.81
316.689	93.81
316.919	102.81
317.148	102.81
317.377	92.81
317.607	86.81
317.836	86.81
318.065	102.81
318.295	83.81
318.524	87.81
318.753	88.81
318.983	98.81
319.212	97.81
319.441	108.81
319.67	82.81
319.9	78.81
320.129	90.81
320.358	100.81
320.587	91.81
320.816	87.81
321.046	92.81
321.275	82.81
321.504	97.81
321.733	93.81
321.962	115.81
322.191	97.81
322.42	105.81
322.649	98.81
322.878	96.81
323.108	107.81
323.337	109.81
323.566	114.81
323.795	133.81
324.024	169.81
324.253	304.81
324.482	616.81
324.71	1224.81
324.939	1582.81
325.168	594.81
325.397	193.81
325.626	129.81
325.855	124.81
326.084	113.81
326.313	114.81
326.542	121.81
326.77	191.81
326.999	359.81
327.228	701.81
327.457	1255.81
327.686	1007.81
327.914	280.81
328.143	162.81
328.372	117.81
328.6	109.81
328.829	103.81
329.058	99.81
329.287	96.81
329.515	99.81
329.744	97.81
329.972	98.81
330.201	106.81
330.43	99.81
330.658	104.81
330.887	120.81
331.115	96.81
331.344	118.81
331.572	87.81
331.801	101.81
332.03	100.81
332.258	106.81
332.486	95.81
332.715	86.81
332.943	95.81
333.172	97.81
333.4	84.81
333.629	100.81
333.857	94.81
334.085	95.81
334.314	110.81
334.542	100.81
334.771	96.81
334.999	100.81
335.227	98.81
335.455	93.81
335.684	106.81
335.912	94.81
336.14	91.81
336.369	82.81
336.597	93.81
336.825	94.81
337.053	109.81
337.281	95.81
337.51	71.81
337.738	92.81
337.966	85.81
338.194	94.81
338.422	81.81
338.65	95.81
338.878	81.81
339.106	87.81
339.334	88.81
339.562	86.81
339.79	101.81
340.018	83.81
340.246	79.81
340.474	87.81
340.702	89.81
340.93	87.81
341.158	93.81
341.386	89.81
341.614	79.81
341.842	81.81
342.07	88.81
342.298	82.81
342.526	95.81
342.754	92.81
342.981	100.81
343.209	85.81
343.437	105.81
343.665	95.81
343.893	93.81
344.12	91.81
344.348	94.81
344.576	94.81
344.804	99.81
345.031	101.81
345.259	92.81
345.487	82.81
345.714	96.81
345.942	77.81
346.17	83.81
346.397	93.81
346.625	78.81
346.853	90.81
347.08	79.81
347.308	81.81
347.535	90.81
347.763	104.81
347.99	85.81
348.218	93.81
348.445	103.81
348.673	97.81
348.9	94.81
349.128	97.81
349.355	93.81
349.583	103.81
349.81	78.81
350.037	87.81
350.265	101.81
350.492	98.81
350.72	99.81
350.947	102.81
351.174	89.81
351.402	93.81
351.629	92.81
351.856	100.81
352.083	89.81
352.311	99.81
352.538	108.81
352.765	109.81
352.992	98.81
353.22	112.81
353.447	104.81
353.674	102.81
353.901	113.81
354.128	96.81
354.355	104.81
354.583	91.81
354.81	99.81
355.037	87.81
355.264	94.81
355.491	87.81
355.718	90.81
355.945	87.81
356.172	79.81
356.399	96.81
356.626	96.81
356.853	92.81
357.08	85.81
357.307	84.81
357.534	99.81
357.761	97.81
357.988	101.81
358.215	94.81
358.441	105.81
358.668	111.81
358.895	89.81
359.122	96.81
359.349	99.81
359.576	88.81
359.802	95.81
360.029	100.81
360.256	72.81
360.483	100.81
360.709	97.81
360.936	98.81
361.163	96.81
361.39	84.81
361.616	87.81
361.843	80.81
362.07	96.81
362.296	86.81
362.523	96.81
362.749	100.81
362.976	70.81
363.203	90.81
363.429	88.81
363.656	78.81
363.882	86.81
364.109	112.81
364.335	82.81
364.562	98.81
364.788	89.81
365.015	83.81
365.241	84.81
365.468	93.81
365.694	100.81
365.92	76.81
366.147	105.81
366.373	76.81
366.599	77.81
366.826	95.81
367.052	83.81
367.278	78.81
367.505	78.81
367.731	78.81
367.957	94.81
368.184	91.81
368.41	86.81
368.636	88.81
368.862	86.81
369.089	99.81
369.315	88.81
369.541	100.81
369.767	96.81
369.993	88.81
370.219	89.81
370.445	88.81
370.672	84.81
370.898	80.81
371.124	90.81
371.35	90.81
371.576	85.81
371.802	84.81
372.028	86.81
372.254	90.81
372.48	88.81
372.706	80.81
372.932	90.81
373.158	99.81
373.384	81.81
373.61	87.81
373.835	94.81
374.061	94.81
374.287	100.81
374.513	78.81
374.739	78.81
374.965	79.81
375.191	93.81
375.416	89.81
375.642	81.81
375.868	89.81
376.094	84.81
376.319	88.81
376.545	88.81
376.771	96.81
376.997	88.81
377.222	83.81
377.448	89.81
377.674	93.81
377.899	96.81
378.125	85.81
378.35	96.81
378.576	91.81
378.802	86.81
379.027	97.81
379.253	82.81
379.478	97.81
379.704	92.81
379.929	96.81
380.155	92.81
380.38	97.81
380.606	113.81
380.831	112.81
381.057	110.81
381.282	96.81
381.507	95.81
381.733	106.81
381.958	107.81
382.184	102.81
382.409	111.81
382.634	101.81
382.86	110.81
383.085	107.81
383.31	92.81
383.535	125.81
383.761	109.81
383.986	116.81
384.211	115.81
384.436	105.81
384.662	130.81
384.887	126.81
385.112	125.81
385.337	137.81
385.562	126.81
385.787	128.81
386.013	132.81
386.238	122.81
386.463	117.81
386.688	140.81
386.913	109.81
387.138	131.81
387.363	125.81
387.588	124.81
387.813	124.81
388.038	127.81
388.263	148.81
388.488	133.81
388.713	111.81
388.938	100.81
389.163	71.81
389.387	100.81
389.612	97.81
389.837	96.81
390.062	86.81
390.287	93.81
390.512	96.81
390.736	98.81
390.961	94.81
391.186	78.81
391.411	94.81
391.636	73.81
391.86	91.81
392.085	73.81
392.31	87.81
392.534	89.81
392.759	89.81
392.984	71.81
393.208	82.81
393.433	108.81
393.658	88.81
393.882	81.81
394.107	91.81
394.331	93.81
394.556	82.81
394.78	96.81
395.005	81.81
395.229	82.81
395.454	85.81
395.678	77.81
395.903	101.81
396.127	101.81
396.352	97.81
396.576	90.81
396.801	90.81
397.025	88.81
397.249	82.81
397.474	99.81
397.698	82.81
397.922	88.81
398.147	84.81
398.371	75.81
398.595	81.81
398.82	72.81
399.044	86.81
399.268	89.81
399.492	88.81
399.717	81.81
399.941	85.81
400.165	87.81
400.389	105.81
400.613	82.81
400.837	77.81
401.062	73.81
401.286	80.81
401.51	90.81
401.734	103.81
401.958	94.81
402.182	100.81
402.406	128.81
402.63	98.81
402.854	88.81
403.078	73.81
403.302	77.81
403.526	83.81
403.75	81.81
403.974	70.81
404.198	81.81
404.422	76.81
404.645	79.81
404.869	87.81
405.093	95.81
405.317	98.81
405.541	106.81
405.765	92.81
405.988	97.81
406.212	130.81
406.436	166.81
406.66	144.81
406.883	101.81
407.107	96.81
407.331	97.81
407.555	91.81
407.778	101.81
408.002	103.81
408.226	82.81
408.449	86.81
408.673	75.81
408.896	90.81
409.12	83.81
409.344	84.81
409.567	79.81
409.791	87.81
410.014	97.81
410.238	91.81
410.461	88.81
410.685	91.81
410.908	88.81
411.132	105.81
411.355	82.81
411.578	71.81
411.802	73.81
412.025	91.81
412.249	92.81
412.472	83.81
412.695	102.81
412.919	84.81
413.142	97.81
413.365	88.81
413.589	72.81
413.812	102.81
414.035	97.81
414.258	81.81
414.482	89.81
414.705	92.81
414.928	78.81
415.151	87.81
415.374	77.81
415.597	80.81
415.821	97.81
416.044	88.81
416.267	99.81
416.49	95.81
416.713	81.81
416.936	78.81
417.159	79.81
417.382	84.81
417.605	95.81
417.828	96.81
418.051	97.81
418.274	108.81
418.497	80.81
418.72	95.81
418.943	94.81
419.166	90.81
419.389	82.81
419.611	101.81
419.834	79.81
420.057	84.81
420.28	90.81
420.503	76.81
420.726	91.81
420.948	82.81
421.171	95.81
421.394	105.81
421.617	101.81
421.839	105.81
422.062	103.81
422.285	95.81
422.507	90.81
422.73	92.81
422.953	83.81
423.175	96.81
423.398	85.81
423.621	80.81
423.843	92.81
424.066	73.81
424.288	84.81
424.511	89.81
424.733	78.81
424.956	83.81
425.178	85.81
425.401	102.81
425.623	92.81
425.846	94.81
426.068	85.81
426.291	88.81
426.513	96.81
426.735	84.81
426.958	97.81
427.18	93.81
427.402	111.81
427.625	125.81
427.847	105.81
428.069	98.81
428.292	69.81
428.514	95.81
428.736	83.81
428.958	81.81
429.181	89.81
429.403	79.81
429.625	88.81
429.847	84.81
430.069	99.81
430.292	96.81
430.514	74.81
430.736	84.81
430.958	76.81
431.18	79.81
431.402	82.81
431.624	92.81
431.846	72.81
432.068	98.81
432.29	87.81
432.512	93.81
432.734	79.81
432.956	87.81
433.178	93.81
433.4	99.81
433.622	79.81
433.844	96.81
434.066	86.81
434.287	105.81
434.509	81.81
434.731	68.81
434.953	88.81
435.175	81.81
435.397	86.81
435.618	96.81
435.84	99.81
436.062	111.81
436.284	105.81
436.505	88.81
436.727	105.81
436.949	97.81
437.17	78.81
437.392	87.81
437.614	92.81
437.835	99.81
438.057	106.81
438.278	90.81
438.5	90.81
438.721	103.81
438.943	91.81
439.165	86.81
439.386	88.81
439.608	88.81
439.829	87.81
440.05	106.81
440.272	118.81
440.493	88.81
440.715	86.81
440.936	95.81
441.158	84.81
441.379	97.81
441.6	112.81
441.822	78.81
442.043	84.81
442.264	91.81
442.486	78.81
442.707	93.81
442.928	98.81
443.149	105.81
443.371	98.81
443.592	100.81
443.813	97.81
444.034	115.81
444.255	83.81
444.476	90.81
444.698	81.81
444.919	89.81
445.14	126.81
445.361	104.81
445.582	105.81
445.803	106.81
446.024	109.81
446.245	121.81
446.466	98.81
446.687	81.81
446.908	85.81
447.129	77.81
447.35	92.81
447.571	80.81
447.792	84.81
448.013	94.81
448.234	86.81
448.455	100.81
448.675	105.81
448.896	102.81
449.117	105.81
449.338	85.81
449.559	105.81
449.779	98.81
450	84.81
450.221	90.81
450.442	77.81
450.662	90.81
450.883	91.81
451.104	114.81
451.324	97.81
451.545	91.81
451.766	76.81
451.986	82.81
452.207	89.81
452.428	91.81
452.648	77.81
452.869	91.81
453.089	82.81
453.31	102.81
453.53	80.81
453.751	86.81
453.971	98.81
454.192	99.81
454.412	84.81
454.633	94.81
454.853	103.81
455.073	80.81
455.294	97.81
455.514	90.81
455.734	91.81
455.955	86.81
456.175	92.81
456.395	86.81
456.616	78.81
456.836	81.81
457.056	101.81
457.276	73.81
457.497	76.81
457.717	78.81
457.937	80.81
458.157	104.81
458.377	97.81
458.598	93.81
458.818	116.81
459.038	124.81
459.258	88.81
459.478	99.81
459.698	78.81
459.918	68.81
460.138	82.81
460.358	90.81
460.578	86.81
460.798	85.81
461.018	95.81
461.238	88.81
461.458	88.81
461.678	92.81
461.898	72.81
462.118	84.81
462.338	82.81
462.558	91.81
462.777	82.81
462.997	86.81
463.217	82.81
463.437	83.81
463.657	91.81
463.876	68.81
464.096	70.81
464.316	74.81
464.536	94.81
464.755	95.81
464.975	107.81
465.195	120.81
465.414	116.81
465.634	89.81
465.854	83.81
466.073	76.81
466.293	93.81
466.512	78.81
466.732	80.81
466.951	82.81
467.171	99.81
467.391	82.81
467.61	97.81
467.829	88.81
468.049	83.81
468.268	98.81
468.488	89.81
468.707	73.81
468.927	95.81
469.146	87.81
469.365	88.81
469.585	88.81
469.804	86.81
470.023	67.81
470.243	94.81
470.462	84.81
470.681	93.81
470.901	77.81
471.12	81.81
471.339	84.81
471.558	85.81
471.777	90.81
471.997	70.81
472.216	94.81
472.435	113.81
472.654	90.81
472.873	80.81
473.092	95.81
473.311	69.81
473.53	87.81
473.749	76.81
473.968	85.81
474.187	90.81
474.406	74.81
474.625	82.81
474.844	73.81
475.063	82.81
475.282	85.81
475.501	77.81
475.72	83.81
475.939	74.81
476.158	85.81
476.377	88.81
476.596	97.81
476.814	86.81
477.033	90.81
477.252	81.81
477.471	86.81
477.69	96.81
477.908	73.81
478.127	81.81
478.346	84.81
478.564	83.81
478.783	90.81
479.002	99.81
479.22	88.81
479.439	104.81
479.658	105.81
479.876	88.81
480.095	86.81
480.313	79.81
480.532	88.81
480.751	75.81
480.969	83.81
481.188	124.81
481.406	94.81
481.624	87.81
481.843	90.81
482.061	94.81
482.28	84.81
482.498	86.81
482.717	82.81
482.935	83.81
483.153	92.81
483.372	89.81
483.59	90.81
483.808	88.81
484.027	86.81
484.245	89.81
484.463	92.81
484.681	92.81
484.9	99.81
485.118	94.81
485.336	92.81
485.554	93.81
485.772	90.81
485.99	124.81
486.209	120.81
486.427	95.81
486.645	94.81
486.863	109.81
487.081	98.81
487.299	93.81
487.517	87.81
487.735	97.81
487.953	95.81
488.171	96.81
488.389	93.81
488.607	94.81
488.825	102.81
489.043	93.81
489.261	92.81
489.479	74.81
489.696	90.81
489.914	80.81
490.132	95.81
490.35	86.81
490.568	83.81
490.786	87.81
491.003	91.81
491.221	89.81
491.439	87.81
491.657	77.81
491.874	82.81
492.092	87.81
492.31	103.81
492.527	82.81
492.745	77.81
492.963	85.81
493.18	93.81
493.398	90.81
493.615	100.81
493.833	101.81
494.05	96.81
494.268	95.81
494.485	95.81
494.703	92.81
494.92	89.81
495.138	86.81
495.355	96.81
495.573	97.81
495.79	87.81
496.008	88.81
496.225	108.81
496.442	81.81
496.66	88.81
496.877	92.81
497.094	93.81
497.312	96.81
497.529	91.81
497.746	96.81
497.963	84.81
498.181	77.81
498.398	87.81
498.615	100.81
498.832	93.81
499.049	79.81
499.267	93.81
499.484	91.81
499.701	86.81
499.918	85.81
500.135	81.81
500.352	84.81
500.569	94.81
500.786	99.81
501.003	102.81
501.22	78.81
501.437	80.81
501.654	78.81
501.871	95.81
502.088	82.81
502.305	89.81
502.522	86.81
502.739	77.81
502.956	92.81
503.172	104.81
503.389	81.81
503.606	102.81
503.823	89.81
504.04	86.81
504.256	89.81
504.473	88.81
504.69	77.81
504.907	78.81
505.123	80.81
505.34	85.81
505.557	82.81
505.773	100.81
505.99	98.81
506.207	83.81
506.423	89.81
506.64	82.81
506.856	73.81
507.073	77.81
507.289	100.81
507.506	72.81
507.722	88.81
507.939	98.81
508.155	97.81
508.372	93.81
508.588	94.81
508.805	84.81
509.021	89.81
509.238	80.81
509.454	84.81
509.67	104.81
509.887	105.81
510.103	116.81
510.319	184.81
510.536	553.81
510.752	1523.81
510.968	449.81
511.184	116.81
511.401	100.81
511.617	87.81
511.833	88.81
512.049	71.81
512.265	87.81
512.481	80.81
512.698	89.81
512.914	98.81
513.13	76.81
513.346	94.81
513.562	84.81
513.778	104.81
513.994	90.81
514.21	99.81
514.426	103.81
514.642	108.81
514.858	92.81
515.074	133.81
515.29	304.81
515.506	892.81
515.721	355.81
515.937	127.81
516.153	100.81
516.369	98.81
516.585	95.81
516.801	99.81
517.016	85.81
