Data from Circ_1986_H10_HRD10591_00091.txt Node
Date: Wed Jan 03 12:15:44 EST 2024
User: Yrep
Spectrometer: HR+D1059
Trigger mode: 1
Integration Time (sec): 1.000000E-1
Scans to average: 1
Electric dark correction enabled: true
Nonlinearity correction enabled: false
Boxcar width: 0
XAxis mode: Wavelengths
Number of Pixels in Spectrum: 2048
>>>>>Begin Spectral Data<<<<<
223.165	-20.88
223.4	-20.88
223.635	-20.88
223.869	-23.88
224.104	-32.88
224.338	-9.88
224.573	-6.88
224.808	-22.88
225.042	-11.88
225.277	-3.88
225.511	1.12
225.746	-5.88
225.98	8.12
226.215	28.12
226.449	22.12
226.683	20.12
226.918	26.12
227.152	33.12
227.387	15.12
227.621	41.12
227.856	43.12
228.09	54.12
228.324	46.12
228.559	49.12
228.793	60.12
229.027	74.12
229.262	65.12
229.496	52.12
229.73	85.12
229.964	89.12
230.199	70.12
230.433	67.12
230.667	70.12
230.901	68.12
231.136	97.12
231.37	82.12
231.604	85.12
231.838	78.12
232.072	74.12
232.306	87.12
232.541	78.12
232.775	66.12
233.009	97.12
233.243	68.12
233.477	81.12
233.711	90.12
233.945	83.12
234.179	82.12
234.413	84.12
234.647	74.12
234.881	75.12
235.115	88.12
235.349	78.12
235.583	71.12
235.817	97.12
236.051	76.12
236.285	76.12
236.519	76.12
236.753	70.12
236.987	64.12
237.221	84.12
237.455	84.12
237.689	81.12
237.922	75.12
238.156	83.12
238.39	59.12
238.624	74.12
238.858	75.12
239.091	83.12
239.325	78.12
239.559	85.12
239.793	73.12
240.027	82.12
240.26	81.12
240.494	90.12
240.728	91.12
240.961	75.12
241.195	63.12
241.429	62.12
241.662	70.12
241.896	68.12
242.13	80.12
242.363	80.12
242.597	70.12
242.83	86.12
243.064	63.12
243.298	71.12
243.531	88.12
243.765	66.12
243.998	80.12
244.232	81.12
244.465	66.12
244.699	78.12
244.932	71.12
245.166	82.12
245.399	64.12
245.633	58.12
245.866	74.12
246.099	83.12
246.333	83.12
246.566	84.12
246.8	68.12
247.033	87.12
247.266	83.12
247.5	68.12
247.733	85.12
247.966	80.12
248.2	74.12
248.433	86.12
248.666	78.12
248.899	84.12
249.133	94.12
249.366	94.12
249.599	86.12
249.832	94.12
250.066	87.12
250.299	78.12
250.532	94.12
250.765	88.12
250.998	75.12
251.231	75.12
251.465	82.12
251.698	73.12
251.931	91.12
252.164	86.12
252.397	84.12
252.63	82.12
252.863	87.12
253.096	83.12
253.329	75.12
253.562	86.12
253.795	78.12
254.028	91.12
254.261	90.12
254.494	84.12
254.727	90.12
254.96	66.12
255.193	75.12
255.426	80.12
255.659	82.12
255.892	74.12
256.124	71.12
256.357	95.12
256.59	89.12
256.823	89.12
257.056	79.12
257.289	72.12
257.521	78.12
257.754	79.12
257.987	76.12
258.22	86.12
258.452	92.12
258.685	91.12
258.918	86.12
259.151	87.12
259.383	70.12
259.616	74.12
259.849	90.12
260.081	70.12
260.314	83.12
260.547	85.12
260.779	75.12
261.012	89.12
261.244	84.12
261.477	97.12
261.71	86.12
261.942	91.12
262.175	97.12
262.407	92.12
262.64	102.12
262.872	85.12
263.105	91.12
263.337	98.12
263.57	86.12
263.802	85.12
264.035	69.12
264.267	69.12
264.499	82.12
264.732	88.12
264.964	88.12
265.197	70.12
265.429	85.12
265.661	88.12
265.894	75.12
266.126	84.12
266.358	86.12
266.591	82.12
266.823	88.12
267.055	69.12
267.287	67.12
267.52	90.12
267.752	80.12
267.984	101.12
268.216	96.12
268.448	78.12
268.681	77.12
268.913	89.12
269.145	97.12
269.377	92.12
269.609	84.12
269.841	66.12
270.073	96.12
270.306	74.12
270.538	94.12
270.77	71.12
271.002	91.12
271.234	78.12
271.466	62.12
271.698	84.12
271.93	83.12
272.162	76.12
272.394	90.12
272.626	90.12
272.858	87.12
273.09	84.12
273.322	84.12
273.553	91.12
273.785	97.12
274.017	82.12
274.249	92.12
274.481	86.12
274.713	91.12
274.945	87.12
275.176	76.12
275.408	74.12
275.64	98.12
275.872	79.12
276.104	91.12
276.335	90.12
276.567	82.12
276.799	85.12
277.031	93.12
277.262	87.12
277.494	83.12
277.726	90.12
277.957	88.12
278.189	84.12
278.421	82.12
278.652	86.12
278.884	81.12
279.115	86.12
279.347	90.12
279.579	105.12
279.81	98.12
280.042	108.12
280.273	106.12
280.505	76.12
280.736	84.12
280.968	77.12
281.199	76.12
281.431	88.12
281.662	92.12
281.894	78.12
282.125	94.12
282.356	108.12
282.588	117.12
282.819	120.12
283.051	83.12
283.282	82.12
283.513	88.12
283.745	96.12
283.976	91.12
284.207	83.12
284.439	98.12
284.67	96.12
284.901	82.12
285.132	73.12
285.364	93.12
285.595	95.12
285.826	100.12
286.057	92.12
286.288	83.12
286.52	86.12
286.751	96.12
286.982	96.12
287.213	85.12
287.444	84.12
287.675	76.12
287.906	92.12
288.138	97.12
288.369	90.12
288.6	88.12
288.831	95.12
289.062	87.12
289.293	96.12
289.524	90.12
289.755	90.12
289.986	90.12
290.217	91.12
290.448	74.12
290.679	91.12
290.91	87.12
291.141	87.12
291.371	86.12
291.602	83.12
291.833	89.12
292.064	86.12
292.295	85.12
292.526	74.12
292.757	92.12
292.987	96.12
293.218	88.12
293.449	89.12
293.68	88.12
293.91	84.12
294.141	86.12
294.372	97.12
294.603	86.12
294.833	94.12
295.064	99.12
295.295	104.12
295.525	94.12
295.756	105.12
295.987	111.12
296.217	125.12
296.448	109.12
296.679	101.12
296.909	88.12
297.14	95.12
297.37	91.12
297.601	92.12
297.831	74.12
298.062	74.12
298.292	74.12
298.523	100.12
298.753	88.12
298.984	102.12
299.214	91.12
299.445	84.12
299.675	94.12
299.905	104.12
300.136	70.12
300.366	83.12
300.597	78.12
300.827	83.12
301.057	106.12
301.288	104.12
301.518	83.12
301.748	86.12
301.979	104.12
302.209	90.12
302.439	86.12
302.669	96.12
302.9	84.12
303.13	88.12
303.36	93.12
303.59	91.12
303.82	122.12
304.051	102.12
304.281	78.12
304.511	90.12
304.741	100.12
304.971	83.12
305.201	104.12
305.431	86.12
305.661	84.12
305.891	81.12
306.121	96.12
306.352	106.12
306.582	98.12
306.812	97.12
307.042	90.12
307.272	101.12
307.502	116.12
307.731	107.12
307.961	88.12
308.191	87.12
308.421	95.12
308.651	86.12
308.881	90.12
309.111	86.12
309.341	91.12
309.571	82.12
309.8	102.12
310.03	90.12
310.26	86.12
310.49	68.12
310.72	92.12
310.949	99.12
311.179	100.12
311.409	90.12
311.639	87.12
311.868	90.12
312.098	114.12
312.328	92.12
312.557	107.12
312.787	96.12
313.017	112.12
313.246	89.12
313.476	80.12
313.706	90.12
313.935	98.12
314.165	94.12
314.394	95.12
314.624	101.12
314.853	95.12
315.083	93.12
315.312	90.12
315.542	104.12
315.771	87.12
316.001	91.12
316.23	87.12
316.46	85.12
316.689	100.12
316.919	88.12
317.148	85.12
317.377	95.12
317.607	112.12
317.836	92.12
318.065	87.12
318.295	87.12
318.524	94.12
318.753	99.12
318.983	101.12
319.212	92.12
319.441	109.12
319.67	110.12
319.9	97.12
320.129	100.12
320.358	98.12
320.587	97.12
320.816	110.12
321.046	93.12
321.275	99.12
321.504	98.12
321.733	104.12
321.962	89.12
322.191	86.12
322.42	101.12
322.649	103.12
322.878	113.12
323.108	96.12
323.337	109.12
323.566	134.12
323.795	151.12
324.024	186.12
324.253	372.12
324.482	779.12
324.71	1580.12
324.939	2102.12
325.168	769.12
325.397	222.12
325.626	156.12
325.855	128.12
326.084	120.12
326.313	126.12
326.542	140.12
326.77	212.12
326.999	425.12
327.228	884.12
327.457	1671.12
327.686	1332.12
327.914	349.12
328.143	201.12
328.372	190.12
328.6	144.12
328.829	106.12
329.058	113.12
329.287	122.12
329.515	113.12
329.744	101.12
329.972	143.12
330.201	190.12
330.43	218.12
330.658	174.12
330.887	125.12
331.115	126.12
331.344	104.12
331.572	98.12
331.801	99.12
332.03	107.12
332.258	76.12
332.486	86.12
332.715	90.12
332.943	97.12
333.172	93.12
333.4	91.12
333.629	107.12
333.857	127.12
334.085	129.12
334.314	193.12
334.542	291.12
334.771	259.12
334.999	126.12
335.227	106.12
335.455	78.12
335.684	87.12
335.912	98.12
336.14	100.12
336.369	101.12
336.597	106.12
336.825	90.12
337.053	91.12
337.281	105.12
337.51	90.12
337.738	94.12
337.966	97.12
338.194	102.12
338.422	74.12
338.65	98.12
338.878	92.12
339.106	101.12
339.334	98.12
339.562	99.12
339.79	96.12
340.018	106.12
340.246	91.12
340.474	84.12
340.702	84.12
340.93	82.12
341.158	82.12
341.386	100.12
341.614	102.12
341.842	99.12
342.07	79.12
342.298	90.12
342.526	86.12
342.754	98.12
342.981	108.12
343.209	74.12
343.437	92.12
343.665	72.12
343.893	82.12
344.12	100.12
344.348	106.12
344.576	101.12
344.804	102.12
345.031	102.12
345.259	89.12
345.487	94.12
345.714	87.12
345.942	95.12
346.17	103.12
346.397	99.12
346.625	88.12
346.853	75.12
347.08	87.12
347.308	102.12
347.535	84.12
347.763	92.12
347.99	106.12
348.218	98.12
348.445	96.12
348.673	88.12
348.9	86.12
349.128	98.12
349.355	84.12
349.583	96.12
349.81	105.12
350.037	98.12
350.265	100.12
350.492	96.12
350.72	98.12
350.947	87.12
351.174	89.12
351.402	96.12
351.629	103.12
351.856	109.12
352.083	114.12
352.311	123.12
352.538	116.12
352.765	97.12
352.992	94.12
353.22	98.12
353.447	98.12
353.674	91.12
353.901	100.12
354.128	83.12
354.355	95.12
354.583	97.12
354.81	94.12
355.037	92.12
355.264	98.12
355.491	102.12
355.718	90.12
355.945	89.12
356.172	99.12
356.399	102.12
356.626	90.12
356.853	91.12
357.08	96.12
357.307	84.12
357.534	91.12
357.761	97.12
357.988	92.12
358.215	86.12
358.441	94.12
358.668	97.12
358.895	99.12
359.122	88.12
359.349	90.12
359.576	88.12
359.802	95.12
360.029	114.12
360.256	86.12
360.483	98.12
360.709	92.12
360.936	99.12
361.163	89.12
361.39	103.12
361.616	90.12
361.843	88.12
362.07	87.12
362.296	96.12
362.523	96.12
362.749	86.12
362.976	82.12
363.203	94.12
363.429	80.12
363.656	79.12
363.882	95.12
364.109	98.12
364.335	91.12
364.562	88.12
364.788	100.12
365.015	92.12
365.241	91.12
365.468	111.12
365.694	105.12
365.92	105.12
366.147	83.12
366.373	80.12
366.599	79.12
366.826	102.12
367.052	83.12
367.278	88.12
367.505	86.12
367.731	97.12
367.957	109.12
368.184	90.12
368.41	97.12
368.636	120.12
368.862	105.12
369.089	91.12
369.315	82.12
369.541	87.12
369.767	81.12
369.993	97.12
370.219	107.12
370.445	90.12
370.672	81.12
370.898	82.12
371.124	86.12
371.35	84.12
371.576	95.12
371.802	100.12
372.028	85.12
372.254	96.12
372.48	89.12
372.706	97.12
372.932	91.12
373.158	100.12
373.384	98.12
373.61	100.12
373.835	75.12
374.061	84.12
374.287	93.12
374.513	96.12
374.739	83.12
374.965	90.12
375.191	93.12
375.416	84.12
375.642	88.12
375.868	86.12
376.094	97.12
376.319	90.12
376.545	86.12
376.771	90.12
376.997	85.12
377.222	92.12
377.448	100.12
377.674	87.12
377.899	83.12
378.125	90.12
378.35	89.12
378.576	80.12
378.802	87.12
379.027	66.12
379.253	92.12
379.478	94.12
379.704	89.12
379.929	107.12
380.155	99.12
380.38	81.12
380.606	90.12
380.831	90.12
381.057	93.12
381.282	90.12
381.507	98.12
381.733	96.12
381.958	95.12
382.184	111.12
382.409	102.12
382.634	84.12
382.86	86.12
383.085	102.12
383.31	96.12
383.535	98.12
383.761	99.12
383.986	97.12
384.211	96.12
384.436	93.12
384.662	95.12
384.887	107.12
385.112	103.12
385.337	99.12
385.562	119.12
385.787	102.12
386.013	102.12
386.238	124.12
386.463	103.12
386.688	113.12
386.913	99.12
387.138	87.12
387.363	90.12
387.588	92.12
387.813	82.12
388.038	98.12
388.263	104.12
388.488	105.12
388.713	86.12
388.938	91.12
389.163	87.12
389.387	94.12
389.612	90.12
389.837	91.12
390.062	99.12
390.287	88.12
390.512	83.12
390.736	92.12
390.961	97.12
391.186	84.12
391.411	82.12
391.636	87.12
391.86	67.12
392.085	83.12
392.31	92.12
392.534	84.12
392.759	96.12
392.984	83.12
393.208	84.12
393.433	84.12
393.658	86.12
393.882	82.12
394.107	73.12
394.331	82.12
394.556	84.12
394.78	91.12
395.005	81.12
395.229	96.12
395.454	100.12
395.678	83.12
395.903	102.12
396.127	91.12
396.352	85.12
396.576	93.12
396.801	79.12
397.025	83.12
397.249	90.12
397.474	92.12
397.698	87.12
397.922	78.12
398.147	86.12
398.371	85.12
398.595	87.12
398.82	95.12
399.044	91.12
399.268	83.12
399.492	89.12
399.717	81.12
399.941	96.12
400.165	103.12
400.389	98.12
400.613	91.12
400.837	88.12
401.062	88.12
401.286	92.12
401.51	94.12
401.734	94.12
401.958	99.12
402.182	111.12
402.406	142.12
402.63	109.12
402.854	91.12
403.078	97.12
403.302	80.12
403.526	76.12
403.75	82.12
403.974	96.12
404.198	98.12
404.422	88.12
404.645	90.12
404.869	88.12
405.093	100.12
405.317	113.12
405.541	103.12
405.765	104.12
405.988	115.12
406.212	164.12
406.436	207.12
406.66	121.12
406.883	98.12
407.107	94.12
407.331	105.12
407.555	117.12
407.778	88.12
408.002	98.12
408.226	82.12
408.449	71.12
408.673	90.12
408.896	97.12
409.12	96.12
409.344	89.12
409.567	112.12
409.791	102.12
410.014	100.12
410.238	71.12
410.461	87.12
410.685	103.12
410.908	103.12
411.132	102.12
411.355	90.12
411.578	97.12
411.802	85.12
412.025	93.12
412.249	98.12
412.472	88.12
412.695	96.12
412.919	98.12
413.142	83.12
413.365	90.12
413.589	91.12
413.812	97.12
414.035	86.12
414.258	89.12
414.482	74.12
414.705	79.12
414.928	76.12
415.151	90.12
415.374	102.12
415.597	86.12
415.821	79.12
416.044	92.12
416.267	97.12
416.49	92.12
416.713	92.12
416.936	99.12
417.159	88.12
417.382	88.12
417.605	92.12
417.828	87.12
418.051	93.12
418.274	81.12
418.497	87.12
418.72	89.12
418.943	82.12
419.166	87.12
419.389	89.12
419.611	78.12
419.834	91.12
420.057	91.12
420.28	81.12
420.503	83.12
420.726	80.12
420.948	88.12
421.171	83.12
421.394	100.12
421.617	96.12
421.839	87.12
422.062	80.12
422.285	79.12
422.507	97.12
422.73	91.12
422.953	91.12
423.175	87.12
423.398	85.12
423.621	74.12
423.843	98.12
424.066	82.12
424.288	75.12
424.511	90.12
424.733	88.12
424.956	107.12
425.178	88.12
425.401	92.12
425.623	99.12
425.846	84.12
426.068	98.12
426.291	97.12
426.513	82.12
426.735	88.12
426.958	98.12
427.18	102.12
427.402	128.12
427.625	166.12
427.847	136.12
428.069	126.12
428.292	91.12
428.514	85.12
428.736	97.12
428.958	92.12
429.181	80.12
429.403	76.12
429.625	78.12
429.847	88.12
430.069	100.12
430.292	89.12
430.514	88.12
430.736	86.12
430.958	96.12
431.18	92.12
431.402	94.12
431.624	93.12
431.846	88.12
432.068	88.12
432.29	80.12
432.512	88.12
432.734	94.12
432.956	88.12
433.178	99.12
433.4	107.12
433.622	92.12
433.844	92.12
434.066	93.12
434.287	84.12
434.509	96.12
434.731	102.12
434.953	74.12
435.175	82.12
435.397	101.12
435.618	91.12
435.84	98.12
436.062	125.12
436.284	123.12
436.505	99.12
436.727	95.12
436.949	95.12
437.17	81.12
437.392	92.12
437.614	81.12
437.835	105.12
438.057	114.12
438.278	102.12
438.5	102.12
438.721	127.12
438.943	95.12
439.165	83.12
439.386	108.12
439.608	88.12
439.829	98.12
440.05	116.12
440.272	139.12
440.493	107.12
440.715	85.12
440.936	89.12
441.158	84.12
441.379	87.12
441.6	104.12
441.822	90.12
442.043	73.12
442.264	99.12
442.486	112.12
442.707	88.12
442.928	104.12
443.149	113.12
443.371	119.12
443.592	109.12
443.813	117.12
444.034	107.12
444.255	104.12
444.476	78.12
444.698	88.12
444.919	84.12
445.14	139.12
445.361	129.12
445.582	107.12
445.803	132.12
446.024	136.12
446.245	128.12
446.466	107.12
446.687	80.12
446.908	83.12
447.129	75.12
447.35	95.12
447.571	100.12
447.792	99.12
448.013	95.12
448.234	89.12
448.455	107.12
448.675	116.12
448.896	110.12
449.117	93.12
449.338	98.12
449.559	114.12
449.779	144.12
450	93.12
450.221	86.12
450.442	96.12
450.662	96.12
450.883	95.12
451.104	108.12
451.324	94.12
451.545	88.12
451.766	83.12
451.986	80.12
452.207	102.12
452.428	90.12
452.648	82.12
452.869	108.12
453.089	107.12
453.31	98.12
453.53	72.12
453.751	98.12
453.971	87.12
454.192	103.12
454.412	96.12
454.633	91.12
454.853	83.12
455.073	91.12
455.294	90.12
455.514	104.12
455.734	83.12
455.955	76.12
456.175	83.12
456.395	83.12
456.616	87.12
456.836	97.12
457.056	64.12
457.276	92.12
457.497	82.12
457.717	94.12
457.937	85.12
458.157	90.12
458.377	87.12
458.598	115.12
458.818	135.12
459.038	130.12
459.258	104.12
459.478	89.12
459.698	78.12
459.918	100.12
460.138	74.12
460.358	89.12
460.578	102.12
460.798	85.12
461.018	98.12
461.238	101.12
461.458	83.12
461.678	81.12
461.898	74.12
462.118	78.12
462.338	89.12
462.558	87.12
462.777	82.12
462.997	84.12
463.217	86.12
463.437	86.12
463.657	79.12
463.876	76.12
464.096	88.12
464.316	88.12
464.536	95.12
464.755	89.12
464.975	103.12
465.195	145.12
465.414	133.12
465.634	98.12
465.854	74.12
466.073	85.12
466.293	95.12
466.512	87.12
466.732	95.12
466.951	86.12
467.171	101.12
467.391	85.12
467.61	99.12
467.829	99.12
468.049	131.12
468.268	160.12
468.488	95.12
468.707	104.12
468.927	92.12
469.146	84.12
469.365	93.12
469.585	97.12
469.804	101.12
470.023	91.12
470.243	100.12
470.462	107.12
470.681	107.12
470.901	82.12
471.12	86.12
471.339	84.12
471.558	91.12
471.777	99.12
471.997	106.12
472.216	198.12
472.435	356.12
472.654	142.12
472.873	99.12
473.092	99.12
473.311	78.12
473.53	92.12
473.749	92.12
473.968	100.12
474.187	92.12
474.406	90.12
474.625	92.12
474.844	97.12
475.063	86.12
475.282	83.12
475.501	96.12
475.72	87.12
475.939	104.12
476.158	87.12
476.377	88.12
476.596	82.12
476.814	78.12
477.033	97.12
477.252	84.12
477.471	76.12
477.69	82.12
477.908	92.12
478.127	85.12
478.346	87.12
478.564	76.12
478.783	83.12
479.002	85.12
479.22	97.12
479.439	104.12
479.658	116.12
479.876	88.12
480.095	78.12
480.313	106.12
480.532	90.12
480.751	120.12
480.969	208.12
481.188	568.12
481.406	360.12
481.624	126.12
481.843	98.12
482.061	97.12
482.28	86.12
482.498	91.12
482.717	96.12
482.935	76.12
483.153	92.12
483.372	88.12
483.59	105.12
483.808	83.12
484.027	83.12
484.245	92.12
484.463	90.12
484.681	103.12
484.9	88.12
485.118	99.12
485.336	94.12
485.554	104.12
485.772	91.12
485.99	95.12
486.209	102.12
486.427	97.12
486.645	105.12
486.863	105.12
487.081	101.12
487.299	86.12
487.517	96.12
487.735	89.12
487.953	87.12
488.171	98.12
488.389	84.12
488.607	93.12
488.825	95.12
489.043	89.12
489.261	99.12
489.479	97.12
489.696	102.12
489.914	96.12
490.132	78.12
490.35	97.12
490.568	95.12
490.786	94.12
491.003	95.12
491.221	69.12
491.439	101.12
491.657	84.12
491.874	88.12
492.092	82.12
492.31	92.12
492.527	83.12
492.745	81.12
492.963	86.12
493.18	90.12
493.398	76.12
493.615	96.12
493.833	94.12
494.05	81.12
494.268	78.12
494.485	93.12
494.703	95.12
494.92	101.12
495.138	99.12
495.355	86.12
495.573	87.12
495.79	87.12
496.008	98.12
496.225	88.12
496.442	87.12
496.66	84.12
496.877	95.12
497.094	88.12
497.312	94.12
497.529	90.12
497.746	101.12
497.963	82.12
498.181	83.12
498.398	91.12
498.615	106.12
498.832	97.12
499.049	90.12
499.267	101.12
499.484	98.12
499.701	101.12
499.918	79.12
500.135	91.12
500.352	104.12
500.569	91.12
500.786	96.12
501.003	85.12
501.22	70.12
501.437	81.12
501.654	81.12
501.871	93.12
502.088	84.12
502.305	94.12
502.522	79.12
502.739	74.12
502.956	79.12
503.172	86.12
503.389	89.12
503.606	104.12
503.823	84.12
504.04	95.12
504.256	104.12
504.473	82.12
504.69	96.12
504.907	101.12
505.123	102.12
505.34	86.12
505.557	83.12
505.773	99.12
505.99	87.12
506.207	83.12
506.423	101.12
506.64	86.12
506.856	99.12
507.073	80.12
507.289	85.12
507.506	96.12
507.722	102.12
507.939	101.12
508.155	87.12
508.372	92.12
508.588	99.12
508.805	103.12
509.021	100.12
509.238	87.12
509.454	106.12
509.67	96.12
509.887	94.12
510.103	115.12
510.319	180.12
510.536	650.12
510.752	1972.12
510.968	552.12
511.184	144.12
511.401	106.12
511.617	100.12
511.833	85.12
512.049	84.12
512.265	95.12
512.481	81.12
512.698	82.12
512.914	82.12
513.13	93.12
513.346	81.12
513.562	98.12
513.778	111.12
513.994	87.12
514.21	107.12
514.426	113.12
514.642	129.12
514.858	110.12
515.074	133.12
515.29	378.12
515.506	1217.12
515.721	456.12
515.937	146.12
