Data from Circ_1986_H10_HRD10591_00018.txt Node
Date: Wed Jan 03 12:15:29 EST 2024
User: Yrep
Spectrometer: HR+D1059
Trigger mode: 1
Integration Time (sec): 1.000000E-1
Scans to average: 1
Electric dark correction enabled: true
Nonlinearity correction enabled: false
Boxcar width: 0
XAxis mode: Wavelengths
Number of Pixels in Spectrum: 2048
>>>>>Begin Spectral Data<<<<<
223.165	-19.94
223.4	-19.94
223.635	-19.94
223.869	-14.94
224.104	-18.94
224.338	-15.94
224.573	-12.94
224.808	-6.94
225.042	-4.94
225.277	-12.94
225.511	2.06
225.746	2.06
225.98	7.06
226.215	5.06
226.449	16.06
226.683	14.06
226.918	24.06
227.152	37.06
227.387	29.06
227.621	41.06
227.856	34.06
228.09	45.06
228.324	39.06
228.559	56.06
228.793	63.06
229.027	65.06
229.262	72.06
229.496	64.06
229.73	76.06
229.964	89.06
230.199	76.06
230.433	69.06
230.667	81.06
230.901	78.06
231.136	79.06
231.37	69.06
231.604	86.06
231.838	84.06
232.072	84.06
232.306	66.06
232.541	79.06
232.775	67.06
233.009	95.06
233.243	78.06
233.477	79.06
233.711	75.06
233.945	81.06
234.179	86.06
234.413	83.06
234.647	85.06
234.881	85.06
235.115	76.06
235.349	77.06
235.583	89.06
235.817	63.06
236.051	73.06
236.285	77.06
236.519	79.06
236.753	71.06
236.987	80.06
237.221	63.06
237.455	84.06
237.689	75.06
237.922	79.06
238.156	71.06
238.39	87.06
238.624	61.06
238.858	68.06
239.091	82.06
239.325	87.06
239.559	65.06
239.793	77.06
240.027	79.06
240.26	68.06
240.494	84.06
240.728	80.06
240.961	77.06
241.195	88.06
241.429	78.06
241.662	65.06
241.896	83.06
242.13	63.06
242.363	76.06
242.597	76.06
242.83	78.06
243.064	77.06
243.298	68.06
243.531	82.06
243.765	75.06
243.998	63.06
244.232	80.06
244.465	69.06
244.699	83.06
244.932	60.06
245.166	79.06
245.399	86.06
245.633	84.06
245.866	80.06
246.099	79.06
246.333	63.06
246.566	77.06
246.8	68.06
247.033	78.06
247.266	88.06
247.5	68.06
247.733	71.06
247.966	91.06
248.2	72.06
248.433	66.06
248.666	90.06
248.899	93.06
249.133	93.06
249.366	85.06
249.599	89.06
249.832	82.06
250.066	91.06
250.299	75.06
250.532	71.06
250.765	80.06
250.998	75.06
251.231	73.06
251.465	92.06
251.698	84.06
251.931	77.06
252.164	84.06
252.397	86.06
252.63	73.06
252.863	80.06
253.096	80.06
253.329	76.06
253.562	79.06
253.795	81.06
254.028	60.06
254.261	83.06
254.494	59.06
254.727	88.06
254.96	67.06
255.193	80.06
255.426	72.06
255.659	89.06
255.892	91.06
256.124	83.06
256.357	81.06
256.59	76.06
256.823	69.06
257.056	79.06
257.289	79.06
257.521	90.06
257.754	86.06
257.987	79.06
258.22	87.06
258.452	84.06
258.685	83.06
258.918	70.06
259.151	69.06
259.383	70.06
259.616	79.06
259.849	73.06
260.081	85.06
260.314	89.06
260.547	71.06
260.779	70.06
261.012	76.06
261.244	85.06
261.477	84.06
261.71	79.06
261.942	108.06
262.175	89.06
262.407	79.06
262.64	79.06
262.872	70.06
263.105	65.06
263.337	86.06
263.57	85.06
263.802	79.06
264.035	80.06
264.267	88.06
264.499	84.06
264.732	84.06
264.964	78.06
265.197	79.06
265.429	88.06
265.661	65.06
265.894	81.06
266.126	90.06
266.358	64.06
266.591	85.06
266.823	86.06
267.055	87.06
267.287	78.06
267.52	77.06
267.752	71.06
267.984	82.06
268.216	85.06
268.448	80.06
268.681	77.06
268.913	70.06
269.145	85.06
269.377	96.06
269.609	79.06
269.841	95.06
270.073	87.06
270.306	72.06
270.538	79.06
270.77	77.06
271.002	77.06
271.234	77.06
271.466	100.06
271.698	83.06
271.93	81.06
272.162	84.06
272.394	95.06
272.626	83.06
272.858	82.06
273.09	90.06
273.322	71.06
273.553	82.06
273.785	94.06
274.017	79.06
274.249	67.06
274.481	77.06
274.713	99.06
274.945	88.06
275.176	88.06
275.408	69.06
275.64	79.06
275.872	83.06
276.104	89.06
276.335	91.06
276.567	102.06
276.799	103.06
277.031	107.06
277.262	90.06
277.494	87.06
277.726	77.06
277.957	77.06
278.189	82.06
278.421	90.06
278.652	88.06
278.884	82.06
279.115	84.06
279.347	95.06
279.579	87.06
279.81	95.06
280.042	104.06
280.273	90.06
280.505	93.06
280.736	83.06
280.968	89.06
281.199	81.06
281.431	79.06
281.662	98.06
281.894	110.06
282.125	94.06
282.356	97.06
282.588	115.06
282.819	97.06
283.051	91.06
283.282	97.06
283.513	80.06
283.745	86.06
283.976	79.06
284.207	85.06
284.439	76.06
284.67	77.06
284.901	85.06
285.132	81.06
285.364	81.06
285.595	76.06
285.826	70.06
286.057	76.06
286.288	83.06
286.52	79.06
286.751	72.06
286.982	79.06
287.213	65.06
287.444	85.06
287.675	83.06
287.906	98.06
288.138	76.06
288.369	94.06
288.6	86.06
288.831	67.06
289.062	95.06
289.293	88.06
289.524	93.06
289.755	74.06
289.986	87.06
290.217	78.06
290.448	86.06
290.679	80.06
290.91	98.06
291.141	87.06
291.371	71.06
291.602	71.06
291.833	87.06
292.064	87.06
292.295	84.06
292.526	91.06
292.757	81.06
292.987	93.06
293.218	83.06
293.449	81.06
293.68	82.06
293.91	82.06
294.141	84.06
294.372	89.06
294.603	83.06
294.833	83.06
295.064	78.06
295.295	84.06
295.525	89.06
295.756	94.06
295.987	96.06
296.217	112.06
296.448	108.06
296.679	92.06
296.909	79.06
297.14	72.06
297.37	89.06
297.601	92.06
297.831	78.06
298.062	90.06
298.292	81.06
298.523	96.06
298.753	90.06
298.984	89.06
299.214	70.06
299.445	71.06
299.675	88.06
299.905	71.06
300.136	85.06
300.366	97.06
300.597	87.06
300.827	99.06
301.057	76.06
301.288	93.06
301.518	83.06
301.748	91.06
301.979	103.06
302.209	88.06
302.439	79.06
302.669	84.06
302.9	102.06
303.13	91.06
303.36	86.06
303.59	77.06
303.82	112.06
304.051	93.06
304.281	88.06
304.511	81.06
304.741	78.06
304.971	80.06
305.201	82.06
305.431	91.06
305.661	89.06
305.891	83.06
306.121	94.06
306.352	100.06
306.582	99.06
306.812	102.06
307.042	97.06
307.272	87.06
307.502	84.06
307.731	84.06
307.961	79.06
308.191	72.06
308.421	87.06
308.651	88.06
308.881	96.06
309.111	91.06
309.341	90.06
309.571	75.06
309.8	94.06
310.03	94.06
310.26	98.06
310.49	103.06
310.72	86.06
310.949	89.06
311.179	82.06
311.409	89.06
311.639	83.06
311.868	86.06
312.098	81.06
312.328	94.06
312.557	91.06
312.787	102.06
313.017	102.06
313.246	85.06
313.476	88.06
313.706	85.06
313.935	100.06
314.165	95.06
314.394	96.06
314.624	93.06
314.853	88.06
315.083	96.06
315.312	88.06
315.542	93.06
315.771	102.06
316.001	88.06
316.23	85.06
316.46	92.06
316.689	89.06
316.919	90.06
317.148	85.06
317.377	99.06
317.607	92.06
317.836	72.06
318.065	89.06
318.295	93.06
318.524	81.06
318.753	79.06
318.983	87.06
319.212	100.06
319.441	99.06
319.67	103.06
319.9	87.06
320.129	114.06
320.358	105.06
320.587	76.06
320.816	90.06
321.046	97.06
321.275	96.06
321.504	78.06
321.733	97.06
321.962	94.06
322.191	103.06
322.42	97.06
322.649	91.06
322.878	107.06
323.108	94.06
323.337	127.06
323.566	122.06
323.795	140.06
324.024	176.06
324.253	345.06
324.482	679.06
324.71	1404.06
324.939	1828.06
325.168	684.06
325.397	199.06
325.626	129.06
325.855	111.06
326.084	110.06
326.313	120.06
326.542	140.06
326.77	207.06
326.999	380.06
327.228	805.06
327.457	1451.06
327.686	1111.06
327.914	303.06
328.143	159.06
328.372	126.06
328.6	108.06
328.829	92.06
329.058	105.06
329.287	118.06
329.515	96.06
329.744	109.06
329.972	100.06
330.201	111.06
330.43	117.06
330.658	112.06
330.887	119.06
331.115	102.06
331.344	98.06
331.572	89.06
331.801	82.06
332.03	75.06
332.258	86.06
332.486	90.06
332.715	95.06
332.943	87.06
333.172	87.06
333.4	90.06
333.629	108.06
333.857	95.06
334.085	111.06
334.314	117.06
334.542	120.06
334.771	120.06
334.999	95.06
335.227	86.06
335.455	100.06
335.684	96.06
335.912	92.06
336.14	87.06
336.369	96.06
336.597	90.06
336.825	92.06
337.053	93.06
337.281	82.06
337.51	92.06
337.738	82.06
337.966	82.06
338.194	82.06
338.422	95.06
338.65	99.06
338.878	82.06
339.106	93.06
339.334	95.06
339.562	91.06
339.79	83.06
340.018	103.06
340.246	77.06
340.474	82.06
340.702	83.06
340.93	90.06
341.158	101.06
341.386	91.06
341.614	86.06
341.842	92.06
342.07	90.06
342.298	81.06
342.526	89.06
342.754	77.06
342.981	87.06
343.209	91.06
343.437	87.06
343.665	84.06
343.893	79.06
344.12	95.06
344.348	69.06
344.576	88.06
344.804	103.06
345.031	100.06
345.259	105.06
345.487	74.06
345.714	82.06
345.942	86.06
346.17	80.06
346.397	88.06
346.625	78.06
346.853	90.06
347.08	72.06
347.308	89.06
347.535	86.06
347.763	84.06
347.99	99.06
348.218	85.06
348.445	92.06
348.673	95.06
348.9	81.06
349.128	81.06
349.355	92.06
349.583	83.06
349.81	71.06
350.037	94.06
350.265	83.06
350.492	83.06
350.72	100.06
350.947	97.06
351.174	84.06
351.402	105.06
351.629	104.06
351.856	99.06
352.083	95.06
352.311	113.06
352.538	113.06
352.765	86.06
352.992	115.06
353.22	104.06
353.447	103.06
353.674	82.06
353.901	93.06
354.128	81.06
354.355	112.06
354.583	101.06
354.81	89.06
355.037	102.06
355.264	79.06
355.491	85.06
355.718	79.06
355.945	90.06
356.172	95.06
356.399	91.06
356.626	89.06
356.853	78.06
357.08	93.06
357.307	85.06
357.534	80.06
357.761	104.06
357.988	91.06
358.215	98.06
358.441	103.06
358.668	101.06
358.895	83.06
359.122	101.06
359.349	86.06
359.576	97.06
359.802	105.06
360.029	110.06
360.256	101.06
360.483	101.06
360.709	97.06
360.936	101.06
361.163	86.06
361.39	91.06
361.616	88.06
361.843	83.06
362.07	87.06
362.296	97.06
362.523	85.06
362.749	80.06
362.976	83.06
363.203	79.06
363.429	75.06
363.656	78.06
363.882	101.06
364.109	75.06
364.335	100.06
364.562	91.06
364.788	90.06
365.015	78.06
365.241	86.06
365.468	97.06
365.694	85.06
365.92	83.06
366.147	87.06
366.373	85.06
366.599	97.06
366.826	84.06
367.052	96.06
367.278	104.06
367.505	92.06
367.731	94.06
367.957	95.06
368.184	81.06
368.41	87.06
368.636	98.06
368.862	104.06
369.089	115.06
369.315	89.06
369.541	79.06
369.767	76.06
369.993	85.06
370.219	80.06
370.445	84.06
370.672	94.06
370.898	85.06
371.124	92.06
371.35	76.06
371.576	87.06
371.802	76.06
372.028	88.06
372.254	89.06
372.48	103.06
372.706	92.06
372.932	101.06
373.158	93.06
373.384	100.06
373.61	83.06
373.835	95.06
374.061	82.06
374.287	92.06
374.513	77.06
374.739	95.06
374.965	93.06
375.191	88.06
375.416	78.06
375.642	91.06
375.868	92.06
376.094	98.06
376.319	92.06
376.545	88.06
376.771	84.06
376.997	76.06
377.222	95.06
377.448	81.06
377.674	96.06
377.899	94.06
378.125	93.06
378.35	99.06
378.576	105.06
378.802	86.06
379.027	83.06
379.253	101.06
379.478	93.06
379.704	96.06
379.929	95.06
380.155	96.06
380.38	100.06
380.606	96.06
380.831	99.06
381.057	116.06
381.282	103.06
381.507	87.06
381.733	100.06
381.958	105.06
382.184	87.06
382.409	91.06
382.634	96.06
382.86	101.06
383.085	95.06
383.31	110.06
383.535	109.06
383.761	109.06
383.986	126.06
384.211	110.06
384.436	116.06
384.662	112.06
384.887	114.06
385.112	113.06
385.337	123.06
385.562	113.06
385.787	109.06
386.013	113.06
386.238	116.06
386.463	112.06
386.688	119.06
386.913	112.06
387.138	114.06
387.363	111.06
387.588	97.06
387.813	104.06
388.038	123.06
388.263	113.06
388.488	127.06
388.713	94.06
388.938	89.06
389.163	89.06
389.387	96.06
389.612	70.06
389.837	94.06
390.062	96.06
390.287	97.06
390.512	99.06
390.736	109.06
390.961	99.06
391.186	89.06
391.411	95.06
391.636	79.06
391.86	88.06
392.085	74.06
392.31	85.06
392.534	90.06
392.759	91.06
392.984	94.06
393.208	76.06
393.433	88.06
393.658	101.06
393.882	78.06
394.107	81.06
394.331	91.06
394.556	80.06
394.78	86.06
395.005	83.06
395.229	92.06
395.454	92.06
395.678	75.06
395.903	87.06
396.127	83.06
396.352	89.06
396.576	88.06
396.801	86.06
397.025	86.06
397.249	87.06
397.474	101.06
397.698	93.06
397.922	83.06
398.147	85.06
398.371	86.06
398.595	86.06
398.82	92.06
399.044	81.06
399.268	81.06
399.492	83.06
399.717	80.06
399.941	86.06
400.165	83.06
400.389	81.06
400.613	81.06
400.837	89.06
401.062	73.06
401.286	84.06
401.51	81.06
401.734	96.06
401.958	85.06
402.182	116.06
402.406	135.06
402.63	101.06
402.854	92.06
403.078	93.06
403.302	79.06
403.526	78.06
403.75	83.06
403.974	74.06
404.198	89.06
404.422	75.06
404.645	81.06
404.869	81.06
405.093	73.06
405.317	85.06
405.541	94.06
405.765	83.06
405.988	100.06
406.212	159.06
406.436	175.06
406.66	115.06
406.883	87.06
407.107	87.06
407.331	90.06
407.555	87.06
407.778	72.06
408.002	89.06
408.226	89.06
408.449	87.06
408.673	95.06
408.896	82.06
409.12	101.06
409.344	92.06
409.567	88.06
409.791	97.06
410.014	81.06
410.238	102.06
410.461	91.06
410.685	98.06
410.908	91.06
411.132	94.06
411.355	88.06
411.578	93.06
411.802	80.06
412.025	90.06
412.249	96.06
412.472	92.06
412.695	83.06
412.919	94.06
413.142	94.06
413.365	98.06
413.589	96.06
413.812	84.06
414.035	88.06
414.258	89.06
414.482	91.06
414.705	83.06
414.928	94.06
415.151	96.06
415.374	87.06
415.597	99.06
415.821	86.06
416.044	78.06
416.267	90.06
416.49	95.06
416.713	84.06
416.936	85.06
417.159	80.06
417.382	81.06
417.605	83.06
417.828	96.06
418.051	81.06
418.274	78.06
418.497	71.06
418.72	78.06
418.943	85.06
419.166	86.06
419.389	92.06
419.611	96.06
419.834	109.06
420.057	80.06
420.28	87.06
420.503	92.06
420.726	77.06
420.948	89.06
421.171	79.06
421.394	87.06
421.617	85.06
421.839	87.06
422.062	77.06
422.285	87.06
422.507	93.06
422.73	100.06
422.953	85.06
423.175	86.06
423.398	83.06
423.621	89.06
423.843	79.06
424.066	84.06
424.288	87.06
424.511	86.06
424.733	93.06
424.956	100.06
425.178	92.06
425.401	91.06
425.623	87.06
425.846	99.06
426.068	96.06
426.291	77.06
426.513	79.06
426.735	90.06
426.958	74.06
427.18	97.06
427.402	111.06
427.625	141.06
427.847	114.06
428.069	103.06
428.292	84.06
428.514	94.06
428.736	93.06
428.958	87.06
429.181	91.06
429.403	79.06
429.625	76.06
429.847	77.06
430.069	93.06
430.292	84.06
430.514	84.06
430.736	68.06
430.958	78.06
431.18	79.06
431.402	79.06
431.624	69.06
431.846	84.06
432.068	86.06
432.29	87.06
432.512	94.06
432.734	80.06
432.956	87.06
433.178	84.06
433.4	85.06
433.622	95.06
433.844	79.06
434.066	88.06
434.287	80.06
434.509	94.06
434.731	87.06
434.953	87.06
435.175	93.06
435.397	80.06
435.618	88.06
435.84	99.06
436.062	103.06
436.284	113.06
436.505	88.06
436.727	97.06
436.949	84.06
437.17	85.06
437.392	76.06
437.614	83.06
437.835	96.06
438.057	100.06
438.278	89.06
438.5	65.06
438.721	99.06
438.943	93.06
439.165	92.06
439.386	78.06
439.608	85.06
439.829	93.06
440.05	105.06
440.272	127.06
440.493	72.06
440.715	97.06
440.936	81.06
441.158	70.06
441.379	84.06
441.6	79.06
441.822	95.06
442.043	88.06
442.264	88.06
442.486	95.06
442.707	94.06
442.928	86.06
443.149	118.06
443.371	105.06
443.592	108.06
443.813	102.06
444.034	90.06
444.255	94.06
444.476	103.06
444.698	71.06
444.919	87.06
445.14	116.06
445.361	120.06
445.582	106.06
445.803	116.06
446.024	117.06
446.245	122.06
446.466	104.06
446.687	67.06
446.908	79.06
447.129	86.06
447.35	86.06
447.571	83.06
447.792	88.06
448.013	96.06
448.234	95.06
448.455	85.06
448.675	97.06
448.896	108.06
449.117	86.06
449.338	111.06
449.559	107.06
449.779	112.06
450	82.06
450.221	77.06
450.442	81.06
450.662	86.06
450.883	92.06
451.104	109.06
451.324	92.06
451.545	89.06
451.766	81.06
451.986	83.06
452.207	89.06
452.428	88.06
452.648	99.06
452.869	117.06
453.089	94.06
453.31	101.06
453.53	94.06
453.751	91.06
453.971	90.06
454.192	94.06
454.412	75.06
454.633	92.06
454.853	83.06
455.073	88.06
455.294	75.06
455.514	85.06
455.734	80.06
455.955	70.06
456.175	83.06
456.395	72.06
456.616	69.06
456.836	83.06
457.056	79.06
457.276	79.06
457.497	79.06
457.717	78.06
457.937	76.06
458.157	92.06
458.377	84.06
458.598	98.06
458.818	132.06
459.038	130.06
459.258	97.06
459.478	87.06
459.698	88.06
459.918	79.06
460.138	81.06
460.358	77.06
460.578	85.06
460.798	92.06
461.018	88.06
461.238	71.06
461.458	77.06
461.678	73.06
461.898	72.06
462.118	79.06
462.338	85.06
462.558	95.06
462.777	83.06
462.997	82.06
463.217	73.06
463.437	94.06
463.657	71.06
463.876	99.06
464.096	97.06
464.316	81.06
464.536	81.06
464.755	83.06
464.975	97.06
465.195	119.06
465.414	132.06
465.634	86.06
465.854	94.06
466.073	90.06
466.293	90.06
466.512	72.06
466.732	86.06
466.951	94.06
467.171	75.06
467.391	95.06
467.61	86.06
467.829	97.06
468.049	95.06
468.268	87.06
468.488	87.06
468.707	96.06
468.927	88.06
469.146	71.06
469.365	81.06
469.585	83.06
469.804	90.06
470.023	80.06
470.243	99.06
470.462	94.06
470.681	93.06
470.901	96.06
471.12	96.06
471.339	83.06
471.558	78.06
471.777	71.06
471.997	93.06
472.216	118.06
472.435	137.06
472.654	94.06
472.873	83.06
473.092	72.06
473.311	80.06
473.53	88.06
473.749	92.06
473.968	88.06
474.187	92.06
474.406	106.06
474.625	83.06
474.844	72.06
475.063	79.06
475.282	87.06
475.501	88.06
475.72	79.06
475.939	69.06
476.158	71.06
476.377	81.06
476.596	87.06
476.814	93.06
477.033	87.06
477.252	85.06
477.471	81.06
477.69	69.06
477.908	85.06
478.127	85.06
478.346	82.06
478.564	84.06
478.783	87.06
479.002	93.06
479.22	93.06
479.439	99.06
479.658	89.06
479.876	79.06
480.095	83.06
480.313	97.06
480.532	103.06
480.751	88.06
480.969	108.06
481.188	167.06
481.406	127.06
481.624	79.06
481.843	91.06
482.061	98.06
482.28	79.06
482.498	88.06
482.717	87.06
482.935	76.06
483.153	84.06
483.372	79.06
483.59	101.06
483.808	83.06
484.027	86.06
484.245	96.06
484.463	84.06
484.681	95.06
484.9	89.06
485.118	104.06
485.336	85.06
485.554	85.06
485.772	111.06
485.99	106.06
486.209	110.06
486.427	104.06
486.645	101.06
486.863	82.06
487.081	103.06
487.299	87.06
487.517	89.06
487.735	96.06
487.953	92.06
488.171	92.06
488.389	80.06
488.607	89.06
488.825	83.06
489.043	79.06
489.261	88.06
489.479	83.06
489.696	107.06
489.914	92.06
490.132	89.06
490.35	91.06
490.568	95.06
490.786	82.06
491.003	84.06
491.221	90.06
491.439	97.06
491.657	89.06
491.874	93.06
492.092	83.06
492.31	89.06
492.527	86.06
492.745	87.06
492.963	86.06
493.18	80.06
493.398	93.06
493.615	105.06
493.833	82.06
494.05	87.06
494.268	83.06
494.485	97.06
494.703	94.06
494.92	89.06
495.138	89.06
495.355	84.06
495.573	94.06
495.79	90.06
496.008	94.06
496.225	89.06
496.442	95.06
496.66	89.06
496.877	79.06
497.094	96.06
497.312	86.06
497.529	84.06
497.746	87.06
497.963	89.06
498.181	83.06
498.398	92.06
498.615	95.06
498.832	93.06
499.049	87.06
499.267	95.06
499.484	85.06
499.701	81.06
499.918	73.06
500.135	81.06
500.352	78.06
500.569	64.06
500.786	92.06
501.003	77.06
501.22	86.06
501.437	88.06
501.654	98.06
501.871	93.06
502.088	88.06
502.305	85.06
502.522	65.06
502.739	78.06
502.956	87.06
503.172	92.06
503.389	89.06
503.606	104.06
503.823	99.06
504.04	90.06
504.256	86.06
504.473	79.06
504.69	97.06
504.907	82.06
505.123	89.06
505.34	84.06
505.557	89.06
505.773	80.06
505.99	101.06
506.207	73.06
506.423	80.06
506.64	88.06
506.856	94.06
507.073	90.06
507.289	86.06
507.506	89.06
507.722	96.06
507.939	91.06
508.155	95.06
508.372	76.06
508.588	105.06
508.805	85.06
509.021	80.06
509.238	112.06
509.454	101.06
509.67	92.06
509.887	99.06
510.103	112.06
510.319	175.06
510.536	614.06
510.752	1834.06
510.968	481.06
511.184	141.06
511.401	107.06
511.617	91.06
511.833	83.06
512.049	81.06
512.265	87.06
512.481	90.06
512.698	81.06
512.914	96.06
513.13	84.06
513.346	95.06
513.562	85.06
513.778	91.06
513.994	97.06
514.21	91.06
514.426	104.06
514.642	113.06
514.858	129.06
515.074	146.06
515.29	343.06
515.506	1035.06
515.721	373.06
515.937	134.06
516.153	99.06
516.369	83.06
516.585	96.06
516.801	100.06
517.016	90.06
