Data from Circ_1986_H10_HRD10591_00025.txt Node
Date: Wed Jan 03 12:15:31 EST 2024
User: Yrep
Spectrometer: HR+D1059
Trigger mode: 1
Integration Time (sec): 1.000000E-1
Scans to average: 1
Electric dark correction enabled: true
Nonlinearity correction enabled: false
Boxcar width: 0
XAxis mode: Wavelengths
Number of Pixels in Spectrum: 2048
>>>>>Begin Spectral Data<<<<<
223.165	-8.56
223.4	-8.56
223.635	-8.56
223.869	-22.56
224.104	-15.56
224.338	-21.56
224.573	-24.56
224.808	-17.56
225.042	3.44
225.277	-4.56
225.511	-6.56
225.746	-0.56
225.98	6.44
226.215	20.44
226.449	5.44
226.683	22.44
226.918	29.44
227.152	34.44
227.387	18.44
227.621	37.44
227.856	34.44
228.09	39.44
228.324	37.44
228.559	61.44
228.793	64.44
229.027	48.44
229.262	73.44
229.496	69.44
229.73	77.44
229.964	72.44
230.199	62.44
230.433	77.44
230.667	77.44
230.901	87.44
231.136	61.44
231.37	81.44
231.604	77.44
231.838	97.44
232.072	74.44
232.306	81.44
232.541	73.44
232.775	81.44
233.009	69.44
233.243	73.44
233.477	72.44
233.711	73.44
233.945	73.44
234.179	78.44
234.413	80.44
234.647	81.44
234.881	82.44
235.115	73.44
235.349	76.44
235.583	79.44
235.817	82.44
236.051	77.44
236.285	73.44
236.519	81.44
236.753	79.44
236.987	76.44
237.221	76.44
237.455	86.44
237.689	80.44
237.922	68.44
238.156	66.44
238.39	58.44
238.624	74.44
238.858	60.44
239.091	73.44
239.325	80.44
239.559	81.44
239.793	82.44
240.027	89.44
240.26	77.44
240.494	83.44
240.728	65.44
240.961	72.44
241.195	75.44
241.429	92.44
241.662	79.44
241.896	65.44
242.13	72.44
242.363	62.44
242.597	77.44
242.83	87.44
243.064	69.44
243.298	82.44
243.531	90.44
243.765	90.44
243.998	60.44
244.232	79.44
244.465	80.44
244.699	85.44
244.932	71.44
245.166	77.44
245.399	76.44
245.633	77.44
245.866	81.44
246.099	80.44
246.333	70.44
246.566	66.44
246.8	70.44
247.033	81.44
247.266	71.44
247.5	73.44
247.733	78.44
247.966	66.44
248.2	87.44
248.433	69.44
248.666	81.44
248.899	85.44
249.133	78.44
249.366	83.44
249.599	84.44
249.832	81.44
250.066	79.44
250.299	85.44
250.532	84.44
250.765	78.44
250.998	82.44
251.231	73.44
251.465	75.44
251.698	80.44
251.931	77.44
252.164	80.44
252.397	74.44
252.63	66.44
252.863	79.44
253.096	84.44
253.329	89.44
253.562	81.44
253.795	65.44
254.028	81.44
254.261	74.44
254.494	82.44
254.727	82.44
254.96	70.44
255.193	77.44
255.426	65.44
255.659	82.44
255.892	82.44
256.124	92.44
256.357	79.44
256.59	84.44
256.823	79.44
257.056	86.44
257.289	67.44
257.521	64.44
257.754	62.44
257.987	74.44
258.22	88.44
258.452	69.44
258.685	70.44
258.918	75.44
259.151	84.44
259.383	73.44
259.616	63.44
259.849	70.44
260.081	87.44
260.314	80.44
260.547	78.44
260.779	82.44
261.012	72.44
261.244	87.44
261.477	89.44
261.71	102.44
261.942	106.44
262.175	99.44
262.407	88.44
262.64	99.44
262.872	73.44
263.105	66.44
263.337	76.44
263.57	78.44
263.802	82.44
264.035	101.44
264.267	82.44
264.499	79.44
264.732	78.44
264.964	81.44
265.197	85.44
265.429	93.44
265.661	91.44
265.894	78.44
266.126	74.44
266.358	76.44
266.591	99.44
266.823	76.44
267.055	69.44
267.287	76.44
267.52	99.44
267.752	92.44
267.984	85.44
268.216	90.44
268.448	89.44
268.681	72.44
268.913	84.44
269.145	76.44
269.377	67.44
269.609	67.44
269.841	89.44
270.073	80.44
270.306	84.44
270.538	88.44
270.77	77.44
271.002	95.44
271.234	85.44
271.466	99.44
271.698	93.44
271.93	89.44
272.162	65.44
272.394	88.44
272.626	90.44
272.858	80.44
273.09	73.44
273.322	83.44
273.553	70.44
273.785	81.44
274.017	93.44
274.249	85.44
274.481	94.44
274.713	97.44
274.945	75.44
275.176	76.44
275.408	81.44
275.64	86.44
275.872	91.44
276.104	89.44
276.335	97.44
276.567	93.44
276.799	97.44
277.031	93.44
277.262	81.44
277.494	93.44
277.726	97.44
277.957	85.44
278.189	86.44
278.421	79.44
278.652	84.44
278.884	84.44
279.115	92.44
279.347	80.44
279.579	74.44
279.81	91.44
280.042	95.44
280.273	96.44
280.505	89.44
280.736	88.44
280.968	89.44
281.199	85.44
281.431	79.44
281.662	77.44
281.894	79.44
282.125	81.44
282.356	121.44
282.588	119.44
282.819	95.44
283.051	79.44
283.282	87.44
283.513	81.44
283.745	80.44
283.976	74.44
284.207	78.44
284.439	83.44
284.67	81.44
284.901	98.44
285.132	89.44
285.364	84.44
285.595	76.44
285.826	77.44
286.057	85.44
286.288	90.44
286.52	89.44
286.751	89.44
286.982	89.44
287.213	76.44
287.444	73.44
287.675	81.44
287.906	86.44
288.138	93.44
288.369	94.44
288.6	93.44
288.831	98.44
289.062	76.44
289.293	79.44
289.524	94.44
289.755	82.44
289.986	80.44
290.217	70.44
290.448	84.44
290.679	95.44
290.91	84.44
291.141	86.44
291.371	85.44
291.602	85.44
291.833	85.44
292.064	78.44
292.295	76.44
292.526	80.44
292.757	90.44
292.987	83.44
293.218	90.44
293.449	78.44
293.68	81.44
293.91	74.44
294.141	79.44
294.372	77.44
294.603	80.44
294.833	74.44
295.064	90.44
295.295	74.44
295.525	96.44
295.756	110.44
295.987	105.44
296.217	119.44
296.448	101.44
296.679	84.44
296.909	76.44
297.14	81.44
297.37	76.44
297.601	71.44
297.831	93.44
298.062	88.44
298.292	99.44
298.523	83.44
298.753	79.44
298.984	83.44
299.214	82.44
299.445	95.44
299.675	82.44
299.905	96.44
300.136	88.44
300.366	89.44
300.597	102.44
300.827	82.44
301.057	85.44
301.288	99.44
301.518	98.44
301.748	71.44
301.979	90.44
302.209	93.44
302.439	67.44
302.669	83.44
302.9	88.44
303.13	90.44
303.36	97.44
303.59	102.44
303.82	107.44
304.051	86.44
304.281	94.44
304.511	106.44
304.741	87.44
304.971	93.44
305.201	98.44
305.431	95.44
305.661	87.44
305.891	81.44
306.121	95.44
306.352	102.44
306.582	115.44
306.812	92.44
307.042	88.44
307.272	102.44
307.502	96.44
307.731	96.44
307.961	74.44
308.191	93.44
308.421	98.44
308.651	83.44
308.881	84.44
309.111	82.44
309.341	83.44
309.571	92.44
309.8	96.44
310.03	105.44
310.26	90.44
310.49	85.44
310.72	106.44
310.949	95.44
311.179	83.44
311.409	77.44
311.639	95.44
311.868	96.44
312.098	87.44
312.328	97.44
312.557	81.44
312.787	86.44
313.017	89.44
313.246	94.44
313.476	92.44
313.706	85.44
313.935	94.44
314.165	85.44
314.394	95.44
314.624	88.44
314.853	86.44
315.083	97.44
315.312	83.44
315.542	99.44
315.771	93.44
316.001	84.44
316.23	81.44
316.46	76.44
316.689	89.44
316.919	104.44
317.148	92.44
317.377	83.44
317.607	77.44
317.836	92.44
318.065	101.44
318.295	89.44
318.524	107.44
318.753	89.44
318.983	80.44
319.212	106.44
319.441	107.44
319.67	94.44
319.9	95.44
320.129	88.44
320.358	91.44
320.587	89.44
320.816	90.44
321.046	100.44
321.275	101.44
321.504	89.44
321.733	99.44
321.962	87.44
322.191	92.44
322.42	92.44
322.649	100.44
322.878	104.44
323.108	116.44
323.337	105.44
323.566	122.44
323.795	137.44
324.024	191.44
324.253	309.44
324.482	648.44
324.71	1300.44
324.939	1689.44
325.168	629.44
325.397	195.44
325.626	148.44
325.855	122.44
326.084	119.44
326.313	99.44
326.542	120.44
326.77	189.44
326.999	356.44
327.228	760.44
327.457	1330.44
327.686	1046.44
327.914	295.44
328.143	155.44
328.372	135.44
328.6	127.44
328.829	116.44
329.058	109.44
329.287	111.44
329.515	102.44
329.744	100.44
329.972	102.44
330.201	110.44
330.43	121.44
330.658	135.44
330.887	120.44
331.115	112.44
331.344	100.44
331.572	89.44
331.801	86.44
332.03	93.44
332.258	92.44
332.486	86.44
332.715	101.44
332.943	96.44
333.172	95.44
333.4	104.44
333.629	108.44
333.857	98.44
334.085	91.44
334.314	112.44
334.542	131.44
334.771	124.44
334.999	110.44
335.227	99.44
335.455	97.44
335.684	104.44
335.912	85.44
336.14	100.44
336.369	84.44
336.597	104.44
336.825	88.44
337.053	91.44
337.281	89.44
337.51	93.44
337.738	97.44
337.966	107.44
338.194	89.44
338.422	96.44
338.65	95.44
338.878	95.44
339.106	98.44
339.334	96.44
339.562	91.44
339.79	90.44
340.018	82.44
340.246	104.44
340.474	98.44
340.702	84.44
340.93	95.44
341.158	78.44
341.386	114.44
341.614	98.44
341.842	88.44
342.07	87.44
342.298	81.44
342.526	81.44
342.754	74.44
342.981	87.44
343.209	84.44
343.437	100.44
343.665	80.44
343.893	89.44
344.12	99.44
344.348	94.44
344.576	95.44
344.804	93.44
345.031	102.44
345.259	97.44
345.487	84.44
345.714	81.44
345.942	93.44
346.17	96.44
346.397	101.44
346.625	83.44
346.853	77.44
347.08	84.44
347.308	92.44
347.535	86.44
347.763	94.44
347.99	97.44
348.218	109.44
348.445	103.44
348.673	88.44
348.9	90.44
349.128	100.44
349.355	96.44
349.583	91.44
349.81	97.44
350.037	102.44
350.265	71.44
350.492	89.44
350.72	86.44
350.947	96.44
351.174	89.44
351.402	92.44
351.629	95.44
351.856	96.44
352.083	88.44
352.311	84.44
352.538	102.44
352.765	93.44
352.992	95.44
353.22	98.44
353.447	96.44
353.674	77.44
353.901	87.44
354.128	92.44
354.355	87.44
354.583	90.44
354.81	87.44
355.037	82.44
355.264	91.44
355.491	89.44
355.718	100.44
355.945	95.44
356.172	95.44
356.399	94.44
356.626	104.44
356.853	94.44
357.08	86.44
357.307	92.44
357.534	89.44
357.761	96.44
357.988	94.44
358.215	100.44
358.441	101.44
358.668	94.44
358.895	88.44
359.122	88.44
359.349	94.44
359.576	88.44
359.802	92.44
360.029	98.44
360.256	97.44
360.483	97.44
360.709	93.44
360.936	88.44
361.163	94.44
361.39	97.44
361.616	95.44
361.843	89.44
362.07	85.44
362.296	77.44
362.523	100.44
362.749	92.44
362.976	83.44
363.203	91.44
363.429	85.44
363.656	87.44
363.882	83.44
364.109	86.44
364.335	93.44
364.562	84.44
364.788	102.44
365.015	70.44
365.241	92.44
365.468	93.44
365.694	98.44
365.92	78.44
366.147	95.44
366.373	89.44
366.599	84.44
366.826	84.44
367.052	88.44
367.278	102.44
367.505	97.44
367.731	100.44
367.957	90.44
368.184	76.44
368.41	81.44
368.636	106.44
368.862	104.44
369.089	106.44
369.315	95.44
369.541	88.44
369.767	83.44
369.993	90.44
370.219	85.44
370.445	88.44
370.672	83.44
370.898	102.44
371.124	82.44
371.35	83.44
371.576	97.44
371.802	93.44
372.028	84.44
372.254	68.44
372.48	83.44
372.706	102.44
372.932	86.44
373.158	77.44
373.384	92.44
373.61	93.44
373.835	92.44
374.061	78.44
374.287	89.44
374.513	101.44
374.739	104.44
374.965	80.44
375.191	94.44
375.416	85.44
375.642	88.44
375.868	99.44
376.094	88.44
376.319	81.44
376.545	85.44
376.771	80.44
376.997	83.44
377.222	84.44
377.448	100.44
377.674	89.44
377.899	76.44
378.125	90.44
378.35	95.44
378.576	96.44
378.802	103.44
379.027	106.44
379.253	93.44
379.478	109.44
379.704	84.44
379.929	98.44
380.155	87.44
380.38	99.44
380.606	96.44
380.831	78.44
381.057	105.44
381.282	71.44
381.507	91.44
381.733	108.44
381.958	99.44
382.184	101.44
382.409	107.44
382.634	110.44
382.86	91.44
383.085	95.44
383.31	110.44
383.535	99.44
383.761	94.44
383.986	99.44
384.211	103.44
384.436	102.44
384.662	86.44
384.887	104.44
385.112	99.44
385.337	112.44
385.562	110.44
385.787	110.44
386.013	112.44
386.238	117.44
386.463	113.44
386.688	110.44
386.913	109.44
387.138	123.44
387.363	108.44
387.588	109.44
387.813	120.44
388.038	136.44
388.263	129.44
388.488	124.44
388.713	100.44
388.938	96.44
389.163	89.44
389.387	105.44
389.612	97.44
389.837	84.44
390.062	93.44
390.287	96.44
390.512	92.44
390.736	88.44
390.961	93.44
391.186	76.44
391.411	88.44
391.636	97.44
391.86	86.44
392.085	89.44
392.31	71.44
392.534	83.44
392.759	73.44
392.984	86.44
393.208	97.44
393.433	84.44
393.658	87.44
393.882	65.44
394.107	78.44
394.331	85.44
394.556	81.44
394.78	82.44
395.005	80.44
395.229	100.44
395.454	88.44
395.678	89.44
395.903	80.44
396.127	76.44
396.352	84.44
396.576	80.44
396.801	77.44
397.025	88.44
397.249	72.44
397.474	95.44
397.698	72.44
397.922	84.44
398.147	87.44
398.371	76.44
398.595	81.44
398.82	91.44
399.044	83.44
399.268	78.44
399.492	73.44
399.717	99.44
399.941	84.44
400.165	87.44
400.389	78.44
400.613	98.44
400.837	76.44
401.062	92.44
401.286	87.44
401.51	89.44
401.734	94.44
401.958	92.44
402.182	105.44
402.406	126.44
402.63	97.44
402.854	83.44
403.078	82.44
403.302	98.44
403.526	85.44
403.75	79.44
403.974	88.44
404.198	92.44
404.422	85.44
404.645	95.44
404.869	85.44
405.093	88.44
405.317	84.44
405.541	96.44
405.765	90.44
405.988	102.44
406.212	146.44
406.436	176.44
406.66	127.44
406.883	86.44
407.107	81.44
407.331	92.44
407.555	81.44
407.778	70.44
408.002	100.44
408.226	83.44
408.449	87.44
408.673	98.44
408.896	76.44
409.12	82.44
409.344	87.44
409.567	83.44
409.791	92.44
410.014	82.44
410.238	88.44
410.461	103.44
410.685	92.44
410.908	94.44
411.132	94.44
411.355	103.44
411.578	78.44
411.802	85.44
412.025	89.44
412.249	88.44
412.472	97.44
412.695	91.44
412.919	76.44
413.142	83.44
413.365	94.44
413.589	104.44
413.812	86.44
414.035	81.44
414.258	88.44
414.482	93.44
414.705	85.44
414.928	87.44
415.151	89.44
415.374	97.44
415.597	81.44
415.821	80.44
416.044	86.44
416.267	88.44
416.49	86.44
416.713	88.44
416.936	86.44
417.159	97.44
417.382	88.44
417.605	80.44
417.828	88.44
418.051	88.44
418.274	89.44
418.497	89.44
418.72	78.44
418.943	99.44
419.166	95.44
419.389	82.44
419.611	81.44
419.834	89.44
420.057	79.44
420.28	73.44
420.503	94.44
420.726	86.44
420.948	90.44
421.171	98.44
421.394	90.44
421.617	99.44
421.839	74.44
422.062	72.44
422.285	89.44
422.507	94.44
422.73	78.44
422.953	97.44
423.175	77.44
423.398	78.44
423.621	85.44
423.843	81.44
424.066	78.44
424.288	88.44
424.511	96.44
424.733	101.44
424.956	101.44
425.178	92.44
425.401	85.44
425.623	85.44
425.846	91.44
426.068	91.44
426.291	81.44
426.513	90.44
426.735	84.44
426.958	82.44
427.18	97.44
427.402	122.44
427.625	136.44
427.847	114.44
428.069	100.44
428.292	87.44
428.514	96.44
428.736	93.44
428.958	85.44
429.181	80.44
429.403	85.44
429.625	83.44
429.847	74.44
430.069	97.44
430.292	84.44
430.514	94.44
430.736	81.44
430.958	89.44
431.18	82.44
431.402	85.44
431.624	72.44
431.846	96.44
432.068	93.44
432.29	97.44
432.512	87.44
432.734	92.44
432.956	77.44
433.178	87.44
433.4	94.44
433.622	88.44
433.844	80.44
434.066	103.44
434.287	87.44
434.509	84.44
434.731	91.44
434.953	81.44
435.175	88.44
435.397	82.44
435.618	80.44
435.84	101.44
436.062	103.44
436.284	94.44
436.505	88.44
436.727	95.44
436.949	104.44
437.17	96.44
437.392	82.44
437.614	88.44
437.835	99.44
438.057	93.44
438.278	97.44
438.5	97.44
438.721	99.44
438.943	96.44
439.165	83.44
439.386	78.44
439.608	89.44
439.829	78.44
440.05	109.44
440.272	117.44
440.493	104.44
440.715	99.44
440.936	84.44
441.158	92.44
441.379	95.44
441.6	86.44
441.822	86.44
442.043	86.44
442.264	89.44
442.486	92.44
442.707	77.44
442.928	90.44
443.149	107.44
443.371	118.44
443.592	104.44
443.813	102.44
444.034	90.44
444.255	89.44
444.476	87.44
444.698	82.44
444.919	73.44
445.14	115.44
445.361	112.44
445.582	95.44
445.803	116.44
446.024	112.44
446.245	113.44
446.466	97.44
446.687	89.44
446.908	70.44
447.129	73.44
447.35	79.44
447.571	86.44
447.792	92.44
448.013	90.44
448.234	92.44
448.455	95.44
448.675	100.44
448.896	96.44
449.117	98.44
449.338	106.44
449.559	102.44
449.779	133.44
450	84.44
450.221	91.44
450.442	80.44
450.662	82.44
450.883	83.44
451.104	98.44
451.324	93.44
451.545	81.44
451.766	74.44
451.986	90.44
452.207	71.44
452.428	76.44
452.648	89.44
452.869	107.44
453.089	97.44
453.31	97.44
453.53	83.44
453.751	96.44
453.971	89.44
454.192	94.44
454.412	90.44
454.633	72.44
454.853	65.44
455.073	80.44
455.294	62.44
455.514	88.44
455.734	80.44
455.955	86.44
456.175	86.44
456.395	78.44
456.616	64.44
456.836	78.44
457.056	86.44
457.276	57.44
457.497	88.44
457.717	84.44
457.937	94.44
458.157	90.44
458.377	99.44
458.598	96.44
458.818	117.44
459.038	121.44
459.258	100.44
459.478	89.44
459.698	77.44
459.918	88.44
460.138	84.44
460.358	70.44
460.578	90.44
460.798	82.44
461.018	84.44
461.238	80.44
461.458	70.44
461.678	95.44
461.898	82.44
462.118	80.44
462.338	90.44
462.558	79.44
462.777	72.44
462.997	81.44
463.217	87.44
463.437	81.44
463.657	81.44
463.876	87.44
464.096	101.44
464.316	86.44
464.536	72.44
464.755	91.44
464.975	86.44
465.195	128.44
465.414	124.44
465.634	80.44
465.854	85.44
466.073	79.44
466.293	77.44
466.512	92.44
466.732	101.44
466.951	79.44
467.171	82.44
467.391	76.44
467.61	109.44
467.829	106.44
468.049	100.44
468.268	99.44
468.488	100.44
468.707	89.44
468.927	87.44
469.146	83.44
469.365	77.44
469.585	71.44
469.804	81.44
470.023	84.44
470.243	84.44
470.462	90.44
470.681	102.44
470.901	73.44
471.12	98.44
471.339	80.44
471.558	81.44
471.777	87.44
471.997	86.44
472.216	109.44
472.435	142.44
472.654	71.44
472.873	93.44
473.092	96.44
473.311	92.44
473.53	99.44
473.749	86.44
473.968	102.44
474.187	95.44
474.406	96.44
474.625	85.44
474.844	92.44
475.063	86.44
475.282	82.44
475.501	87.44
475.72	82.44
475.939	77.44
476.158	68.44
476.377	84.44
476.596	76.44
476.814	94.44
477.033	96.44
477.252	75.44
477.471	72.44
477.69	84.44
477.908	110.44
478.127	92.44
478.346	78.44
478.564	88.44
478.783	86.44
479.002	80.44
479.22	85.44
479.439	98.44
479.658	97.44
479.876	77.44
480.095	79.44
480.313	84.44
480.532	84.44
480.751	83.44
480.969	119.44
481.188	212.44
481.406	142.44
481.624	100.44
481.843	89.44
482.061	81.44
482.28	86.44
482.498	80.44
482.717	90.44
482.935	90.44
483.153	92.44
483.372	81.44
483.59	100.44
483.808	94.44
484.027	95.44
484.245	87.44
484.463	99.44
484.681	98.44
484.9	80.44
485.118	102.44
485.336	98.44
485.554	85.44
485.772	97.44
485.99	103.44
486.209	111.44
486.427	108.44
486.645	108.44
486.863	96.44
487.081	88.44
487.299	92.44
487.517	89.44
487.735	74.44
487.953	109.44
488.171	86.44
488.389	93.44
488.607	98.44
488.825	74.44
489.043	88.44
489.261	88.44
489.479	96.44
489.696	87.44
489.914	103.44
490.132	91.44
490.35	89.44
490.568	80.44
490.786	73.44
491.003	96.44
491.221	91.44
491.439	94.44
491.657	86.44
491.874	88.44
492.092	80.44
492.31	99.44
492.527	78.44
492.745	79.44
492.963	78.44
493.18	92.44
493.398	96.44
493.615	93.44
493.833	92.44
494.05	88.44
494.268	97.44
494.485	105.44
494.703	94.44
494.92	97.44
495.138	74.44
495.355	83.44
495.573	96.44
495.79	97.44
496.008	106.44
496.225	83.44
496.442	87.44
496.66	95.44
496.877	85.44
497.094	83.44
497.312	84.44
497.529	92.44
497.746	80.44
497.963	93.44
498.181	89.44
498.398	105.44
498.615	102.44
498.832	96.44
499.049	86.44
499.267	84.44
499.484	93.44
499.701	94.44
499.918	103.44
500.135	80.44
500.352	64.44
500.569	88.44
500.786	88.44
501.003	102.44
501.22	80.44
501.437	101.44
501.654	80.44
501.871	94.44
502.088	91.44
502.305	90.44
502.522	85.44
502.739	79.44
502.956	94.44
503.172	87.44
503.389	94.44
503.606	97.44
503.823	95.44
504.04	87.44
504.256	88.44
504.473	80.44
504.69	85.44
504.907	67.44
505.123	87.44
505.34	93.44
505.557	92.44
505.773	83.44
505.99	80.44
506.207	91.44
506.423	86.44
506.64	91.44
506.856	92.44
507.073	85.44
507.289	85.44
507.506	90.44
507.722	109.44
507.939	99.44
508.155	98.44
508.372	76.44
508.588	86.44
508.805	85.44
509.021	104.44
509.238	94.44
509.454	92.44
509.67	85.44
509.887	104.44
510.103	117.44
510.319	197.44
510.536	591.44
510.752	1764.44
510.968	503.44
511.184	147.44
511.401	105.44
511.617	100.44
511.833	99.44
512.049	74.44
512.265	86.44
512.481	88.44
512.698	86.44
512.914	92.44
513.13	100.44
513.346	87.44
513.562	86.44
513.778	102.44
513.994	92.44
514.21	101.44
514.426	97.44
514.642	122.44
514.858	107.44
515.074	143.44
515.29	334.44
515.506	1034.44
515.721	374.44
515.937	118.44
516.153	94.44
516.369	95.44
516.585	96.44
516.801	99.44
517.016	92.44
