Data from Circ_1986_H10_HRD10591_00034.txt Node
Date: Wed Jan 03 12:15:32 EST 2024
User: Yrep
Spectrometer: HR+D1059
Trigger mode: 1
Integration Time (sec): 1.000000E-1
Scans to average: 1
Electric dark correction enabled: true
Nonlinearity correction enabled: false
Boxcar width: 0
XAxis mode: Wavelengths
Number of Pixels in Spectrum: 2048
>>>>>Begin Spectral Data<<<<<
223.165	-29.19
223.4	-29.19
223.635	-29.19
223.869	-28.19
224.104	-22.19
224.338	-24.19
224.573	-19.19
224.808	-22.19
225.042	-7.19
225.277	4.81
225.511	-8.19
225.746	19.81
225.98	20.81
226.215	15.81
226.449	25.81
226.683	25.81
226.918	18.81
227.152	28.81
227.387	42.81
227.621	32.81
227.856	26.81
228.09	48.81
228.324	44.81
228.559	57.81
228.793	51.81
229.027	60.81
229.262	66.81
229.496	65.81
229.73	82.81
229.964	87.81
230.199	84.81
230.433	83.81
230.667	76.81
230.901	75.81
231.136	82.81
231.37	71.81
231.604	70.81
231.838	78.81
232.072	86.81
232.306	79.81
232.541	87.81
232.775	84.81
233.009	82.81
233.243	72.81
233.477	83.81
233.711	76.81
233.945	81.81
234.179	94.81
234.413	68.81
234.647	84.81
234.881	82.81
235.115	62.81
235.349	85.81
235.583	64.81
235.817	83.81
236.051	76.81
236.285	67.81
236.519	75.81
236.753	80.81
236.987	75.81
237.221	89.81
237.455	70.81
237.689	70.81
237.922	74.81
238.156	69.81
238.39	82.81
238.624	71.81
238.858	67.81
239.091	73.81
239.325	71.81
239.559	84.81
239.793	67.81
240.027	75.81
240.26	66.81
240.494	79.81
240.728	70.81
240.961	73.81
241.195	70.81
241.429	83.81
241.662	70.81
241.896	86.81
242.13	78.81
242.363	64.81
242.597	80.81
242.83	73.81
243.064	72.81
243.298	82.81
243.531	74.81
243.765	86.81
243.998	74.81
244.232	84.81
244.465	75.81
244.699	93.81
244.932	68.81
245.166	87.81
245.399	88.81
245.633	82.81
245.866	72.81
246.099	68.81
246.333	81.81
246.566	76.81
246.8	82.81
247.033	88.81
247.266	75.81
247.5	81.81
247.733	71.81
247.966	83.81
248.2	68.81
248.433	75.81
248.666	90.81
248.899	84.81
249.133	90.81
249.366	79.81
249.599	112.81
249.832	82.81
250.066	80.81
250.299	71.81
250.532	87.81
250.765	52.81
250.998	70.81
251.231	87.81
251.465	74.81
251.698	81.81
251.931	92.81
252.164	78.81
252.397	69.81
252.63	68.81
252.863	78.81
253.096	91.81
253.329	98.81
253.562	78.81
253.795	90.81
254.028	82.81
254.261	93.81
254.494	66.81
254.727	74.81
254.96	68.81
255.193	79.81
255.426	82.81
255.659	67.81
255.892	88.81
256.124	88.81
256.357	90.81
256.59	75.81
256.823	73.81
257.056	84.81
257.289	82.81
257.521	95.81
257.754	82.81
257.987	68.81
258.22	82.81
258.452	72.81
258.685	82.81
258.918	94.81
259.151	73.81
259.383	80.81
259.616	73.81
259.849	95.81
260.081	75.81
260.314	72.81
260.547	78.81
260.779	78.81
261.012	78.81
261.244	71.81
261.477	80.81
261.71	89.81
261.942	106.81
262.175	103.81
262.407	77.81
262.64	78.81
262.872	78.81
263.105	79.81
263.337	80.81
263.57	70.81
263.802	85.81
264.035	76.81
264.267	71.81
264.499	87.81
264.732	99.81
264.964	78.81
265.197	87.81
265.429	85.81
265.661	81.81
265.894	81.81
266.126	88.81
266.358	90.81
266.591	86.81
266.823	76.81
267.055	76.81
267.287	91.81
267.52	71.81
267.752	78.81
267.984	78.81
268.216	71.81
268.448	84.81
268.681	79.81
268.913	78.81
269.145	66.81
269.377	89.81
269.609	72.81
269.841	89.81
270.073	78.81
270.306	80.81
270.538	85.81
270.77	72.81
271.002	99.81
271.234	78.81
271.466	85.81
271.698	89.81
271.93	82.81
272.162	87.81
272.394	89.81
272.626	81.81
272.858	67.81
273.09	84.81
273.322	85.81
273.553	89.81
273.785	80.81
274.017	87.81
274.249	97.81
274.481	87.81
274.713	87.81
274.945	72.81
275.176	80.81
275.408	76.81
275.64	94.81
275.872	90.81
276.104	80.81
276.335	94.81
276.567	81.81
276.799	96.81
277.031	93.81
277.262	96.81
277.494	95.81
277.726	92.81
277.957	78.81
278.189	85.81
278.421	91.81
278.652	84.81
278.884	88.81
279.115	86.81
279.347	68.81
279.579	92.81
279.81	96.81
280.042	103.81
280.273	86.81
280.505	94.81
280.736	88.81
280.968	80.81
281.199	76.81
281.431	75.81
281.662	82.81
281.894	87.81
282.125	99.81
282.356	115.81
282.588	128.81
282.819	110.81
283.051	81.81
283.282	99.81
283.513	92.81
283.745	83.81
283.976	86.81
284.207	96.81
284.439	96.81
284.67	91.81
284.901	88.81
285.132	96.81
285.364	88.81
285.595	95.81
285.826	86.81
286.057	90.81
286.288	72.81
286.52	83.81
286.751	82.81
286.982	91.81
287.213	103.81
287.444	79.81
287.675	89.81
287.906	88.81
288.138	78.81
288.369	95.81
288.6	97.81
288.831	83.81
289.062	81.81
289.293	80.81
289.524	89.81
289.755	94.81
289.986	89.81
290.217	84.81
290.448	86.81
290.679	90.81
290.91	99.81
291.141	93.81
291.371	89.81
291.602	80.81
291.833	81.81
292.064	88.81
292.295	80.81
292.526	86.81
292.757	83.81
292.987	96.81
293.218	80.81
293.449	93.81
293.68	79.81
293.91	81.81
294.141	98.81
294.372	90.81
294.603	92.81
294.833	92.81
295.064	96.81
295.295	82.81
295.525	91.81
295.756	82.81
295.987	93.81
296.217	132.81
296.448	121.81
296.679	98.81
296.909	88.81
297.14	94.81
297.37	90.81
297.601	75.81
297.831	67.81
298.062	84.81
298.292	85.81
298.523	85.81
298.753	72.81
298.984	106.81
299.214	102.81
299.445	96.81
299.675	92.81
299.905	92.81
300.136	107.81
300.366	79.81
300.597	92.81
300.827	78.81
301.057	81.81
301.288	102.81
301.518	96.81
301.748	90.81
301.979	91.81
302.209	85.81
302.439	96.81
302.669	93.81
302.9	80.81
303.13	87.81
303.36	80.81
303.59	94.81
303.82	101.81
304.051	94.81
304.281	96.81
304.511	99.81
304.741	89.81
304.971	86.81
305.201	86.81
305.431	94.81
305.661	88.81
305.891	88.81
306.121	84.81
306.352	97.81
306.582	112.81
306.812	95.81
307.042	90.81
307.272	82.81
307.502	88.81
307.731	87.81
307.961	93.81
308.191	87.81
308.421	83.81
308.651	99.81
308.881	100.81
309.111	98.81
309.341	98.81
309.571	77.81
309.8	102.81
310.03	92.81
310.26	95.81
310.49	91.81
310.72	96.81
310.949	114.81
311.179	88.81
311.409	88.81
311.639	96.81
311.868	101.81
312.098	104.81
312.328	88.81
312.557	102.81
312.787	97.81
313.017	100.81
313.246	99.81
313.476	84.81
313.706	88.81
313.935	94.81
314.165	100.81
314.394	91.81
314.624	103.81
314.853	102.81
315.083	105.81
315.312	90.81
315.542	93.81
315.771	94.81
316.001	92.81
316.23	89.81
316.46	92.81
316.689	98.81
316.919	88.81
317.148	90.81
317.377	102.81
317.607	99.81
317.836	81.81
318.065	94.81
318.295	87.81
318.524	86.81
318.753	94.81
318.983	83.81
319.212	101.81
319.441	107.81
319.67	93.81
319.9	99.81
320.129	89.81
320.358	95.81
320.587	88.81
320.816	106.81
321.046	97.81
321.275	84.81
321.504	93.81
321.733	84.81
321.962	95.81
322.191	104.81
322.42	106.81
322.649	108.81
322.878	116.81
323.108	103.81
323.337	112.81
323.566	129.81
323.795	146.81
324.024	186.81
324.253	367.81
324.482	761.81
324.71	1539.81
324.939	2000.81
325.168	758.81
325.397	226.81
325.626	151.81
325.855	123.81
326.084	107.81
326.313	118.81
326.542	151.81
326.77	204.81
326.999	418.81
327.228	873.81
327.457	1599.81
327.686	1296.81
327.914	356.81
328.143	187.81
328.372	166.81
328.6	132.81
328.829	135.81
329.058	113.81
329.287	111.81
329.515	108.81
329.744	105.81
329.972	100.81
330.201	134.81
330.43	144.81
330.658	121.81
330.887	137.81
331.115	105.81
331.344	111.81
331.572	100.81
331.801	101.81
332.03	115.81
332.258	84.81
332.486	88.81
332.715	92.81
332.943	101.81
333.172	86.81
333.4	95.81
333.629	104.81
333.857	114.81
334.085	106.81
334.314	123.81
334.542	156.81
334.771	164.81
334.999	120.81
335.227	86.81
335.455	101.81
335.684	108.81
335.912	103.81
336.14	115.81
336.369	88.81
336.597	95.81
336.825	101.81
337.053	79.81
337.281	98.81
337.51	93.81
337.738	92.81
337.966	104.81
338.194	91.81
338.422	96.81
338.65	97.81
338.878	104.81
339.106	87.81
339.334	94.81
339.562	98.81
339.79	99.81
340.018	89.81
340.246	95.81
340.474	85.81
340.702	86.81
340.93	107.81
341.158	89.81
341.386	89.81
341.614	90.81
341.842	98.81
342.07	83.81
342.298	104.81
342.526	95.81
342.754	89.81
342.981	97.81
343.209	82.81
343.437	112.81
343.665	78.81
343.893	89.81
344.12	84.81
344.348	96.81
344.576	100.81
344.804	95.81
345.031	89.81
345.259	90.81
345.487	98.81
345.714	102.81
345.942	75.81
346.17	93.81
346.397	97.81
346.625	101.81
346.853	82.81
347.08	98.81
347.308	97.81
347.535	101.81
347.763	97.81
347.99	97.81
348.218	107.81
348.445	111.81
348.673	82.81
348.9	88.81
349.128	90.81
349.355	89.81
349.583	97.81
349.81	96.81
350.037	107.81
350.265	94.81
350.492	104.81
350.72	94.81
350.947	102.81
351.174	100.81
351.402	103.81
351.629	100.81
351.856	101.81
352.083	105.81
352.311	94.81
352.538	100.81
352.765	108.81
352.992	101.81
353.22	107.81
353.447	107.81
353.674	101.81
353.901	88.81
354.128	104.81
354.355	97.81
354.583	106.81
354.81	102.81
355.037	101.81
355.264	98.81
355.491	91.81
355.718	101.81
355.945	90.81
356.172	103.81
356.399	91.81
356.626	100.81
356.853	93.81
357.08	94.81
357.307	83.81
357.534	97.81
357.761	88.81
357.988	90.81
358.215	102.81
358.441	103.81
358.668	103.81
358.895	97.81
359.122	91.81
359.349	96.81
359.576	89.81
359.802	94.81
360.029	107.81
360.256	107.81
360.483	114.81
360.709	92.81
360.936	85.81
361.163	96.81
361.39	97.81
361.616	95.81
361.843	80.81
362.07	100.81
362.296	105.81
362.523	94.81
362.749	91.81
362.976	108.81
363.203	88.81
363.429	85.81
363.656	87.81
363.882	81.81
364.109	84.81
364.335	100.81
364.562	88.81
364.788	103.81
365.015	105.81
365.241	99.81
365.468	118.81
365.694	113.81
365.92	101.81
366.147	88.81
366.373	100.81
366.599	95.81
366.826	93.81
367.052	88.81
367.278	104.81
367.505	97.81
367.731	94.81
367.957	76.81
368.184	80.81
368.41	109.81
368.636	101.81
368.862	115.81
369.089	101.81
369.315	74.81
369.541	84.81
369.767	104.81
369.993	84.81
370.219	83.81
370.445	81.81
370.672	76.81
370.898	97.81
371.124	91.81
371.35	96.81
371.576	80.81
371.802	86.81
372.028	94.81
372.254	89.81
372.48	78.81
372.706	99.81
372.932	86.81
373.158	83.81
373.384	86.81
373.61	78.81
373.835	84.81
374.061	85.81
374.287	111.81
374.513	97.81
374.739	95.81
374.965	91.81
375.191	96.81
375.416	86.81
375.642	104.81
375.868	88.81
376.094	80.81
376.319	93.81
376.545	89.81
376.771	83.81
376.997	85.81
377.222	99.81
377.448	87.81
377.674	75.81
377.899	91.81
378.125	85.81
378.35	84.81
378.576	91.81
378.802	89.81
379.027	95.81
379.253	104.81
379.478	86.81
379.704	86.81
379.929	98.81
380.155	84.81
380.38	95.81
380.606	102.81
380.831	106.81
381.057	100.81
381.282	107.81
381.507	105.81
381.733	96.81
381.958	99.81
382.184	97.81
382.409	91.81
382.634	101.81
382.86	94.81
383.085	98.81
383.31	102.81
383.535	107.81
383.761	99.81
383.986	107.81
384.211	102.81
384.436	105.81
384.662	111.81
384.887	105.81
385.112	115.81
385.337	103.81
385.562	111.81
385.787	109.81
386.013	115.81
386.238	113.81
386.463	112.81
386.688	121.81
386.913	108.81
387.138	108.81
387.363	109.81
387.588	100.81
387.813	120.81
388.038	123.81
388.263	143.81
388.488	114.81
388.713	112.81
388.938	94.81
389.163	87.81
389.387	96.81
389.612	91.81
389.837	87.81
390.062	87.81
390.287	86.81
390.512	91.81
390.736	97.81
390.961	100.81
391.186	93.81
391.411	102.81
391.636	100.81
391.86	83.81
392.085	93.81
392.31	78.81
392.534	84.81
392.759	86.81
392.984	108.81
393.208	92.81
393.433	100.81
393.658	93.81
393.882	100.81
394.107	94.81
394.331	84.81
394.556	80.81
394.78	91.81
395.005	101.81
395.229	89.81
395.454	86.81
395.678	90.81
395.903	97.81
396.127	99.81
396.352	73.81
396.576	80.81
396.801	72.81
397.025	102.81
397.249	94.81
397.474	90.81
397.698	70.81
397.922	99.81
398.147	95.81
398.371	86.81
398.595	90.81
398.82	92.81
399.044	79.81
399.268	94.81
399.492	91.81
399.717	95.81
399.941	85.81
400.165	84.81
400.389	87.81
400.613	86.81
400.837	102.81
401.062	85.81
401.286	92.81
401.51	80.81
401.734	100.81
401.958	92.81
402.182	127.81
402.406	144.81
402.63	113.81
402.854	96.81
403.078	99.81
403.302	91.81
403.526	91.81
403.75	88.81
403.974	104.81
404.198	86.81
404.422	94.81
404.645	88.81
404.869	89.81
405.093	104.81
405.317	110.81
405.541	105.81
405.765	90.81
405.988	104.81
406.212	165.81
406.436	194.81
406.66	144.81
406.883	91.81
407.107	96.81
407.331	98.81
407.555	110.81
407.778	89.81
408.002	85.81
408.226	93.81
408.449	93.81
408.673	84.81
408.896	90.81
409.12	102.81
409.344	96.81
409.567	93.81
409.791	82.81
410.014	100.81
410.238	88.81
410.461	94.81
410.685	98.81
410.908	82.81
411.132	112.81
411.355	82.81
411.578	98.81
411.802	96.81
412.025	89.81
412.249	108.81
412.472	94.81
412.695	108.81
412.919	78.81
413.142	99.81
413.365	92.81
413.589	78.81
413.812	98.81
414.035	98.81
414.258	93.81
414.482	96.81
414.705	84.81
414.928	95.81
415.151	91.81
415.374	92.81
415.597	101.81
415.821	80.81
416.044	92.81
416.267	89.81
416.49	92.81
416.713	92.81
416.936	89.81
417.159	68.81
417.382	83.81
417.605	92.81
417.828	90.81
418.051	93.81
418.274	90.81
418.497	83.81
418.72	102.81
418.943	75.81
419.166	75.81
419.389	92.81
419.611	90.81
419.834	85.81
420.057	87.81
420.28	78.81
420.503	71.81
420.726	81.81
420.948	104.81
421.171	82.81
421.394	83.81
421.617	75.81
421.839	86.81
422.062	91.81
422.285	104.81
422.507	91.81
422.73	97.81
422.953	104.81
423.175	95.81
423.398	89.81
423.621	90.81
423.843	94.81
424.066	88.81
424.288	78.81
424.511	98.81
424.733	81.81
424.956	97.81
425.178	78.81
425.401	99.81
425.623	91.81
425.846	93.81
426.068	99.81
426.291	90.81
426.513	114.81
426.735	87.81
426.958	80.81
427.18	102.81
427.402	127.81
427.625	160.81
427.847	131.81
428.069	119.81
428.292	98.81
428.514	80.81
428.736	79.81
428.958	92.81
429.181	83.81
429.403	80.81
429.625	92.81
429.847	95.81
430.069	91.81
430.292	92.81
430.514	92.81
430.736	94.81
430.958	89.81
431.18	72.81
431.402	74.81
431.624	82.81
431.846	85.81
432.068	92.81
432.29	95.81
432.512	87.81
432.734	84.81
432.956	92.81
433.178	99.81
433.4	102.81
433.622	75.81
433.844	88.81
434.066	82.81
434.287	93.81
434.509	86.81
434.731	78.81
434.953	94.81
435.175	90.81
435.397	94.81
435.618	98.81
435.84	97.81
436.062	121.81
436.284	112.81
436.505	103.81
436.727	86.81
436.949	83.81
437.17	84.81
437.392	79.81
437.614	90.81
437.835	85.81
438.057	117.81
438.278	105.81
438.5	105.81
438.721	112.81
438.943	107.81
439.165	87.81
439.386	91.81
439.608	86.81
439.829	85.81
440.05	107.81
440.272	115.81
440.493	85.81
440.715	81.81
440.936	90.81
441.158	94.81
441.379	80.81
441.6	94.81
441.822	107.81
442.043	95.81
442.264	99.81
442.486	88.81
442.707	85.81
442.928	93.81
443.149	106.81
443.371	126.81
443.592	106.81
443.813	118.81
444.034	104.81
444.255	95.81
444.476	94.81
444.698	88.81
444.919	73.81
445.14	126.81
445.361	120.81
445.582	100.81
445.803	136.81
446.024	115.81
446.245	119.81
446.466	116.81
446.687	94.81
446.908	101.81
447.129	102.81
447.35	87.81
447.571	87.81
447.792	98.81
448.013	103.81
448.234	105.81
448.455	103.81
448.675	104.81
448.896	121.81
449.117	104.81
449.338	104.81
449.559	123.81
449.779	126.81
450	101.81
450.221	83.81
450.442	97.81
450.662	89.81
450.883	111.81
451.104	103.81
451.324	88.81
451.545	87.81
451.766	95.81
451.986	83.81
452.207	81.81
452.428	84.81
452.648	92.81
452.869	103.81
453.089	108.81
453.31	119.81
453.53	88.81
453.751	89.81
453.971	90.81
454.192	97.81
454.412	89.81
454.633	92.81
454.853	69.81
455.073	90.81
455.294	95.81
455.514	103.81
455.734	95.81
455.955	87.81
456.175	80.81
456.395	78.81
456.616	87.81
456.836	78.81
457.056	79.81
457.276	92.81
457.497	88.81
457.717	73.81
457.937	81.81
458.157	90.81
458.377	87.81
458.598	92.81
458.818	134.81
459.038	139.81
459.258	124.81
459.478	98.81
459.698	93.81
459.918	93.81
460.138	80.81
460.358	83.81
460.578	85.81
460.798	86.81
461.018	99.81
461.238	85.81
461.458	84.81
461.678	71.81
461.898	83.81
462.118	80.81
462.338	86.81
462.558	99.81
462.777	77.81
462.997	85.81
463.217	82.81
463.437	78.81
463.657	81.81
463.876	77.81
464.096	94.81
464.316	102.81
464.536	105.81
464.755	98.81
464.975	103.81
465.195	151.81
465.414	130.81
465.634	90.81
465.854	91.81
466.073	91.81
466.293	84.81
466.512	75.81
466.732	79.81
466.951	85.81
467.171	98.81
467.391	96.81
467.61	105.81
467.829	99.81
468.049	98.81
468.268	116.81
468.488	80.81
468.707	72.81
468.927	87.81
469.146	94.81
469.365	93.81
469.585	78.81
469.804	106.81
470.023	94.81
470.243	73.81
470.462	100.81
470.681	97.81
470.901	80.81
471.12	94.81
471.339	99.81
471.558	90.81
471.777	99.81
471.997	87.81
472.216	142.81
472.435	183.81
472.654	103.81
472.873	78.81
473.092	82.81
473.311	81.81
473.53	85.81
473.749	82.81
473.968	76.81
474.187	109.81
474.406	102.81
474.625	96.81
474.844	91.81
475.063	82.81
475.282	81.81
475.501	78.81
475.72	78.81
475.939	93.81
476.158	78.81
476.377	85.81
476.596	97.81
476.814	84.81
477.033	82.81
477.252	91.81
477.471	91.81
477.69	84.81
477.908	91.81
478.127	90.81
478.346	110.81
478.564	94.81
478.783	80.81
479.002	81.81
479.22	92.81
479.439	90.81
479.658	100.81
479.876	115.81
480.095	94.81
480.313	80.81
480.532	93.81
480.751	99.81
480.969	138.81
481.188	289.81
481.406	192.81
481.624	100.81
481.843	82.81
482.061	79.81
482.28	103.81
482.498	95.81
482.717	79.81
482.935	87.81
483.153	88.81
483.372	100.81
483.59	98.81
483.808	94.81
484.027	75.81
484.245	94.81
484.463	81.81
484.681	102.81
484.9	94.81
485.118	92.81
485.336	102.81
485.554	94.81
485.772	108.81
485.99	113.81
486.209	90.81
486.427	93.81
486.645	104.81
486.863	118.81
487.081	97.81
487.299	101.81
487.517	102.81
487.735	95.81
487.953	102.81
488.171	100.81
488.389	100.81
488.607	104.81
488.825	92.81
489.043	95.81
489.261	91.81
489.479	90.81
489.696	85.81
489.914	88.81
490.132	95.81
490.35	82.81
490.568	85.81
490.786	82.81
491.003	90.81
491.221	91.81
491.439	83.81
491.657	100.81
491.874	107.81
492.092	87.81
492.31	94.81
492.527	95.81
492.745	95.81
492.963	97.81
493.18	88.81
493.398	92.81
493.615	99.81
493.833	102.81
494.05	86.81
494.268	95.81
494.485	95.81
494.703	91.81
494.92	101.81
495.138	93.81
495.355	85.81
495.573	102.81
495.79	87.81
496.008	98.81
496.225	86.81
496.442	91.81
496.66	95.81
496.877	82.81
497.094	100.81
497.312	70.81
497.529	82.81
497.746	92.81
497.963	95.81
498.181	89.81
498.398	95.81
498.615	117.81
498.832	107.81
499.049	101.81
499.267	82.81
499.484	84.81
499.701	98.81
499.918	88.81
500.135	90.81
500.352	96.81
500.569	84.81
500.786	87.81
501.003	85.81
501.22	98.81
501.437	103.81
501.654	100.81
501.871	96.81
502.088	88.81
502.305	84.81
502.522	80.81
502.739	93.81
502.956	90.81
503.172	92.81
503.389	110.81
503.606	115.81
503.823	98.81
504.04	103.81
504.256	100.81
504.473	98.81
504.69	91.81
504.907	105.81
505.123	84.81
505.34	81.81
505.557	102.81
505.773	91.81
505.99	87.81
506.207	78.81
506.423	102.81
506.64	91.81
506.856	96.81
507.073	98.81
507.289	103.81
507.506	97.81
507.722	104.81
507.939	92.81
508.155	86.81
508.372	90.81
508.588	81.81
508.805	87.81
509.021	89.81
509.238	102.81
509.454	94.81
509.67	88.81
509.887	102.81
510.103	125.81
510.319	206.81
510.536	696.81
510.752	2073.81
510.968	569.81
511.184	127.81
511.401	118.81
511.617	89.81
511.833	76.81
512.049	94.81
512.265	89.81
512.481	81.81
512.698	97.81
512.914	74.81
513.13	96.81
513.346	88.81
513.562	92.81
513.778	105.81
513.994	93.81
514.21	98.81
514.426	108.81
514.642	114.81
514.858	126.81
515.074	161.81
515.29	396.81
