Data from Circ_1986_H10_HRD10591_00044.txt Node
Date: Wed Jan 03 12:15:34 EST 2024
User: Yrep
Spectrometer: HR+D1059
Trigger mode: 1
Integration Time (sec): 1.000000E-1
Scans to average: 1
Electric dark correction enabled: true
Nonlinearity correction enabled: false
Boxcar width: 0
XAxis mode: Wavelengths
Number of Pixels in Spectrum: 2048
>>>>>Begin Spectral Data<<<<<
223.165	-11.94
223.4	-11.94
223.635	-11.94
223.869	-13.94
224.104	-14.94
224.338	-13.94
224.573	-6.94
224.808	-8.94
225.042	-20.94
225.277	-4.94
225.511	21.06
225.746	-9.94
225.98	20.06
226.215	13.06
226.449	4.06
226.683	3.06
226.918	13.06
227.152	32.06
227.387	26.06
227.621	46.06
227.856	47.06
228.09	45.06
228.324	50.06
228.559	51.06
228.793	55.06
229.027	65.06
229.262	65.06
229.496	74.06
229.73	70.06
229.964	77.06
230.199	74.06
230.433	88.06
230.667	81.06
230.901	73.06
231.136	67.06
231.37	82.06
231.604	76.06
231.838	81.06
232.072	102.06
232.306	84.06
232.541	80.06
232.775	71.06
233.009	70.06
233.243	90.06
233.477	72.06
233.711	80.06
233.945	82.06
234.179	82.06
234.413	87.06
234.647	73.06
234.881	77.06
235.115	84.06
235.349	77.06
235.583	71.06
235.817	81.06
236.051	94.06
236.285	69.06
236.519	76.06
236.753	74.06
236.987	79.06
237.221	74.06
237.455	70.06
237.689	72.06
237.922	85.06
238.156	85.06
238.39	65.06
238.624	76.06
238.858	89.06
239.091	72.06
239.325	74.06
239.559	86.06
239.793	80.06
240.027	75.06
240.26	76.06
240.494	84.06
240.728	76.06
240.961	70.06
241.195	56.06
241.429	85.06
241.662	76.06
241.896	72.06
242.13	67.06
242.363	65.06
242.597	94.06
242.83	84.06
243.064	69.06
243.298	77.06
243.531	92.06
243.765	96.06
243.998	77.06
244.232	75.06
244.465	78.06
244.699	90.06
244.932	82.06
245.166	79.06
245.399	70.06
245.633	68.06
245.866	82.06
246.099	82.06
246.333	82.06
246.566	97.06
246.8	83.06
247.033	78.06
247.266	68.06
247.5	64.06
247.733	76.06
247.966	86.06
248.2	79.06
248.433	78.06
248.666	83.06
248.899	98.06
249.133	71.06
249.366	102.06
249.599	87.06
249.832	77.06
250.066	80.06
250.299	93.06
250.532	89.06
250.765	84.06
250.998	76.06
251.231	76.06
251.465	84.06
251.698	80.06
251.931	84.06
252.164	82.06
252.397	77.06
252.63	81.06
252.863	70.06
253.096	70.06
253.329	74.06
253.562	76.06
253.795	90.06
254.028	80.06
254.261	88.06
254.494	68.06
254.727	84.06
254.96	91.06
255.193	77.06
255.426	81.06
255.659	82.06
255.892	83.06
256.124	91.06
256.357	93.06
256.59	72.06
256.823	72.06
257.056	93.06
257.289	84.06
257.521	87.06
257.754	81.06
257.987	89.06
258.22	90.06
258.452	91.06
258.685	84.06
258.918	77.06
259.151	73.06
259.383	70.06
259.616	76.06
259.849	79.06
260.081	85.06
260.314	79.06
260.547	97.06
260.779	89.06
261.012	80.06
261.244	76.06
261.477	89.06
261.71	86.06
261.942	123.06
262.175	109.06
262.407	98.06
262.64	75.06
262.872	74.06
263.105	85.06
263.337	86.06
263.57	81.06
263.802	88.06
264.035	87.06
264.267	83.06
264.499	81.06
264.732	88.06
264.964	90.06
265.197	91.06
265.429	89.06
265.661	99.06
265.894	88.06
266.126	88.06
266.358	91.06
266.591	88.06
266.823	91.06
267.055	94.06
267.287	98.06
267.52	90.06
267.752	91.06
267.984	80.06
268.216	84.06
268.448	81.06
268.681	88.06
268.913	93.06
269.145	86.06
269.377	103.06
269.609	89.06
269.841	93.06
270.073	82.06
270.306	80.06
270.538	76.06
270.77	72.06
271.002	92.06
271.234	91.06
271.466	97.06
271.698	88.06
271.93	74.06
272.162	88.06
272.394	80.06
272.626	88.06
272.858	85.06
273.09	89.06
273.322	84.06
273.553	93.06
273.785	85.06
274.017	96.06
274.249	83.06
274.481	80.06
274.713	78.06
274.945	84.06
275.176	88.06
275.408	74.06
275.64	89.06
275.872	77.06
276.104	89.06
276.335	83.06
276.567	90.06
276.799	113.06
277.031	98.06
277.262	83.06
277.494	101.06
277.726	76.06
277.957	81.06
278.189	101.06
278.421	70.06
278.652	89.06
278.884	68.06
279.115	73.06
279.347	83.06
279.579	93.06
279.81	94.06
280.042	100.06
280.273	88.06
280.505	80.06
280.736	87.06
280.968	86.06
281.199	86.06
281.431	93.06
281.662	91.06
281.894	89.06
282.125	90.06
282.356	133.06
282.588	115.06
282.819	97.06
283.051	79.06
283.282	102.06
283.513	74.06
283.745	86.06
283.976	81.06
284.207	85.06
284.439	94.06
284.67	89.06
284.901	89.06
285.132	106.06
285.364	98.06
285.595	87.06
285.826	76.06
286.057	85.06
286.288	82.06
286.52	80.06
286.751	83.06
286.982	88.06
287.213	86.06
287.444	98.06
287.675	91.06
287.906	84.06
288.138	78.06
288.369	94.06
288.6	96.06
288.831	88.06
289.062	87.06
289.293	81.06
289.524	92.06
289.755	97.06
289.986	82.06
290.217	88.06
290.448	91.06
290.679	83.06
290.91	93.06
291.141	86.06
291.371	92.06
291.602	72.06
291.833	78.06
292.064	82.06
292.295	98.06
292.526	80.06
292.757	89.06
292.987	74.06
293.218	92.06
293.449	89.06
293.68	85.06
293.91	83.06
294.141	92.06
294.372	98.06
294.603	84.06
294.833	87.06
295.064	93.06
295.295	93.06
295.525	102.06
295.756	79.06
295.987	108.06
296.217	113.06
296.448	117.06
296.679	84.06
296.909	84.06
297.14	101.06
297.37	93.06
297.601	77.06
297.831	87.06
298.062	86.06
298.292	81.06
298.523	88.06
298.753	85.06
298.984	100.06
299.214	93.06
299.445	95.06
299.675	86.06
299.905	106.06
300.136	89.06
300.366	97.06
300.597	100.06
300.827	102.06
301.057	90.06
301.288	99.06
301.518	87.06
301.748	88.06
301.979	104.06
302.209	82.06
302.439	83.06
302.669	102.06
302.9	98.06
303.13	95.06
303.36	98.06
303.59	93.06
303.82	101.06
304.051	102.06
304.281	93.06
304.511	75.06
304.741	73.06
304.971	93.06
305.201	76.06
305.431	80.06
305.661	92.06
305.891	98.06
306.121	88.06
306.352	105.06
306.582	95.06
306.812	98.06
307.042	80.06
307.272	82.06
307.502	100.06
307.731	94.06
307.961	104.06
308.191	92.06
308.421	98.06
308.651	87.06
308.881	86.06
309.111	86.06
309.341	99.06
309.571	105.06
309.8	93.06
310.03	95.06
310.26	98.06
310.49	99.06
310.72	101.06
310.949	84.06
311.179	97.06
311.409	85.06
311.639	99.06
311.868	101.06
312.098	104.06
312.328	96.06
312.557	104.06
312.787	107.06
313.017	91.06
313.246	85.06
313.476	88.06
313.706	91.06
313.935	95.06
314.165	102.06
314.394	97.06
314.624	83.06
314.853	82.06
315.083	84.06
315.312	84.06
315.542	102.06
315.771	98.06
316.001	92.06
316.23	97.06
316.46	84.06
316.689	85.06
316.919	92.06
317.148	97.06
317.377	98.06
317.607	89.06
317.836	90.06
318.065	101.06
318.295	82.06
318.524	89.06
318.753	98.06
318.983	92.06
319.212	89.06
319.441	109.06
319.67	94.06
319.9	100.06
320.129	98.06
320.358	105.06
320.587	80.06
320.816	106.06
321.046	101.06
321.275	106.06
321.504	107.06
321.733	99.06
321.962	108.06
322.191	104.06
322.42	99.06
322.649	95.06
322.878	100.06
323.108	108.06
323.337	121.06
323.566	134.06
323.795	146.06
324.024	188.06
324.253	333.06
324.482	660.06
324.71	1333.06
324.939	1730.06
325.168	643.06
325.397	224.06
325.626	138.06
325.855	129.06
326.084	113.06
326.313	126.06
326.542	143.06
326.77	201.06
326.999	394.06
327.228	737.06
327.457	1351.06
327.686	1106.06
327.914	332.06
328.143	177.06
328.372	152.06
328.6	121.06
328.829	106.06
329.058	112.06
329.287	123.06
329.515	101.06
329.744	96.06
329.972	113.06
330.201	140.06
330.43	164.06
330.658	120.06
330.887	126.06
331.115	118.06
331.344	103.06
331.572	93.06
331.801	97.06
332.03	105.06
332.258	101.06
332.486	92.06
332.715	92.06
332.943	101.06
333.172	75.06
333.4	104.06
333.629	112.06
333.857	111.06
334.085	125.06
334.314	132.06
334.542	182.06
334.771	174.06
334.999	108.06
335.227	94.06
335.455	100.06
335.684	102.06
335.912	101.06
336.14	96.06
336.369	96.06
336.597	88.06
336.825	104.06
337.053	83.06
337.281	99.06
337.51	96.06
337.738	86.06
337.966	80.06
338.194	89.06
338.422	90.06
338.65	97.06
338.878	119.06
339.106	95.06
339.334	82.06
339.562	90.06
339.79	86.06
340.018	96.06
340.246	90.06
340.474	81.06
340.702	84.06
340.93	82.06
341.158	109.06
341.386	80.06
341.614	84.06
341.842	82.06
342.07	84.06
342.298	100.06
342.526	81.06
342.754	104.06
342.981	83.06
343.209	80.06
343.437	103.06
343.665	115.06
343.893	98.06
344.12	93.06
344.348	96.06
344.576	74.06
344.804	100.06
345.031	104.06
345.259	98.06
345.487	93.06
345.714	80.06
345.942	88.06
346.17	96.06
346.397	102.06
346.625	98.06
346.853	93.06
347.08	85.06
347.308	97.06
347.535	109.06
347.763	105.06
347.99	89.06
348.218	96.06
348.445	114.06
348.673	106.06
348.9	92.06
349.128	86.06
349.355	92.06
349.583	99.06
349.81	84.06
350.037	98.06
350.265	91.06
350.492	95.06
350.72	101.06
350.947	106.06
351.174	91.06
351.402	107.06
351.629	89.06
351.856	87.06
352.083	97.06
352.311	116.06
352.538	106.06
352.765	95.06
352.992	102.06
353.22	107.06
353.447	114.06
353.674	107.06
353.901	106.06
354.128	96.06
354.355	97.06
354.583	91.06
354.81	98.06
355.037	95.06
355.264	95.06
355.491	98.06
355.718	88.06
355.945	98.06
356.172	89.06
356.399	104.06
356.626	96.06
356.853	101.06
357.08	92.06
357.307	104.06
357.534	76.06
357.761	90.06
357.988	99.06
358.215	109.06
358.441	86.06
358.668	74.06
358.895	86.06
359.122	86.06
359.349	98.06
359.576	90.06
359.802	102.06
360.029	104.06
360.256	106.06
360.483	104.06
360.709	106.06
360.936	89.06
361.163	105.06
361.39	94.06
361.616	106.06
361.843	86.06
362.07	100.06
362.296	98.06
362.523	98.06
362.749	94.06
362.976	86.06
363.203	93.06
363.429	101.06
363.656	101.06
363.882	85.06
364.109	82.06
364.335	90.06
364.562	84.06
364.788	91.06
365.015	83.06
365.241	99.06
365.468	101.06
365.694	101.06
365.92	84.06
366.147	100.06
366.373	98.06
366.599	87.06
366.826	90.06
367.052	90.06
367.278	94.06
367.505	83.06
367.731	91.06
367.957	90.06
368.184	97.06
368.41	87.06
368.636	115.06
368.862	110.06
369.089	101.06
369.315	87.06
369.541	88.06
369.767	90.06
369.993	89.06
370.219	89.06
370.445	90.06
370.672	81.06
370.898	73.06
371.124	108.06
371.35	86.06
371.576	89.06
371.802	105.06
372.028	88.06
372.254	96.06
372.48	86.06
372.706	87.06
372.932	80.06
373.158	91.06
373.384	97.06
373.61	89.06
373.835	81.06
374.061	87.06
374.287	79.06
374.513	101.06
374.739	99.06
374.965	92.06
375.191	85.06
375.416	84.06
375.642	89.06
375.868	93.06
376.094	104.06
376.319	96.06
376.545	83.06
376.771	84.06
376.997	75.06
377.222	90.06
377.448	86.06
377.674	98.06
377.899	88.06
378.125	102.06
378.35	91.06
378.576	94.06
378.802	98.06
379.027	84.06
379.253	96.06
379.478	85.06
379.704	87.06
379.929	77.06
380.155	99.06
380.38	100.06
380.606	89.06
380.831	86.06
381.057	104.06
381.282	93.06
381.507	105.06
381.733	107.06
381.958	89.06
382.184	91.06
382.409	113.06
382.634	97.06
382.86	100.06
383.085	106.06
383.31	85.06
383.535	104.06
383.761	104.06
383.986	96.06
384.211	95.06
384.436	90.06
384.662	99.06
384.887	106.06
385.112	108.06
385.337	103.06
385.562	105.06
385.787	125.06
386.013	107.06
386.238	108.06
386.463	99.06
386.688	110.06
386.913	106.06
387.138	103.06
387.363	114.06
387.588	96.06
387.813	105.06
388.038	111.06
388.263	114.06
388.488	110.06
388.713	90.06
388.938	84.06
389.163	96.06
389.387	99.06
389.612	100.06
389.837	86.06
390.062	92.06
390.287	96.06
390.512	92.06
390.736	85.06
390.961	93.06
391.186	83.06
391.411	109.06
391.636	104.06
391.86	89.06
392.085	83.06
392.31	86.06
392.534	79.06
392.759	96.06
392.984	82.06
393.208	80.06
393.433	89.06
393.658	88.06
393.882	93.06
394.107	78.06
394.331	94.06
394.556	92.06
394.78	72.06
395.005	89.06
395.229	89.06
395.454	86.06
395.678	97.06
395.903	86.06
396.127	80.06
396.352	92.06
396.576	68.06
396.801	88.06
397.025	84.06
397.249	82.06
397.474	96.06
397.698	78.06
397.922	77.06
398.147	74.06
398.371	103.06
398.595	91.06
398.82	81.06
399.044	81.06
399.268	92.06
399.492	88.06
399.717	81.06
399.941	90.06
400.165	95.06
400.389	97.06
400.613	89.06
400.837	81.06
401.062	82.06
401.286	99.06
401.51	77.06
401.734	87.06
401.958	101.06
402.182	122.06
402.406	127.06
402.63	110.06
402.854	81.06
403.078	85.06
403.302	87.06
403.526	96.06
403.75	82.06
403.974	82.06
404.198	100.06
404.422	92.06
404.645	94.06
404.869	84.06
405.093	91.06
405.317	112.06
405.541	116.06
405.765	103.06
405.988	109.06
406.212	146.06
406.436	190.06
406.66	140.06
406.883	84.06
407.107	90.06
407.331	78.06
407.555	85.06
407.778	88.06
408.002	96.06
408.226	91.06
408.449	99.06
408.673	99.06
408.896	82.06
409.12	85.06
409.344	87.06
409.567	92.06
409.791	88.06
410.014	83.06
410.238	86.06
410.461	96.06
410.685	85.06
410.908	100.06
411.132	98.06
411.355	97.06
411.578	99.06
411.802	76.06
412.025	92.06
412.249	93.06
412.472	103.06
412.695	87.06
412.919	92.06
413.142	78.06
413.365	101.06
413.589	83.06
413.812	94.06
414.035	90.06
414.258	91.06
414.482	80.06
414.705	96.06
414.928	102.06
415.151	97.06
415.374	95.06
415.597	93.06
415.821	70.06
416.044	93.06
416.267	95.06
416.49	103.06
416.713	97.06
416.936	92.06
417.159	95.06
417.382	93.06
417.605	93.06
417.828	94.06
418.051	96.06
418.274	92.06
418.497	89.06
418.72	92.06
418.943	94.06
419.166	88.06
419.389	92.06
419.611	86.06
419.834	93.06
420.057	90.06
420.28	86.06
420.503	84.06
420.726	89.06
420.948	100.06
421.171	93.06
421.394	93.06
421.617	94.06
421.839	95.06
422.062	76.06
422.285	104.06
422.507	88.06
422.73	86.06
422.953	111.06
423.175	94.06
423.398	80.06
423.621	81.06
423.843	89.06
424.066	90.06
424.288	89.06
424.511	101.06
424.733	97.06
424.956	85.06
425.178	90.06
425.401	96.06
425.623	89.06
425.846	84.06
426.068	92.06
426.291	102.06
426.513	90.06
426.735	105.06
426.958	108.06
427.18	102.06
427.402	124.06
427.625	130.06
427.847	126.06
428.069	98.06
428.292	93.06
428.514	77.06
428.736	74.06
428.958	95.06
429.181	90.06
429.403	99.06
429.625	88.06
429.847	82.06
430.069	94.06
430.292	99.06
430.514	93.06
430.736	76.06
430.958	82.06
431.18	88.06
431.402	97.06
431.624	100.06
431.846	90.06
432.068	76.06
432.29	93.06
432.512	92.06
432.734	72.06
432.956	112.06
433.178	106.06
433.4	92.06
433.622	108.06
433.844	94.06
434.066	90.06
434.287	93.06
434.509	89.06
434.731	85.06
434.953	77.06
435.175	92.06
435.397	89.06
435.618	111.06
435.84	98.06
436.062	114.06
436.284	106.06
436.505	88.06
436.727	96.06
436.949	92.06
437.17	98.06
437.392	93.06
437.614	89.06
437.835	99.06
438.057	100.06
438.278	103.06
438.5	103.06
438.721	115.06
438.943	106.06
439.165	91.06
439.386	93.06
439.608	106.06
439.829	100.06
440.05	109.06
440.272	118.06
440.493	90.06
440.715	92.06
440.936	94.06
441.158	101.06
441.379	91.06
441.6	92.06
441.822	96.06
442.043	79.06
442.264	101.06
442.486	81.06
442.707	85.06
442.928	82.06
443.149	100.06
443.371	116.06
443.592	99.06
443.813	105.06
444.034	106.06
444.255	92.06
444.476	103.06
444.698	89.06
444.919	89.06
445.14	121.06
445.361	114.06
445.582	90.06
445.803	118.06
446.024	122.06
446.245	124.06
446.466	112.06
446.687	78.06
446.908	85.06
447.129	92.06
447.35	104.06
447.571	101.06
447.792	88.06
448.013	88.06
448.234	85.06
448.455	94.06
448.675	97.06
448.896	115.06
449.117	108.06
449.338	116.06
449.559	107.06
449.779	105.06
450	92.06
450.221	83.06
450.442	93.06
450.662	90.06
450.883	97.06
451.104	100.06
451.324	100.06
451.545	70.06
451.766	94.06
451.986	102.06
452.207	96.06
452.428	87.06
452.648	98.06
452.869	106.06
453.089	104.06
453.31	99.06
453.53	92.06
453.751	87.06
453.971	94.06
454.192	103.06
454.412	109.06
454.633	88.06
454.853	88.06
455.073	82.06
455.294	85.06
455.514	87.06
455.734	87.06
455.955	83.06
456.175	90.06
456.395	72.06
456.616	91.06
456.836	82.06
457.056	85.06
457.276	74.06
457.497	72.06
457.717	93.06
457.937	84.06
458.157	77.06
458.377	93.06
458.598	105.06
458.818	132.06
459.038	148.06
459.258	99.06
459.478	88.06
459.698	80.06
459.918	101.06
460.138	94.06
460.358	87.06
460.578	96.06
460.798	96.06
461.018	81.06
461.238	92.06
461.458	84.06
461.678	82.06
461.898	96.06
462.118	81.06
462.338	88.06
462.558	87.06
462.777	95.06
462.997	88.06
463.217	82.06
463.437	86.06
463.657	89.06
463.876	96.06
464.096	96.06
464.316	74.06
464.536	92.06
464.755	86.06
464.975	94.06
465.195	137.06
465.414	128.06
465.634	99.06
465.854	97.06
466.073	73.06
466.293	90.06
466.512	80.06
466.732	77.06
466.951	88.06
467.171	93.06
467.391	80.06
467.61	105.06
467.829	102.06
468.049	111.06
468.268	116.06
468.488	89.06
468.707	86.06
468.927	88.06
469.146	91.06
469.365	83.06
469.585	99.06
469.804	88.06
470.023	93.06
470.243	87.06
470.462	93.06
470.681	108.06
470.901	92.06
471.12	83.06
471.339	101.06
471.558	87.06
471.777	86.06
471.997	96.06
472.216	136.06
472.435	198.06
472.654	104.06
472.873	75.06
473.092	92.06
473.311	80.06
473.53	80.06
473.749	92.06
473.968	100.06
474.187	97.06
474.406	101.06
474.625	77.06
474.844	92.06
475.063	69.06
475.282	83.06
475.501	77.06
475.72	92.06
475.939	75.06
476.158	93.06
476.377	80.06
476.596	86.06
476.814	91.06
477.033	102.06
477.252	86.06
477.471	92.06
477.69	92.06
477.908	90.06
478.127	85.06
478.346	98.06
478.564	87.06
478.783	90.06
479.002	81.06
479.22	88.06
479.439	102.06
479.658	108.06
479.876	84.06
480.095	88.06
480.313	88.06
480.532	92.06
480.751	97.06
480.969	148.06
481.188	316.06
481.406	202.06
481.624	92.06
481.843	107.06
482.061	74.06
482.28	82.06
482.498	87.06
482.717	78.06
482.935	91.06
483.153	91.06
483.372	101.06
483.59	89.06
483.808	74.06
484.027	94.06
484.245	84.06
484.463	82.06
484.681	99.06
484.9	101.06
485.118	91.06
485.336	96.06
485.554	115.06
485.772	100.06
485.99	102.06
486.209	106.06
486.427	94.06
486.645	115.06
486.863	113.06
487.081	86.06
487.299	96.06
487.517	96.06
487.735	92.06
487.953	88.06
488.171	88.06
488.389	93.06
488.607	108.06
488.825	87.06
489.043	97.06
489.261	88.06
489.479	83.06
489.696	90.06
489.914	75.06
490.132	88.06
490.35	84.06
490.568	100.06
490.786	77.06
491.003	93.06
491.221	85.06
491.439	93.06
491.657	87.06
491.874	92.06
492.092	94.06
492.31	88.06
492.527	96.06
492.745	88.06
492.963	88.06
493.18	89.06
493.398	94.06
493.615	93.06
493.833	98.06
494.05	96.06
494.268	93.06
494.485	100.06
494.703	91.06
494.92	99.06
495.138	104.06
495.355	105.06
495.573	80.06
495.79	82.06
496.008	81.06
496.225	84.06
496.442	84.06
496.66	90.06
496.877	99.06
497.094	98.06
497.312	84.06
497.529	83.06
497.746	92.06
497.963	84.06
498.181	106.06
498.398	108.06
498.615	101.06
498.832	90.06
499.049	88.06
499.267	87.06
499.484	88.06
499.701	93.06
499.918	96.06
500.135	99.06
500.352	93.06
500.569	89.06
500.786	87.06
501.003	93.06
501.22	81.06
501.437	80.06
501.654	93.06
501.871	90.06
502.088	89.06
502.305	80.06
502.522	102.06
502.739	103.06
502.956	94.06
503.172	97.06
503.389	92.06
503.606	106.06
503.823	90.06
504.04	108.06
504.256	94.06
504.473	89.06
504.69	91.06
504.907	96.06
505.123	96.06
505.34	94.06
505.557	91.06
505.773	85.06
505.99	88.06
506.207	88.06
506.423	103.06
506.64	82.06
506.856	86.06
507.073	97.06
507.289	89.06
507.506	96.06
507.722	108.06
507.939	103.06
508.155	86.06
508.372	90.06
508.588	93.06
508.805	98.06
509.021	97.06
509.238	82.06
509.454	105.06
509.67	92.06
509.887	109.06
510.103	110.06
510.319	196.06
510.536	604.06
510.752	1736.06
510.968	502.06
511.184	137.06
511.401	98.06
511.617	92.06
511.833	86.06
512.049	101.06
512.265	97.06
512.481	115.06
512.698	92.06
512.914	106.06
513.13	98.06
513.346	100.06
513.562	91.06
513.778	95.06
513.994	88.06
514.21	92.06
514.426	113.06
514.642	116.06
514.858	115.06
515.074	144.06
515.29	358.06
515.506	1066.06
515.721	407.06
