Data from Circ_1986_H10_HRD10591_00097.txt Node
Date: Wed Jan 03 12:15:45 EST 2024
User: Yrep
Spectrometer: HR+D1059
Trigger mode: 1
Integration Time (sec): 1.000000E-1
Scans to average: 1
Electric dark correction enabled: true
Nonlinearity correction enabled: false
Boxcar width: 0
XAxis mode: Wavelengths
Number of Pixels in Spectrum: 2048
>>>>>Begin Spectral Data<<<<<
223.165	-12.31
223.4	-12.31
223.635	-12.31
223.869	-24.31
224.104	-20.31
224.338	-26.31
224.573	-7.31
224.808	-24.31
225.042	-6.31
225.277	-1.31
225.511	-5.31
225.746	8.69
225.98	9.69
226.215	11.69
226.449	20.69
226.683	25.69
226.918	24.69
227.152	26.69
227.387	47.69
227.621	50.69
227.856	30.69
228.09	55.69
228.324	67.69
228.559	62.69
228.793	53.69
229.027	53.69
229.262	74.69
229.496	80.69
229.73	75.69
229.964	82.69
230.199	89.69
230.433	71.69
230.667	70.69
230.901	89.69
231.136	91.69
231.37	89.69
231.604	90.69
231.838	78.69
232.072	63.69
232.306	70.69
232.541	91.69
232.775	84.69
233.009	82.69
233.243	64.69
233.477	88.69
233.711	96.69
233.945	84.69
234.179	81.69
234.413	86.69
234.647	88.69
234.881	76.69
235.115	75.69
235.349	84.69
235.583	72.69
235.817	86.69
236.051	78.69
236.285	82.69
236.519	75.69
236.753	75.69
236.987	85.69
237.221	92.69
237.455	99.69
237.689	79.69
237.922	79.69
238.156	68.69
238.39	74.69
238.624	63.69
238.858	75.69
239.091	69.69
239.325	79.69
239.559	72.69
239.793	73.69
240.027	75.69
240.26	86.69
240.494	88.69
240.728	70.69
240.961	87.69
241.195	80.69
241.429	75.69
241.662	82.69
241.896	88.69
242.13	66.69
242.363	79.69
242.597	73.69
242.83	83.69
243.064	83.69
243.298	83.69
243.531	73.69
243.765	72.69
243.998	79.69
244.232	89.69
244.465	88.69
244.699	85.69
244.932	84.69
245.166	88.69
245.399	79.69
245.633	72.69
245.866	78.69
246.099	80.69
246.333	81.69
246.566	94.69
246.8	69.69
247.033	91.69
247.266	88.69
247.5	65.69
247.733	80.69
247.966	89.69
248.2	74.69
248.433	84.69
248.666	71.69
248.899	82.69
249.133	77.69
249.366	110.69
249.599	107.69
249.832	78.69
250.066	86.69
250.299	89.69
250.532	86.69
250.765	78.69
250.998	89.69
251.231	75.69
251.465	81.69
251.698	65.69
251.931	82.69
252.164	86.69
252.397	82.69
252.63	68.69
252.863	85.69
253.096	79.69
253.329	91.69
253.562	87.69
253.795	88.69
254.028	71.69
254.261	91.69
254.494	83.69
254.727	100.69
254.96	93.69
255.193	80.69
255.426	87.69
255.659	94.69
255.892	77.69
256.124	81.69
256.357	79.69
256.59	72.69
256.823	82.69
257.056	86.69
257.289	74.69
257.521	95.69
257.754	83.69
257.987	81.69
258.22	76.69
258.452	86.69
258.685	98.69
258.918	89.69
259.151	82.69
259.383	82.69
259.616	80.69
259.849	88.69
260.081	84.69
260.314	87.69
260.547	77.69
260.779	82.69
261.012	76.69
261.244	94.69
261.477	92.69
261.71	94.69
261.942	114.69
262.175	128.69
262.407	90.69
262.64	81.69
262.872	64.69
263.105	87.69
263.337	82.69
263.57	83.69
263.802	101.69
264.035	89.69
264.267	82.69
264.499	68.69
264.732	82.69
264.964	74.69
265.197	89.69
265.429	78.69
265.661	75.69
265.894	71.69
266.126	95.69
266.358	83.69
266.591	70.69
266.823	84.69
267.055	88.69
267.287	84.69
267.52	79.69
267.752	86.69
267.984	82.69
268.216	87.69
268.448	89.69
268.681	68.69
268.913	86.69
269.145	107.69
269.377	81.69
269.609	89.69
269.841	93.69
270.073	91.69
270.306	77.69
270.538	90.69
270.77	86.69
271.002	82.69
271.234	80.69
271.466	83.69
271.698	84.69
271.93	84.69
272.162	91.69
272.394	91.69
272.626	87.69
272.858	79.69
273.09	75.69
273.322	83.69
273.553	83.69
273.785	80.69
274.017	80.69
274.249	99.69
274.481	95.69
274.713	81.69
274.945	81.69
275.176	74.69
275.408	87.69
275.64	72.69
275.872	80.69
276.104	84.69
276.335	90.69
276.567	97.69
276.799	98.69
277.031	99.69
277.262	88.69
277.494	109.69
277.726	82.69
277.957	80.69
278.189	98.69
278.421	89.69
278.652	99.69
278.884	95.69
279.115	85.69
279.347	86.69
279.579	90.69
279.81	95.69
280.042	95.69
280.273	108.69
280.505	92.69
280.736	90.69
280.968	88.69
281.199	91.69
281.431	92.69
281.662	101.69
281.894	86.69
282.125	102.69
282.356	119.69
282.588	139.69
282.819	108.69
283.051	85.69
283.282	88.69
283.513	88.69
283.745	90.69
283.976	85.69
284.207	80.69
284.439	91.69
284.67	85.69
284.901	80.69
285.132	81.69
285.364	71.69
285.595	83.69
285.826	84.69
286.057	96.69
286.288	94.69
286.52	92.69
286.751	84.69
286.982	66.69
287.213	88.69
287.444	95.69
287.675	91.69
287.906	84.69
288.138	79.69
288.369	87.69
288.6	89.69
288.831	91.69
289.062	80.69
289.293	97.69
289.524	90.69
289.755	90.69
289.986	93.69
290.217	98.69
290.448	88.69
290.679	95.69
290.91	98.69
291.141	83.69
291.371	86.69
291.602	96.69
291.833	83.69
292.064	89.69
292.295	100.69
292.526	86.69
292.757	76.69
292.987	92.69
293.218	81.69
293.449	104.69
293.68	98.69
293.91	88.69
294.141	84.69
294.372	90.69
294.603	75.69
294.833	104.69
295.064	97.69
295.295	82.69
295.525	86.69
295.756	94.69
295.987	117.69
296.217	128.69
296.448	108.69
296.679	98.69
296.909	99.69
297.14	96.69
297.37	89.69
297.601	90.69
297.831	68.69
298.062	93.69
298.292	90.69
298.523	91.69
298.753	89.69
298.984	91.69
299.214	90.69
299.445	94.69
299.675	90.69
299.905	105.69
300.136	89.69
300.366	96.69
300.597	87.69
300.827	88.69
301.057	96.69
301.288	101.69
301.518	83.69
301.748	94.69
301.979	93.69
302.209	95.69
302.439	90.69
302.669	83.69
302.9	67.69
303.13	98.69
303.36	97.69
303.59	87.69
303.82	109.69
304.051	113.69
304.281	83.69
304.511	96.69
304.741	83.69
304.971	99.69
305.201	89.69
305.431	101.69
305.661	93.69
305.891	92.69
306.121	95.69
306.352	99.69
306.582	95.69
306.812	92.69
307.042	100.69
307.272	99.69
307.502	119.69
307.731	92.69
307.961	97.69
308.191	95.69
308.421	81.69
308.651	99.69
308.881	102.69
309.111	91.69
309.341	102.69
309.571	99.69
309.8	83.69
310.03	112.69
310.26	112.69
310.49	103.69
310.72	89.69
310.949	95.69
311.179	106.69
311.409	81.69
311.639	100.69
311.868	94.69
312.098	98.69
312.328	98.69
312.557	92.69
312.787	92.69
313.017	85.69
313.246	99.69
313.476	95.69
313.706	100.69
313.935	105.69
314.165	94.69
314.394	103.69
314.624	109.69
314.853	95.69
315.083	90.69
315.312	88.69
315.542	101.69
315.771	95.69
316.001	90.69
316.23	96.69
316.46	98.69
316.689	72.69
316.919	88.69
317.148	95.69
317.377	96.69
317.607	97.69
317.836	100.69
318.065	91.69
318.295	96.69
318.524	101.69
318.753	97.69
318.983	98.69
319.212	101.69
319.441	94.69
319.67	106.69
319.9	86.69
320.129	78.69
320.358	87.69
320.587	98.69
320.816	87.69
321.046	104.69
321.275	119.69
321.504	84.69
321.733	86.69
321.962	100.69
322.191	105.69
322.42	106.69
322.649	99.69
322.878	105.69
323.108	90.69
323.337	120.69
323.566	129.69
323.795	154.69
324.024	195.69
324.253	389.69
324.482	776.69
324.71	1634.69
324.939	2181.69
325.168	788.69
325.397	249.69
325.626	136.69
325.855	135.69
326.084	120.69
326.313	148.69
326.542	148.69
326.77	218.69
326.999	438.69
327.228	930.69
327.457	1685.69
327.686	1321.69
327.914	372.69
328.143	198.69
328.372	190.69
328.6	150.69
328.829	134.69
329.058	134.69
329.287	144.69
329.515	116.69
329.744	128.69
329.972	154.69
330.201	217.69
330.43	248.69
330.658	174.69
330.887	135.69
331.115	113.69
331.344	98.69
331.572	87.69
331.801	103.69
332.03	97.69
332.258	89.69
332.486	100.69
332.715	94.69
332.943	99.69
333.172	99.69
333.4	99.69
333.629	100.69
333.857	116.69
334.085	149.69
334.314	195.69
334.542	267.69
334.771	279.69
334.999	130.69
335.227	104.69
335.455	110.69
335.684	82.69
335.912	102.69
336.14	90.69
336.369	88.69
336.597	106.69
336.825	100.69
337.053	90.69
337.281	96.69
337.51	103.69
337.738	87.69
337.966	82.69
338.194	95.69
338.422	87.69
338.65	95.69
338.878	94.69
339.106	86.69
339.334	98.69
339.562	91.69
339.79	96.69
340.018	98.69
340.246	78.69
340.474	91.69
340.702	92.69
340.93	96.69
341.158	84.69
341.386	99.69
341.614	86.69
341.842	81.69
342.07	87.69
342.298	74.69
342.526	101.69
342.754	96.69
342.981	99.69
343.209	90.69
343.437	98.69
343.665	75.69
343.893	96.69
344.12	91.69
344.348	88.69
344.576	90.69
344.804	94.69
345.031	95.69
345.259	91.69
345.487	84.69
345.714	91.69
345.942	86.69
346.17	106.69
346.397	100.69
346.625	87.69
346.853	85.69
347.08	86.69
347.308	91.69
347.535	112.69
347.763	110.69
347.99	88.69
348.218	93.69
348.445	95.69
348.673	111.69
348.9	101.69
349.128	82.69
349.355	88.69
349.583	96.69
349.81	105.69
350.037	103.69
350.265	103.69
350.492	84.69
350.72	91.69
350.947	94.69
351.174	112.69
351.402	97.69
351.629	103.69
351.856	90.69
352.083	108.69
352.311	115.69
352.538	108.69
352.765	123.69
352.992	96.69
353.22	107.69
353.447	100.69
353.674	95.69
353.901	96.69
354.128	90.69
354.355	87.69
354.583	94.69
354.81	117.69
355.037	90.69
355.264	95.69
355.491	92.69
355.718	98.69
355.945	96.69
356.172	86.69
356.399	98.69
356.626	97.69
356.853	95.69
357.08	103.69
357.307	93.69
357.534	98.69
357.761	90.69
357.988	87.69
358.215	94.69
358.441	82.69
358.668	88.69
358.895	92.69
359.122	85.69
359.349	87.69
359.576	84.69
359.802	104.69
360.029	99.69
360.256	88.69
360.483	106.69
360.709	102.69
360.936	100.69
361.163	98.69
361.39	106.69
361.616	89.69
361.843	91.69
362.07	103.69
362.296	94.69
362.523	89.69
362.749	101.69
362.976	101.69
363.203	91.69
363.429	97.69
363.656	93.69
363.882	95.69
364.109	90.69
364.335	86.69
364.562	88.69
364.788	80.69
365.015	103.69
365.241	103.69
365.468	100.69
365.694	107.69
365.92	108.69
366.147	84.69
366.373	79.69
366.599	100.69
366.826	105.69
367.052	89.69
367.278	102.69
367.505	89.69
367.731	99.69
367.957	87.69
368.184	107.69
368.41	111.69
368.636	106.69
368.862	111.69
369.089	113.69
369.315	90.69
369.541	88.69
369.767	93.69
369.993	101.69
370.219	90.69
370.445	91.69
370.672	97.69
370.898	84.69
371.124	86.69
371.35	90.69
371.576	82.69
371.802	92.69
372.028	91.69
372.254	99.69
372.48	100.69
372.706	100.69
372.932	84.69
373.158	91.69
373.384	95.69
373.61	88.69
373.835	95.69
374.061	94.69
374.287	91.69
374.513	94.69
374.739	102.69
374.965	84.69
375.191	87.69
375.416	103.69
375.642	83.69
375.868	113.69
376.094	91.69
376.319	96.69
376.545	99.69
376.771	100.69
376.997	85.69
377.222	91.69
377.448	103.69
377.674	85.69
377.899	102.69
378.125	106.69
378.35	94.69
378.576	99.69
378.802	86.69
379.027	86.69
379.253	101.69
379.478	101.69
379.704	99.69
379.929	89.69
380.155	92.69
380.38	98.69
380.606	96.69
380.831	98.69
381.057	86.69
381.282	91.69
381.507	92.69
381.733	92.69
381.958	101.69
382.184	89.69
382.409	97.69
382.634	88.69
382.86	108.69
383.085	103.69
383.31	109.69
383.535	89.69
383.761	84.69
383.986	106.69
384.211	96.69
384.436	89.69
384.662	99.69
384.887	102.69
385.112	91.69
385.337	86.69
385.562	115.69
385.787	107.69
386.013	97.69
386.238	108.69
386.463	101.69
386.688	110.69
386.913	106.69
387.138	101.69
387.363	109.69
387.588	107.69
387.813	102.69
388.038	96.69
388.263	133.69
388.488	98.69
388.713	91.69
388.938	94.69
389.163	88.69
389.387	73.69
389.612	92.69
389.837	74.69
390.062	102.69
390.287	87.69
390.512	74.69
390.736	87.69
390.961	97.69
391.186	95.69
391.411	88.69
391.636	95.69
391.86	90.69
392.085	80.69
392.31	84.69
392.534	84.69
392.759	90.69
392.984	87.69
393.208	95.69
393.433	85.69
393.658	65.69
393.882	84.69
394.107	94.69
394.331	88.69
394.556	84.69
394.78	100.69
395.005	86.69
395.229	90.69
395.454	78.69
395.678	97.69
395.903	91.69
396.127	88.69
396.352	86.69
396.576	82.69
396.801	84.69
397.025	98.69
397.249	94.69
397.474	87.69
397.698	82.69
397.922	84.69
398.147	99.69
398.371	83.69
398.595	91.69
398.82	89.69
399.044	75.69
399.268	96.69
399.492	94.69
399.717	95.69
399.941	97.69
400.165	87.69
400.389	86.69
400.613	81.69
400.837	98.69
401.062	87.69
401.286	91.69
401.51	94.69
401.734	90.69
401.958	92.69
402.182	134.69
402.406	165.69
402.63	112.69
402.854	91.69
403.078	78.69
403.302	76.69
403.526	86.69
403.75	90.69
403.974	79.69
404.198	76.69
404.422	79.69
404.645	83.69
404.869	87.69
405.093	84.69
405.317	104.69
405.541	111.69
405.765	99.69
405.988	91.69
406.212	181.69
406.436	233.69
406.66	148.69
406.883	91.69
407.107	84.69
407.331	94.69
407.555	96.69
407.778	90.69
408.002	94.69
408.226	97.69
408.449	86.69
408.673	80.69
408.896	100.69
409.12	101.69
409.344	73.69
409.567	86.69
409.791	84.69
410.014	108.69
410.238	85.69
410.461	90.69
410.685	93.69
410.908	86.69
411.132	104.69
411.355	103.69
411.578	95.69
411.802	82.69
412.025	94.69
412.249	103.69
412.472	96.69
412.695	99.69
412.919	83.69
413.142	92.69
413.365	110.69
413.589	98.69
413.812	80.69
414.035	83.69
414.258	92.69
414.482	83.69
414.705	98.69
414.928	74.69
415.151	75.69
415.374	106.69
415.597	86.69
415.821	101.69
416.044	79.69
416.267	87.69
416.49	95.69
416.713	89.69
416.936	94.69
417.159	78.69
417.382	102.69
417.605	81.69
417.828	95.69
418.051	95.69
418.274	75.69
418.497	96.69
418.72	84.69
418.943	84.69
419.166	82.69
419.389	75.69
419.611	66.69
419.834	86.69
420.057	85.69
420.28	92.69
420.503	80.69
420.726	94.69
420.948	75.69
421.171	90.69
421.394	81.69
421.617	93.69
421.839	72.69
422.062	86.69
422.285	91.69
422.507	96.69
422.73	99.69
422.953	89.69
423.175	88.69
423.398	95.69
423.621	94.69
423.843	80.69
424.066	92.69
424.288	108.69
424.511	99.69
424.733	90.69
424.956	102.69
425.178	91.69
425.401	100.69
425.623	91.69
425.846	94.69
426.068	80.69
426.291	95.69
426.513	101.69
426.735	100.69
426.958	103.69
427.18	115.69
427.402	142.69
427.625	165.69
427.847	154.69
428.069	119.69
428.292	90.69
428.514	86.69
428.736	73.69
428.958	63.69
429.181	94.69
429.403	87.69
429.625	98.69
429.847	91.69
430.069	97.69
430.292	102.69
430.514	80.69
430.736	102.69
430.958	97.69
431.18	84.69
431.402	91.69
431.624	107.69
431.846	86.69
432.068	96.69
432.29	92.69
432.512	92.69
432.734	94.69
432.956	97.69
433.178	92.69
433.4	105.69
433.622	98.69
433.844	93.69
434.066	94.69
434.287	90.69
434.509	103.69
434.731	84.69
434.953	101.69
435.175	96.69
435.397	93.69
435.618	92.69
435.84	100.69
436.062	118.69
436.284	113.69
436.505	110.69
436.727	99.69
436.949	94.69
437.17	85.69
437.392	104.69
437.614	91.69
437.835	93.69
438.057	108.69
438.278	101.69
438.5	100.69
438.721	126.69
438.943	98.69
439.165	100.69
439.386	86.69
439.608	92.69
439.829	83.69
440.05	114.69
440.272	143.69
440.493	92.69
440.715	85.69
440.936	87.69
441.158	95.69
441.379	101.69
441.6	88.69
441.822	91.69
442.043	91.69
442.264	96.69
442.486	96.69
442.707	99.69
442.928	113.69
443.149	127.69
443.371	128.69
443.592	108.69
443.813	112.69
444.034	104.69
444.255	100.69
444.476	96.69
444.698	79.69
444.919	70.69
445.14	134.69
445.361	116.69
445.582	123.69
445.803	139.69
446.024	122.69
446.245	122.69
446.466	116.69
446.687	90.69
446.908	84.69
447.129	99.69
447.35	93.69
447.571	74.69
447.792	96.69
448.013	106.69
448.234	91.69
448.455	111.69
448.675	100.69
448.896	103.69
449.117	102.69
449.338	101.69
449.559	125.69
449.779	131.69
450	79.69
450.221	87.69
450.442	90.69
450.662	75.69
450.883	113.69
451.104	119.69
451.324	95.69
451.545	83.69
451.766	100.69
451.986	67.69
452.207	76.69
452.428	80.69
452.648	104.69
452.869	113.69
453.089	112.69
453.31	113.69
453.53	97.69
453.751	108.69
453.971	112.69
454.192	94.69
454.412	87.69
454.633	87.69
454.853	89.69
455.073	95.69
455.294	93.69
455.514	103.69
455.734	92.69
455.955	75.69
456.175	81.69
456.395	81.69
456.616	82.69
456.836	88.69
457.056	92.69
457.276	87.69
457.497	96.69
457.717	78.69
457.937	90.69
458.157	82.69
458.377	92.69
458.598	99.69
458.818	146.69
459.038	139.69
459.258	108.69
459.478	94.69
459.698	84.69
459.918	90.69
460.138	86.69
460.358	82.69
460.578	92.69
460.798	91.69
461.018	94.69
461.238	94.69
461.458	86.69
461.678	85.69
461.898	84.69
462.118	75.69
462.338	75.69
462.558	95.69
462.777	82.69
462.997	83.69
463.217	98.69
463.437	92.69
463.657	87.69
463.876	86.69
464.096	92.69
464.316	78.69
464.536	86.69
464.755	91.69
464.975	95.69
465.195	170.69
465.414	168.69
465.634	90.69
465.854	86.69
466.073	94.69
466.293	90.69
466.512	74.69
466.732	82.69
466.951	82.69
467.171	104.69
467.391	88.69
467.61	110.69
467.829	113.69
468.049	157.69
468.268	170.69
468.488	112.69
468.707	72.69
468.927	74.69
469.146	88.69
469.365	87.69
469.585	102.69
469.804	94.69
470.023	101.69
470.243	88.69
470.462	92.69
470.681	103.69
470.901	96.69
471.12	89.69
471.339	94.69
471.558	96.69
471.777	101.69
471.997	110.69
472.216	226.69
472.435	379.69
472.654	146.69
472.873	100.69
473.092	102.69
473.311	84.69
473.53	74.69
473.749	96.69
473.968	75.69
474.187	105.69
474.406	98.69
474.625	87.69
474.844	87.69
475.063	102.69
475.282	89.69
475.501	81.69
475.72	88.69
475.939	74.69
476.158	93.69
476.377	96.69
476.596	94.69
476.814	93.69
477.033	100.69
477.252	91.69
477.471	82.69
477.69	91.69
477.908	89.69
478.127	83.69
478.346	88.69
478.564	112.69
478.783	96.69
479.002	98.69
479.22	88.69
479.439	108.69
479.658	102.69
479.876	91.69
480.095	106.69
480.313	114.69
480.532	106.69
480.751	106.69
480.969	227.69
481.188	626.69
481.406	390.69
481.624	124.69
481.843	99.69
482.061	102.69
482.28	98.69
482.498	103.69
482.717	84.69
482.935	86.69
483.153	98.69
483.372	89.69
483.59	79.69
483.808	68.69
484.027	72.69
484.245	86.69
484.463	101.69
484.681	91.69
484.9	83.69
485.118	96.69
485.336	98.69
485.554	103.69
485.772	98.69
485.99	102.69
486.209	95.69
486.427	113.69
486.645	102.69
486.863	102.69
487.081	92.69
487.299	99.69
487.517	98.69
487.735	82.69
487.953	91.69
488.171	99.69
488.389	104.69
488.607	98.69
488.825	80.69
489.043	95.69
489.261	95.69
489.479	93.69
489.696	104.69
489.914	95.69
490.132	86.69
490.35	93.69
490.568	99.69
490.786	80.69
491.003	103.69
491.221	78.69
491.439	92.69
491.657	99.69
491.874	91.69
492.092	100.69
492.31	98.69
492.527	102.69
492.745	94.69
492.963	85.69
493.18	91.69
493.398	101.69
493.615	103.69
493.833	90.69
494.05	96.69
494.268	92.69
494.485	90.69
494.703	82.69
494.92	98.69
495.138	87.69
495.355	90.69
495.573	91.69
495.79	96.69
496.008	102.69
496.225	89.69
496.442	79.69
496.66	96.69
496.877	90.69
497.094	81.69
497.312	94.69
497.529	103.69
497.746	100.69
497.963	90.69
498.181	91.69
498.398	97.69
498.615	111.69
498.832	99.69
499.049	108.69
499.267	93.69
499.484	96.69
499.701	89.69
499.918	88.69
500.135	92.69
500.352	102.69
500.569	78.69
500.786	90.69
501.003	89.69
501.22	78.69
501.437	82.69
501.654	86.69
501.871	97.69
502.088	97.69
502.305	88.69
502.522	75.69
502.739	80.69
502.956	106.69
503.172	89.69
503.389	95.69
503.606	108.69
503.823	112.69
504.04	99.69
504.256	99.69
504.473	96.69
504.69	81.69
504.907	90.69
505.123	92.69
505.34	100.69
505.557	98.69
505.773	96.69
505.99	90.69
506.207	88.69
506.423	90.69
506.64	111.69
506.856	86.69
507.073	111.69
507.289	90.69
507.506	92.69
507.722	129.69
507.939	106.69
508.155	90.69
508.372	91.69
508.588	85.69
508.805	94.69
509.021	97.69
509.238	90.69
509.454	103.69
509.67	101.69
509.887	105.69
510.103	132.69
510.319	207.69
510.536	734.69
510.752	2297.69
510.968	618.69
511.184	142.69
511.401	115.69
511.617	102.69
511.833	84.69
512.049	97.69
512.265	90.69
512.481	83.69
512.698	89.69
512.914	88.69
513.13	89.69
513.346	95.69
513.562	109.69
513.778	102.69
513.994	100.69
514.21	107.69
514.426	122.69
514.642	129.69
514.858	127.69
515.074	146.69
515.29	451.69
