Data from Circ_1986_H10_HRD10591_00092.txt Node
Date: Wed Jan 03 12:15:44 EST 2024
User: Yrep
Spectrometer: HR+D1059
Trigger mode: 1
Integration Time (sec): 1.000000E-1
Scans to average: 1
Electric dark correction enabled: true
Nonlinearity correction enabled: false
Boxcar width: 0
XAxis mode: Wavelengths
Number of Pixels in Spectrum: 2048
>>>>>Begin Spectral Data<<<<<
223.165	-20.75
223.4	-20.75
223.635	-20.75
223.869	-15.75
224.104	-14.75
224.338	-14.75
224.573	-10.75
224.808	-13.75
225.042	-24.75
225.277	-15.75
225.511	0.25
225.746	-1.75
225.98	22.25
226.215	20.25
226.449	12.25
226.683	21.25
226.918	25.25
227.152	31.25
227.387	43.25
227.621	32.25
227.856	44.25
228.09	46.25
228.324	60.25
228.559	59.25
228.793	63.25
229.027	76.25
229.262	66.25
229.496	76.25
229.73	99.25
229.964	87.25
230.199	70.25
230.433	65.25
230.667	79.25
230.901	89.25
231.136	67.25
231.37	93.25
231.604	90.25
231.838	87.25
232.072	95.25
232.306	84.25
232.541	74.25
232.775	101.25
233.009	83.25
233.243	89.25
233.477	81.25
233.711	93.25
233.945	64.25
234.179	65.25
234.413	83.25
234.647	89.25
234.881	77.25
235.115	76.25
235.349	70.25
235.583	87.25
235.817	87.25
236.051	76.25
236.285	80.25
236.519	87.25
236.753	87.25
236.987	98.25
237.221	84.25
237.455	82.25
237.689	81.25
237.922	79.25
238.156	78.25
238.39	87.25
238.624	87.25
238.858	93.25
239.091	70.25
239.325	92.25
239.559	86.25
239.793	75.25
240.027	85.25
240.26	93.25
240.494	88.25
240.728	77.25
240.961	87.25
241.195	79.25
241.429	68.25
241.662	70.25
241.896	75.25
242.13	90.25
242.363	89.25
242.597	85.25
242.83	86.25
243.064	88.25
243.298	89.25
243.531	86.25
243.765	97.25
243.998	89.25
244.232	92.25
244.465	93.25
244.699	78.25
244.932	67.25
245.166	92.25
245.399	67.25
245.633	58.25
245.866	74.25
246.099	80.25
246.333	77.25
246.566	83.25
246.8	81.25
247.033	82.25
247.266	83.25
247.5	85.25
247.733	72.25
247.966	85.25
248.2	61.25
248.433	86.25
248.666	83.25
248.899	83.25
249.133	105.25
249.366	100.25
249.599	98.25
249.832	87.25
250.066	77.25
250.299	77.25
250.532	80.25
250.765	83.25
250.998	88.25
251.231	74.25
251.465	67.25
251.698	81.25
251.931	79.25
252.164	87.25
252.397	93.25
252.63	87.25
252.863	95.25
253.096	92.25
253.329	87.25
253.562	86.25
253.795	92.25
254.028	93.25
254.261	91.25
254.494	79.25
254.727	82.25
254.96	87.25
255.193	91.25
255.426	96.25
255.659	68.25
255.892	89.25
256.124	78.25
256.357	79.25
256.59	75.25
256.823	74.25
257.056	84.25
257.289	85.25
257.521	93.25
257.754	87.25
257.987	99.25
258.22	78.25
258.452	86.25
258.685	99.25
258.918	90.25
259.151	89.25
259.383	94.25
259.616	81.25
259.849	93.25
260.081	94.25
260.314	85.25
260.547	86.25
260.779	94.25
261.012	89.25
261.244	98.25
261.477	100.25
261.71	88.25
261.942	105.25
262.175	113.25
262.407	91.25
262.64	86.25
262.872	92.25
263.105	85.25
263.337	97.25
263.57	92.25
263.802	96.25
264.035	86.25
264.267	79.25
264.499	103.25
264.732	85.25
264.964	85.25
265.197	96.25
265.429	83.25
265.661	101.25
265.894	87.25
266.126	84.25
266.358	93.25
266.591	87.25
266.823	85.25
267.055	100.25
267.287	90.25
267.52	79.25
267.752	87.25
267.984	64.25
268.216	80.25
268.448	87.25
268.681	91.25
268.913	87.25
269.145	102.25
269.377	76.25
269.609	93.25
269.841	89.25
270.073	87.25
270.306	97.25
270.538	89.25
270.77	86.25
271.002	88.25
271.234	76.25
271.466	90.25
271.698	93.25
271.93	99.25
272.162	86.25
272.394	95.25
272.626	87.25
272.858	89.25
273.09	99.25
273.322	91.25
273.553	93.25
273.785	99.25
274.017	99.25
274.249	84.25
274.481	85.25
274.713	99.25
274.945	85.25
275.176	91.25
275.408	93.25
275.64	92.25
275.872	101.25
276.104	85.25
276.335	100.25
276.567	90.25
276.799	99.25
277.031	114.25
277.262	108.25
277.494	98.25
277.726	96.25
277.957	78.25
278.189	91.25
278.421	103.25
278.652	92.25
278.884	95.25
279.115	81.25
279.347	99.25
279.579	85.25
279.81	101.25
280.042	95.25
280.273	109.25
280.505	108.25
280.736	100.25
280.968	97.25
281.199	90.25
281.431	91.25
281.662	110.25
281.894	97.25
282.125	87.25
282.356	112.25
282.588	120.25
282.819	111.25
283.051	89.25
283.282	92.25
283.513	85.25
283.745	87.25
283.976	83.25
284.207	84.25
284.439	80.25
284.67	100.25
284.901	96.25
285.132	95.25
285.364	116.25
285.595	97.25
285.826	89.25
286.057	93.25
286.288	90.25
286.52	100.25
286.751	94.25
286.982	99.25
287.213	93.25
287.444	92.25
287.675	78.25
287.906	91.25
288.138	96.25
288.369	84.25
288.6	93.25
288.831	88.25
289.062	86.25
289.293	95.25
289.524	99.25
289.755	86.25
289.986	96.25
290.217	83.25
290.448	87.25
290.679	104.25
290.91	91.25
291.141	98.25
291.371	81.25
291.602	91.25
291.833	94.25
292.064	88.25
292.295	93.25
292.526	101.25
292.757	87.25
292.987	79.25
293.218	87.25
293.449	94.25
293.68	83.25
293.91	93.25
294.141	86.25
294.372	95.25
294.603	100.25
294.833	83.25
295.064	105.25
295.295	98.25
295.525	96.25
295.756	96.25
295.987	105.25
296.217	131.25
296.448	112.25
296.679	87.25
296.909	96.25
297.14	118.25
297.37	107.25
297.601	91.25
297.831	81.25
298.062	105.25
298.292	95.25
298.523	96.25
298.753	95.25
298.984	95.25
299.214	81.25
299.445	105.25
299.675	107.25
299.905	89.25
300.136	103.25
300.366	100.25
300.597	83.25
300.827	95.25
301.057	96.25
301.288	98.25
301.518	87.25
301.748	94.25
301.979	91.25
302.209	92.25
302.439	103.25
302.669	80.25
302.9	108.25
303.13	96.25
303.36	105.25
303.59	120.25
303.82	102.25
304.051	106.25
304.281	95.25
304.511	101.25
304.741	100.25
304.971	101.25
305.201	83.25
305.431	106.25
305.661	103.25
305.891	102.25
306.121	92.25
306.352	95.25
306.582	102.25
306.812	102.25
307.042	110.25
307.272	103.25
307.502	109.25
307.731	120.25
307.961	103.25
308.191	99.25
308.421	95.25
308.651	104.25
308.881	81.25
309.111	93.25
309.341	108.25
309.571	101.25
309.8	74.25
310.03	107.25
310.26	81.25
310.49	90.25
310.72	111.25
310.949	111.25
311.179	100.25
311.409	110.25
311.639	101.25
311.868	99.25
312.098	94.25
312.328	96.25
312.557	92.25
312.787	95.25
313.017	88.25
313.246	95.25
313.476	101.25
313.706	97.25
313.935	110.25
314.165	105.25
314.394	104.25
314.624	107.25
314.853	106.25
315.083	100.25
315.312	79.25
315.542	93.25
315.771	95.25
316.001	109.25
316.23	97.25
316.46	86.25
316.689	101.25
316.919	101.25
317.148	101.25
317.377	88.25
317.607	91.25
317.836	101.25
318.065	91.25
318.295	91.25
318.524	100.25
318.753	113.25
318.983	104.25
319.212	105.25
319.441	103.25
319.67	110.25
319.9	110.25
320.129	94.25
320.358	106.25
320.587	84.25
320.816	87.25
321.046	104.25
321.275	98.25
321.504	105.25
321.733	103.25
321.962	111.25
322.191	103.25
322.42	103.25
322.649	117.25
322.878	118.25
323.108	126.25
323.337	128.25
323.566	127.25
323.795	150.25
324.024	187.25
324.253	345.25
324.482	717.25
324.71	1489.25
324.939	1929.25
325.168	715.25
325.397	217.25
325.626	131.25
325.855	127.25
326.084	153.25
326.313	132.25
326.542	155.25
326.77	212.25
326.999	408.25
327.228	828.25
327.457	1533.25
327.686	1233.25
327.914	352.25
328.143	197.25
328.372	159.25
328.6	141.25
328.829	124.25
329.058	117.25
329.287	133.25
329.515	116.25
329.744	118.25
329.972	127.25
330.201	170.25
330.43	202.25
330.658	153.25
330.887	135.25
331.115	110.25
331.344	104.25
331.572	101.25
331.801	97.25
332.03	104.25
332.258	99.25
332.486	101.25
332.715	97.25
332.943	90.25
333.172	88.25
333.4	96.25
333.629	111.25
333.857	119.25
334.085	125.25
334.314	161.25
334.542	221.25
334.771	214.25
334.999	129.25
335.227	101.25
335.455	104.25
335.684	99.25
335.912	105.25
336.14	106.25
336.369	121.25
336.597	109.25
336.825	88.25
337.053	97.25
337.281	108.25
337.51	100.25
337.738	101.25
337.966	91.25
338.194	92.25
338.422	104.25
338.65	107.25
338.878	93.25
339.106	89.25
339.334	91.25
339.562	93.25
339.79	92.25
340.018	99.25
340.246	100.25
340.474	99.25
340.702	87.25
340.93	103.25
341.158	100.25
341.386	80.25
341.614	109.25
341.842	111.25
342.07	78.25
342.298	88.25
342.526	93.25
342.754	104.25
342.981	94.25
343.209	95.25
343.437	108.25
343.665	101.25
343.893	90.25
344.12	96.25
344.348	98.25
344.576	98.25
344.804	87.25
345.031	103.25
345.259	108.25
345.487	107.25
345.714	108.25
345.942	87.25
346.17	85.25
346.397	98.25
346.625	87.25
346.853	102.25
347.08	89.25
347.308	105.25
347.535	94.25
347.763	99.25
347.99	108.25
348.218	102.25
348.445	99.25
348.673	109.25
348.9	94.25
349.128	78.25
349.355	90.25
349.583	108.25
349.81	105.25
350.037	97.25
350.265	96.25
350.492	98.25
350.72	98.25
350.947	112.25
351.174	90.25
351.402	108.25
351.629	95.25
351.856	100.25
352.083	99.25
352.311	95.25
352.538	128.25
352.765	112.25
352.992	108.25
353.22	115.25
353.447	102.25
353.674	100.25
353.901	102.25
354.128	96.25
354.355	113.25
354.583	98.25
354.81	94.25
355.037	97.25
355.264	81.25
355.491	98.25
355.718	94.25
355.945	91.25
356.172	89.25
356.399	94.25
356.626	108.25
356.853	86.25
357.08	89.25
357.307	86.25
357.534	98.25
357.761	100.25
357.988	100.25
358.215	110.25
358.441	104.25
358.668	110.25
358.895	95.25
359.122	102.25
359.349	91.25
359.576	88.25
359.802	105.25
360.029	105.25
360.256	107.25
360.483	110.25
360.709	97.25
360.936	101.25
361.163	99.25
361.39	110.25
361.616	88.25
361.843	78.25
362.07	107.25
362.296	93.25
362.523	94.25
362.749	102.25
362.976	84.25
363.203	89.25
363.429	91.25
363.656	113.25
363.882	83.25
364.109	99.25
364.335	88.25
364.562	97.25
364.788	90.25
365.015	93.25
365.241	97.25
365.468	107.25
365.694	106.25
365.92	100.25
366.147	100.25
366.373	87.25
366.599	93.25
366.826	95.25
367.052	88.25
367.278	95.25
367.505	97.25
367.731	90.25
367.957	102.25
368.184	103.25
368.41	84.25
368.636	107.25
368.862	113.25
369.089	95.25
369.315	92.25
369.541	84.25
369.767	84.25
369.993	98.25
370.219	83.25
370.445	101.25
370.672	100.25
370.898	86.25
371.124	82.25
371.35	85.25
371.576	87.25
371.802	103.25
372.028	84.25
372.254	86.25
372.48	88.25
372.706	89.25
372.932	92.25
373.158	101.25
373.384	86.25
373.61	79.25
373.835	87.25
374.061	87.25
374.287	107.25
374.513	80.25
374.739	92.25
374.965	96.25
375.191	68.25
375.416	101.25
375.642	73.25
375.868	100.25
376.094	90.25
376.319	77.25
376.545	84.25
376.771	109.25
376.997	109.25
377.222	93.25
377.448	94.25
377.674	100.25
377.899	90.25
378.125	95.25
378.35	87.25
378.576	87.25
378.802	108.25
379.027	101.25
379.253	95.25
379.478	93.25
379.704	94.25
379.929	103.25
380.155	89.25
380.38	112.25
380.606	93.25
380.831	101.25
381.057	107.25
381.282	93.25
381.507	84.25
381.733	99.25
381.958	105.25
382.184	100.25
382.409	114.25
382.634	103.25
382.86	93.25
383.085	108.25
383.31	97.25
383.535	110.25
383.761	93.25
383.986	94.25
384.211	94.25
384.436	103.25
384.662	88.25
384.887	111.25
385.112	117.25
385.337	111.25
385.562	97.25
385.787	99.25
386.013	111.25
386.238	119.25
386.463	106.25
386.688	121.25
386.913	99.25
387.138	114.25
387.363	103.25
387.588	97.25
387.813	103.25
388.038	105.25
388.263	113.25
388.488	119.25
388.713	105.25
388.938	110.25
389.163	111.25
389.387	113.25
389.612	101.25
389.837	95.25
390.062	87.25
390.287	89.25
390.512	89.25
390.736	105.25
390.961	89.25
391.186	87.25
391.411	99.25
391.636	87.25
391.86	88.25
392.085	93.25
392.31	91.25
392.534	89.25
392.759	101.25
392.984	91.25
393.208	86.25
393.433	90.25
393.658	99.25
393.882	84.25
394.107	95.25
394.331	89.25
394.556	99.25
394.78	95.25
395.005	101.25
395.229	81.25
395.454	84.25
395.678	85.25
395.903	109.25
396.127	100.25
396.352	104.25
396.576	89.25
396.801	91.25
397.025	83.25
397.249	79.25
397.474	101.25
397.698	104.25
397.922	99.25
398.147	94.25
398.371	85.25
398.595	84.25
398.82	87.25
399.044	86.25
399.268	95.25
399.492	95.25
399.717	100.25
399.941	87.25
400.165	94.25
400.389	91.25
400.613	86.25
400.837	85.25
401.062	92.25
401.286	85.25
401.51	96.25
401.734	100.25
401.958	109.25
402.182	115.25
402.406	131.25
402.63	105.25
402.854	95.25
403.078	89.25
403.302	94.25
403.526	93.25
403.75	115.25
403.974	96.25
404.198	97.25
404.422	96.25
404.645	78.25
404.869	99.25
405.093	89.25
405.317	99.25
405.541	102.25
405.765	101.25
405.988	127.25
406.212	135.25
406.436	188.25
406.66	126.25
406.883	104.25
407.107	80.25
407.331	104.25
407.555	95.25
407.778	79.25
408.002	91.25
408.226	93.25
408.449	86.25
408.673	92.25
408.896	86.25
409.12	103.25
409.344	95.25
409.567	96.25
409.791	93.25
410.014	98.25
410.238	100.25
410.461	80.25
410.685	78.25
410.908	96.25
411.132	97.25
411.355	101.25
411.578	105.25
411.802	106.25
412.025	87.25
412.249	75.25
412.472	112.25
412.695	120.25
412.919	93.25
413.142	96.25
413.365	100.25
413.589	95.25
413.812	96.25
414.035	92.25
414.258	112.25
414.482	91.25
414.705	80.25
414.928	85.25
415.151	94.25
415.374	86.25
415.597	98.25
415.821	99.25
416.044	80.25
416.267	97.25
416.49	101.25
416.713	97.25
416.936	93.25
417.159	93.25
417.382	90.25
417.605	84.25
417.828	112.25
418.051	109.25
418.274	95.25
418.497	99.25
418.72	80.25
418.943	87.25
419.166	95.25
419.389	107.25
419.611	80.25
419.834	96.25
420.057	88.25
420.28	96.25
420.503	90.25
420.726	89.25
420.948	100.25
421.171	104.25
421.394	102.25
421.617	85.25
421.839	107.25
422.062	88.25
422.285	95.25
422.507	111.25
422.73	99.25
422.953	88.25
423.175	82.25
423.398	96.25
423.621	98.25
423.843	97.25
424.066	91.25
424.288	90.25
424.511	93.25
424.733	97.25
424.956	96.25
425.178	99.25
425.401	103.25
425.623	85.25
425.846	104.25
426.068	91.25
426.291	88.25
426.513	103.25
426.735	89.25
426.958	93.25
427.18	93.25
427.402	136.25
427.625	171.25
427.847	129.25
428.069	125.25
428.292	101.25
428.514	87.25
428.736	99.25
428.958	88.25
429.181	100.25
429.403	97.25
429.625	70.25
429.847	95.25
430.069	97.25
430.292	98.25
430.514	88.25
430.736	93.25
430.958	93.25
431.18	97.25
431.402	90.25
431.624	88.25
431.846	86.25
432.068	92.25
432.29	103.25
432.512	87.25
432.734	90.25
432.956	101.25
433.178	87.25
433.4	95.25
433.622	91.25
433.844	95.25
434.066	95.25
434.287	99.25
434.509	97.25
434.731	80.25
434.953	77.25
435.175	92.25
435.397	83.25
435.618	90.25
435.84	95.25
436.062	110.25
436.284	89.25
436.505	107.25
436.727	101.25
436.949	103.25
437.17	77.25
437.392	91.25
437.614	96.25
437.835	112.25
438.057	104.25
438.278	92.25
438.5	117.25
438.721	118.25
438.943	101.25
439.165	80.25
439.386	80.25
439.608	97.25
439.829	103.25
440.05	116.25
440.272	121.25
440.493	83.25
440.715	99.25
440.936	87.25
441.158	95.25
441.379	100.25
441.6	85.25
441.822	87.25
442.043	84.25
442.264	105.25
442.486	96.25
442.707	96.25
442.928	109.25
443.149	125.25
443.371	121.25
443.592	107.25
443.813	101.25
444.034	106.25
444.255	105.25
444.476	92.25
444.698	100.25
444.919	94.25
445.14	139.25
445.361	123.25
445.582	106.25
445.803	137.25
446.024	149.25
446.245	125.25
446.466	105.25
446.687	87.25
446.908	88.25
447.129	78.25
447.35	87.25
447.571	93.25
447.792	94.25
448.013	106.25
448.234	96.25
448.455	104.25
448.675	107.25
448.896	100.25
449.117	94.25
449.338	109.25
449.559	140.25
449.779	128.25
450	86.25
450.221	89.25
450.442	96.25
450.662	92.25
450.883	94.25
451.104	118.25
451.324	97.25
451.545	88.25
451.766	87.25
451.986	111.25
452.207	96.25
452.428	96.25
452.648	93.25
452.869	110.25
453.089	110.25
453.31	113.25
453.53	100.25
453.751	86.25
453.971	101.25
454.192	95.25
454.412	97.25
454.633	76.25
454.853	73.25
455.073	87.25
455.294	85.25
455.514	101.25
455.734	104.25
455.955	83.25
456.175	89.25
456.395	91.25
456.616	97.25
456.836	94.25
457.056	95.25
457.276	102.25
457.497	83.25
457.717	73.25
457.937	84.25
458.157	91.25
458.377	96.25
458.598	97.25
458.818	129.25
459.038	134.25
459.258	107.25
459.478	77.25
459.698	83.25
459.918	83.25
460.138	93.25
460.358	101.25
460.578	86.25
460.798	96.25
461.018	102.25
461.238	100.25
461.458	89.25
461.678	91.25
461.898	106.25
462.118	92.25
462.338	78.25
462.558	89.25
462.777	99.25
462.997	84.25
463.217	89.25
463.437	96.25
463.657	103.25
463.876	100.25
464.096	103.25
464.316	102.25
464.536	93.25
464.755	99.25
464.975	118.25
465.195	142.25
465.414	131.25
465.634	89.25
465.854	76.25
466.073	93.25
466.293	91.25
466.512	97.25
466.732	86.25
466.951	100.25
467.171	81.25
467.391	94.25
467.61	98.25
467.829	106.25
468.049	124.25
468.268	145.25
468.488	92.25
468.707	83.25
468.927	94.25
469.146	94.25
469.365	89.25
469.585	97.25
469.804	93.25
470.023	93.25
470.243	93.25
470.462	87.25
470.681	104.25
470.901	97.25
471.12	80.25
471.339	96.25
471.558	100.25
471.777	104.25
471.997	108.25
472.216	171.25
472.435	289.25
472.654	139.25
472.873	106.25
473.092	75.25
473.311	87.25
473.53	90.25
473.749	100.25
473.968	115.25
474.187	108.25
474.406	85.25
474.625	81.25
474.844	86.25
475.063	90.25
475.282	95.25
475.501	77.25
475.72	83.25
475.939	96.25
476.158	86.25
476.377	69.25
476.596	99.25
476.814	92.25
477.033	99.25
477.252	95.25
477.471	90.25
477.69	83.25
477.908	84.25
478.127	95.25
478.346	88.25
478.564	100.25
478.783	100.25
479.002	95.25
479.22	93.25
479.439	102.25
479.658	104.25
479.876	93.25
480.095	94.25
480.313	96.25
480.532	123.25
480.751	110.25
480.969	173.25
481.188	477.25
481.406	319.25
481.624	107.25
481.843	88.25
482.061	93.25
482.28	88.25
482.498	99.25
482.717	95.25
482.935	87.25
483.153	87.25
483.372	98.25
483.59	96.25
483.808	111.25
484.027	95.25
484.245	86.25
484.463	94.25
484.681	100.25
484.9	104.25
485.118	100.25
485.336	99.25
485.554	95.25
485.772	111.25
485.99	95.25
486.209	98.25
486.427	94.25
486.645	112.25
486.863	119.25
487.081	86.25
487.299	97.25
487.517	100.25
487.735	93.25
487.953	94.25
488.171	99.25
488.389	93.25
488.607	94.25
488.825	99.25
489.043	90.25
489.261	111.25
489.479	91.25
489.696	87.25
489.914	99.25
490.132	98.25
490.35	101.25
490.568	89.25
490.786	100.25
491.003	85.25
491.221	103.25
491.439	92.25
491.657	103.25
491.874	95.25
492.092	97.25
492.31	93.25
492.527	100.25
492.745	96.25
492.963	102.25
493.18	112.25
493.398	88.25
493.615	104.25
493.833	108.25
494.05	93.25
494.268	95.25
494.485	77.25
494.703	104.25
494.92	90.25
495.138	110.25
495.355	90.25
495.573	87.25
495.79	93.25
496.008	96.25
496.225	108.25
496.442	96.25
496.66	109.25
496.877	94.25
497.094	87.25
497.312	99.25
497.529	78.25
497.746	103.25
497.963	80.25
498.181	117.25
498.398	115.25
498.615	115.25
498.832	101.25
499.049	103.25
499.267	89.25
499.484	99.25
499.701	99.25
499.918	111.25
500.135	88.25
500.352	99.25
500.569	89.25
500.786	101.25
501.003	99.25
501.22	95.25
501.437	90.25
501.654	99.25
501.871	104.25
502.088	96.25
502.305	85.25
502.522	85.25
502.739	96.25
502.956	83.25
503.172	76.25
503.389	88.25
503.606	94.25
503.823	101.25
504.04	73.25
504.256	97.25
504.473	107.25
504.69	89.25
504.907	99.25
505.123	110.25
505.34	104.25
505.557	95.25
505.773	94.25
505.99	95.25
506.207	91.25
506.423	91.25
506.64	93.25
506.856	93.25
507.073	101.25
507.289	100.25
507.506	95.25
507.722	113.25
507.939	103.25
508.155	116.25
508.372	101.25
508.588	104.25
508.805	89.25
509.021	100.25
509.238	109.25
509.454	106.25
509.67	88.25
509.887	110.25
510.103	134.25
510.319	180.25
510.536	620.25
510.752	1828.25
510.968	517.25
511.184	138.25
511.401	103.25
511.617	96.25
511.833	100.25
512.049	93.25
512.265	90.25
512.481	112.25
512.698	106.25
512.914	107.25
513.13	97.25
513.346	86.25
513.562	99.25
513.778	104.25
