Data from Circ_1986_H10_HRD10591_00029.txt Node
Date: Wed Jan 03 12:15:31 EST 2024
User: Yrep
Spectrometer: HR+D1059
Trigger mode: 1
Integration Time (sec): 1.000000E-1
Scans to average: 1
Electric dark correction enabled: true
Nonlinearity correction enabled: false
Boxcar width: 0
XAxis mode: Wavelengths
Number of Pixels in Spectrum: 2048
>>>>>Begin Spectral Data<<<<<
223.165	-10.81
223.4	-10.81
223.635	-10.81
223.869	-17.81
224.104	-25.81
224.338	-13.81
224.573	-9.81
224.808	-9.81
225.042	-12.81
225.277	-9.81
225.511	-0.81
225.746	-4.81
225.98	1.19
226.215	16.19
226.449	15.19
226.683	23.19
226.918	30.19
227.152	30.19
227.387	35.19
227.621	36.19
227.856	45.19
228.09	47.19
228.324	51.19
228.559	51.19
228.793	64.19
229.027	48.19
229.262	64.19
229.496	62.19
229.73	72.19
229.964	79.19
230.199	83.19
230.433	80.19
230.667	74.19
230.901	86.19
231.136	94.19
231.37	63.19
231.604	85.19
231.838	85.19
232.072	67.19
232.306	85.19
232.541	69.19
232.775	83.19
233.009	77.19
233.243	79.19
233.477	89.19
233.711	75.19
233.945	81.19
234.179	80.19
234.413	74.19
234.647	75.19
234.881	81.19
235.115	82.19
235.349	75.19
235.583	82.19
235.817	79.19
236.051	78.19
236.285	62.19
236.519	77.19
236.753	79.19
236.987	80.19
237.221	72.19
237.455	84.19
237.689	72.19
237.922	63.19
238.156	86.19
238.39	66.19
238.624	74.19
238.858	77.19
239.091	81.19
239.325	73.19
239.559	78.19
239.793	70.19
240.027	74.19
240.26	64.19
240.494	81.19
240.728	70.19
240.961	56.19
241.195	70.19
241.429	77.19
241.662	87.19
241.896	76.19
242.13	75.19
242.363	80.19
242.597	79.19
242.83	73.19
243.064	84.19
243.298	96.19
243.531	73.19
243.765	79.19
243.998	78.19
244.232	89.19
244.465	70.19
244.699	90.19
244.932	86.19
245.166	81.19
245.399	71.19
245.633	93.19
245.866	81.19
246.099	106.19
246.333	67.19
246.566	79.19
246.8	90.19
247.033	84.19
247.266	83.19
247.5	85.19
247.733	67.19
247.966	64.19
248.2	84.19
248.433	75.19
248.666	73.19
248.899	84.19
249.133	70.19
249.366	99.19
249.599	92.19
249.832	69.19
250.066	82.19
250.299	65.19
250.532	67.19
250.765	87.19
250.998	83.19
251.231	77.19
251.465	83.19
251.698	80.19
251.931	83.19
252.164	86.19
252.397	91.19
252.63	101.19
252.863	71.19
253.096	89.19
253.329	91.19
253.562	95.19
253.795	81.19
254.028	87.19
254.261	83.19
254.494	86.19
254.727	85.19
254.96	84.19
255.193	74.19
255.426	64.19
255.659	59.19
255.892	94.19
256.124	74.19
256.357	74.19
256.59	72.19
256.823	79.19
257.056	72.19
257.289	91.19
257.521	79.19
257.754	82.19
257.987	85.19
258.22	78.19
258.452	85.19
258.685	73.19
258.918	80.19
259.151	81.19
259.383	75.19
259.616	85.19
259.849	74.19
260.081	88.19
260.314	69.19
260.547	88.19
260.779	61.19
261.012	77.19
261.244	71.19
261.477	73.19
261.71	88.19
261.942	89.19
262.175	103.19
262.407	83.19
262.64	84.19
262.872	85.19
263.105	80.19
263.337	82.19
263.57	90.19
263.802	86.19
264.035	90.19
264.267	79.19
264.499	92.19
264.732	83.19
264.964	60.19
265.197	74.19
265.429	83.19
265.661	82.19
265.894	87.19
266.126	91.19
266.358	79.19
266.591	83.19
266.823	66.19
267.055	77.19
267.287	86.19
267.52	78.19
267.752	74.19
267.984	84.19
268.216	83.19
268.448	94.19
268.681	89.19
268.913	82.19
269.145	91.19
269.377	77.19
269.609	70.19
269.841	75.19
270.073	82.19
270.306	78.19
270.538	84.19
270.77	87.19
271.002	81.19
271.234	92.19
271.466	85.19
271.698	77.19
271.93	67.19
272.162	86.19
272.394	75.19
272.626	81.19
272.858	88.19
273.09	90.19
273.322	94.19
273.553	83.19
273.785	88.19
274.017	67.19
274.249	89.19
274.481	84.19
274.713	75.19
274.945	70.19
275.176	79.19
275.408	98.19
275.64	86.19
275.872	86.19
276.104	100.19
276.335	104.19
276.567	87.19
276.799	101.19
277.031	97.19
277.262	91.19
277.494	77.19
277.726	91.19
277.957	81.19
278.189	85.19
278.421	67.19
278.652	85.19
278.884	89.19
279.115	82.19
279.347	72.19
279.579	85.19
279.81	92.19
280.042	100.19
280.273	95.19
280.505	87.19
280.736	79.19
280.968	72.19
281.199	87.19
281.431	69.19
281.662	88.19
281.894	79.19
282.125	91.19
282.356	96.19
282.588	125.19
282.819	107.19
283.051	86.19
283.282	85.19
283.513	86.19
283.745	92.19
283.976	72.19
284.207	68.19
284.439	83.19
284.67	92.19
284.901	84.19
285.132	91.19
285.364	84.19
285.595	87.19
285.826	69.19
286.057	77.19
286.288	83.19
286.52	89.19
286.751	70.19
286.982	81.19
287.213	77.19
287.444	90.19
287.675	91.19
287.906	86.19
288.138	90.19
288.369	97.19
288.6	77.19
288.831	88.19
289.062	90.19
289.293	86.19
289.524	85.19
289.755	85.19
289.986	84.19
290.217	94.19
290.448	90.19
290.679	93.19
290.91	89.19
291.141	93.19
291.371	103.19
291.602	82.19
291.833	78.19
292.064	78.19
292.295	81.19
292.526	98.19
292.757	74.19
292.987	83.19
293.218	88.19
293.449	100.19
293.68	104.19
293.91	80.19
294.141	90.19
294.372	77.19
294.603	99.19
294.833	84.19
295.064	88.19
295.295	94.19
295.525	100.19
295.756	100.19
295.987	97.19
296.217	117.19
296.448	115.19
296.679	95.19
296.909	80.19
297.14	80.19
297.37	84.19
297.601	93.19
297.831	80.19
298.062	87.19
298.292	87.19
298.523	96.19
298.753	93.19
298.984	97.19
299.214	92.19
299.445	85.19
299.675	89.19
299.905	86.19
300.136	90.19
300.366	97.19
300.597	87.19
300.827	98.19
301.057	103.19
301.288	90.19
301.518	98.19
301.748	88.19
301.979	97.19
302.209	89.19
302.439	91.19
302.669	98.19
302.9	94.19
303.13	88.19
303.36	95.19
303.59	93.19
303.82	109.19
304.051	86.19
304.281	102.19
304.511	94.19
304.741	91.19
304.971	85.19
305.201	93.19
305.431	77.19
305.661	89.19
305.891	93.19
306.121	97.19
306.352	91.19
306.582	87.19
306.812	86.19
307.042	70.19
307.272	89.19
307.502	89.19
307.731	91.19
307.961	93.19
308.191	81.19
308.421	75.19
308.651	94.19
308.881	107.19
309.111	83.19
309.341	87.19
309.571	72.19
309.8	99.19
310.03	92.19
310.26	89.19
310.49	93.19
310.72	98.19
310.949	90.19
311.179	97.19
311.409	96.19
311.639	98.19
311.868	94.19
312.098	91.19
312.328	90.19
312.557	81.19
312.787	93.19
313.017	91.19
313.246	87.19
313.476	97.19
313.706	92.19
313.935	91.19
314.165	91.19
314.394	95.19
314.624	98.19
314.853	94.19
315.083	81.19
315.312	85.19
315.542	88.19
315.771	89.19
316.001	95.19
316.23	99.19
316.46	85.19
316.689	88.19
316.919	88.19
317.148	106.19
317.377	95.19
317.607	96.19
317.836	97.19
318.065	81.19
318.295	93.19
318.524	80.19
318.753	81.19
318.983	87.19
319.212	113.19
319.441	96.19
319.67	97.19
319.9	90.19
320.129	94.19
320.358	85.19
320.587	91.19
320.816	85.19
321.046	88.19
321.275	105.19
321.504	90.19
321.733	101.19
321.962	110.19
322.191	79.19
322.42	103.19
322.649	95.19
322.878	111.19
323.108	119.19
323.337	117.19
323.566	120.19
323.795	132.19
324.024	192.19
324.253	320.19
324.482	637.19
324.71	1265.19
324.939	1704.19
325.168	626.19
325.397	201.19
325.626	147.19
325.855	125.19
326.084	101.19
326.313	123.19
326.542	142.19
326.77	201.19
326.999	376.19
327.228	756.19
327.457	1363.19
327.686	1070.19
327.914	297.19
328.143	157.19
328.372	137.19
328.6	123.19
328.829	118.19
329.058	107.19
329.287	109.19
329.515	93.19
329.744	93.19
329.972	113.19
330.201	125.19
330.43	137.19
330.658	122.19
330.887	129.19
331.115	103.19
331.344	108.19
331.572	100.19
331.801	97.19
332.03	91.19
332.258	81.19
332.486	81.19
332.715	90.19
332.943	97.19
333.172	105.19
333.4	101.19
333.629	101.19
333.857	97.19
334.085	111.19
334.314	108.19
334.542	158.19
334.771	157.19
334.999	103.19
335.227	92.19
335.455	91.19
335.684	99.19
335.912	95.19
336.14	95.19
336.369	99.19
336.597	98.19
336.825	103.19
337.053	93.19
337.281	99.19
337.51	101.19
337.738	101.19
337.966	93.19
338.194	98.19
338.422	94.19
338.65	98.19
338.878	78.19
339.106	87.19
339.334	74.19
339.562	96.19
339.79	90.19
340.018	89.19
340.246	66.19
340.474	105.19
340.702	89.19
340.93	90.19
341.158	94.19
341.386	90.19
341.614	99.19
341.842	94.19
342.07	84.19
342.298	74.19
342.526	88.19
342.754	92.19
342.981	94.19
343.209	86.19
343.437	100.19
343.665	95.19
343.893	97.19
344.12	90.19
344.348	87.19
344.576	82.19
344.804	78.19
345.031	96.19
345.259	90.19
345.487	94.19
345.714	82.19
345.942	84.19
346.17	90.19
346.397	82.19
346.625	87.19
346.853	94.19
347.08	89.19
347.308	90.19
347.535	97.19
347.763	99.19
347.99	91.19
348.218	96.19
348.445	98.19
348.673	92.19
348.9	90.19
349.128	96.19
349.355	105.19
349.583	80.19
349.81	94.19
350.037	90.19
350.265	105.19
350.492	91.19
350.72	97.19
350.947	85.19
351.174	94.19
351.402	101.19
351.629	105.19
351.856	95.19
352.083	89.19
352.311	103.19
352.538	106.19
352.765	106.19
352.992	115.19
353.22	100.19
353.447	102.19
353.674	102.19
353.901	103.19
354.128	106.19
354.355	95.19
354.583	88.19
354.81	105.19
355.037	89.19
355.264	101.19
355.491	94.19
355.718	95.19
355.945	107.19
356.172	90.19
356.399	98.19
356.626	97.19
356.853	82.19
357.08	100.19
357.307	95.19
357.534	84.19
357.761	112.19
357.988	97.19
358.215	104.19
358.441	96.19
358.668	88.19
358.895	105.19
359.122	82.19
359.349	96.19
359.576	94.19
359.802	93.19
360.029	93.19
360.256	99.19
360.483	96.19
360.709	83.19
360.936	99.19
361.163	95.19
361.39	100.19
361.616	104.19
361.843	103.19
362.07	87.19
362.296	84.19
362.523	92.19
362.749	96.19
362.976	96.19
363.203	88.19
363.429	79.19
363.656	95.19
363.882	89.19
364.109	89.19
364.335	98.19
364.562	99.19
364.788	97.19
365.015	71.19
365.241	108.19
365.468	95.19
365.694	111.19
365.92	94.19
366.147	87.19
366.373	90.19
366.599	77.19
366.826	101.19
367.052	94.19
367.278	87.19
367.505	92.19
367.731	95.19
367.957	91.19
368.184	80.19
368.41	92.19
368.636	103.19
368.862	114.19
369.089	87.19
369.315	100.19
369.541	89.19
369.767	85.19
369.993	85.19
370.219	74.19
370.445	99.19
370.672	87.19
370.898	67.19
371.124	89.19
371.35	77.19
371.576	87.19
371.802	79.19
372.028	84.19
372.254	81.19
372.48	88.19
372.706	89.19
372.932	82.19
373.158	90.19
373.384	83.19
373.61	90.19
373.835	83.19
374.061	99.19
374.287	85.19
374.513	102.19
374.739	92.19
374.965	102.19
375.191	105.19
375.416	77.19
375.642	74.19
375.868	95.19
376.094	92.19
376.319	89.19
376.545	74.19
376.771	90.19
376.997	96.19
377.222	85.19
377.448	97.19
377.674	95.19
377.899	99.19
378.125	79.19
378.35	94.19
378.576	83.19
378.802	73.19
379.027	91.19
379.253	96.19
379.478	99.19
379.704	97.19
379.929	97.19
380.155	87.19
380.38	97.19
380.606	99.19
380.831	79.19
381.057	101.19
381.282	87.19
381.507	102.19
381.733	87.19
381.958	101.19
382.184	99.19
382.409	102.19
382.634	108.19
382.86	102.19
383.085	103.19
383.31	92.19
383.535	107.19
383.761	97.19
383.986	96.19
384.211	96.19
384.436	97.19
384.662	115.19
384.887	111.19
385.112	102.19
385.337	101.19
385.562	125.19
385.787	107.19
386.013	107.19
386.238	123.19
386.463	95.19
386.688	113.19
386.913	99.19
387.138	97.19
387.363	101.19
387.588	98.19
387.813	96.19
388.038	119.19
388.263	121.19
388.488	111.19
388.713	96.19
388.938	95.19
389.163	102.19
389.387	93.19
389.612	109.19
389.837	96.19
390.062	88.19
390.287	114.19
390.512	92.19
390.736	110.19
390.961	93.19
391.186	88.19
391.411	101.19
391.636	81.19
391.86	96.19
392.085	86.19
392.31	81.19
392.534	88.19
392.759	93.19
392.984	99.19
393.208	87.19
393.433	96.19
393.658	87.19
393.882	103.19
394.107	72.19
394.331	95.19
394.556	81.19
394.78	84.19
395.005	87.19
395.229	86.19
395.454	101.19
395.678	97.19
395.903	106.19
396.127	104.19
396.352	82.19
396.576	80.19
396.801	83.19
397.025	91.19
397.249	73.19
397.474	82.19
397.698	83.19
397.922	78.19
398.147	82.19
398.371	80.19
398.595	95.19
398.82	91.19
399.044	95.19
399.268	81.19
399.492	85.19
399.717	96.19
399.941	73.19
400.165	89.19
400.389	90.19
400.613	92.19
400.837	98.19
401.062	86.19
401.286	88.19
401.51	98.19
401.734	101.19
401.958	90.19
402.182	108.19
402.406	123.19
402.63	106.19
402.854	97.19
403.078	100.19
403.302	78.19
403.526	95.19
403.75	79.19
403.974	90.19
404.198	92.19
404.422	93.19
404.645	98.19
404.869	77.19
405.093	91.19
405.317	97.19
405.541	103.19
405.765	102.19
405.988	93.19
406.212	137.19
406.436	181.19
406.66	107.19
406.883	88.19
407.107	90.19
407.331	91.19
407.555	101.19
407.778	104.19
408.002	88.19
408.226	94.19
408.449	92.19
408.673	94.19
408.896	97.19
409.12	93.19
409.344	76.19
409.567	81.19
409.791	96.19
410.014	87.19
410.238	95.19
410.461	80.19
410.685	104.19
410.908	87.19
411.132	102.19
411.355	80.19
411.578	82.19
411.802	88.19
412.025	86.19
412.249	102.19
412.472	98.19
412.695	87.19
412.919	89.19
413.142	94.19
413.365	79.19
413.589	91.19
413.812	88.19
414.035	85.19
414.258	101.19
414.482	93.19
414.705	77.19
414.928	92.19
415.151	96.19
415.374	91.19
415.597	93.19
415.821	95.19
416.044	83.19
416.267	91.19
416.49	74.19
416.713	85.19
416.936	99.19
417.159	75.19
417.382	78.19
417.605	83.19
417.828	91.19
418.051	98.19
418.274	93.19
418.497	92.19
418.72	87.19
418.943	85.19
419.166	85.19
419.389	79.19
419.611	80.19
419.834	82.19
420.057	86.19
420.28	82.19
420.503	89.19
420.726	81.19
420.948	86.19
421.171	81.19
421.394	87.19
421.617	89.19
421.839	89.19
422.062	81.19
422.285	94.19
422.507	89.19
422.73	94.19
422.953	102.19
423.175	111.19
423.398	103.19
423.621	69.19
423.843	84.19
424.066	88.19
424.288	80.19
424.511	98.19
424.733	90.19
424.956	101.19
425.178	97.19
425.401	98.19
425.623	91.19
425.846	94.19
426.068	90.19
426.291	73.19
426.513	85.19
426.735	104.19
426.958	90.19
427.18	99.19
427.402	113.19
427.625	130.19
427.847	112.19
428.069	107.19
428.292	102.19
428.514	71.19
428.736	86.19
428.958	69.19
429.181	86.19
429.403	83.19
429.625	89.19
429.847	98.19
430.069	83.19
430.292	95.19
430.514	96.19
430.736	94.19
430.958	88.19
431.18	85.19
431.402	85.19
431.624	78.19
431.846	69.19
432.068	91.19
432.29	88.19
432.512	97.19
432.734	82.19
432.956	96.19
433.178	87.19
433.4	99.19
433.622	91.19
433.844	81.19
434.066	100.19
434.287	91.19
434.509	74.19
434.731	97.19
434.953	90.19
435.175	103.19
435.397	90.19
435.618	91.19
435.84	104.19
436.062	101.19
436.284	97.19
436.505	98.19
436.727	93.19
436.949	87.19
437.17	86.19
437.392	84.19
437.614	87.19
437.835	102.19
438.057	98.19
438.278	106.19
438.5	94.19
438.721	105.19
438.943	108.19
439.165	86.19
439.386	89.19
439.608	85.19
439.829	88.19
440.05	110.19
440.272	114.19
440.493	109.19
440.715	98.19
440.936	89.19
441.158	77.19
441.379	74.19
441.6	93.19
441.822	97.19
442.043	87.19
442.264	93.19
442.486	101.19
442.707	81.19
442.928	102.19
443.149	111.19
443.371	106.19
443.592	97.19
443.813	97.19
444.034	103.19
444.255	97.19
444.476	75.19
444.698	75.19
444.919	83.19
445.14	126.19
445.361	116.19
445.582	102.19
445.803	109.19
446.024	105.19
446.245	118.19
446.466	97.19
446.687	86.19
446.908	82.19
447.129	86.19
447.35	87.19
447.571	85.19
447.792	93.19
448.013	91.19
448.234	103.19
448.455	98.19
448.675	115.19
448.896	109.19
449.117	100.19
449.338	87.19
449.559	118.19
449.779	122.19
450	102.19
450.221	91.19
450.442	81.19
450.662	91.19
450.883	100.19
451.104	95.19
451.324	86.19
451.545	87.19
451.766	84.19
451.986	81.19
452.207	102.19
452.428	98.19
452.648	96.19
452.869	106.19
453.089	96.19
453.31	105.19
453.53	94.19
453.751	82.19
453.971	101.19
454.192	113.19
454.412	80.19
454.633	84.19
454.853	95.19
455.073	79.19
455.294	84.19
455.514	95.19
455.734	91.19
455.955	84.19
456.175	78.19
456.395	85.19
456.616	88.19
456.836	84.19
457.056	86.19
457.276	100.19
457.497	80.19
457.717	93.19
457.937	87.19
458.157	96.19
458.377	89.19
458.598	92.19
458.818	114.19
459.038	127.19
459.258	95.19
459.478	81.19
459.698	95.19
459.918	84.19
460.138	80.19
460.358	86.19
460.578	80.19
460.798	96.19
461.018	103.19
461.238	87.19
461.458	88.19
461.678	83.19
461.898	83.19
462.118	92.19
462.338	80.19
462.558	71.19
462.777	79.19
462.997	78.19
463.217	86.19
463.437	83.19
463.657	73.19
463.876	86.19
464.096	83.19
464.316	101.19
464.536	81.19
464.755	89.19
464.975	111.19
465.195	119.19
465.414	105.19
465.634	84.19
465.854	94.19
466.073	97.19
466.293	89.19
466.512	85.19
466.732	89.19
466.951	81.19
467.171	86.19
467.391	94.19
467.61	82.19
467.829	96.19
468.049	99.19
468.268	109.19
468.488	84.19
468.707	85.19
468.927	89.19
469.146	90.19
469.365	67.19
469.585	106.19
469.804	91.19
470.023	87.19
470.243	89.19
470.462	94.19
470.681	94.19
470.901	81.19
471.12	80.19
471.339	97.19
471.558	90.19
471.777	87.19
471.997	86.19
472.216	129.19
472.435	192.19
472.654	112.19
472.873	81.19
473.092	86.19
473.311	97.19
473.53	77.19
473.749	91.19
473.968	92.19
474.187	96.19
474.406	94.19
474.625	89.19
474.844	94.19
475.063	97.19
475.282	88.19
475.501	85.19
475.72	89.19
475.939	78.19
476.158	83.19
476.377	78.19
476.596	94.19
476.814	93.19
477.033	101.19
477.252	91.19
477.471	86.19
477.69	85.19
477.908	75.19
478.127	82.19
478.346	78.19
478.564	85.19
478.783	88.19
479.002	88.19
479.22	67.19
479.439	84.19
479.658	103.19
479.876	91.19
480.095	91.19
480.313	86.19
480.532	82.19
480.751	95.19
480.969	123.19
481.188	253.19
481.406	175.19
481.624	101.19
481.843	89.19
482.061	80.19
482.28	73.19
482.498	80.19
482.717	82.19
482.935	90.19
483.153	83.19
483.372	81.19
483.59	70.19
483.808	90.19
484.027	98.19
484.245	83.19
484.463	93.19
484.681	97.19
484.9	107.19
485.118	77.19
485.336	86.19
485.554	95.19
485.772	93.19
485.99	98.19
486.209	115.19
486.427	91.19
486.645	99.19
486.863	98.19
487.081	106.19
487.299	101.19
487.517	105.19
487.735	89.19
487.953	105.19
488.171	90.19
488.389	95.19
488.607	91.19
488.825	101.19
489.043	81.19
489.261	85.19
489.479	85.19
489.696	83.19
489.914	93.19
490.132	89.19
490.35	75.19
490.568	73.19
490.786	77.19
491.003	96.19
491.221	97.19
491.439	104.19
491.657	87.19
491.874	95.19
492.092	92.19
492.31	87.19
492.527	87.19
492.745	83.19
492.963	82.19
493.18	83.19
493.398	103.19
493.615	107.19
493.833	91.19
494.05	102.19
494.268	77.19
494.485	95.19
494.703	67.19
494.92	99.19
495.138	84.19
495.355	93.19
495.573	97.19
495.79	83.19
496.008	99.19
496.225	105.19
496.442	83.19
496.66	93.19
496.877	86.19
497.094	80.19
497.312	93.19
497.529	91.19
497.746	79.19
497.963	75.19
498.181	62.19
498.398	82.19
498.615	99.19
498.832	97.19
499.049	81.19
499.267	95.19
499.484	97.19
499.701	88.19
499.918	106.19
500.135	90.19
500.352	82.19
500.569	81.19
500.786	81.19
501.003	68.19
501.22	99.19
501.437	99.19
501.654	94.19
501.871	85.19
502.088	82.19
502.305	77.19
502.522	86.19
502.739	91.19
502.956	84.19
503.172	97.19
503.389	81.19
503.606	91.19
503.823	77.19
504.04	95.19
504.256	87.19
504.473	90.19
504.69	88.19
504.907	77.19
505.123	102.19
505.34	89.19
505.557	86.19
505.773	79.19
505.99	96.19
506.207	87.19
506.423	85.19
506.64	87.19
506.856	87.19
507.073	88.19
507.289	87.19
507.506	85.19
507.722	91.19
507.939	100.19
508.155	93.19
508.372	83.19
508.588	107.19
508.805	93.19
509.021	108.19
509.238	91.19
509.454	95.19
509.67	94.19
509.887	102.19
510.103	113.19
510.319	194.19
510.536	592.19
510.752	1778.19
510.968	504.19
511.184	145.19
511.401	88.19
511.617	90.19
511.833	98.19
512.049	87.19
512.265	93.19
512.481	89.19
512.698	87.19
512.914	82.19
513.13	103.19
513.346	94.19
513.562	97.19
513.778	92.19
513.994	86.19
514.21	91.19
514.426	111.19
514.642	103.19
514.858	106.19
515.074	134.19
515.29	331.19
515.506	1034.19
515.721	397.19
515.937	136.19
516.153	93.19
516.369	95.19
516.585	96.19
