Data from Circ_1986_H10_HRD10591_00083.txt Node
Date: Wed Jan 03 12:15:42 EST 2024
User: Yrep
Spectrometer: HR+D1059
Trigger mode: 1
Integration Time (sec): 1.000000E-1
Scans to average: 1
Electric dark correction enabled: true
Nonlinearity correction enabled: false
Boxcar width: 0
XAxis mode: Wavelengths
Number of Pixels in Spectrum: 2048
>>>>>Begin Spectral Data<<<<<
223.165	-20.19
223.4	-20.19
223.635	-20.19
223.869	-21.19
224.104	-28.19
224.338	-28.19
224.573	-6.19
224.808	-20.19
225.042	-8.19
225.277	2.81
225.511	-9.19
225.746	19.81
225.98	14.81
226.215	16.81
226.449	19.81
226.683	16.81
226.918	24.81
227.152	25.81
227.387	27.81
227.621	31.81
227.856	47.81
228.09	41.81
228.324	46.81
228.559	51.81
228.793	56.81
229.027	62.81
229.262	54.81
229.496	71.81
229.73	71.81
229.964	82.81
230.199	85.81
230.433	71.81
230.667	83.81
230.901	84.81
231.136	61.81
231.37	79.81
231.604	95.81
231.838	71.81
232.072	67.81
232.306	92.81
232.541	67.81
232.775	85.81
233.009	96.81
233.243	71.81
233.477	87.81
233.711	74.81
233.945	90.81
234.179	72.81
234.413	74.81
234.647	78.81
234.881	86.81
235.115	75.81
235.349	81.81
235.583	80.81
235.817	80.81
236.051	70.81
236.285	78.81
236.519	74.81
236.753	80.81
236.987	99.81
237.221	97.81
237.455	104.81
237.689	78.81
237.922	76.81
238.156	79.81
238.39	76.81
238.624	75.81
238.858	82.81
239.091	83.81
239.325	72.81
239.559	72.81
239.793	79.81
240.027	86.81
240.26	82.81
240.494	79.81
240.728	75.81
240.961	71.81
241.195	78.81
241.429	72.81
241.662	74.81
241.896	78.81
242.13	74.81
242.363	86.81
242.597	79.81
242.83	87.81
243.064	84.81
243.298	69.81
243.531	70.81
243.765	78.81
243.998	68.81
244.232	87.81
244.465	86.81
244.699	78.81
244.932	86.81
245.166	82.81
245.399	85.81
245.633	75.81
245.866	82.81
246.099	87.81
246.333	87.81
246.566	67.81
246.8	87.81
247.033	79.81
247.266	84.81
247.5	80.81
247.733	72.81
247.966	78.81
248.2	79.81
248.433	82.81
248.666	81.81
248.899	86.81
249.133	78.81
249.366	86.81
249.599	87.81
249.832	82.81
250.066	85.81
250.299	80.81
250.532	86.81
250.765	79.81
250.998	82.81
251.231	74.81
251.465	78.81
251.698	79.81
251.931	79.81
252.164	89.81
252.397	92.81
252.63	68.81
252.863	78.81
253.096	83.81
253.329	82.81
253.562	72.81
253.795	85.81
254.028	87.81
254.261	72.81
254.494	78.81
254.727	86.81
254.96	87.81
255.193	66.81
255.426	94.81
255.659	71.81
255.892	73.81
256.124	84.81
256.357	76.81
256.59	78.81
256.823	80.81
257.056	70.81
257.289	86.81
257.521	88.81
257.754	80.81
257.987	77.81
258.22	62.81
258.452	82.81
258.685	87.81
258.918	80.81
259.151	71.81
259.383	56.81
259.616	92.81
259.849	97.81
260.081	75.81
260.314	85.81
260.547	90.81
260.779	85.81
261.012	89.81
261.244	76.81
261.477	85.81
261.71	85.81
261.942	112.81
262.175	101.81
262.407	95.81
262.64	72.81
262.872	64.81
263.105	80.81
263.337	103.81
263.57	75.81
263.802	82.81
264.035	78.81
264.267	83.81
264.499	80.81
264.732	87.81
264.964	82.81
265.197	96.81
265.429	80.81
265.661	105.81
265.894	78.81
266.126	92.81
266.358	74.81
266.591	88.81
266.823	83.81
267.055	90.81
267.287	83.81
267.52	67.81
267.752	87.81
267.984	84.81
268.216	80.81
268.448	82.81
268.681	80.81
268.913	76.81
269.145	83.81
269.377	82.81
269.609	86.81
269.841	82.81
270.073	75.81
270.306	83.81
270.538	80.81
270.77	79.81
271.002	83.81
271.234	88.81
271.466	93.81
271.698	76.81
271.93	74.81
272.162	82.81
272.394	86.81
272.626	91.81
272.858	91.81
273.09	76.81
273.322	84.81
273.553	83.81
273.785	89.81
274.017	87.81
274.249	74.81
274.481	88.81
274.713	91.81
274.945	73.81
275.176	78.81
275.408	93.81
275.64	78.81
275.872	83.81
276.104	82.81
276.335	94.81
276.567	90.81
276.799	105.81
277.031	103.81
277.262	95.81
277.494	83.81
277.726	96.81
277.957	82.81
278.189	92.81
278.421	103.81
278.652	91.81
278.884	84.81
279.115	70.81
279.347	80.81
279.579	85.81
279.81	93.81
280.042	105.81
280.273	91.81
280.505	93.81
280.736	77.81
280.968	74.81
281.199	111.81
281.431	96.81
281.662	90.81
281.894	82.81
282.125	113.81
282.356	108.81
282.588	133.81
282.819	107.81
283.051	82.81
283.282	101.81
283.513	94.81
283.745	100.81
283.976	83.81
284.207	81.81
284.439	86.81
284.67	84.81
284.901	92.81
285.132	91.81
285.364	92.81
285.595	96.81
285.826	90.81
286.057	97.81
286.288	86.81
286.52	99.81
286.751	78.81
286.982	81.81
287.213	91.81
287.444	96.81
287.675	91.81
287.906	96.81
288.138	97.81
288.369	80.81
288.6	80.81
288.831	72.81
289.062	89.81
289.293	94.81
289.524	79.81
289.755	85.81
289.986	97.81
290.217	82.81
290.448	89.81
290.679	90.81
290.91	88.81
291.141	73.81
291.371	96.81
291.602	84.81
291.833	86.81
292.064	92.81
292.295	91.81
292.526	75.81
292.757	87.81
292.987	79.81
293.218	94.81
293.449	90.81
293.68	93.81
293.91	92.81
294.141	80.81
294.372	76.81
294.603	83.81
294.833	93.81
295.064	99.81
295.295	96.81
295.525	87.81
295.756	92.81
295.987	103.81
296.217	116.81
296.448	130.81
296.679	94.81
296.909	74.81
297.14	91.81
297.37	80.81
297.601	95.81
297.831	86.81
298.062	80.81
298.292	88.81
298.523	86.81
298.753	74.81
298.984	81.81
299.214	97.81
299.445	95.81
299.675	104.81
299.905	90.81
300.136	84.81
300.366	107.81
300.597	105.81
300.827	84.81
301.057	97.81
301.288	94.81
301.518	100.81
301.748	95.81
301.979	100.81
302.209	106.81
302.439	93.81
302.669	90.81
302.9	90.81
303.13	76.81
303.36	104.81
303.59	105.81
303.82	104.81
304.051	82.81
304.281	90.81
304.511	101.81
304.741	85.81
304.971	89.81
305.201	89.81
305.431	105.81
305.661	82.81
305.891	82.81
306.121	105.81
306.352	94.81
306.582	94.81
306.812	98.81
307.042	74.81
307.272	109.81
307.502	101.81
307.731	111.81
307.961	91.81
308.191	79.81
308.421	86.81
308.651	80.81
308.881	85.81
309.111	84.81
309.341	100.81
309.571	100.81
309.8	86.81
310.03	81.81
310.26	86.81
310.49	90.81
310.72	95.81
310.949	93.81
311.179	89.81
311.409	87.81
311.639	91.81
311.868	95.81
312.098	96.81
312.328	104.81
312.557	86.81
312.787	100.81
313.017	87.81
313.246	96.81
313.476	85.81
313.706	91.81
313.935	98.81
314.165	104.81
314.394	94.81
314.624	95.81
314.853	95.81
315.083	87.81
315.312	95.81
315.542	86.81
315.771	78.81
316.001	92.81
316.23	91.81
316.46	87.81
316.689	94.81
316.919	103.81
317.148	90.81
317.377	88.81
317.607	94.81
317.836	97.81
318.065	102.81
318.295	95.81
318.524	88.81
318.753	92.81
318.983	99.81
319.212	99.81
319.441	89.81
319.67	98.81
319.9	98.81
320.129	74.81
320.358	102.81
320.587	84.81
320.816	91.81
321.046	80.81
321.275	102.81
321.504	100.81
321.733	109.81
321.962	99.81
322.191	108.81
322.42	104.81
322.649	109.81
322.878	112.81
323.108	115.81
323.337	112.81
323.566	117.81
323.795	135.81
324.024	202.81
324.253	351.81
324.482	745.81
324.71	1468.81
324.939	2033.81
325.168	782.81
325.397	212.81
325.626	123.81
325.855	132.81
326.084	125.81
326.313	139.81
326.542	136.81
326.77	222.81
326.999	394.81
327.228	869.81
327.457	1572.81
327.686	1275.81
327.914	336.81
328.143	199.81
328.372	176.81
328.6	147.81
328.829	106.81
329.058	113.81
329.287	109.81
329.515	104.81
329.744	111.81
329.972	144.81
330.201	174.81
330.43	198.81
330.658	140.81
330.887	156.81
331.115	135.81
331.344	97.81
331.572	103.81
331.801	107.81
332.03	98.81
332.258	103.81
332.486	108.81
332.715	103.81
332.943	92.81
333.172	96.81
333.4	84.81
333.629	106.81
333.857	108.81
334.085	128.81
334.314	163.81
334.542	258.81
334.771	232.81
334.999	115.81
335.227	99.81
335.455	86.81
335.684	98.81
335.912	92.81
336.14	104.81
336.369	99.81
336.597	106.81
336.825	98.81
337.053	95.81
337.281	96.81
337.51	98.81
337.738	93.81
337.966	93.81
338.194	94.81
338.422	97.81
338.65	96.81
338.878	90.81
339.106	82.81
339.334	90.81
339.562	87.81
339.79	90.81
340.018	81.81
340.246	83.81
340.474	93.81
340.702	84.81
340.93	96.81
341.158	78.81
341.386	89.81
341.614	100.81
341.842	91.81
342.07	94.81
342.298	99.81
342.526	99.81
342.754	95.81
342.981	95.81
343.209	90.81
343.437	106.81
343.665	71.81
343.893	89.81
344.12	84.81
344.348	94.81
344.576	92.81
344.804	91.81
345.031	91.81
345.259	89.81
345.487	95.81
345.714	93.81
345.942	87.81
346.17	80.81
346.397	94.81
346.625	91.81
346.853	96.81
347.08	73.81
347.308	99.81
347.535	104.81
347.763	91.81
347.99	93.81
348.218	93.81
348.445	92.81
348.673	93.81
348.9	98.81
349.128	91.81
349.355	98.81
349.583	108.81
349.81	102.81
350.037	79.81
350.265	86.81
350.492	94.81
350.72	96.81
350.947	91.81
351.174	94.81
351.402	105.81
351.629	108.81
351.856	105.81
352.083	89.81
352.311	100.81
352.538	104.81
352.765	113.81
352.992	115.81
353.22	116.81
353.447	103.81
353.674	94.81
353.901	107.81
354.128	79.81
354.355	81.81
354.583	92.81
354.81	102.81
355.037	86.81
355.264	85.81
355.491	89.81
355.718	84.81
355.945	86.81
356.172	105.81
356.399	92.81
356.626	90.81
356.853	89.81
357.08	99.81
357.307	98.81
357.534	80.81
357.761	97.81
357.988	97.81
358.215	86.81
358.441	93.81
358.668	94.81
358.895	97.81
359.122	96.81
359.349	88.81
359.576	91.81
359.802	99.81
360.029	112.81
360.256	106.81
360.483	104.81
360.709	98.81
360.936	104.81
361.163	92.81
361.39	102.81
361.616	87.81
361.843	81.81
362.07	96.81
362.296	84.81
362.523	92.81
362.749	97.81
362.976	92.81
363.203	90.81
363.429	88.81
363.656	96.81
363.882	89.81
364.109	111.81
364.335	93.81
364.562	86.81
364.788	85.81
365.015	96.81
365.241	96.81
365.468	101.81
365.694	84.81
365.92	88.81
366.147	88.81
366.373	100.81
366.599	80.81
366.826	79.81
367.052	88.81
367.278	91.81
367.505	86.81
367.731	93.81
367.957	86.81
368.184	96.81
368.41	95.81
368.636	102.81
368.862	108.81
369.089	106.81
369.315	96.81
369.541	72.81
369.767	98.81
369.993	96.81
370.219	99.81
370.445	95.81
370.672	90.81
370.898	84.81
371.124	94.81
371.35	93.81
371.576	88.81
371.802	94.81
372.028	94.81
372.254	78.81
372.48	83.81
372.706	89.81
372.932	88.81
373.158	86.81
373.384	84.81
373.61	102.81
373.835	82.81
374.061	91.81
374.287	98.81
374.513	104.81
374.739	78.81
374.965	88.81
375.191	86.81
375.416	87.81
375.642	87.81
375.868	107.81
376.094	84.81
376.319	91.81
376.545	99.81
376.771	86.81
376.997	84.81
377.222	95.81
377.448	80.81
377.674	75.81
377.899	98.81
378.125	90.81
378.35	94.81
378.576	91.81
378.802	89.81
379.027	101.81
379.253	98.81
379.478	90.81
379.704	104.81
379.929	99.81
380.155	90.81
380.38	91.81
380.606	85.81
380.831	111.81
381.057	102.81
381.282	91.81
381.507	89.81
381.733	95.81
381.958	92.81
382.184	94.81
382.409	96.81
382.634	102.81
382.86	108.81
383.085	91.81
383.31	97.81
383.535	100.81
383.761	102.81
383.986	98.81
384.211	91.81
384.436	91.81
384.662	91.81
384.887	96.81
385.112	105.81
385.337	112.81
385.562	89.81
385.787	100.81
386.013	101.81
386.238	113.81
386.463	102.81
386.688	112.81
386.913	94.81
387.138	107.81
387.363	100.81
387.588	93.81
387.813	98.81
388.038	109.81
388.263	113.81
388.488	90.81
388.713	113.81
388.938	96.81
389.163	90.81
389.387	91.81
389.612	99.81
389.837	75.81
390.062	103.81
390.287	91.81
390.512	78.81
390.736	107.81
390.961	86.81
391.186	91.81
391.411	79.81
391.636	95.81
391.86	90.81
392.085	91.81
392.31	92.81
392.534	91.81
392.759	84.81
392.984	91.81
393.208	87.81
393.433	106.81
393.658	84.81
393.882	82.81
394.107	79.81
394.331	88.81
394.556	87.81
394.78	98.81
395.005	91.81
395.229	73.81
395.454	86.81
395.678	91.81
395.903	90.81
396.127	94.81
396.352	87.81
396.576	102.81
396.801	78.81
397.025	86.81
397.249	73.81
397.474	88.81
397.698	76.81
397.922	96.81
398.147	84.81
398.371	90.81
398.595	92.81
398.82	64.81
399.044	99.81
399.268	91.81
399.492	89.81
399.717	77.81
399.941	78.81
400.165	101.81
400.389	93.81
400.613	86.81
400.837	86.81
401.062	97.81
401.286	84.81
401.51	73.81
401.734	88.81
401.958	96.81
402.182	116.81
402.406	157.81
402.63	102.81
402.854	100.81
403.078	87.81
403.302	75.81
403.526	78.81
403.75	90.81
403.974	72.81
404.198	87.81
404.422	86.81
404.645	82.81
404.869	98.81
405.093	90.81
405.317	109.81
405.541	104.81
405.765	104.81
405.988	109.81
406.212	148.81
406.436	202.81
406.66	123.81
406.883	100.81
407.107	81.81
407.331	103.81
407.555	84.81
407.778	102.81
408.002	91.81
408.226	100.81
408.449	92.81
408.673	82.81
408.896	103.81
409.12	96.81
409.344	86.81
409.567	102.81
409.791	82.81
410.014	105.81
410.238	86.81
410.461	98.81
410.685	96.81
410.908	100.81
411.132	100.81
411.355	100.81
411.578	91.81
411.802	88.81
412.025	95.81
412.249	80.81
412.472	101.81
412.695	88.81
412.919	91.81
413.142	94.81
413.365	92.81
413.589	86.81
413.812	85.81
414.035	93.81
414.258	94.81
414.482	83.81
414.705	83.81
414.928	95.81
415.151	102.81
415.374	80.81
415.597	85.81
415.821	86.81
416.044	93.81
416.267	88.81
416.49	88.81
416.713	93.81
416.936	90.81
417.159	82.81
417.382	84.81
417.605	82.81
417.828	96.81
418.051	87.81
418.274	83.81
418.497	111.81
418.72	95.81
418.943	87.81
419.166	89.81
419.389	87.81
419.611	95.81
419.834	83.81
420.057	88.81
420.28	89.81
420.503	75.81
420.726	81.81
420.948	81.81
421.171	85.81
421.394	80.81
421.617	99.81
421.839	89.81
422.062	94.81
422.285	104.81
422.507	90.81
422.73	96.81
422.953	92.81
423.175	94.81
423.398	91.81
423.621	79.81
423.843	75.81
424.066	90.81
424.288	82.81
424.511	83.81
424.733	107.81
424.956	99.81
425.178	90.81
425.401	93.81
425.623	107.81
425.846	88.81
426.068	80.81
426.291	76.81
426.513	95.81
426.735	74.81
426.958	95.81
427.18	121.81
427.402	144.81
427.625	168.81
427.847	140.81
428.069	133.81
428.292	96.81
428.514	89.81
428.736	97.81
428.958	85.81
429.181	90.81
429.403	88.81
429.625	95.81
429.847	102.81
430.069	117.81
430.292	87.81
430.514	84.81
430.736	92.81
430.958	86.81
431.18	82.81
431.402	90.81
431.624	86.81
431.846	96.81
432.068	84.81
432.29	85.81
432.512	79.81
432.734	74.81
432.956	84.81
433.178	82.81
433.4	95.81
433.622	81.81
433.844	90.81
434.066	95.81
434.287	87.81
434.509	71.81
434.731	79.81
434.953	94.81
435.175	84.81
435.397	94.81
435.618	105.81
435.84	105.81
436.062	117.81
436.284	120.81
436.505	99.81
436.727	100.81
436.949	94.81
437.17	84.81
437.392	76.81
437.614	100.81
437.835	90.81
438.057	101.81
438.278	117.81
438.5	118.81
438.721	121.81
438.943	102.81
439.165	95.81
439.386	90.81
439.608	95.81
439.829	93.81
440.05	122.81
440.272	141.81
440.493	99.81
440.715	83.81
440.936	78.81
441.158	94.81
441.379	87.81
441.6	92.81
441.822	92.81
442.043	84.81
442.264	107.81
442.486	112.81
442.707	96.81
442.928	106.81
443.149	130.81
443.371	113.81
443.592	108.81
443.813	111.81
444.034	94.81
444.255	81.81
444.476	99.81
444.698	66.81
444.919	88.81
445.14	138.81
445.361	125.81
445.582	123.81
445.803	128.81
446.024	144.81
446.245	139.81
446.466	108.81
446.687	106.81
446.908	86.81
447.129	91.81
447.35	88.81
447.571	101.81
447.792	83.81
448.013	92.81
448.234	96.81
448.455	90.81
448.675	111.81
448.896	122.81
449.117	100.81
449.338	112.81
449.559	123.81
449.779	140.81
450	91.81
450.221	87.81
450.442	76.81
450.662	103.81
450.883	100.81
451.104	104.81
451.324	95.81
451.545	90.81
451.766	95.81
451.986	89.81
452.207	86.81
452.428	80.81
452.648	108.81
452.869	111.81
453.089	115.81
453.31	115.81
453.53	92.81
453.751	90.81
453.971	94.81
454.192	112.81
454.412	99.81
454.633	95.81
454.853	75.81
455.073	94.81
455.294	77.81
455.514	112.81
455.734	85.81
455.955	81.81
456.175	84.81
456.395	91.81
456.616	86.81
456.836	98.81
457.056	92.81
457.276	81.81
457.497	95.81
457.717	86.81
457.937	108.81
458.157	91.81
458.377	79.81
458.598	97.81
458.818	126.81
459.038	143.81
459.258	115.81
459.478	88.81
459.698	74.81
459.918	83.81
460.138	82.81
460.358	78.81
460.578	87.81
460.798	82.81
461.018	77.81
461.238	76.81
461.458	85.81
461.678	91.81
461.898	83.81
462.118	85.81
462.338	88.81
462.558	80.81
462.777	101.81
462.997	100.81
463.217	104.81
463.437	78.81
463.657	97.81
463.876	87.81
464.096	84.81
464.316	97.81
464.536	101.81
464.755	96.81
464.975	108.81
465.195	144.81
465.414	139.81
465.634	92.81
465.854	94.81
466.073	103.81
466.293	99.81
466.512	97.81
466.732	88.81
466.951	80.81
467.171	87.81
467.391	103.81
467.61	104.81
467.829	102.81
468.049	131.81
468.268	143.81
468.488	108.81
468.707	97.81
468.927	90.81
469.146	82.81
469.365	90.81
469.585	93.81
469.804	80.81
470.023	90.81
470.243	99.81
470.462	92.81
470.681	99.81
470.901	95.81
471.12	88.81
471.339	90.81
471.558	105.81
471.777	102.81
471.997	93.81
472.216	185.81
472.435	292.81
472.654	134.81
472.873	96.81
473.092	81.81
473.311	86.81
473.53	84.81
473.749	88.81
473.968	86.81
474.187	106.81
474.406	99.81
474.625	85.81
474.844	95.81
475.063	91.81
475.282	85.81
475.501	85.81
475.72	105.81
475.939	89.81
476.158	78.81
476.377	89.81
476.596	90.81
476.814	95.81
477.033	94.81
477.252	84.81
477.471	91.81
477.69	90.81
477.908	87.81
478.127	98.81
478.346	82.81
478.564	99.81
478.783	90.81
479.002	92.81
479.22	87.81
479.439	92.81
479.658	97.81
479.876	110.81
480.095	72.81
480.313	99.81
480.532	94.81
480.751	90.81
480.969	190.81
481.188	509.81
481.406	326.81
481.624	106.81
481.843	98.81
482.061	88.81
482.28	87.81
482.498	84.81
482.717	73.81
482.935	90.81
483.153	87.81
483.372	96.81
483.59	82.81
483.808	96.81
484.027	89.81
484.245	88.81
484.463	84.81
484.681	96.81
484.9	102.81
485.118	106.81
485.336	106.81
485.554	98.81
485.772	113.81
485.99	101.81
486.209	114.81
486.427	100.81
486.645	110.81
486.863	103.81
487.081	92.81
487.299	91.81
487.517	92.81
487.735	86.81
487.953	88.81
488.171	96.81
488.389	87.81
488.607	98.81
488.825	94.81
489.043	84.81
489.261	95.81
489.479	100.81
489.696	95.81
489.914	95.81
490.132	95.81
490.35	86.81
490.568	72.81
490.786	85.81
491.003	98.81
491.221	83.81
491.439	84.81
491.657	97.81
491.874	80.81
492.092	92.81
492.31	98.81
492.527	90.81
492.745	96.81
492.963	96.81
493.18	85.81
493.398	82.81
493.615	97.81
493.833	92.81
494.05	93.81
494.268	87.81
494.485	88.81
494.703	97.81
494.92	88.81
495.138	90.81
495.355	81.81
495.573	98.81
495.79	78.81
496.008	95.81
496.225	79.81
496.442	79.81
496.66	90.81
496.877	98.81
497.094	88.81
497.312	86.81
497.529	95.81
497.746	108.81
497.963	93.81
498.181	85.81
498.398	94.81
498.615	103.81
498.832	89.81
499.049	94.81
499.267	84.81
499.484	87.81
499.701	82.81
499.918	96.81
500.135	89.81
500.352	86.81
500.569	75.81
500.786	98.81
501.003	99.81
501.22	100.81
501.437	95.81
501.654	92.81
501.871	92.81
502.088	104.81
502.305	78.81
502.522	85.81
502.739	88.81
502.956	93.81
503.172	107.81
503.389	91.81
503.606	90.81
503.823	91.81
504.04	78.81
504.256	76.81
504.473	102.81
504.69	96.81
504.907	102.81
505.123	96.81
505.34	78.81
505.557	89.81
505.773	96.81
505.99	82.81
506.207	84.81
506.423	92.81
506.64	80.81
506.856	75.81
507.073	84.81
507.289	98.81
507.506	98.81
507.722	105.81
507.939	110.81
508.155	97.81
508.372	82.81
508.588	93.81
508.805	108.81
509.021	85.81
509.238	80.81
509.454	98.81
509.67	103.81
509.887	108.81
510.103	129.81
510.319	186.81
510.536	661.81
510.752	1938.81
510.968	534.81
511.184	129.81
511.401	106.81
511.617	98.81
511.833	86.81
512.049	80.81
512.265	102.81
512.481	86.81
512.698	90.81
512.914	95.81
513.13	98.81
513.346	92.81
513.562	88.81
513.778	92.81
513.994	100.81
514.21	81.81
514.426	102.81
514.642	119.81
514.858	107.81
515.074	147.81
515.29	394.81
515.506	1182.81
515.721	442.81
