Data from Circ_1986_H10_HRD10591_00030.txt Node
Date: Wed Jan 03 12:15:32 EST 2024
User: Yrep
Spectrometer: HR+D1059
Trigger mode: 1
Integration Time (sec): 1.000000E-1
Scans to average: 1
Electric dark correction enabled: true
Nonlinearity correction enabled: false
Boxcar width: 0
XAxis mode: Wavelengths
Number of Pixels in Spectrum: 2048
>>>>>Begin Spectral Data<<<<<
223.165	-23.88
223.4	-23.88
223.635	-23.88
223.869	-21.88
224.104	-16.88
224.338	-9.88
224.573	-7.88
224.808	-15.88
225.042	-2.88
225.277	2.12
225.511	9.12
225.746	-3.88
225.98	11.12
226.215	5.12
226.449	11.12
226.683	16.12
226.918	12.12
227.152	36.12
227.387	34.12
227.621	34.12
227.856	36.12
228.09	47.12
228.324	62.12
228.559	57.12
228.793	51.12
229.027	57.12
229.262	71.12
229.496	90.12
229.73	80.12
229.964	82.12
230.199	70.12
230.433	69.12
230.667	78.12
230.901	84.12
231.136	83.12
231.37	72.12
231.604	83.12
231.838	82.12
232.072	86.12
232.306	66.12
232.541	85.12
232.775	81.12
233.009	83.12
233.243	82.12
233.477	91.12
233.711	60.12
233.945	95.12
234.179	82.12
234.413	83.12
234.647	75.12
234.881	78.12
235.115	74.12
235.349	74.12
235.583	72.12
235.817	71.12
236.051	74.12
236.285	67.12
236.519	85.12
236.753	72.12
236.987	84.12
237.221	73.12
237.455	61.12
237.689	81.12
237.922	84.12
238.156	67.12
238.39	71.12
238.624	57.12
238.858	86.12
239.091	71.12
239.325	82.12
239.559	68.12
239.793	95.12
240.027	75.12
240.26	84.12
240.494	82.12
240.728	77.12
240.961	82.12
241.195	84.12
241.429	78.12
241.662	68.12
241.896	84.12
242.13	84.12
242.363	58.12
242.597	80.12
242.83	89.12
243.064	82.12
243.298	84.12
243.531	75.12
243.765	82.12
243.998	72.12
244.232	85.12
244.465	82.12
244.699	62.12
244.932	64.12
245.166	84.12
245.399	92.12
245.633	78.12
245.866	73.12
246.099	80.12
246.333	86.12
246.566	75.12
246.8	86.12
247.033	84.12
247.266	88.12
247.5	78.12
247.733	76.12
247.966	86.12
248.2	83.12
248.433	93.12
248.666	87.12
248.899	88.12
249.133	72.12
249.366	95.12
249.599	91.12
249.832	76.12
250.066	82.12
250.299	86.12
250.532	91.12
250.765	91.12
250.998	92.12
251.231	76.12
251.465	87.12
251.698	72.12
251.931	85.12
252.164	81.12
252.397	73.12
252.63	80.12
252.863	70.12
253.096	88.12
253.329	84.12
253.562	77.12
253.795	81.12
254.028	73.12
254.261	86.12
254.494	76.12
254.727	86.12
254.96	89.12
255.193	89.12
255.426	83.12
255.659	74.12
255.892	71.12
256.124	88.12
256.357	93.12
256.59	98.12
256.823	96.12
257.056	76.12
257.289	92.12
257.521	84.12
257.754	62.12
257.987	56.12
258.22	71.12
258.452	80.12
258.685	82.12
258.918	80.12
259.151	94.12
259.383	85.12
259.616	83.12
259.849	80.12
260.081	80.12
260.314	78.12
260.547	95.12
260.779	87.12
261.012	84.12
261.244	78.12
261.477	92.12
261.71	89.12
261.942	100.12
262.175	110.12
262.407	102.12
262.64	99.12
262.872	88.12
263.105	94.12
263.337	81.12
263.57	86.12
263.802	80.12
264.035	100.12
264.267	81.12
264.499	88.12
264.732	83.12
264.964	90.12
265.197	90.12
265.429	79.12
265.661	84.12
265.894	67.12
266.126	85.12
266.358	86.12
266.591	93.12
266.823	80.12
267.055	96.12
267.287	98.12
267.52	82.12
267.752	86.12
267.984	72.12
268.216	87.12
268.448	89.12
268.681	70.12
268.913	87.12
269.145	82.12
269.377	81.12
269.609	86.12
269.841	89.12
270.073	87.12
270.306	83.12
270.538	81.12
270.77	91.12
271.002	88.12
271.234	84.12
271.466	82.12
271.698	84.12
271.93	76.12
272.162	81.12
272.394	100.12
272.626	83.12
272.858	86.12
273.09	90.12
273.322	82.12
273.553	87.12
273.785	79.12
274.017	78.12
274.249	74.12
274.481	86.12
274.713	91.12
274.945	81.12
275.176	89.12
275.408	84.12
275.64	86.12
275.872	90.12
276.104	92.12
276.335	106.12
276.567	83.12
276.799	95.12
277.031	81.12
277.262	110.12
277.494	94.12
277.726	97.12
277.957	72.12
278.189	72.12
278.421	84.12
278.652	82.12
278.884	96.12
279.115	97.12
279.347	93.12
279.579	83.12
279.81	97.12
280.042	94.12
280.273	95.12
280.505	82.12
280.736	89.12
280.968	99.12
281.199	81.12
281.431	69.12
281.662	74.12
281.894	82.12
282.125	91.12
282.356	114.12
282.588	115.12
282.819	114.12
283.051	94.12
283.282	96.12
283.513	80.12
283.745	89.12
283.976	96.12
284.207	81.12
284.439	82.12
284.67	96.12
284.901	89.12
285.132	89.12
285.364	92.12
285.595	86.12
285.826	79.12
286.057	93.12
286.288	75.12
286.52	81.12
286.751	72.12
286.982	104.12
287.213	90.12
287.444	93.12
287.675	90.12
287.906	85.12
288.138	74.12
288.369	75.12
288.6	85.12
288.831	89.12
289.062	84.12
289.293	87.12
289.524	75.12
289.755	82.12
289.986	94.12
290.217	91.12
290.448	80.12
290.679	102.12
290.91	87.12
291.141	81.12
291.371	78.12
291.602	88.12
291.833	76.12
292.064	91.12
292.295	82.12
292.526	95.12
292.757	94.12
292.987	89.12
293.218	76.12
293.449	71.12
293.68	87.12
293.91	90.12
294.141	82.12
294.372	82.12
294.603	92.12
294.833	75.12
295.064	93.12
295.295	93.12
295.525	97.12
295.756	110.12
295.987	120.12
296.217	132.12
296.448	119.12
296.679	91.12
296.909	84.12
297.14	90.12
297.37	89.12
297.601	103.12
297.831	84.12
298.062	90.12
298.292	90.12
298.523	105.12
298.753	95.12
298.984	85.12
299.214	96.12
299.445	90.12
299.675	97.12
299.905	91.12
300.136	96.12
300.366	88.12
300.597	93.12
300.827	83.12
301.057	91.12
301.288	95.12
301.518	114.12
301.748	93.12
301.979	104.12
302.209	98.12
302.439	83.12
302.669	80.12
302.9	86.12
303.13	111.12
303.36	108.12
303.59	112.12
303.82	99.12
304.051	89.12
304.281	89.12
304.511	83.12
304.741	98.12
304.971	86.12
305.201	94.12
305.431	101.12
305.661	86.12
305.891	84.12
306.121	101.12
306.352	95.12
306.582	111.12
306.812	90.12
307.042	98.12
307.272	92.12
307.502	84.12
307.731	103.12
307.961	91.12
308.191	95.12
308.421	98.12
308.651	100.12
308.881	89.12
309.111	108.12
309.341	100.12
309.571	88.12
309.8	95.12
310.03	97.12
310.26	103.12
310.49	101.12
310.72	109.12
310.949	98.12
311.179	105.12
311.409	103.12
311.639	85.12
311.868	99.12
312.098	98.12
312.328	90.12
312.557	99.12
312.787	87.12
313.017	91.12
313.246	97.12
313.476	100.12
313.706	105.12
313.935	84.12
314.165	91.12
314.394	105.12
314.624	91.12
314.853	96.12
315.083	96.12
315.312	105.12
315.542	82.12
315.771	94.12
316.001	76.12
316.23	99.12
316.46	80.12
316.689	86.12
316.919	97.12
317.148	100.12
317.377	95.12
317.607	100.12
317.836	93.12
318.065	94.12
318.295	93.12
318.524	95.12
318.753	98.12
318.983	97.12
319.212	100.12
319.441	99.12
319.67	97.12
319.9	96.12
320.129	80.12
320.358	77.12
320.587	96.12
320.816	86.12
321.046	93.12
321.275	99.12
321.504	101.12
321.733	104.12
321.962	105.12
322.191	100.12
322.42	103.12
322.649	119.12
322.878	93.12
323.108	112.12
323.337	117.12
323.566	120.12
323.795	142.12
324.024	199.12
324.253	313.12
324.482	690.12
324.71	1422.12
324.939	1856.12
325.168	681.12
325.397	230.12
325.626	124.12
325.855	120.12
326.084	122.12
326.313	130.12
326.542	138.12
326.77	180.12
326.999	379.12
327.228	780.12
327.457	1440.12
327.686	1120.12
327.914	337.12
328.143	180.12
328.372	160.12
328.6	119.12
328.829	111.12
329.058	113.12
329.287	112.12
329.515	96.12
329.744	103.12
329.972	108.12
330.201	120.12
330.43	144.12
330.658	122.12
330.887	128.12
331.115	113.12
331.344	105.12
331.572	100.12
331.801	98.12
332.03	118.12
332.258	106.12
332.486	98.12
332.715	102.12
332.943	92.12
333.172	106.12
333.4	105.12
333.629	93.12
333.857	103.12
334.085	108.12
334.314	130.12
334.542	161.12
334.771	139.12
334.999	103.12
335.227	92.12
335.455	103.12
335.684	117.12
335.912	100.12
336.14	112.12
336.369	99.12
336.597	110.12
336.825	93.12
337.053	86.12
337.281	90.12
337.51	93.12
337.738	90.12
337.966	77.12
338.194	100.12
338.422	86.12
338.65	71.12
338.878	91.12
339.106	102.12
339.334	95.12
339.562	104.12
339.79	100.12
340.018	93.12
340.246	86.12
340.474	92.12
340.702	98.12
340.93	94.12
341.158	102.12
341.386	95.12
341.614	91.12
341.842	95.12
342.07	104.12
342.298	94.12
342.526	94.12
342.754	98.12
342.981	83.12
343.209	86.12
343.437	94.12
343.665	86.12
343.893	97.12
344.12	89.12
344.348	78.12
344.576	86.12
344.804	93.12
345.031	104.12
345.259	96.12
345.487	98.12
345.714	88.12
345.942	98.12
346.17	101.12
346.397	101.12
346.625	86.12
346.853	81.12
347.08	89.12
347.308	85.12
347.535	92.12
347.763	97.12
347.99	100.12
348.218	100.12
348.445	99.12
348.673	91.12
348.9	86.12
349.128	102.12
349.355	92.12
349.583	102.12
349.81	95.12
350.037	98.12
350.265	99.12
350.492	92.12
350.72	95.12
350.947	107.12
351.174	105.12
351.402	105.12
351.629	97.12
351.856	87.12
352.083	91.12
352.311	103.12
352.538	92.12
352.765	114.12
352.992	113.12
353.22	110.12
353.447	109.12
353.674	87.12
353.901	95.12
354.128	88.12
354.355	87.12
354.583	96.12
354.81	94.12
355.037	94.12
355.264	76.12
355.491	96.12
355.718	93.12
355.945	104.12
356.172	87.12
356.399	83.12
356.626	83.12
356.853	91.12
357.08	91.12
357.307	91.12
357.534	103.12
357.761	94.12
357.988	92.12
358.215	92.12
358.441	96.12
358.668	92.12
358.895	93.12
359.122	97.12
359.349	104.12
359.576	98.12
359.802	104.12
360.029	94.12
360.256	96.12
360.483	87.12
360.709	88.12
360.936	93.12
361.163	96.12
361.39	84.12
361.616	94.12
361.843	86.12
362.07	85.12
362.296	101.12
362.523	91.12
362.749	78.12
362.976	88.12
363.203	94.12
363.429	86.12
363.656	91.12
363.882	104.12
364.109	80.12
364.335	80.12
364.562	101.12
364.788	81.12
365.015	92.12
365.241	113.12
365.468	112.12
365.694	102.12
365.92	108.12
366.147	86.12
366.373	93.12
366.599	85.12
366.826	86.12
367.052	92.12
367.278	100.12
367.505	90.12
367.731	75.12
367.957	97.12
368.184	87.12
368.41	100.12
368.636	94.12
368.862	100.12
369.089	99.12
369.315	86.12
369.541	89.12
369.767	83.12
369.993	98.12
370.219	89.12
370.445	76.12
370.672	93.12
370.898	84.12
371.124	98.12
371.35	86.12
371.576	100.12
371.802	80.12
372.028	77.12
372.254	94.12
372.48	86.12
372.706	87.12
372.932	90.12
373.158	93.12
373.384	102.12
373.61	100.12
373.835	87.12
374.061	102.12
374.287	96.12
374.513	90.12
374.739	92.12
374.965	91.12
375.191	90.12
375.416	90.12
375.642	95.12
375.868	88.12
376.094	101.12
376.319	95.12
376.545	89.12
376.771	101.12
376.997	85.12
377.222	94.12
377.448	91.12
377.674	88.12
377.899	98.12
378.125	97.12
378.35	93.12
378.576	86.12
378.802	101.12
379.027	84.12
379.253	84.12
379.478	90.12
379.704	89.12
379.929	85.12
380.155	100.12
380.38	101.12
380.606	102.12
380.831	100.12
381.057	88.12
381.282	89.12
381.507	89.12
381.733	103.12
381.958	102.12
382.184	96.12
382.409	88.12
382.634	103.12
382.86	110.12
383.085	110.12
383.31	95.12
383.535	111.12
383.761	97.12
383.986	98.12
384.211	96.12
384.436	113.12
384.662	99.12
384.887	120.12
385.112	119.12
385.337	119.12
385.562	113.12
385.787	115.12
386.013	110.12
386.238	124.12
386.463	116.12
386.688	113.12
386.913	106.12
387.138	112.12
387.363	115.12
387.588	111.12
387.813	107.12
388.038	117.12
388.263	121.12
388.488	111.12
388.713	86.12
388.938	94.12
389.163	89.12
389.387	108.12
389.612	88.12
389.837	85.12
390.062	101.12
390.287	85.12
390.512	99.12
390.736	89.12
390.961	82.12
391.186	92.12
391.411	100.12
391.636	94.12
391.86	101.12
392.085	84.12
392.31	86.12
392.534	90.12
392.759	88.12
392.984	87.12
393.208	101.12
393.433	93.12
393.658	82.12
393.882	82.12
394.107	92.12
394.331	82.12
394.556	83.12
394.78	95.12
395.005	78.12
395.229	79.12
395.454	91.12
395.678	103.12
395.903	95.12
396.127	91.12
396.352	73.12
396.576	82.12
396.801	82.12
397.025	100.12
397.249	82.12
397.474	107.12
397.698	99.12
397.922	84.12
398.147	84.12
398.371	96.12
398.595	88.12
398.82	105.12
399.044	84.12
399.268	88.12
399.492	96.12
399.717	86.12
399.941	93.12
400.165	104.12
400.389	82.12
400.613	86.12
400.837	80.12
401.062	87.12
401.286	92.12
401.51	92.12
401.734	95.12
401.958	98.12
402.182	103.12
402.406	133.12
402.63	107.12
402.854	93.12
403.078	89.12
403.302	85.12
403.526	98.12
403.75	86.12
403.974	98.12
404.198	79.12
404.422	86.12
404.645	85.12
404.869	80.12
405.093	85.12
405.317	91.12
405.541	100.12
405.765	88.12
405.988	114.12
406.212	162.12
406.436	201.12
406.66	127.12
406.883	89.12
407.107	86.12
407.331	91.12
407.555	90.12
407.778	76.12
408.002	88.12
408.226	98.12
408.449	90.12
408.673	91.12
408.896	76.12
409.12	95.12
409.344	87.12
409.567	91.12
409.791	97.12
410.014	91.12
410.238	82.12
410.461	90.12
410.685	80.12
410.908	100.12
411.132	100.12
411.355	99.12
411.578	104.12
411.802	75.12
412.025	79.12
412.249	90.12
412.472	101.12
412.695	103.12
412.919	100.12
413.142	82.12
413.365	102.12
413.589	96.12
413.812	81.12
414.035	82.12
414.258	96.12
414.482	87.12
414.705	90.12
414.928	96.12
415.151	82.12
415.374	95.12
415.597	81.12
415.821	93.12
416.044	91.12
416.267	103.12
416.49	87.12
416.713	101.12
416.936	105.12
417.159	89.12
417.382	80.12
417.605	90.12
417.828	89.12
418.051	80.12
418.274	90.12
418.497	100.12
418.72	80.12
418.943	104.12
419.166	92.12
419.389	81.12
419.611	90.12
419.834	94.12
420.057	93.12
420.28	95.12
420.503	95.12
420.726	87.12
420.948	91.12
421.171	82.12
421.394	82.12
421.617	87.12
421.839	81.12
422.062	94.12
422.285	97.12
422.507	97.12
422.73	91.12
422.953	94.12
423.175	89.12
423.398	86.12
423.621	80.12
423.843	86.12
424.066	85.12
424.288	83.12
424.511	91.12
424.733	99.12
424.956	92.12
425.178	98.12
425.401	106.12
425.623	102.12
425.846	93.12
426.068	80.12
426.291	90.12
426.513	95.12
426.735	104.12
426.958	107.12
427.18	105.12
427.402	125.12
427.625	127.12
427.847	113.12
428.069	106.12
428.292	91.12
428.514	95.12
428.736	100.12
428.958	95.12
429.181	81.12
429.403	81.12
429.625	82.12
429.847	89.12
430.069	86.12
430.292	100.12
430.514	88.12
430.736	96.12
430.958	73.12
431.18	74.12
431.402	65.12
431.624	79.12
431.846	80.12
432.068	78.12
432.29	80.12
432.512	91.12
432.734	86.12
432.956	92.12
433.178	105.12
433.4	96.12
433.622	82.12
433.844	97.12
434.066	82.12
434.287	79.12
434.509	75.12
434.731	101.12
434.953	88.12
435.175	90.12
435.397	96.12
435.618	97.12
435.84	98.12
436.062	118.12
436.284	108.12
436.505	90.12
436.727	106.12
436.949	99.12
437.17	87.12
437.392	90.12
437.614	103.12
437.835	107.12
438.057	100.12
438.278	120.12
438.5	113.12
438.721	108.12
438.943	105.12
439.165	98.12
439.386	92.12
439.608	79.12
439.829	92.12
440.05	103.12
440.272	137.12
440.493	99.12
440.715	92.12
440.936	87.12
441.158	108.12
441.379	101.12
441.6	93.12
441.822	100.12
442.043	99.12
442.264	89.12
442.486	86.12
442.707	105.12
442.928	93.12
443.149	108.12
443.371	128.12
443.592	104.12
443.813	102.12
444.034	87.12
444.255	102.12
444.476	84.12
444.698	83.12
444.919	78.12
445.14	110.12
445.361	119.12
445.582	115.12
445.803	127.12
446.024	117.12
446.245	121.12
446.466	99.12
446.687	94.12
446.908	88.12
447.129	88.12
447.35	93.12
447.571	94.12
447.792	92.12
448.013	97.12
448.234	114.12
448.455	88.12
448.675	110.12
448.896	98.12
449.117	112.12
449.338	95.12
449.559	119.12
449.779	126.12
450	84.12
450.221	83.12
450.442	84.12
450.662	101.12
450.883	89.12
451.104	103.12
451.324	98.12
451.545	80.12
451.766	106.12
451.986	88.12
452.207	91.12
452.428	90.12
452.648	92.12
452.869	106.12
453.089	99.12
453.31	95.12
453.53	95.12
453.751	92.12
453.971	98.12
454.192	96.12
454.412	80.12
454.633	92.12
454.853	79.12
455.073	94.12
455.294	91.12
455.514	104.12
455.734	86.12
455.955	95.12
456.175	79.12
456.395	74.12
456.616	72.12
456.836	90.12
457.056	87.12
457.276	96.12
457.497	98.12
457.717	83.12
457.937	82.12
458.157	85.12
458.377	85.12
458.598	98.12
458.818	149.12
459.038	123.12
459.258	111.12
459.478	87.12
459.698	88.12
459.918	82.12
460.138	91.12
460.358	86.12
460.578	89.12
460.798	93.12
461.018	91.12
461.238	87.12
461.458	81.12
461.678	81.12
461.898	90.12
462.118	97.12
462.338	86.12
462.558	78.12
462.777	82.12
462.997	99.12
463.217	95.12
463.437	79.12
463.657	86.12
463.876	84.12
464.096	93.12
464.316	98.12
464.536	81.12
464.755	94.12
464.975	106.12
465.195	160.12
465.414	150.12
465.634	93.12
465.854	94.12
466.073	86.12
466.293	88.12
466.512	71.12
466.732	83.12
466.951	87.12
467.171	83.12
467.391	104.12
467.61	102.12
467.829	105.12
468.049	94.12
468.268	101.12
468.488	98.12
468.707	93.12
468.927	74.12
469.146	91.12
469.365	89.12
469.585	94.12
469.804	97.12
470.023	96.12
470.243	84.12
470.462	93.12
470.681	102.12
470.901	85.12
471.12	85.12
471.339	79.12
471.558	87.12
471.777	94.12
471.997	103.12
472.216	137.12
472.435	184.12
472.654	100.12
472.873	90.12
473.092	90.12
473.311	79.12
473.53	86.12
473.749	89.12
473.968	92.12
474.187	97.12
474.406	84.12
474.625	82.12
474.844	90.12
475.063	94.12
475.282	104.12
475.501	87.12
475.72	95.12
475.939	84.12
476.158	92.12
476.377	85.12
476.596	89.12
476.814	88.12
477.033	85.12
477.252	105.12
477.471	71.12
477.69	100.12
477.908	93.12
478.127	98.12
478.346	83.12
478.564	94.12
478.783	92.12
479.002	88.12
479.22	90.12
479.439	98.12
479.658	106.12
479.876	89.12
480.095	88.12
480.313	88.12
480.532	87.12
480.751	107.12
480.969	137.12
481.188	252.12
481.406	155.12
481.624	98.12
481.843	92.12
482.061	82.12
482.28	83.12
482.498	88.12
482.717	98.12
482.935	92.12
483.153	102.12
483.372	91.12
483.59	86.12
483.808	70.12
484.027	82.12
484.245	79.12
484.463	83.12
484.681	111.12
484.9	96.12
485.118	83.12
485.336	80.12
485.554	114.12
485.772	108.12
485.99	94.12
486.209	88.12
486.427	92.12
486.645	95.12
486.863	104.12
487.081	100.12
487.299	94.12
487.517	95.12
487.735	88.12
487.953	96.12
488.171	96.12
488.389	102.12
488.607	98.12
488.825	98.12
489.043	100.12
489.261	87.12
489.479	100.12
489.696	84.12
489.914	108.12
490.132	96.12
490.35	82.12
490.568	104.12
490.786	73.12
491.003	88.12
491.221	104.12
491.439	89.12
491.657	86.12
491.874	100.12
492.092	81.12
492.31	99.12
492.527	99.12
492.745	84.12
492.963	102.12
493.18	102.12
493.398	86.12
493.615	90.12
493.833	104.12
494.05	93.12
494.268	94.12
494.485	90.12
494.703	106.12
494.92	97.12
495.138	94.12
495.355	99.12
495.573	87.12
495.79	84.12
496.008	95.12
496.225	96.12
496.442	91.12
496.66	98.12
496.877	82.12
497.094	96.12
497.312	81.12
497.529	84.12
497.746	94.12
497.963	81.12
498.181	73.12
498.398	98.12
498.615	110.12
498.832	92.12
499.049	97.12
499.267	100.12
499.484	68.12
499.701	88.12
499.918	94.12
500.135	85.12
500.352	86.12
500.569	104.12
500.786	81.12
501.003	89.12
501.22	87.12
501.437	91.12
501.654	96.12
501.871	102.12
502.088	101.12
502.305	103.12
502.522	87.12
502.739	78.12
502.956	91.12
503.172	90.12
503.389	86.12
503.606	93.12
503.823	88.12
504.04	92.12
504.256	88.12
504.473	104.12
504.69	72.12
504.907	99.12
505.123	82.12
505.34	102.12
505.557	93.12
505.773	80.12
505.99	69.12
506.207	101.12
506.423	71.12
506.64	93.12
506.856	102.12
507.073	95.12
507.289	89.12
507.506	97.12
507.722	104.12
507.939	108.12
508.155	97.12
508.372	99.12
508.588	90.12
508.805	88.12
509.021	95.12
509.238	105.12
509.454	106.12
509.67	86.12
509.887	86.12
510.103	124.12
510.319	199.12
510.536	677.12
510.752	2036.12
510.968	576.12
511.184	145.12
511.401	98.12
511.617	92.12
511.833	80.12
512.049	87.12
512.265	93.12
512.481	94.12
512.698	85.12
512.914	80.12
513.13	92.12
513.346	91.12
513.562	103.12
513.778	99.12
513.994	84.12
514.21	109.12
514.426	106.12
514.642	123.12
514.858	112.12
515.074	153.12
515.29	392.12
515.506	1198.12
