Data from Circ_1986_H10_HRD10591_00085.txt Node
Date: Wed Jan 03 12:15:43 EST 2024
User: Yrep
Spectrometer: HR+D1059
Trigger mode: 1
Integration Time (sec): 1.000000E-1
Scans to average: 1
Electric dark correction enabled: true
Nonlinearity correction enabled: false
Boxcar width: 0
XAxis mode: Wavelengths
Number of Pixels in Spectrum: 2048
>>>>>Begin Spectral Data<<<<<
223.165	-12.81
223.4	-12.81
223.635	-12.81
223.869	-24.81
224.104	-27.81
224.338	1.19
224.573	-14.81
224.808	-3.81
225.042	-6.81
225.277	-8.81
225.511	-2.81
225.746	4.19
225.98	5.19
226.215	0.19
226.449	14.19
226.683	25.19
226.918	19.19
227.152	33.19
227.387	30.19
227.621	37.19
227.856	40.19
228.09	50.19
228.324	54.19
228.559	44.19
228.793	56.19
229.027	47.19
229.262	60.19
229.496	60.19
229.73	71.19
229.964	81.19
230.199	59.19
230.433	75.19
230.667	83.19
230.901	69.19
231.136	81.19
231.37	79.19
231.604	65.19
231.838	74.19
232.072	84.19
232.306	77.19
232.541	76.19
232.775	84.19
233.009	80.19
233.243	88.19
233.477	84.19
233.711	81.19
233.945	76.19
234.179	76.19
234.413	87.19
234.647	79.19
234.881	77.19
235.115	67.19
235.349	67.19
235.583	77.19
235.817	71.19
236.051	75.19
236.285	80.19
236.519	65.19
236.753	81.19
236.987	79.19
237.221	86.19
237.455	89.19
237.689	74.19
237.922	87.19
238.156	79.19
238.39	63.19
238.624	75.19
238.858	57.19
239.091	70.19
239.325	81.19
239.559	66.19
239.793	75.19
240.027	65.19
240.26	77.19
240.494	82.19
240.728	68.19
240.961	56.19
241.195	73.19
241.429	70.19
241.662	79.19
241.896	67.19
242.13	80.19
242.363	73.19
242.597	70.19
242.83	56.19
243.064	77.19
243.298	65.19
243.531	84.19
243.765	69.19
243.998	76.19
244.232	79.19
244.465	83.19
244.699	80.19
244.932	65.19
245.166	53.19
245.399	70.19
245.633	81.19
245.866	83.19
246.099	76.19
246.333	79.19
246.566	68.19
246.8	63.19
247.033	71.19
247.266	87.19
247.5	67.19
247.733	81.19
247.966	75.19
248.2	65.19
248.433	85.19
248.666	74.19
248.899	74.19
249.133	88.19
249.366	90.19
249.599	78.19
249.832	76.19
250.066	81.19
250.299	70.19
250.532	80.19
250.765	78.19
250.998	89.19
251.231	81.19
251.465	60.19
251.698	82.19
251.931	74.19
252.164	71.19
252.397	57.19
252.63	65.19
252.863	86.19
253.096	77.19
253.329	65.19
253.562	77.19
253.795	77.19
254.028	68.19
254.261	86.19
254.494	88.19
254.727	82.19
254.96	94.19
255.193	62.19
255.426	66.19
255.659	79.19
255.892	76.19
256.124	82.19
256.357	84.19
256.59	77.19
256.823	85.19
257.056	86.19
257.289	76.19
257.521	78.19
257.754	68.19
257.987	77.19
258.22	87.19
258.452	91.19
258.685	79.19
258.918	85.19
259.151	84.19
259.383	75.19
259.616	86.19
259.849	68.19
260.081	69.19
260.314	71.19
260.547	76.19
260.779	85.19
261.012	88.19
261.244	78.19
261.477	89.19
261.71	96.19
261.942	105.19
262.175	87.19
262.407	89.19
262.64	78.19
262.872	81.19
263.105	80.19
263.337	72.19
263.57	77.19
263.802	79.19
264.035	83.19
264.267	72.19
264.499	93.19
264.732	87.19
264.964	70.19
265.197	73.19
265.429	73.19
265.661	78.19
265.894	84.19
266.126	81.19
266.358	70.19
266.591	73.19
266.823	88.19
267.055	75.19
267.287	91.19
267.52	84.19
267.752	70.19
267.984	82.19
268.216	75.19
268.448	79.19
268.681	86.19
268.913	80.19
269.145	84.19
269.377	65.19
269.609	91.19
269.841	81.19
270.073	104.19
270.306	86.19
270.538	83.19
270.77	81.19
271.002	71.19
271.234	89.19
271.466	92.19
271.698	83.19
271.93	72.19
272.162	78.19
272.394	69.19
272.626	79.19
272.858	80.19
273.09	100.19
273.322	83.19
273.553	81.19
273.785	80.19
274.017	82.19
274.249	94.19
274.481	80.19
274.713	80.19
274.945	94.19
275.176	78.19
275.408	91.19
275.64	81.19
275.872	90.19
276.104	73.19
276.335	72.19
276.567	94.19
276.799	98.19
277.031	86.19
277.262	102.19
277.494	94.19
277.726	89.19
277.957	88.19
278.189	92.19
278.421	77.19
278.652	77.19
278.884	81.19
279.115	73.19
279.347	79.19
279.579	93.19
279.81	78.19
280.042	86.19
280.273	95.19
280.505	80.19
280.736	82.19
280.968	89.19
281.199	87.19
281.431	98.19
281.662	83.19
281.894	87.19
282.125	83.19
282.356	109.19
282.588	106.19
282.819	111.19
283.051	80.19
283.282	79.19
283.513	87.19
283.745	81.19
283.976	83.19
284.207	75.19
284.439	85.19
284.67	81.19
284.901	83.19
285.132	94.19
285.364	105.19
285.595	77.19
285.826	86.19
286.057	75.19
286.288	80.19
286.52	75.19
286.751	79.19
286.982	88.19
287.213	79.19
287.444	90.19
287.675	93.19
287.906	71.19
288.138	88.19
288.369	94.19
288.6	93.19
288.831	93.19
289.062	78.19
289.293	85.19
289.524	85.19
289.755	87.19
289.986	79.19
290.217	76.19
290.448	91.19
290.679	78.19
290.91	86.19
291.141	93.19
291.371	87.19
291.602	86.19
291.833	84.19
292.064	81.19
292.295	92.19
292.526	69.19
292.757	91.19
292.987	85.19
293.218	88.19
293.449	96.19
293.68	96.19
293.91	91.19
294.141	87.19
294.372	75.19
294.603	91.19
294.833	85.19
295.064	88.19
295.295	78.19
295.525	99.19
295.756	87.19
295.987	102.19
296.217	129.19
296.448	106.19
296.679	97.19
296.909	85.19
297.14	91.19
297.37	72.19
297.601	87.19
297.831	99.19
298.062	91.19
298.292	71.19
298.523	88.19
298.753	85.19
298.984	87.19
299.214	89.19
299.445	80.19
299.675	95.19
299.905	102.19
300.136	86.19
300.366	97.19
300.597	80.19
300.827	87.19
301.057	88.19
301.288	97.19
301.518	73.19
301.748	92.19
301.979	95.19
302.209	88.19
302.439	86.19
302.669	91.19
302.9	87.19
303.13	87.19
303.36	86.19
303.59	71.19
303.82	95.19
304.051	89.19
304.281	91.19
304.511	81.19
304.741	83.19
304.971	81.19
305.201	92.19
305.431	73.19
305.661	80.19
305.891	89.19
306.121	100.19
306.352	92.19
306.582	79.19
306.812	106.19
307.042	85.19
307.272	99.19
307.502	97.19
307.731	107.19
307.961	89.19
308.191	83.19
308.421	79.19
308.651	83.19
308.881	80.19
309.111	74.19
309.341	102.19
309.571	95.19
309.8	99.19
310.03	95.19
310.26	92.19
310.49	94.19
310.72	90.19
310.949	103.19
311.179	101.19
311.409	79.19
311.639	97.19
311.868	104.19
312.098	84.19
312.328	99.19
312.557	89.19
312.787	97.19
313.017	97.19
313.246	96.19
313.476	93.19
313.706	92.19
313.935	88.19
314.165	102.19
314.394	91.19
314.624	88.19
314.853	91.19
315.083	90.19
315.312	76.19
315.542	84.19
315.771	92.19
316.001	94.19
316.23	93.19
316.46	80.19
316.689	86.19
316.919	84.19
317.148	97.19
317.377	91.19
317.607	95.19
317.836	96.19
318.065	87.19
318.295	87.19
318.524	102.19
318.753	77.19
318.983	91.19
319.212	96.19
319.441	94.19
319.67	87.19
319.9	87.19
320.129	85.19
320.358	86.19
320.587	81.19
320.816	85.19
321.046	93.19
321.275	100.19
321.504	99.19
321.733	91.19
321.962	94.19
322.191	104.19
322.42	91.19
322.649	95.19
322.878	120.19
323.108	95.19
323.337	96.19
323.566	115.19
323.795	126.19
324.024	172.19
324.253	304.19
324.482	685.19
324.71	1348.19
324.939	1831.19
325.168	685.19
325.397	185.19
325.626	126.19
325.855	118.19
326.084	123.19
326.313	133.19
326.542	144.19
326.77	195.19
326.999	381.19
327.228	779.19
327.457	1417.19
327.686	1124.19
327.914	323.19
328.143	175.19
328.372	143.19
328.6	109.19
328.829	100.19
329.058	108.19
329.287	113.19
329.515	100.19
329.744	103.19
329.972	121.19
330.201	165.19
330.43	170.19
330.658	114.19
330.887	141.19
331.115	109.19
331.344	92.19
331.572	111.19
331.801	91.19
332.03	93.19
332.258	97.19
332.486	86.19
332.715	100.19
332.943	100.19
333.172	96.19
333.4	81.19
333.629	113.19
333.857	123.19
334.085	127.19
334.314	147.19
334.542	220.19
334.771	198.19
334.999	97.19
335.227	97.19
335.455	115.19
335.684	91.19
335.912	97.19
336.14	90.19
336.369	92.19
336.597	96.19
336.825	99.19
337.053	92.19
337.281	92.19
337.51	87.19
337.738	85.19
337.966	101.19
338.194	100.19
338.422	71.19
338.65	85.19
338.878	103.19
339.106	77.19
339.334	91.19
339.562	104.19
339.79	88.19
340.018	86.19
340.246	84.19
340.474	97.19
340.702	89.19
340.93	86.19
341.158	78.19
341.386	94.19
341.614	80.19
341.842	83.19
342.07	95.19
342.298	91.19
342.526	84.19
342.754	81.19
342.981	104.19
343.209	84.19
343.437	92.19
343.665	87.19
343.893	88.19
344.12	76.19
344.348	76.19
344.576	100.19
344.804	99.19
345.031	89.19
345.259	103.19
345.487	90.19
345.714	90.19
345.942	83.19
346.17	100.19
346.397	90.19
346.625	79.19
346.853	93.19
347.08	76.19
347.308	91.19
347.535	112.19
347.763	81.19
347.99	77.19
348.218	101.19
348.445	95.19
348.673	99.19
348.9	94.19
349.128	105.19
349.355	87.19
349.583	88.19
349.81	91.19
350.037	85.19
350.265	83.19
350.492	103.19
350.72	98.19
350.947	96.19
351.174	117.19
351.402	94.19
351.629	84.19
351.856	105.19
352.083	92.19
352.311	97.19
352.538	98.19
352.765	85.19
352.992	99.19
353.22	103.19
353.447	96.19
353.674	98.19
353.901	94.19
354.128	92.19
354.355	91.19
354.583	101.19
354.81	85.19
355.037	100.19
355.264	95.19
355.491	89.19
355.718	79.19
355.945	97.19
356.172	99.19
356.399	94.19
356.626	94.19
356.853	96.19
357.08	103.19
357.307	89.19
357.534	89.19
357.761	85.19
357.988	88.19
358.215	80.19
358.441	79.19
358.668	88.19
358.895	77.19
359.122	84.19
359.349	87.19
359.576	96.19
359.802	88.19
360.029	100.19
360.256	97.19
360.483	93.19
360.709	95.19
360.936	85.19
361.163	86.19
361.39	87.19
361.616	71.19
361.843	71.19
362.07	79.19
362.296	83.19
362.523	81.19
362.749	87.19
362.976	86.19
363.203	83.19
363.429	91.19
363.656	84.19
363.882	86.19
364.109	76.19
364.335	85.19
364.562	76.19
364.788	84.19
365.015	105.19
365.241	101.19
365.468	89.19
365.694	90.19
365.92	97.19
366.147	87.19
366.373	76.19
366.599	86.19
366.826	83.19
367.052	91.19
367.278	84.19
367.505	91.19
367.731	81.19
367.957	68.19
368.184	87.19
368.41	93.19
368.636	104.19
368.862	102.19
369.089	93.19
369.315	85.19
369.541	84.19
369.767	93.19
369.993	84.19
370.219	75.19
370.445	84.19
370.672	84.19
370.898	82.19
371.124	80.19
371.35	100.19
371.576	96.19
371.802	74.19
372.028	92.19
372.254	92.19
372.48	72.19
372.706	87.19
372.932	83.19
373.158	78.19
373.384	93.19
373.61	85.19
373.835	78.19
374.061	90.19
374.287	86.19
374.513	82.19
374.739	83.19
374.965	71.19
375.191	88.19
375.416	86.19
375.642	96.19
375.868	81.19
376.094	87.19
376.319	83.19
376.545	84.19
376.771	84.19
376.997	79.19
377.222	92.19
377.448	64.19
377.674	78.19
377.899	92.19
378.125	93.19
378.35	92.19
378.576	81.19
378.802	88.19
379.027	88.19
379.253	85.19
379.478	94.19
379.704	92.19
379.929	79.19
380.155	85.19
380.38	85.19
380.606	89.19
380.831	84.19
381.057	92.19
381.282	104.19
381.507	77.19
381.733	91.19
381.958	100.19
382.184	91.19
382.409	95.19
382.634	85.19
382.86	79.19
383.085	103.19
383.31	94.19
383.535	89.19
383.761	88.19
383.986	102.19
384.211	92.19
384.436	94.19
384.662	89.19
384.887	96.19
385.112	94.19
385.337	97.19
385.562	99.19
385.787	96.19
386.013	105.19
386.238	99.19
386.463	110.19
386.688	98.19
386.913	100.19
387.138	100.19
387.363	96.19
387.588	86.19
387.813	100.19
388.038	110.19
388.263	103.19
388.488	96.19
388.713	91.19
388.938	89.19
389.163	88.19
389.387	110.19
389.612	88.19
389.837	83.19
390.062	91.19
390.287	91.19
390.512	99.19
390.736	75.19
390.961	87.19
391.186	85.19
391.411	90.19
391.636	94.19
391.86	85.19
392.085	76.19
392.31	71.19
392.534	85.19
392.759	93.19
392.984	87.19
393.208	97.19
393.433	83.19
393.658	83.19
393.882	79.19
394.107	89.19
394.331	81.19
394.556	86.19
394.78	86.19
395.005	84.19
395.229	81.19
395.454	90.19
395.678	77.19
395.903	100.19
396.127	86.19
396.352	96.19
396.576	67.19
396.801	76.19
397.025	87.19
397.249	81.19
397.474	88.19
397.698	76.19
397.922	80.19
398.147	92.19
398.371	81.19
398.595	95.19
398.82	81.19
399.044	86.19
399.268	96.19
399.492	82.19
399.717	85.19
399.941	75.19
400.165	89.19
400.389	86.19
400.613	89.19
400.837	83.19
401.062	90.19
401.286	98.19
401.51	84.19
401.734	84.19
401.958	93.19
402.182	105.19
402.406	128.19
402.63	98.19
402.854	89.19
403.078	85.19
403.302	102.19
403.526	90.19
403.75	87.19
403.974	91.19
404.198	81.19
404.422	79.19
404.645	79.19
404.869	90.19
405.093	83.19
405.317	91.19
405.541	111.19
405.765	99.19
405.988	104.19
406.212	144.19
406.436	181.19
406.66	123.19
406.883	102.19
407.107	87.19
407.331	82.19
407.555	79.19
407.778	90.19
408.002	79.19
408.226	66.19
408.449	86.19
408.673	87.19
408.896	98.19
409.12	68.19
409.344	91.19
409.567	91.19
409.791	92.19
410.014	77.19
410.238	85.19
410.461	101.19
410.685	88.19
410.908	98.19
411.132	111.19
411.355	105.19
411.578	87.19
411.802	89.19
412.025	85.19
412.249	76.19
412.472	90.19
412.695	99.19
412.919	91.19
413.142	93.19
413.365	97.19
413.589	85.19
413.812	79.19
414.035	83.19
414.258	75.19
414.482	87.19
414.705	86.19
414.928	93.19
415.151	90.19
415.374	92.19
415.597	92.19
415.821	84.19
416.044	82.19
416.267	90.19
416.49	83.19
416.713	71.19
416.936	87.19
417.159	88.19
417.382	92.19
417.605	81.19
417.828	99.19
418.051	79.19
418.274	77.19
418.497	80.19
418.72	81.19
418.943	83.19
419.166	80.19
419.389	97.19
419.611	84.19
419.834	89.19
420.057	92.19
420.28	89.19
420.503	72.19
420.726	96.19
420.948	77.19
421.171	88.19
421.394	91.19
421.617	86.19
421.839	84.19
422.062	81.19
422.285	89.19
422.507	84.19
422.73	88.19
422.953	75.19
423.175	95.19
423.398	101.19
423.621	78.19
423.843	81.19
424.066	88.19
424.288	85.19
424.511	80.19
424.733	95.19
424.956	104.19
425.178	101.19
425.401	87.19
425.623	99.19
425.846	79.19
426.068	75.19
426.291	66.19
426.513	93.19
426.735	88.19
426.958	83.19
427.18	100.19
427.402	111.19
427.625	133.19
427.847	116.19
428.069	117.19
428.292	86.19
428.514	87.19
428.736	75.19
428.958	82.19
429.181	84.19
429.403	81.19
429.625	84.19
429.847	80.19
430.069	92.19
430.292	88.19
430.514	80.19
430.736	89.19
430.958	87.19
431.18	82.19
431.402	92.19
431.624	71.19
431.846	75.19
432.068	79.19
432.29	92.19
432.512	87.19
432.734	89.19
432.956	94.19
433.178	93.19
433.4	75.19
433.622	75.19
433.844	77.19
434.066	91.19
434.287	85.19
434.509	71.19
434.731	89.19
434.953	73.19
435.175	98.19
435.397	92.19
435.618	79.19
435.84	85.19
436.062	96.19
436.284	111.19
436.505	87.19
436.727	85.19
436.949	87.19
437.17	96.19
437.392	84.19
437.614	87.19
437.835	88.19
438.057	111.19
438.278	96.19
438.5	93.19
438.721	98.19
438.943	90.19
439.165	90.19
439.386	75.19
439.608	75.19
439.829	104.19
440.05	104.19
440.272	112.19
440.493	87.19
440.715	81.19
440.936	90.19
441.158	83.19
441.379	72.19
441.6	92.19
441.822	79.19
442.043	78.19
442.264	95.19
442.486	99.19
442.707	86.19
442.928	98.19
443.149	131.19
443.371	116.19
443.592	93.19
443.813	100.19
444.034	87.19
444.255	95.19
444.476	92.19
444.698	101.19
444.919	96.19
445.14	139.19
445.361	110.19
445.582	98.19
445.803	107.19
446.024	122.19
446.245	125.19
446.466	105.19
446.687	100.19
446.908	82.19
447.129	98.19
447.35	79.19
447.571	82.19
447.792	72.19
448.013	97.19
448.234	93.19
448.455	102.19
448.675	105.19
448.896	109.19
449.117	98.19
449.338	95.19
449.559	102.19
449.779	112.19
450	89.19
450.221	79.19
450.442	78.19
450.662	94.19
450.883	98.19
451.104	111.19
451.324	84.19
451.545	85.19
451.766	72.19
451.986	79.19
452.207	70.19
452.428	92.19
452.648	97.19
452.869	98.19
453.089	94.19
453.31	97.19
453.53	102.19
453.751	79.19
453.971	89.19
454.192	105.19
454.412	83.19
454.633	97.19
454.853	83.19
455.073	79.19
455.294	96.19
455.514	86.19
455.734	85.19
455.955	88.19
456.175	88.19
456.395	66.19
456.616	90.19
456.836	86.19
457.056	75.19
457.276	79.19
457.497	83.19
457.717	74.19
457.937	91.19
458.157	87.19
458.377	72.19
458.598	93.19
458.818	122.19
459.038	127.19
459.258	100.19
459.478	83.19
459.698	81.19
459.918	86.19
460.138	77.19
460.358	84.19
460.578	95.19
460.798	97.19
461.018	77.19
461.238	71.19
461.458	89.19
461.678	78.19
461.898	80.19
462.118	72.19
462.338	87.19
462.558	71.19
462.777	88.19
462.997	99.19
463.217	89.19
463.437	99.19
463.657	81.19
463.876	84.19
464.096	80.19
464.316	83.19
464.536	91.19
464.755	91.19
464.975	102.19
465.195	120.19
465.414	120.19
465.634	85.19
465.854	87.19
466.073	88.19
466.293	80.19
466.512	69.19
466.732	82.19
466.951	76.19
467.171	81.19
467.391	90.19
467.61	97.19
467.829	105.19
468.049	115.19
468.268	132.19
468.488	90.19
468.707	78.19
468.927	89.19
469.146	85.19
469.365	73.19
469.585	78.19
469.804	84.19
470.023	99.19
470.243	93.19
470.462	90.19
470.681	81.19
470.901	95.19
471.12	84.19
471.339	77.19
471.558	91.19
471.777	89.19
471.997	104.19
472.216	167.19
472.435	261.19
472.654	126.19
472.873	93.19
473.092	86.19
473.311	77.19
473.53	83.19
473.749	81.19
473.968	79.19
474.187	101.19
474.406	95.19
474.625	86.19
474.844	88.19
475.063	84.19
475.282	67.19
475.501	87.19
475.72	88.19
475.939	94.19
476.158	76.19
476.377	72.19
476.596	97.19
476.814	92.19
477.033	83.19
477.252	87.19
477.471	93.19
477.69	91.19
477.908	88.19
478.127	90.19
478.346	91.19
478.564	93.19
478.783	94.19
479.002	81.19
479.22	91.19
479.439	99.19
479.658	95.19
479.876	81.19
480.095	98.19
480.313	97.19
480.532	91.19
480.751	118.19
480.969	175.19
481.188	424.19
481.406	275.19
481.624	111.19
481.843	88.19
482.061	79.19
482.28	83.19
482.498	92.19
482.717	84.19
482.935	86.19
483.153	97.19
483.372	77.19
483.59	72.19
483.808	75.19
484.027	97.19
484.245	84.19
484.463	99.19
484.681	88.19
484.9	92.19
485.118	97.19
485.336	75.19
485.554	99.19
485.772	93.19
485.99	92.19
486.209	107.19
486.427	76.19
486.645	95.19
486.863	102.19
487.081	102.19
487.299	87.19
487.517	95.19
487.735	92.19
487.953	87.19
488.171	94.19
488.389	81.19
488.607	87.19
488.825	81.19
489.043	94.19
489.261	98.19
489.479	92.19
489.696	79.19
489.914	77.19
490.132	93.19
490.35	71.19
490.568	79.19
490.786	86.19
491.003	84.19
491.221	80.19
491.439	92.19
491.657	89.19
491.874	89.19
492.092	93.19
492.31	97.19
492.527	100.19
492.745	93.19
492.963	86.19
493.18	69.19
493.398	96.19
493.615	89.19
493.833	91.19
494.05	84.19
494.268	83.19
494.485	77.19
494.703	82.19
494.92	76.19
495.138	83.19
495.355	80.19
495.573	81.19
495.79	84.19
496.008	93.19
496.225	93.19
496.442	77.19
496.66	91.19
496.877	90.19
497.094	88.19
497.312	77.19
497.529	86.19
497.746	93.19
497.963	80.19
498.181	96.19
498.398	94.19
498.615	99.19
498.832	92.19
499.049	81.19
499.267	86.19
499.484	88.19
499.701	75.19
499.918	94.19
500.135	72.19
500.352	81.19
500.569	75.19
500.786	87.19
501.003	87.19
501.22	88.19
501.437	91.19
501.654	91.19
501.871	96.19
502.088	94.19
502.305	97.19
502.522	88.19
502.739	85.19
502.956	89.19
503.172	76.19
503.389	92.19
503.606	81.19
503.823	80.19
504.04	87.19
504.256	98.19
504.473	82.19
504.69	84.19
504.907	83.19
505.123	76.19
505.34	82.19
505.557	68.19
505.773	85.19
505.99	85.19
506.207	73.19
506.423	92.19
506.64	86.19
506.856	86.19
507.073	84.19
507.289	91.19
507.506	89.19
507.722	92.19
507.939	93.19
508.155	83.19
508.372	94.19
508.588	92.19
508.805	91.19
509.021	85.19
509.238	99.19
509.454	88.19
509.67	76.19
509.887	89.19
510.103	114.19
510.319	188.19
510.536	595.19
510.752	1791.19
510.968	499.19
511.184	132.19
511.401	91.19
511.617	89.19
511.833	96.19
512.049	93.19
512.265	77.19
512.481	100.19
512.698	87.19
512.914	86.19
513.13	92.19
513.346	96.19
513.562	91.19
513.778	94.19
513.994	83.19
514.21	99.19
514.426	108.19
514.642	111.19
514.858	115.19
515.074	129.19
515.29	343.19
515.506	1049.19
515.721	415.19
515.937	121.19
516.153	111.19
516.369	100.19
516.585	88.19
516.801	78.19
517.016	102.19
517.232	79.19
517.448	94.19
