Data from Circ_1986_H10_HRD10591_00096.txt Node
Date: Wed Jan 03 12:15:45 EST 2024
User: Yrep
Spectrometer: HR+D1059
Trigger mode: 1
Integration Time (sec): 1.000000E-1
Scans to average: 1
Electric dark correction enabled: true
Nonlinearity correction enabled: false
Boxcar width: 0
XAxis mode: Wavelengths
Number of Pixels in Spectrum: 2048
>>>>>Begin Spectral Data<<<<<
223.165	-18.19
223.4	-18.19
223.635	-18.19
223.869	-27.19
224.104	-31.19
224.338	-12.19
224.573	-17.19
224.808	-13.19
225.042	-8.19
225.277	-5.19
225.511	6.81
225.746	10.81
225.98	6.81
226.215	15.81
226.449	18.81
226.683	10.81
226.918	27.81
227.152	34.81
227.387	36.81
227.621	42.81
227.856	41.81
228.09	55.81
228.324	45.81
228.559	52.81
228.793	59.81
229.027	65.81
229.262	51.81
229.496	63.81
229.73	74.81
229.964	79.81
230.199	69.81
230.433	83.81
230.667	91.81
230.901	96.81
231.136	68.81
231.37	71.81
231.604	73.81
231.838	63.81
232.072	92.81
232.306	76.81
232.541	70.81
232.775	84.81
233.009	71.81
233.243	95.81
233.477	81.81
233.711	82.81
233.945	72.81
234.179	86.81
234.413	64.81
234.647	88.81
234.881	78.81
235.115	88.81
235.349	83.81
235.583	82.81
235.817	76.81
236.051	75.81
236.285	88.81
236.519	76.81
236.753	75.81
236.987	76.81
237.221	84.81
237.455	99.81
237.689	71.81
237.922	81.81
238.156	67.81
238.39	73.81
238.624	74.81
238.858	72.81
239.091	73.81
239.325	87.81
239.559	60.81
239.793	79.81
240.027	85.81
240.26	74.81
240.494	83.81
240.728	76.81
240.961	81.81
241.195	90.81
241.429	70.81
241.662	75.81
241.896	72.81
242.13	86.81
242.363	81.81
242.597	68.81
242.83	73.81
243.064	63.81
243.298	64.81
243.531	82.81
243.765	83.81
243.998	87.81
244.232	79.81
244.465	84.81
244.699	76.81
244.932	80.81
245.166	71.81
245.399	67.81
245.633	70.81
245.866	63.81
246.099	90.81
246.333	74.81
246.566	82.81
246.8	99.81
247.033	66.81
247.266	77.81
247.5	77.81
247.733	75.81
247.966	81.81
248.2	85.81
248.433	70.81
248.666	85.81
248.899	80.81
249.133	82.81
249.366	91.81
249.599	92.81
249.832	77.81
250.066	83.81
250.299	74.81
250.532	65.81
250.765	101.81
250.998	72.81
251.231	73.81
251.465	93.81
251.698	72.81
251.931	79.81
252.164	82.81
252.397	85.81
252.63	86.81
252.863	74.81
253.096	79.81
253.329	79.81
253.562	89.81
253.795	96.81
254.028	90.81
254.261	95.81
254.494	89.81
254.727	83.81
254.96	80.81
255.193	91.81
255.426	86.81
255.659	76.81
255.892	87.81
256.124	85.81
256.357	77.81
256.59	80.81
256.823	96.81
257.056	86.81
257.289	91.81
257.521	80.81
257.754	74.81
257.987	65.81
258.22	89.81
258.452	79.81
258.685	89.81
258.918	85.81
259.151	84.81
259.383	72.81
259.616	79.81
259.849	73.81
260.081	88.81
260.314	73.81
260.547	99.81
260.779	90.81
261.012	84.81
261.244	78.81
261.477	86.81
261.71	78.81
261.942	104.81
262.175	95.81
262.407	81.81
262.64	84.81
262.872	75.81
263.105	81.81
263.337	83.81
263.57	84.81
263.802	84.81
264.035	84.81
264.267	90.81
264.499	81.81
264.732	74.81
264.964	79.81
265.197	89.81
265.429	87.81
265.661	80.81
265.894	83.81
266.126	87.81
266.358	83.81
266.591	83.81
266.823	92.81
267.055	84.81
267.287	83.81
267.52	88.81
267.752	77.81
267.984	87.81
268.216	87.81
268.448	103.81
268.681	108.81
268.913	85.81
269.145	83.81
269.377	99.81
269.609	100.81
269.841	83.81
270.073	95.81
270.306	84.81
270.538	81.81
270.77	74.81
271.002	85.81
271.234	95.81
271.466	99.81
271.698	84.81
271.93	83.81
272.162	76.81
272.394	82.81
272.626	83.81
272.858	95.81
273.09	90.81
273.322	92.81
273.553	87.81
273.785	100.81
274.017	84.81
274.249	77.81
274.481	89.81
274.713	79.81
274.945	93.81
275.176	83.81
275.408	75.81
275.64	85.81
275.872	104.81
276.104	96.81
276.335	89.81
276.567	93.81
276.799	98.81
277.031	100.81
277.262	99.81
277.494	104.81
277.726	89.81
277.957	81.81
278.189	54.81
278.421	75.81
278.652	81.81
278.884	83.81
279.115	85.81
279.347	87.81
279.579	93.81
279.81	90.81
280.042	96.81
280.273	92.81
280.505	99.81
280.736	100.81
280.968	74.81
281.199	102.81
281.431	96.81
281.662	79.81
281.894	91.81
282.125	93.81
282.356	113.81
282.588	124.81
282.819	97.81
283.051	90.81
283.282	90.81
283.513	88.81
283.745	86.81
283.976	82.81
284.207	84.81
284.439	81.81
284.67	79.81
284.901	96.81
285.132	108.81
285.364	89.81
285.595	85.81
285.826	80.81
286.057	79.81
286.288	91.81
286.52	71.81
286.751	105.81
286.982	72.81
287.213	104.81
287.444	81.81
287.675	84.81
287.906	100.81
288.138	76.81
288.369	84.81
288.6	97.81
288.831	86.81
289.062	87.81
289.293	86.81
289.524	95.81
289.755	95.81
289.986	94.81
290.217	99.81
290.448	83.81
290.679	94.81
290.91	82.81
291.141	90.81
291.371	97.81
291.602	113.81
291.833	97.81
292.064	91.81
292.295	88.81
292.526	103.81
292.757	81.81
292.987	99.81
293.218	89.81
293.449	84.81
293.68	80.81
293.91	84.81
294.141	87.81
294.372	79.81
294.603	88.81
294.833	86.81
295.064	73.81
295.295	88.81
295.525	101.81
295.756	97.81
295.987	100.81
296.217	120.81
296.448	103.81
296.679	108.81
296.909	86.81
297.14	89.81
297.37	102.81
297.601	79.81
297.831	87.81
298.062	96.81
298.292	87.81
298.523	76.81
298.753	99.81
298.984	86.81
299.214	88.81
299.445	94.81
299.675	104.81
299.905	94.81
300.136	87.81
300.366	87.81
300.597	77.81
300.827	89.81
301.057	91.81
301.288	103.81
301.518	90.81
301.748	97.81
301.979	97.81
302.209	92.81
302.439	93.81
302.669	79.81
302.9	108.81
303.13	97.81
303.36	95.81
303.59	113.81
303.82	105.81
304.051	91.81
304.281	97.81
304.511	93.81
304.741	84.81
304.971	92.81
305.201	84.81
305.431	92.81
305.661	79.81
305.891	90.81
306.121	87.81
306.352	93.81
306.582	109.81
306.812	101.81
307.042	91.81
307.272	91.81
307.502	99.81
307.731	101.81
307.961	107.81
308.191	92.81
308.421	92.81
308.651	95.81
308.881	91.81
309.111	97.81
309.341	92.81
309.571	90.81
309.8	91.81
310.03	104.81
310.26	84.81
310.49	88.81
310.72	86.81
310.949	92.81
311.179	100.81
311.409	105.81
311.639	80.81
311.868	97.81
312.098	93.81
312.328	90.81
312.557	105.81
312.787	97.81
313.017	101.81
313.246	105.81
313.476	106.81
313.706	106.81
313.935	96.81
314.165	101.81
314.394	89.81
314.624	97.81
314.853	95.81
315.083	96.81
315.312	97.81
315.542	84.81
315.771	91.81
316.001	87.81
316.23	96.81
316.46	95.81
316.689	93.81
316.919	94.81
317.148	104.81
317.377	107.81
317.607	107.81
317.836	90.81
318.065	98.81
318.295	91.81
318.524	99.81
318.753	93.81
318.983	93.81
319.212	93.81
319.441	97.81
319.67	100.81
319.9	97.81
320.129	99.81
320.358	109.81
320.587	96.81
320.816	110.81
321.046	98.81
321.275	95.81
321.504	98.81
321.733	94.81
321.962	106.81
322.191	97.81
322.42	97.81
322.649	90.81
322.878	109.81
323.108	94.81
323.337	124.81
323.566	128.81
323.795	150.81
324.024	186.81
324.253	334.81
324.482	723.81
324.71	1517.81
324.939	2047.81
325.168	755.81
325.397	232.81
325.626	154.81
325.855	127.81
326.084	126.81
326.313	121.81
326.542	148.81
326.77	237.81
326.999	428.81
327.228	850.81
327.457	1561.81
327.686	1265.81
327.914	371.81
328.143	209.81
328.372	178.81
328.6	130.81
328.829	121.81
329.058	117.81
329.287	123.81
329.515	117.81
329.744	121.81
329.972	140.81
330.201	194.81
330.43	218.81
330.658	156.81
330.887	129.81
331.115	109.81
331.344	120.81
331.572	97.81
331.801	104.81
332.03	115.81
332.258	101.81
332.486	88.81
332.715	109.81
332.943	97.81
333.172	72.81
333.4	98.81
333.629	104.81
333.857	114.81
334.085	133.81
334.314	180.81
334.542	238.81
334.771	252.81
334.999	121.81
335.227	86.81
335.455	83.81
335.684	113.81
335.912	110.81
336.14	99.81
336.369	96.81
336.597	105.81
336.825	89.81
337.053	76.81
337.281	89.81
337.51	83.81
337.738	99.81
337.966	88.81
338.194	89.81
338.422	93.81
338.65	103.81
338.878	118.81
339.106	94.81
339.334	103.81
339.562	90.81
339.79	93.81
340.018	86.81
340.246	86.81
340.474	100.81
340.702	81.81
340.93	84.81
341.158	85.81
341.386	100.81
341.614	108.81
341.842	91.81
342.07	84.81
342.298	97.81
342.526	105.81
342.754	92.81
342.981	71.81
343.209	91.81
343.437	95.81
343.665	93.81
343.893	96.81
344.12	95.81
344.348	86.81
344.576	98.81
344.804	102.81
345.031	87.81
345.259	107.81
345.487	84.81
345.714	94.81
345.942	102.81
346.17	92.81
346.397	88.81
346.625	99.81
346.853	90.81
347.08	87.81
347.308	86.81
347.535	100.81
347.763	105.81
347.99	104.81
348.218	97.81
348.445	108.81
348.673	95.81
348.9	95.81
349.128	90.81
349.355	101.81
349.583	102.81
349.81	93.81
350.037	101.81
350.265	99.81
350.492	96.81
350.72	102.81
350.947	93.81
351.174	108.81
351.402	103.81
351.629	106.81
351.856	106.81
352.083	89.81
352.311	103.81
352.538	119.81
352.765	99.81
352.992	119.81
353.22	116.81
353.447	115.81
353.674	91.81
353.901	88.81
354.128	102.81
354.355	107.81
354.583	96.81
354.81	74.81
355.037	107.81
355.264	100.81
355.491	90.81
355.718	85.81
355.945	100.81
356.172	92.81
356.399	101.81
356.626	90.81
356.853	93.81
357.08	96.81
357.307	84.81
357.534	104.81
357.761	101.81
357.988	93.81
358.215	98.81
358.441	89.81
358.668	87.81
358.895	79.81
359.122	86.81
359.349	72.81
359.576	87.81
359.802	95.81
360.029	113.81
360.256	100.81
360.483	88.81
360.709	89.81
360.936	109.81
361.163	102.81
361.39	105.81
361.616	89.81
361.843	92.81
362.07	91.81
362.296	88.81
362.523	90.81
362.749	95.81
362.976	85.81
363.203	101.81
363.429	100.81
363.656	91.81
363.882	89.81
364.109	106.81
364.335	79.81
364.562	101.81
364.788	87.81
365.015	97.81
365.241	99.81
365.468	116.81
365.694	89.81
365.92	86.81
366.147	103.81
366.373	89.81
366.599	83.81
366.826	99.81
367.052	85.81
367.278	83.81
367.505	88.81
367.731	76.81
367.957	95.81
368.184	95.81
368.41	79.81
368.636	92.81
368.862	107.81
369.089	101.81
369.315	101.81
369.541	106.81
369.767	87.81
369.993	95.81
370.219	108.81
370.445	95.81
370.672	79.81
370.898	68.81
371.124	75.81
371.35	80.81
371.576	93.81
371.802	104.81
372.028	97.81
372.254	97.81
372.48	98.81
372.706	92.81
372.932	72.81
373.158	90.81
373.384	76.81
373.61	87.81
373.835	100.81
374.061	89.81
374.287	79.81
374.513	92.81
374.739	84.81
374.965	99.81
375.191	87.81
375.416	88.81
375.642	94.81
375.868	91.81
376.094	96.81
376.319	95.81
376.545	76.81
376.771	89.81
376.997	89.81
377.222	86.81
377.448	99.81
377.674	98.81
377.899	81.81
378.125	85.81
378.35	93.81
378.576	87.81
378.802	90.81
379.027	117.81
379.253	100.81
379.478	103.81
379.704	97.81
379.929	91.81
380.155	83.81
380.38	87.81
380.606	114.81
380.831	89.81
381.057	111.81
381.282	93.81
381.507	96.81
381.733	86.81
381.958	91.81
382.184	97.81
382.409	100.81
382.634	100.81
382.86	103.81
383.085	109.81
383.31	102.81
383.535	105.81
383.761	98.81
383.986	100.81
384.211	110.81
384.436	105.81
384.662	109.81
384.887	101.81
385.112	100.81
385.337	83.81
385.562	101.81
385.787	93.81
386.013	95.81
386.238	97.81
386.463	119.81
386.688	117.81
386.913	109.81
387.138	103.81
387.363	97.81
387.588	100.81
387.813	101.81
388.038	105.81
388.263	108.81
388.488	100.81
388.713	100.81
388.938	93.81
389.163	95.81
389.387	96.81
389.612	103.81
389.837	106.81
390.062	100.81
390.287	90.81
390.512	94.81
390.736	83.81
390.961	94.81
391.186	97.81
391.411	95.81
391.636	114.81
391.86	81.81
392.085	86.81
392.31	95.81
392.534	85.81
392.759	96.81
392.984	91.81
393.208	88.81
393.433	88.81
393.658	87.81
393.882	92.81
394.107	95.81
394.331	81.81
394.556	88.81
394.78	101.81
395.005	84.81
395.229	88.81
395.454	83.81
395.678	93.81
395.903	76.81
396.127	97.81
396.352	85.81
396.576	93.81
396.801	80.81
397.025	82.81
397.249	98.81
397.474	85.81
397.698	95.81
397.922	89.81
398.147	93.81
398.371	74.81
398.595	80.81
398.82	86.81
399.044	89.81
399.268	74.81
399.492	78.81
399.717	88.81
399.941	96.81
400.165	98.81
400.389	99.81
400.613	94.81
400.837	86.81
401.062	90.81
401.286	88.81
401.51	83.81
401.734	91.81
401.958	103.81
402.182	121.81
402.406	129.81
402.63	98.81
402.854	104.81
403.078	89.81
403.302	99.81
403.526	95.81
403.75	82.81
403.974	85.81
404.198	105.81
404.422	91.81
404.645	90.81
404.869	91.81
405.093	92.81
405.317	114.81
405.541	89.81
405.765	107.81
405.988	110.81
406.212	158.81
406.436	189.81
406.66	137.81
406.883	91.81
407.107	87.81
407.331	104.81
407.555	102.81
407.778	91.81
408.002	84.81
408.226	99.81
408.449	96.81
408.673	83.81
408.896	85.81
409.12	94.81
409.344	80.81
409.567	76.81
409.791	115.81
410.014	107.81
410.238	92.81
410.461	84.81
410.685	104.81
410.908	93.81
411.132	97.81
411.355	105.81
411.578	83.81
411.802	87.81
412.025	81.81
412.249	96.81
412.472	103.81
412.695	113.81
412.919	100.81
413.142	91.81
413.365	88.81
413.589	70.81
413.812	83.81
414.035	84.81
414.258	79.81
414.482	98.81
414.705	96.81
414.928	99.81
415.151	89.81
415.374	99.81
415.597	93.81
415.821	103.81
416.044	81.81
416.267	73.81
416.49	99.81
416.713	71.81
416.936	85.81
417.159	91.81
417.382	89.81
417.605	88.81
417.828	73.81
418.051	92.81
418.274	82.81
418.497	85.81
418.72	77.81
418.943	69.81
419.166	92.81
419.389	91.81
419.611	81.81
419.834	87.81
420.057	74.81
420.28	68.81
420.503	80.81
420.726	83.81
420.948	93.81
421.171	94.81
421.394	98.81
421.617	102.81
421.839	97.81
422.062	94.81
422.285	87.81
422.507	100.81
422.73	91.81
422.953	92.81
423.175	72.81
423.398	76.81
423.621	92.81
423.843	83.81
424.066	82.81
424.288	88.81
424.511	84.81
424.733	89.81
424.956	107.81
425.178	105.81
425.401	92.81
425.623	101.81
425.846	90.81
426.068	84.81
426.291	84.81
426.513	90.81
426.735	90.81
426.958	87.81
427.18	91.81
427.402	123.81
427.625	149.81
427.847	145.81
428.069	130.81
428.292	81.81
428.514	95.81
428.736	102.81
428.958	92.81
429.181	104.81
429.403	92.81
429.625	90.81
429.847	89.81
430.069	98.81
430.292	83.81
430.514	83.81
430.736	91.81
430.958	84.81
431.18	84.81
431.402	97.81
431.624	78.81
431.846	81.81
432.068	75.81
432.29	85.81
432.512	82.81
432.734	84.81
432.956	96.81
433.178	104.81
433.4	96.81
433.622	88.81
433.844	83.81
434.066	97.81
434.287	92.81
434.509	95.81
434.731	91.81
434.953	85.81
435.175	98.81
435.397	93.81
435.618	83.81
435.84	98.81
436.062	115.81
436.284	108.81
436.505	101.81
436.727	91.81
436.949	81.81
437.17	84.81
437.392	86.81
437.614	95.81
437.835	105.81
438.057	102.81
438.278	106.81
438.5	103.81
438.721	112.81
438.943	103.81
439.165	81.81
439.386	97.81
439.608	85.81
439.829	106.81
440.05	118.81
440.272	128.81
440.493	96.81
440.715	91.81
440.936	89.81
441.158	96.81
441.379	99.81
441.6	85.81
441.822	95.81
442.043	76.81
442.264	96.81
442.486	97.81
442.707	91.81
442.928	106.81
443.149	124.81
443.371	118.81
443.592	99.81
443.813	121.81
444.034	102.81
444.255	87.81
444.476	84.81
444.698	96.81
444.919	87.81
445.14	134.81
445.361	127.81
445.582	100.81
445.803	113.81
446.024	127.81
446.245	122.81
446.466	101.81
446.687	91.81
446.908	95.81
447.129	92.81
447.35	108.81
447.571	99.81
447.792	81.81
448.013	91.81
448.234	100.81
448.455	114.81
448.675	117.81
448.896	101.81
449.117	108.81
449.338	104.81
449.559	121.81
449.779	125.81
450	90.81
450.221	87.81
450.442	96.81
450.662	95.81
450.883	111.81
451.104	100.81
451.324	106.81
451.545	77.81
451.766	89.81
451.986	89.81
452.207	95.81
452.428	101.81
452.648	86.81
452.869	106.81
453.089	97.81
453.31	122.81
453.53	99.81
453.751	81.81
453.971	86.81
454.192	110.81
454.412	90.81
454.633	100.81
454.853	83.81
455.073	82.81
455.294	82.81
455.514	96.81
455.734	81.81
455.955	86.81
456.175	87.81
456.395	88.81
456.616	88.81
456.836	93.81
457.056	86.81
457.276	71.81
457.497	96.81
457.717	95.81
457.937	86.81
458.157	76.81
458.377	79.81
458.598	99.81
458.818	116.81
459.038	134.81
459.258	109.81
459.478	104.81
459.698	92.81
459.918	91.81
460.138	92.81
460.358	99.81
460.578	100.81
460.798	89.81
461.018	99.81
461.238	85.81
461.458	99.81
461.678	88.81
461.898	81.81
462.118	103.81
462.338	90.81
462.558	90.81
462.777	89.81
462.997	90.81
463.217	85.81
463.437	91.81
463.657	96.81
463.876	100.81
464.096	91.81
464.316	81.81
464.536	98.81
464.755	99.81
464.975	98.81
465.195	153.81
465.414	123.81
465.634	90.81
465.854	88.81
466.073	98.81
466.293	86.81
466.512	102.81
466.732	91.81
466.951	86.81
467.171	91.81
467.391	90.81
467.61	93.81
467.829	108.81
468.049	143.81
468.268	166.81
468.488	95.81
468.707	81.81
468.927	74.81
469.146	69.81
469.365	93.81
469.585	107.81
469.804	81.81
470.023	79.81
470.243	99.81
470.462	88.81
470.681	120.81
470.901	98.81
471.12	86.81
471.339	67.81
471.558	83.81
471.777	97.81
471.997	116.81
472.216	196.81
472.435	315.81
472.654	138.81
472.873	101.81
473.092	84.81
473.311	88.81
473.53	85.81
473.749	94.81
473.968	81.81
474.187	105.81
474.406	87.81
474.625	83.81
474.844	87.81
475.063	86.81
475.282	87.81
475.501	77.81
475.72	84.81
475.939	81.81
476.158	94.81
476.377	90.81
476.596	89.81
476.814	92.81
477.033	94.81
477.252	88.81
477.471	99.81
477.69	98.81
477.908	87.81
478.127	101.81
478.346	88.81
478.564	98.81
478.783	91.81
479.002	91.81
479.22	90.81
479.439	97.81
479.658	103.81
479.876	84.81
480.095	88.81
480.313	105.81
480.532	110.81
480.751	120.81
480.969	189.81
481.188	553.81
481.406	348.81
481.624	112.81
481.843	80.81
482.061	76.81
482.28	93.81
482.498	86.81
482.717	89.81
482.935	82.81
483.153	73.81
483.372	89.81
483.59	100.81
483.808	92.81
484.027	97.81
484.245	91.81
484.463	99.81
484.681	103.81
484.9	93.81
485.118	89.81
485.336	90.81
485.554	109.81
485.772	99.81
485.99	105.81
486.209	85.81
486.427	95.81
486.645	116.81
486.863	95.81
487.081	91.81
487.299	90.81
487.517	90.81
487.735	96.81
487.953	79.81
488.171	100.81
488.389	77.81
488.607	100.81
488.825	83.81
489.043	80.81
489.261	84.81
489.479	104.81
489.696	93.81
489.914	87.81
490.132	89.81
490.35	84.81
490.568	94.81
490.786	72.81
491.003	83.81
491.221	92.81
491.439	95.81
491.657	78.81
491.874	76.81
492.092	88.81
492.31	89.81
492.527	91.81
492.745	68.81
492.963	84.81
493.18	80.81
493.398	79.81
493.615	94.81
493.833	108.81
494.05	99.81
494.268	74.81
494.485	93.81
494.703	78.81
494.92	83.81
495.138	66.81
495.355	87.81
495.573	91.81
495.79	96.81
496.008	87.81
496.225	90.81
496.442	90.81
496.66	100.81
496.877	91.81
497.094	100.81
497.312	89.81
497.529	89.81
497.746	79.81
497.963	95.81
498.181	102.81
498.398	83.81
498.615	108.81
498.832	95.81
499.049	87.81
499.267	99.81
499.484	88.81
499.701	95.81
499.918	77.81
500.135	85.81
500.352	93.81
500.569	80.81
500.786	88.81
501.003	84.81
501.22	88.81
501.437	91.81
501.654	92.81
501.871	101.81
502.088	74.81
502.305	87.81
502.522	99.81
502.739	88.81
502.956	87.81
503.172	83.81
503.389	99.81
503.606	101.81
503.823	94.81
504.04	87.81
504.256	70.81
504.473	91.81
504.69	87.81
504.907	101.81
505.123	100.81
505.34	103.81
505.557	102.81
505.773	96.81
505.99	82.81
506.207	86.81
506.423	91.81
506.64	84.81
506.856	84.81
507.073	85.81
507.289	99.81
507.506	93.81
507.722	91.81
507.939	99.81
508.155	93.81
508.372	75.81
508.588	82.81
508.805	98.81
509.021	95.81
509.238	96.81
509.454	87.81
509.67	91.81
509.887	106.81
510.103	122.81
510.319	185.81
510.536	640.81
510.752	1913.81
510.968	535.81
511.184	145.81
511.401	109.81
511.617	102.81
511.833	92.81
512.049	85.81
512.265	113.81
512.481	101.81
512.698	92.81
512.914	81.81
513.13	87.81
513.346	83.81
513.562	100.81
513.778	90.81
513.994	89.81
514.21	100.81
514.426	122.81
514.642	117.81
514.858	124.81
515.074	155.81
515.29	377.81
