Data from Circ_1986_H10_HRD10591_00011.txt Node
Date: Wed Jan 03 12:15:28 EST 2024
User: Yrep
Spectrometer: HR+D1059
Trigger mode: 1
Integration Time (sec): 1.000000E-1
Scans to average: 1
Electric dark correction enabled: true
Nonlinearity correction enabled: false
Boxcar width: 0
XAxis mode: Wavelengths
Number of Pixels in Spectrum: 2048
>>>>>Begin Spectral Data<<<<<
223.165	-25.31
223.4	-25.31
223.635	-25.31
223.869	-33.31
224.104	-29.31
224.338	-8.31
224.573	-2.31
224.808	-12.31
225.042	-1.31
225.277	-0.31
225.511	-2.31
225.746	7.69
225.98	16.69
226.215	5.69
226.449	12.69
226.683	9.69
226.918	25.69
227.152	36.69
227.387	23.69
227.621	34.69
227.856	50.69
228.09	37.69
228.324	57.69
228.559	50.69
228.793	152.69
229.027	403.69
229.262	464.69
229.496	570.69
229.73	693.69
229.964	706.69
230.199	510.69
230.433	439.69
230.667	448.69
230.901	426.69
231.136	430.69
231.37	436.69
231.604	432.69
231.838	430.69
232.072	448.69
232.306	425.69
232.541	454.69
232.775	461.69
233.009	461.69
233.243	474.69
233.477	473.69
233.711	467.69
233.945	481.69
234.179	499.69
234.413	490.69
234.647	478.69
234.881	493.69
235.115	515.69
235.349	519.69
235.583	536.69
235.817	552.69
236.051	593.69
236.285	573.69
236.519	571.69
236.753	652.69
236.987	831.69
237.221	1194.69
237.455	1294.69
237.689	816.69
237.922	698.69
238.156	681.69
238.39	654.69
238.624	624.69
238.858	644.69
239.091	605.69
239.325	630.69
239.559	674.69
239.793	674.69
240.027	726.69
240.26	814.69
240.494	868.69
240.728	873.69
240.961	855.69
241.195	800.69
241.429	757.69
241.662	740.69
241.896	754.69
242.13	757.69
242.363	772.69
242.597	767.69
242.83	796.69
243.064	790.69
243.298	797.69
243.531	809.69
243.765	790.69
243.998	837.69
244.232	827.69
244.465	843.69
244.699	892.69
244.932	869.69
245.166	865.69
245.399	863.69
245.633	868.69
245.866	888.69
246.099	918.69
246.333	918.69
246.566	938.69
246.8	961.69
247.033	970.69
247.266	978.69
247.5	1044.69
247.733	1086.69
247.966	1108.69
248.2	1106.69
248.433	1129.69
248.666	1176.69
248.899	1254.69
249.133	1348.69
249.366	1340.69
249.599	1235.69
249.832	1160.69
250.066	1180.69
250.299	1202.69
250.532	1349.69
250.765	1508.69
250.998	1604.69
251.231	1532.69
251.465	1421.69
251.698	1367.69
251.931	1335.69
252.164	1312.69
252.397	1382.69
252.63	1413.69
252.863	1466.69
253.096	1538.69
253.329	1596.69
253.562	1556.69
253.795	1490.69
254.028	1509.69
254.261	1527.69
254.494	1632.69
254.727	1882.69
254.96	2024.69
255.193	1828.69
255.426	1687.69
255.659	1594.69
255.892	1620.69
256.124	1664.69
256.357	1629.69
256.59	1548.69
256.823	1516.69
257.056	1470.69
257.289	1483.69
257.521	1505.69
257.754	1489.69
257.987	1465.69
258.22	1477.69
258.452	1466.69
258.685	1484.69
258.918	1501.69
259.151	1557.69
259.383	1627.69
259.616	1583.69
259.849	1635.69
260.081	1777.69
260.314	1880.69
260.547	1852.69
260.779	1749.69
261.012	1745.69
261.244	1650.69
261.477	1640.69
261.71	1604.69
261.942	1650.69
262.175	1652.69
262.407	1592.69
262.64	1575.69
262.872	1580.69
263.105	1586.69
263.337	1602.69
263.57	1622.69
263.802	1608.69
264.035	1608.69
264.267	1608.69
264.499	1601.69
264.732	1632.69
264.964	1635.69
265.197	1608.69
265.429	1618.69
265.661	1628.69
265.894	1700.69
266.126	1682.69
266.358	1678.69
266.591	1702.69
266.823	1765.69
267.055	1812.69
267.287	1793.69
267.52	1685.69
267.752	1777.69
267.984	1793.69
268.216	1808.69
268.448	1843.69
268.681	1876.69
268.913	1974.69
269.145	2127.69
269.377	2194.69
269.609	2111.69
269.841	2080.69
270.073	2172.69
270.306	2382.69
270.538	2534.69
270.77	2448.69
271.002	2334.69
271.234	2314.69
271.466	2366.69
271.698	2490.69
271.93	2525.69
272.162	2490.69
272.394	2429.69
272.626	2357.69
272.858	2213.69
273.09	2133.69
273.322	2183.69
273.553	2133.69
273.785	2132.69
274.017	2109.69
274.249	2120.69
274.481	2143.69
274.713	2168.69
274.945	2165.69
275.176	2148.69
275.408	2167.69
275.64	2152.69
275.872	2154.69
276.104	2162.69
276.335	2179.69
276.567	2258.69
276.799	2336.69
277.031	2493.69
277.262	2636.69
277.494	2559.69
277.726	2439.69
277.957	2343.69
278.189	2311.69
278.421	2281.69
278.652	2259.69
278.884	2236.69
279.115	2244.69
279.347	2306.69
279.579	2271.69
279.81	2281.69
280.042	2250.69
280.273	2282.69
280.505	2275.69
280.736	2299.69
280.968	2294.69
281.199	2311.69
281.431	2359.69
281.662	2335.69
281.894	2372.69
282.125	2420.69
282.356	2520.69
282.588	2587.69
282.819	2493.69
283.051	2401.69
283.282	2397.69
283.513	2453.69
283.745	2464.69
283.976	2492.69
284.207	2477.69
284.439	2485.69
284.67	2488.69
284.901	2463.69
285.132	2534.69
285.364	2479.69
285.595	2493.69
285.826	2503.69
286.057	2514.69
286.288	2557.69
286.52	2558.69
286.751	2562.69
286.982	2625.69
287.213	2561.69
287.444	2583.69
287.675	2676.69
287.906	2659.69
288.138	2787.69
288.369	2743.69
288.6	2733.69
288.831	2716.69
289.062	2691.69
289.293	2693.69
289.524	2667.69
289.755	2647.69
289.986	2625.69
290.217	2644.69
290.448	2677.69
290.679	2707.69
290.91	2676.69
291.141	2695.69
291.371	2656.69
291.602	2702.69
291.833	2618.69
292.064	2690.69
292.295	2687.69
292.526	2716.69
292.757	2722.69
292.987	2691.69
293.218	2652.69
293.449	2772.69
293.68	2740.69
293.91	2706.69
294.141	2695.69
294.372	2690.69
294.603	2765.69
294.833	2773.69
295.064	2740.69
295.295	2759.69
295.525	2747.69
295.756	2782.69
295.987	2791.69
296.217	2970.69
296.448	2903.69
296.679	2783.69
296.909	2777.69
297.14	2821.69
297.37	2873.69
297.601	2866.69
297.831	2821.69
298.062	2896.69
298.292	2902.69
298.523	3033.69
298.753	2966.69
298.984	2949.69
299.214	2932.69
299.445	2959.69
299.675	2924.69
299.905	2974.69
300.136	2951.69
300.366	2933.69
300.597	3040.69
300.827	3069.69
301.057	3200.69
301.288	3129.69
301.518	3157.69
301.748	3125.69
301.979	3255.69
302.209	3193.69
302.439	3207.69
302.669	3148.69
302.9	3104.69
303.13	3057.69
303.36	3172.69
303.59	3140.69
303.82	3129.69
304.051	3188.69
304.281	3114.69
304.511	3044.69
304.741	3115.69
304.971	3106.69
305.201	3084.69
305.431	3097.69
305.661	3065.69
305.891	3080.69
306.121	3067.69
306.352	3142.69
306.582	3113.69
306.812	3031.69
307.042	3075.69
307.272	3077.69
307.502	3121.69
307.731	3088.69
307.961	3079.69
308.191	3116.69
308.421	3030.69
308.651	3134.69
308.881	3106.69
309.111	3133.69
309.341	3160.69
309.571	3237.69
309.8	3246.69
310.03	3298.69
310.26	3305.69
310.49	3316.69
310.72	3359.69
310.949	3392.69
311.179	3419.69
311.409	3322.69
311.639	3348.69
311.868	3344.69
312.098	3396.69
312.328	3447.69
312.557	3576.69
312.787	3644.69
313.017	3496.69
313.246	3476.69
313.476	3432.69
313.706	3500.69
313.935	3533.69
314.165	3601.69
314.394	3587.69
314.624	3582.69
314.853	3489.69
315.083	3529.69
315.312	3495.69
315.542	3477.69
315.771	3453.69
316.001	3452.69
316.23	3439.69
316.46	3456.69
316.689	3503.69
316.919	3481.69
317.148	3520.69
317.377	3524.69
317.607	3449.69
317.836	3496.69
318.065	3380.69
318.295	3391.69
318.524	3430.69
318.753	3436.69
318.983	3405.69
319.212	3387.69
319.441	3470.69
319.67	3502.69
319.9	3413.69
320.129	3476.69
320.358	3495.69
320.587	3390.69
320.816	3526.69
321.046	3565.69
321.275	3506.69
321.504	3569.69
321.733	3521.69
321.962	3585.69
322.191	3713.69
322.42	3709.69
322.649	3722.69
322.878	3809.69
323.108	3862.69
323.337	4003.69
323.566	4105.69
323.795	4338.69
324.024	4733.69
324.253	5767.69
324.482	8332.69
324.71	12746.69
324.939	14783.69
325.168	9488.69
325.397	5495.69
325.626	4604.69
325.855	4300.69
326.084	4276.69
326.313	4238.69
326.542	4373.69
326.77	4775.69
326.999	5718.69
327.228	7925.69
327.457	11654.69
327.686	10785.69
327.914	6172.69
328.143	5046.69
328.372	4788.69
328.6	4556.69
328.829	4594.69
329.058	4633.69
329.287	4643.69
329.515	4421.69
329.744	4308.69
329.972	4449.69
330.201	4551.69
330.43	4715.69
330.658	4827.69
330.887	4961.69
331.115	4734.69
331.344	4486.69
331.572	4417.69
331.801	4560.69
332.03	4583.69
332.258	4526.69
332.486	4596.69
332.715	4672.69
332.943	4869.69
333.172	4948.69
333.4	5116.69
333.629	5256.69
333.857	5277.69
334.085	5265.69
334.314	5334.69
334.542	5379.69
334.771	5258.69
334.999	4920.69
335.227	4900.69
335.455	4857.69
335.684	4674.69
335.912	4704.69
336.14	4660.69
336.369	4625.69
336.597	4656.69
336.825	4639.69
337.053	4532.69
337.281	4472.69
337.51	4399.69
337.738	4418.69
337.966	4372.69
338.194	4354.69
338.422	4234.69
338.65	4189.69
338.878	4198.69
339.106	4194.69
339.334	4174.69
339.562	4109.69
339.79	4084.69
340.018	4044.69
340.246	4058.69
340.474	4089.69
340.702	4094.69
340.93	4024.69
341.158	4045.69
341.386	4065.69
341.614	4025.69
341.842	4036.69
342.07	4038.69
342.298	3976.69
342.526	4042.69
342.754	4025.69
342.981	4024.69
343.209	4099.69
343.437	4423.69
343.665	4591.69
343.893	4879.69
344.12	4898.69
344.348	4564.69
344.576	4452.69
344.804	4368.69
345.031	4213.69
345.259	4221.69
345.487	4119.69
345.714	4048.69
345.942	3961.69
346.17	3869.69
346.397	3952.69
346.625	3861.69
346.853	3887.69
347.08	3847.69
347.308	3921.69
347.535	3952.69
347.763	3954.69
347.99	3912.69
348.218	3914.69
348.445	3946.69
348.673	3876.69
348.9	3822.69
349.128	3819.69
349.355	3781.69
349.583	3858.69
349.81	3805.69
350.037	3754.69
350.265	3705.69
350.492	3674.69
350.72	3797.69
350.947	3796.69
351.174	3806.69
351.402	3901.69
351.629	3826.69
351.856	3874.69
352.083	3879.69
352.311	3786.69
352.538	3863.69
352.765	3860.69
352.992	3792.69
353.22	3765.69
353.447	3790.69
353.674	3673.69
353.901	3708.69
354.128	3689.69
354.355	3668.69
354.583	3672.69
354.81	3716.69
355.037	3738.69
355.264	3686.69
355.491	3676.69
355.718	3665.69
355.945	3717.69
356.172	3689.69
356.399	3673.69
356.626	3728.69
356.853	3711.69
357.08	3706.69
357.307	3630.69
357.534	3678.69
357.761	3701.69
357.988	3749.69
358.215	3701.69
358.441	3671.69
358.668	3727.69
358.895	3756.69
359.122	3711.69
359.349	3849.69
359.576	3898.69
359.802	4047.69
360.029	4059.69
360.256	4103.69
360.483	4021.69
360.709	3863.69
360.936	3831.69
361.163	3870.69
361.39	3852.69
361.616	3897.69
361.843	3780.69
362.07	3876.69
362.296	3839.69
362.523	3821.69
362.749	3841.69
362.976	3763.69
363.203	3725.69
363.429	3742.69
363.656	3784.69
363.882	3769.69
364.109	3726.69
364.335	3777.69
364.562	3713.69
364.788	3750.69
365.015	3755.69
365.241	3788.69
365.468	3775.69
365.694	3799.69
365.92	3813.69
366.147	3781.69
366.373	3781.69
366.599	3731.69
366.826	3741.69
367.052	3703.69
367.278	3745.69
367.505	3822.69
367.731	3799.69
367.957	3810.69
368.184	3832.69
368.41	3854.69
368.636	3896.69
368.862	3918.69
369.089	3908.69
369.315	3848.69
369.541	3872.69
369.767	3907.69
369.993	3902.69
370.219	3875.69
370.445	3967.69
370.672	3985.69
370.898	3967.69
371.124	3987.69
371.35	4052.69
371.576	4025.69
371.802	4033.69
372.028	4005.69
372.254	3994.69
372.48	4072.69
372.706	4179.69
372.932	4244.69
373.158	4137.69
373.384	4056.69
373.61	4044.69
373.835	4102.69
374.061	4095.69
374.287	4180.69
374.513	4231.69
374.739	4392.69
374.965	4448.69
375.191	4443.69
375.416	4415.69
375.642	4241.69
375.868	4217.69
376.094	4170.69
376.319	4125.69
376.545	4030.69
376.771	4121.69
376.997	4037.69
377.222	4087.69
377.448	4094.69
377.674	4073.69
377.899	4051.69
378.125	4061.69
378.35	3981.69
378.576	4003.69
378.802	4012.69
379.027	4030.69
379.253	4064.69
379.478	3976.69
379.704	4077.69
379.929	4102.69
380.155	4037.69
380.38	4045.69
380.606	4032.69
380.831	4064.69
381.057	4047.69
381.282	4009.69
381.507	4119.69
381.733	4119.69
381.958	4151.69
382.184	4186.69
382.409	4240.69
382.634	4228.69
382.86	4304.69
383.085	4378.69
383.31	4421.69
383.535	4507.69
383.761	4562.69
383.986	4636.69
384.211	4745.69
384.436	4769.69
384.662	4824.69
384.887	4938.69
385.112	4940.69
385.337	4958.69
385.562	4923.69
385.787	4963.69
386.013	5038.69
386.238	5092.69
386.463	5021.69
386.688	5020.69
386.913	4888.69
387.138	4917.69
387.363	4864.69
387.588	4834.69
387.813	4869.69
388.038	4937.69
388.263	4946.69
388.488	4896.69
388.713	4861.69
388.938	4846.69
389.163	4820.69
389.387	4825.69
389.612	4686.69
389.837	4785.69
390.062	4713.69
390.287	4822.69
390.512	4789.69
390.736	4910.69
390.961	4936.69
391.186	4995.69
391.411	5160.69
391.636	5321.69
391.86	5415.69
392.085	5422.69
392.31	5338.69
392.534	5288.69
392.759	5141.69
392.984	5124.69
393.208	5094.69
393.433	5047.69
393.658	5051.69
393.882	5076.69
394.107	5072.69
394.331	5176.69
394.556	5154.69
394.78	5183.69
395.005	5221.69
395.229	5201.69
395.454	5468.69
395.678	5374.69
395.903	5453.69
396.127	5520.69
396.352	5255.69
396.576	5164.69
396.801	5221.69
397.025	5200.69
397.249	5304.69
397.474	5445.69
397.698	5469.69
397.922	5600.69
398.147	5676.69
398.371	5818.69
398.595	5912.69
398.82	6176.69
399.044	6730.69
399.268	7380.69
399.492	8405.69
399.717	9074.69
399.941	8752.69
400.165	8228.69
400.389	7585.69
400.613	6826.69
400.837	6423.69
401.062	6224.69
401.286	6125.69
401.51	6142.69
401.734	6063.69
401.958	6179.69
402.182	6329.69
402.406	6416.69
402.63	6413.69
402.854	6544.69
403.078	6680.69
403.302	6738.69
403.526	6905.69
403.75	6863.69
403.974	6988.69
404.198	6930.69
404.422	7028.69
404.645	7013.69
404.869	6914.69
405.093	7185.69
405.317	7340.69
405.541	7258.69
405.765	6923.69
405.988	6828.69
406.212	6946.69
406.436	7024.69
406.66	7163.69
406.883	7197.69
407.107	7722.69
407.331	8235.69
407.555	8736.69
407.778	8406.69
408.002	7732.69
408.226	7391.69
408.449	7312.69
408.673	7227.69
408.896	7374.69
409.12	7398.69
409.344	7060.69
409.567	6767.69
409.791	6744.69
410.014	6612.69
410.238	6531.69
410.461	6543.69
410.685	6647.69
410.908	6688.69
411.132	6796.69
411.355	6873.69
411.578	6586.69
411.802	6310.69
412.025	6408.69
412.249	6512.69
412.472	6647.69
412.695	6685.69
412.919	6371.69
413.142	6171.69
413.365	6102.69
413.589	6142.69
413.812	6031.69
414.035	5955.69
414.258	5916.69
414.482	6036.69
414.705	6020.69
414.928	6078.69
415.151	5980.69
415.374	6088.69
415.597	5916.69
415.821	5895.69
416.044	5983.69
416.267	5849.69
416.49	5892.69
416.713	5829.69
416.936	5939.69
417.159	5929.69
417.382	6097.69
417.605	5902.69
417.828	6125.69
418.051	6264.69
418.274	6195.69
418.497	6033.69
418.72	6185.69
418.943	6063.69
419.166	6488.69
419.389	6961.69
419.611	6747.69
419.834	6533.69
420.057	6512.69
420.28	6271.69
420.503	6171.69
420.726	6197.69
420.948	6217.69
421.171	6589.69
421.394	6510.69
421.617	6100.69
421.839	6156.69
422.062	6211.69
422.285	6372.69
422.507	6947.69
422.73	7353.69
422.953	6887.69
423.175	6484.69
423.398	6620.69
423.621	6568.69
423.843	6791.69
424.066	6731.69
424.288	6649.69
424.511	6884.69
424.733	7208.69
424.956	7507.69
425.178	7203.69
425.401	7290.69
425.623	7157.69
425.846	6303.69
426.068	6194.69
426.291	6105.69
426.513	6095.69
426.735	6185.69
426.958	6513.69
427.18	7214.69
427.402	8068.69
427.625	8110.69
427.847	6917.69
428.069	6406.69
428.292	5962.69
428.514	5703.69
428.736	5610.69
428.958	5604.69
429.181	5415.69
429.403	5444.69
429.625	5599.69
429.847	5824.69
430.069	6322.69
430.292	5896.69
430.514	5512.69
430.736	5478.69
430.958	5387.69
431.18	5330.69
431.402	5393.69
431.624	5331.69
431.846	5405.69
432.068	5447.69
432.29	5453.69
432.512	5370.69
432.734	5458.69
432.956	5468.69
433.178	5446.69
433.4	5459.69
433.622	5330.69
433.844	5439.69
434.066	5446.69
434.287	5546.69
434.509	5749.69
434.731	5960.69
434.953	6021.69
435.175	6249.69
435.397	6236.69
435.618	6065.69
435.84	6434.69
436.062	7116.69
436.284	7016.69
436.505	6050.69
436.727	5830.69
436.949	5569.69
437.17	5433.69
437.392	5372.69
437.614	5562.69
437.835	5873.69
438.057	6544.69
438.278	7236.69
438.5	7112.69
438.721	7815.69
438.943	6948.69
439.165	5940.69
439.386	5673.69
439.608	5784.69
439.829	5830.69
440.05	6041.69
440.272	6328.69
440.493	5868.69
440.715	5775.69
440.936	5706.69
441.158	5748.69
441.379	5904.69
441.6	6204.69
441.822	6380.69
442.043	6746.69
442.264	7337.69
442.486	7120.69
442.707	6406.69
442.928	6243.69
443.149	6428.69
443.371	6645.69
443.592	7038.69
443.813	7932.69
444.034	7850.69
444.255	6971.69
444.476	6911.69
444.698	7040.69
444.919	7228.69
445.14	6957.69
445.361	6745.69
445.582	6818.69
445.803	7157.69
446.024	7707.69
446.245	7354.69
446.466	6720.69
446.687	5928.69
446.908	5612.69
447.129	5392.69
447.35	5305.69
447.571	5263.69
447.792	5174.69
448.013	5285.69
448.234	5410.69
448.455	5966.69
448.675	6968.69
448.896	7331.69
449.117	6104.69
449.338	6334.69
449.559	7348.69
449.779	7502.69
450	5913.69
450.221	5348.69
450.442	5123.69
450.662	5116.69
450.883	5151.69
451.104	5185.69
451.324	5044.69
451.545	4912.69
451.766	4838.69
451.986	4725.69
452.207	4698.69
452.428	4798.69
452.648	4760.69
452.869	4779.69
453.089	4851.69
453.31	4904.69
453.53	4694.69
453.751	4694.69
453.971	4751.69
454.192	4779.69
454.412	4570.69
454.633	4615.69
454.853	4592.69
455.073	4588.69
455.294	4940.69
455.514	5287.69
455.734	4926.69
455.955	4464.69
456.175	4476.69
456.395	4373.69
456.616	4327.69
456.836	4391.69
457.056	4334.69
457.276	4270.69
457.497	4455.69
457.717	4442.69
457.937	4557.69
458.157	4578.69
458.377	4659.69
458.598	4884.69
458.818	5426.69
459.038	5980.69
459.258	6037.69
459.478	5539.69
459.698	5502.69
459.918	5558.69
460.138	5743.69
460.358	5893.69
460.578	5978.69
460.798	5941.69
461.018	5974.69
461.238	5901.69
461.458	5833.69
461.678	5787.69
461.898	5969.69
462.118	6019.69
462.338	6276.69
462.558	6494.69
462.777	6704.69
462.997	7320.69
463.217	7704.69
463.437	7502.69
463.657	6836.69
463.876	6732.69
464.096	6765.69
464.316	6761.69
464.536	6778.69
464.755	6501.69
464.975	6369.69
465.195	6392.69
465.414	6293.69
465.634	5662.69
465.854	5389.69
466.073	5243.69
466.293	5064.69
466.512	5027.69
466.732	4904.69
466.951	4846.69
467.171	4903.69
467.391	4955.69
467.61	4916.69
467.829	4912.69
468.049	4892.69
468.268	4766.69
468.488	4719.69
468.707	4660.69
468.927	4694.69
469.146	4737.69
469.365	4708.69
469.585	4785.69
469.804	4972.69
470.023	5050.69
470.243	5040.69
470.462	5166.69
470.681	5279.69
470.901	5157.69
471.12	5017.69
471.339	5031.69
471.558	4960.69
471.777	4870.69
471.997	4730.69
472.216	4776.69
472.435	4895.69
472.654	4751.69
472.873	4623.69
473.092	4653.69
473.311	4635.69
473.53	4697.69
473.749	4810.69
473.968	5205.69
474.187	5948.69
474.406	5624.69
474.625	4984.69
474.844	4702.69
475.063	4788.69
475.282	4604.69
475.501	4766.69
475.72	4844.69
475.939	4849.69
476.158	4878.69
476.377	4874.69
476.596	4940.69
476.814	5039.69
477.033	5083.69
477.252	5094.69
477.471	5198.69
477.69	5300.69
477.908	5408.69
478.127	5537.69
478.346	5570.69
478.564	5753.69
478.783	5760.69
479.002	6024.69
479.22	5924.69
479.439	5961.69
479.658	6046.69
479.876	6160.69
480.095	6260.69
480.313	6648.69
480.532	6614.69
480.751	6395.69
480.969	6352.69
481.188	6532.69
481.406	6242.69
481.624	5935.69
481.843	5729.69
482.061	5657.69
482.28	5602.69
482.498	5564.69
482.717	5528.69
482.935	5469.69
483.153	5522.69
483.372	5501.69
483.59	5475.69
483.808	5466.69
484.027	5516.69
484.245	5567.69
484.463	5615.69
484.681	5711.69
484.9	5741.69
485.118	5751.69
485.336	5807.69
485.554	5907.69
485.772	5843.69
485.99	5864.69
486.209	5949.69
486.427	5915.69
486.645	5953.69
486.863	6131.69
487.081	6048.69
487.299	5961.69
487.517	5910.69
487.735	5897.69
487.953	5846.69
