Data from Circ_1986_H10_HRD10591_00082.txt Node
Date: Wed Jan 03 12:15:42 EST 2024
User: Yrep
Spectrometer: HR+D1059
Trigger mode: 1
Integration Time (sec): 1.000000E-1
Scans to average: 1
Electric dark correction enabled: true
Nonlinearity correction enabled: false
Boxcar width: 0
XAxis mode: Wavelengths
Number of Pixels in Spectrum: 2048
>>>>>Begin Spectral Data<<<<<
223.165	-14.25
223.4	-14.25
223.635	-14.25
223.869	-16.25
224.104	-12.25
224.338	-15.25
224.573	-21.25
224.808	-16.25
225.042	-10.25
225.277	-5.25
225.511	-0.25
225.746	8.75
225.98	5.75
226.215	12.75
226.449	19.75
226.683	17.75
226.918	24.75
227.152	21.75
227.387	31.75
227.621	23.75
227.856	32.75
228.09	39.75
228.324	33.75
228.559	64.75
228.793	64.75
229.027	57.75
229.262	50.75
229.496	57.75
229.73	66.75
229.964	72.75
230.199	83.75
230.433	64.75
230.667	88.75
230.901	85.75
231.136	87.75
231.37	69.75
231.604	79.75
231.838	79.75
232.072	80.75
232.306	76.75
232.541	80.75
232.775	73.75
233.009	86.75
233.243	71.75
233.477	68.75
233.711	65.75
233.945	75.75
234.179	75.75
234.413	72.75
234.647	79.75
234.881	75.75
235.115	80.75
235.349	83.75
235.583	74.75
235.817	88.75
236.051	71.75
236.285	78.75
236.519	75.75
236.753	75.75
236.987	83.75
237.221	98.75
237.455	65.75
237.689	67.75
237.922	75.75
238.156	82.75
238.39	68.75
238.624	65.75
238.858	66.75
239.091	69.75
239.325	82.75
239.559	62.75
239.793	83.75
240.027	77.75
240.26	69.75
240.494	84.75
240.728	65.75
240.961	69.75
241.195	75.75
241.429	66.75
241.662	75.75
241.896	70.75
242.13	55.75
242.363	81.75
242.597	78.75
242.83	70.75
243.064	71.75
243.298	60.75
243.531	86.75
243.765	81.75
243.998	59.75
244.232	82.75
244.465	87.75
244.699	70.75
244.932	66.75
245.166	75.75
245.399	82.75
245.633	69.75
245.866	66.75
246.099	76.75
246.333	79.75
246.566	63.75
246.8	75.75
247.033	75.75
247.266	79.75
247.5	77.75
247.733	65.75
247.966	79.75
248.2	92.75
248.433	71.75
248.666	72.75
248.899	79.75
249.133	91.75
249.366	78.75
249.599	83.75
249.832	75.75
250.066	80.75
250.299	80.75
250.532	78.75
250.765	74.75
250.998	81.75
251.231	92.75
251.465	86.75
251.698	86.75
251.931	84.75
252.164	73.75
252.397	89.75
252.63	84.75
252.863	71.75
253.096	78.75
253.329	81.75
253.562	77.75
253.795	77.75
254.028	81.75
254.261	77.75
254.494	74.75
254.727	76.75
254.96	92.75
255.193	80.75
255.426	86.75
255.659	81.75
255.892	62.75
256.124	75.75
256.357	73.75
256.59	85.75
256.823	78.75
257.056	77.75
257.289	82.75
257.521	84.75
257.754	87.75
257.987	71.75
258.22	80.75
258.452	95.75
258.685	71.75
258.918	90.75
259.151	88.75
259.383	77.75
259.616	75.75
259.849	82.75
260.081	70.75
260.314	83.75
260.547	81.75
260.779	86.75
261.012	82.75
261.244	87.75
261.477	81.75
261.71	85.75
261.942	100.75
262.175	104.75
262.407	78.75
262.64	91.75
262.872	73.75
263.105	72.75
263.337	74.75
263.57	79.75
263.802	79.75
264.035	76.75
264.267	83.75
264.499	74.75
264.732	76.75
264.964	79.75
265.197	81.75
265.429	81.75
265.661	65.75
265.894	85.75
266.126	73.75
266.358	87.75
266.591	78.75
266.823	95.75
267.055	88.75
267.287	84.75
267.52	96.75
267.752	84.75
267.984	86.75
268.216	84.75
268.448	71.75
268.681	83.75
268.913	81.75
269.145	88.75
269.377	74.75
269.609	97.75
269.841	76.75
270.073	87.75
270.306	78.75
270.538	64.75
270.77	76.75
271.002	92.75
271.234	85.75
271.466	84.75
271.698	81.75
271.93	77.75
272.162	71.75
272.394	75.75
272.626	78.75
272.858	62.75
273.09	80.75
273.322	81.75
273.553	73.75
273.785	80.75
274.017	72.75
274.249	86.75
274.481	81.75
274.713	80.75
274.945	79.75
275.176	78.75
275.408	77.75
275.64	85.75
275.872	76.75
276.104	72.75
276.335	86.75
276.567	96.75
276.799	104.75
277.031	95.75
277.262	107.75
277.494	88.75
277.726	77.75
277.957	83.75
278.189	81.75
278.421	94.75
278.652	97.75
278.884	79.75
279.115	84.75
279.347	74.75
279.579	94.75
279.81	94.75
280.042	84.75
280.273	105.75
280.505	84.75
280.736	79.75
280.968	80.75
281.199	81.75
281.431	86.75
281.662	101.75
281.894	91.75
282.125	97.75
282.356	115.75
282.588	135.75
282.819	95.75
283.051	77.75
283.282	84.75
283.513	89.75
283.745	88.75
283.976	82.75
284.207	89.75
284.439	88.75
284.67	89.75
284.901	95.75
285.132	88.75
285.364	86.75
285.595	79.75
285.826	101.75
286.057	90.75
286.288	86.75
286.52	92.75
286.751	78.75
286.982	82.75
287.213	84.75
287.444	88.75
287.675	86.75
287.906	97.75
288.138	85.75
288.369	82.75
288.6	92.75
288.831	70.75
289.062	83.75
289.293	89.75
289.524	85.75
289.755	81.75
289.986	93.75
290.217	95.75
290.448	82.75
290.679	99.75
290.91	80.75
291.141	80.75
291.371	83.75
291.602	86.75
291.833	103.75
292.064	100.75
292.295	80.75
292.526	84.75
292.757	87.75
292.987	82.75
293.218	81.75
293.449	87.75
293.68	83.75
293.91	91.75
294.141	79.75
294.372	79.75
294.603	97.75
294.833	81.75
295.064	90.75
295.295	79.75
295.525	90.75
295.756	107.75
295.987	108.75
296.217	133.75
296.448	105.75
296.679	79.75
296.909	76.75
297.14	91.75
297.37	78.75
297.601	77.75
297.831	91.75
298.062	83.75
298.292	107.75
298.523	82.75
298.753	83.75
298.984	94.75
299.214	85.75
299.445	82.75
299.675	79.75
299.905	83.75
300.136	82.75
300.366	80.75
300.597	90.75
300.827	81.75
301.057	99.75
301.288	87.75
301.518	92.75
301.748	87.75
301.979	95.75
302.209	81.75
302.439	86.75
302.669	93.75
302.9	78.75
303.13	81.75
303.36	99.75
303.59	106.75
303.82	107.75
304.051	95.75
304.281	94.75
304.511	92.75
304.741	80.75
304.971	68.75
305.201	68.75
305.431	85.75
305.661	93.75
305.891	85.75
306.121	98.75
306.352	107.75
306.582	95.75
306.812	81.75
307.042	100.75
307.272	96.75
307.502	94.75
307.731	92.75
307.961	101.75
308.191	83.75
308.421	88.75
308.651	95.75
308.881	93.75
309.111	80.75
309.341	94.75
309.571	96.75
309.8	85.75
310.03	101.75
310.26	107.75
310.49	89.75
310.72	77.75
310.949	103.75
311.179	96.75
311.409	78.75
311.639	100.75
311.868	102.75
312.098	93.75
312.328	87.75
312.557	98.75
312.787	93.75
313.017	93.75
313.246	95.75
313.476	83.75
313.706	94.75
313.935	95.75
314.165	102.75
314.394	97.75
314.624	107.75
314.853	80.75
315.083	89.75
315.312	91.75
315.542	89.75
315.771	93.75
316.001	89.75
316.23	91.75
316.46	70.75
316.689	82.75
316.919	78.75
317.148	92.75
317.377	90.75
317.607	97.75
317.836	89.75
318.065	98.75
318.295	89.75
318.524	77.75
318.753	89.75
318.983	85.75
319.212	99.75
319.441	107.75
319.67	108.75
319.9	88.75
320.129	87.75
320.358	101.75
320.587	87.75
320.816	82.75
321.046	96.75
321.275	111.75
321.504	103.75
321.733	96.75
321.962	95.75
322.191	112.75
322.42	94.75
322.649	97.75
322.878	96.75
323.108	115.75
323.337	114.75
323.566	119.75
323.795	148.75
324.024	199.75
324.253	383.75
324.482	823.75
324.71	1724.75
324.939	2308.75
325.168	829.75
325.397	251.75
325.626	137.75
325.855	148.75
326.084	137.75
326.313	143.75
326.542	167.75
326.77	245.75
326.999	454.75
327.228	964.75
327.457	1748.75
327.686	1396.75
327.914	388.75
328.143	214.75
328.372	201.75
328.6	141.75
328.829	124.75
329.058	130.75
329.287	120.75
329.515	103.75
329.744	132.75
329.972	119.75
330.201	182.75
330.43	219.75
330.658	160.75
330.887	144.75
331.115	123.75
331.344	90.75
331.572	102.75
331.801	112.75
332.03	107.75
332.258	93.75
332.486	93.75
332.715	85.75
332.943	92.75
333.172	83.75
333.4	103.75
333.629	108.75
333.857	119.75
334.085	132.75
334.314	168.75
334.542	259.75
334.771	237.75
334.999	119.75
335.227	88.75
335.455	96.75
335.684	91.75
335.912	108.75
336.14	103.75
336.369	88.75
336.597	100.75
336.825	83.75
337.053	99.75
337.281	91.75
337.51	86.75
337.738	79.75
337.966	83.75
338.194	103.75
338.422	102.75
338.65	88.75
338.878	84.75
339.106	91.75
339.334	94.75
339.562	103.75
339.79	85.75
340.018	88.75
340.246	90.75
340.474	87.75
340.702	95.75
340.93	87.75
341.158	89.75
341.386	97.75
341.614	103.75
341.842	102.75
342.07	89.75
342.298	100.75
342.526	92.75
342.754	70.75
342.981	88.75
343.209	95.75
343.437	89.75
343.665	81.75
343.893	88.75
344.12	76.75
344.348	86.75
344.576	87.75
344.804	103.75
345.031	89.75
345.259	85.75
345.487	84.75
345.714	103.75
345.942	96.75
346.17	96.75
346.397	83.75
346.625	77.75
346.853	78.75
347.08	88.75
347.308	91.75
347.535	97.75
347.763	103.75
347.99	80.75
348.218	96.75
348.445	103.75
348.673	101.75
348.9	84.75
349.128	99.75
349.355	88.75
349.583	87.75
349.81	85.75
350.037	90.75
350.265	89.75
350.492	96.75
350.72	81.75
350.947	92.75
351.174	101.75
351.402	104.75
351.629	108.75
351.856	95.75
352.083	91.75
352.311	104.75
352.538	110.75
352.765	109.75
352.992	123.75
353.22	95.75
353.447	108.75
353.674	108.75
353.901	109.75
354.128	86.75
354.355	105.75
354.583	94.75
354.81	93.75
355.037	97.75
355.264	95.75
355.491	84.75
355.718	89.75
355.945	88.75
356.172	84.75
356.399	94.75
356.626	95.75
356.853	88.75
357.08	79.75
357.307	97.75
357.534	91.75
357.761	105.75
357.988	104.75
358.215	84.75
358.441	79.75
358.668	85.75
358.895	91.75
359.122	86.75
359.349	84.75
359.576	81.75
359.802	101.75
360.029	118.75
360.256	113.75
360.483	101.75
360.709	93.75
360.936	92.75
361.163	95.75
361.39	93.75
361.616	86.75
361.843	99.75
362.07	98.75
362.296	110.75
362.523	82.75
362.749	81.75
362.976	96.75
363.203	72.75
363.429	91.75
363.656	91.75
363.882	90.75
364.109	89.75
364.335	95.75
364.562	84.75
364.788	87.75
365.015	95.75
365.241	98.75
365.468	109.75
365.694	98.75
365.92	94.75
366.147	75.75
366.373	93.75
366.599	98.75
366.826	81.75
367.052	87.75
367.278	83.75
367.505	91.75
367.731	103.75
367.957	87.75
368.184	93.75
368.41	102.75
368.636	120.75
368.862	124.75
369.089	99.75
369.315	75.75
369.541	76.75
369.767	95.75
369.993	95.75
370.219	82.75
370.445	77.75
370.672	88.75
370.898	85.75
371.124	83.75
371.35	77.75
371.576	85.75
371.802	81.75
372.028	96.75
372.254	86.75
372.48	102.75
372.706	91.75
372.932	87.75
373.158	85.75
373.384	75.75
373.61	79.75
373.835	83.75
374.061	90.75
374.287	81.75
374.513	90.75
374.739	91.75
374.965	93.75
375.191	87.75
375.416	86.75
375.642	89.75
375.868	103.75
376.094	100.75
376.319	85.75
376.545	88.75
376.771	95.75
376.997	82.75
377.222	83.75
377.448	80.75
377.674	89.75
377.899	89.75
378.125	103.75
378.35	86.75
378.576	95.75
378.802	95.75
379.027	96.75
379.253	89.75
379.478	94.75
379.704	80.75
379.929	95.75
380.155	83.75
380.38	84.75
380.606	84.75
380.831	79.75
381.057	100.75
381.282	95.75
381.507	93.75
381.733	103.75
381.958	79.75
382.184	96.75
382.409	99.75
382.634	83.75
382.86	96.75
383.085	118.75
383.31	96.75
383.535	85.75
383.761	99.75
383.986	91.75
384.211	108.75
384.436	98.75
384.662	99.75
384.887	84.75
385.112	109.75
385.337	104.75
385.562	94.75
385.787	97.75
386.013	99.75
386.238	109.75
386.463	109.75
386.688	110.75
386.913	94.75
387.138	117.75
387.363	107.75
387.588	103.75
387.813	93.75
388.038	95.75
388.263	107.75
388.488	108.75
388.713	103.75
388.938	96.75
389.163	91.75
389.387	110.75
389.612	85.75
389.837	91.75
390.062	92.75
390.287	95.75
390.512	87.75
390.736	88.75
390.961	68.75
391.186	84.75
391.411	87.75
391.636	80.75
391.86	102.75
392.085	79.75
392.31	85.75
392.534	83.75
392.759	82.75
392.984	94.75
393.208	75.75
393.433	84.75
393.658	87.75
393.882	82.75
394.107	72.75
394.331	84.75
394.556	81.75
394.78	75.75
395.005	109.75
395.229	95.75
395.454	92.75
395.678	82.75
395.903	76.75
396.127	76.75
396.352	84.75
396.576	93.75
396.801	91.75
397.025	88.75
397.249	75.75
397.474	87.75
397.698	82.75
397.922	87.75
398.147	89.75
398.371	89.75
398.595	103.75
398.82	81.75
399.044	89.75
399.268	86.75
399.492	75.75
399.717	89.75
399.941	78.75
400.165	83.75
400.389	99.75
400.613	91.75
400.837	82.75
401.062	95.75
401.286	86.75
401.51	92.75
401.734	100.75
401.958	103.75
402.182	128.75
402.406	149.75
402.63	107.75
402.854	79.75
403.078	93.75
403.302	86.75
403.526	94.75
403.75	103.75
403.974	87.75
404.198	86.75
404.422	81.75
404.645	81.75
404.869	90.75
405.093	88.75
405.317	105.75
405.541	107.75
405.765	93.75
405.988	112.75
406.212	173.75
406.436	224.75
406.66	133.75
406.883	101.75
407.107	95.75
407.331	96.75
407.555	93.75
407.778	101.75
408.002	82.75
408.226	84.75
408.449	85.75
408.673	96.75
408.896	103.75
409.12	109.75
409.344	105.75
409.567	91.75
409.791	96.75
410.014	103.75
410.238	83.75
410.461	100.75
410.685	85.75
410.908	86.75
411.132	98.75
411.355	110.75
411.578	94.75
411.802	92.75
412.025	80.75
412.249	93.75
412.472	97.75
412.695	100.75
412.919	89.75
413.142	70.75
413.365	89.75
413.589	76.75
413.812	75.75
414.035	84.75
414.258	92.75
414.482	88.75
414.705	71.75
414.928	84.75
415.151	84.75
415.374	91.75
415.597	89.75
415.821	84.75
416.044	100.75
416.267	81.75
416.49	88.75
416.713	105.75
416.936	81.75
417.159	91.75
417.382	94.75
417.605	89.75
417.828	90.75
418.051	84.75
418.274	94.75
418.497	67.75
418.72	78.75
418.943	75.75
419.166	99.75
419.389	81.75
419.611	79.75
419.834	92.75
420.057	78.75
420.28	76.75
420.503	89.75
420.726	91.75
420.948	87.75
421.171	112.75
421.394	103.75
421.617	80.75
421.839	96.75
422.062	89.75
422.285	89.75
422.507	103.75
422.73	105.75
422.953	94.75
423.175	97.75
423.398	91.75
423.621	83.75
423.843	94.75
424.066	94.75
424.288	101.75
424.511	89.75
424.733	103.75
424.956	103.75
425.178	97.75
425.401	91.75
425.623	91.75
425.846	91.75
426.068	95.75
426.291	83.75
426.513	95.75
426.735	97.75
426.958	89.75
427.18	106.75
427.402	148.75
427.625	180.75
427.847	138.75
428.069	117.75
428.292	83.75
428.514	63.75
428.736	84.75
428.958	93.75
429.181	91.75
429.403	79.75
429.625	101.75
429.847	84.75
430.069	97.75
430.292	93.75
430.514	80.75
430.736	97.75
430.958	83.75
431.18	76.75
431.402	77.75
431.624	101.75
431.846	85.75
432.068	81.75
432.29	86.75
432.512	89.75
432.734	91.75
432.956	97.75
433.178	102.75
433.4	100.75
433.622	100.75
433.844	95.75
434.066	100.75
434.287	93.75
434.509	95.75
434.731	93.75
434.953	83.75
435.175	88.75
435.397	87.75
435.618	88.75
435.84	90.75
436.062	117.75
436.284	121.75
436.505	96.75
436.727	99.75
436.949	79.75
437.17	86.75
437.392	84.75
437.614	91.75
437.835	90.75
438.057	109.75
438.278	107.75
438.5	85.75
438.721	114.75
438.943	111.75
439.165	95.75
439.386	79.75
439.608	94.75
439.829	98.75
440.05	118.75
440.272	140.75
440.493	101.75
440.715	71.75
440.936	89.75
441.158	98.75
441.379	87.75
441.6	91.75
441.822	83.75
442.043	90.75
442.264	87.75
442.486	96.75
442.707	92.75
442.928	103.75
443.149	128.75
443.371	118.75
443.592	100.75
443.813	115.75
444.034	102.75
444.255	98.75
444.476	80.75
444.698	100.75
444.919	95.75
445.14	132.75
445.361	121.75
445.582	103.75
445.803	120.75
446.024	115.75
446.245	136.75
446.466	98.75
446.687	107.75
446.908	85.75
447.129	95.75
447.35	79.75
447.571	75.75
447.792	96.75
448.013	110.75
448.234	96.75
448.455	94.75
448.675	102.75
448.896	118.75
449.117	90.75
449.338	93.75
449.559	144.75
449.779	145.75
450	92.75
450.221	75.75
450.442	101.75
450.662	97.75
450.883	102.75
451.104	108.75
451.324	113.75
451.545	87.75
451.766	88.75
451.986	78.75
452.207	78.75
452.428	99.75
452.648	103.75
452.869	97.75
453.089	111.75
453.31	101.75
453.53	85.75
453.751	80.75
453.971	100.75
454.192	91.75
454.412	100.75
454.633	97.75
454.853	89.75
455.073	92.75
455.294	81.75
455.514	97.75
455.734	83.75
455.955	87.75
456.175	82.75
456.395	85.75
456.616	87.75
456.836	76.75
457.056	95.75
457.276	73.75
457.497	76.75
457.717	81.75
457.937	84.75
458.157	81.75
458.377	97.75
458.598	102.75
458.818	144.75
459.038	160.75
459.258	116.75
459.478	70.75
459.698	80.75
459.918	77.75
460.138	77.75
460.358	103.75
460.578	91.75
460.798	86.75
461.018	91.75
461.238	73.75
461.458	81.75
461.678	90.75
461.898	85.75
462.118	76.75
462.338	80.75
462.558	91.75
462.777	79.75
462.997	76.75
463.217	89.75
463.437	81.75
463.657	101.75
463.876	95.75
464.096	92.75
464.316	91.75
464.536	86.75
464.755	95.75
464.975	105.75
465.195	163.75
465.414	159.75
465.634	94.75
465.854	91.75
466.073	99.75
466.293	103.75
466.512	83.75
466.732	76.75
466.951	102.75
467.171	83.75
467.391	87.75
467.61	109.75
467.829	104.75
468.049	159.75
468.268	142.75
468.488	96.75
468.707	87.75
468.927	71.75
469.146	89.75
469.365	84.75
469.585	83.75
469.804	81.75
470.023	84.75
470.243	77.75
470.462	96.75
470.681	97.75
470.901	93.75
471.12	99.75
471.339	85.75
471.558	100.75
471.777	88.75
471.997	106.75
472.216	196.75
472.435	328.75
472.654	123.75
472.873	83.75
473.092	91.75
473.311	71.75
473.53	79.75
473.749	92.75
473.968	89.75
474.187	103.75
474.406	101.75
474.625	96.75
474.844	88.75
475.063	84.75
475.282	71.75
475.501	74.75
475.72	77.75
475.939	75.75
476.158	74.75
476.377	92.75
476.596	75.75
476.814	81.75
477.033	94.75
477.252	87.75
477.471	89.75
477.69	81.75
477.908	82.75
478.127	91.75
478.346	86.75
478.564	85.75
478.783	78.75
479.002	101.75
479.22	97.75
479.439	87.75
479.658	110.75
479.876	99.75
480.095	93.75
480.313	82.75
480.532	88.75
480.751	105.75
480.969	187.75
481.188	549.75
481.406	331.75
481.624	104.75
481.843	100.75
482.061	84.75
482.28	93.75
482.498	101.75
482.717	76.75
482.935	81.75
483.153	94.75
483.372	81.75
483.59	99.75
483.808	85.75
484.027	92.75
484.245	89.75
484.463	89.75
484.681	88.75
484.9	93.75
485.118	98.75
485.336	95.75
485.554	99.75
485.772	95.75
485.99	88.75
486.209	101.75
486.427	87.75
486.645	106.75
486.863	100.75
487.081	91.75
487.299	100.75
487.517	101.75
487.735	85.75
487.953	84.75
488.171	105.75
488.389	98.75
488.607	74.75
488.825	83.75
489.043	85.75
489.261	85.75
489.479	75.75
489.696	89.75
489.914	81.75
490.132	95.75
490.35	87.75
490.568	89.75
490.786	91.75
491.003	80.75
491.221	84.75
491.439	85.75
491.657	100.75
491.874	82.75
492.092	73.75
492.31	103.75
492.527	85.75
492.745	79.75
492.963	96.75
493.18	92.75
493.398	100.75
493.615	111.75
493.833	88.75
494.05	88.75
494.268	87.75
494.485	77.75
494.703	103.75
494.92	87.75
495.138	93.75
495.355	87.75
495.573	88.75
495.79	75.75
496.008	83.75
496.225	93.75
496.442	94.75
496.66	100.75
496.877	96.75
497.094	95.75
497.312	98.75
497.529	93.75
497.746	77.75
497.963	91.75
498.181	96.75
498.398	105.75
498.615	104.75
498.832	92.75
499.049	85.75
499.267	85.75
499.484	86.75
499.701	97.75
499.918	91.75
500.135	94.75
500.352	82.75
500.569	84.75
500.786	87.75
501.003	95.75
501.22	94.75
501.437	94.75
501.654	95.75
501.871	124.75
502.088	77.75
502.305	97.75
502.522	104.75
502.739	94.75
502.956	82.75
503.172	91.75
503.389	87.75
503.606	105.75
503.823	87.75
504.04	84.75
504.256	95.75
504.473	86.75
504.69	84.75
504.907	83.75
505.123	92.75
505.34	87.75
505.557	90.75
505.773	79.75
505.99	86.75
506.207	81.75
506.423	108.75
506.64	94.75
506.856	91.75
507.073	97.75
507.289	81.75
507.506	96.75
507.722	114.75
507.939	104.75
508.155	88.75
508.372	81.75
508.588	86.75
508.805	92.75
509.021	93.75
509.238	98.75
509.454	78.75
509.67	100.75
509.887	110.75
510.103	132.75
510.319	197.75
510.536	746.75
510.752	2338.75
510.968	629.75
511.184	160.75
511.401	105.75
511.617	103.75
511.833	96.75
512.049	85.75
512.265	102.75
512.481	87.75
512.698	104.75
512.914	99.75
513.13	84.75
513.346	107.75
513.562	87.75
513.778	102.75
513.994	88.75
514.21	91.75
514.426	111.75
514.642	130.75
514.858	118.75
515.074	165.75
515.29	463.75
515.506	1519.75
515.721	537.75
515.937	162.75
