Data from Circ_1986_H10_HRD10591_00005.txt Node
Date: Wed Jan 03 12:15:27 EST 2024
User: Yrep
Spectrometer: HR+D1059
Trigger mode: 1
Integration Time (sec): 1.000000E-1
Scans to average: 1
Electric dark correction enabled: true
Nonlinearity correction enabled: false
Boxcar width: 0
XAxis mode: Wavelengths
Number of Pixels in Spectrum: 2048
>>>>>Begin Spectral Data<<<<<
223.165	-1.69
223.4	-1.69
223.635	-1.69
223.869	-10.69
224.104	-20.69
224.338	-14.69
224.573	-19.69
224.808	-18.69
225.042	-0.69
225.277	-8.69
225.511	1.31
225.746	0.31
225.98	6.31
226.215	3.31
226.449	11.31
226.683	24.31
226.918	20.31
227.152	28.31
227.387	28.31
227.621	35.31
227.856	36.31
228.09	56.31
228.324	45.31
228.559	67.31
228.793	56.31
229.027	55.31
229.262	82.31
229.496	73.31
229.73	81.31
229.964	84.31
230.199	88.31
230.433	84.31
230.667	79.31
230.901	72.31
231.136	88.31
231.37	67.31
231.604	86.31
231.838	85.31
232.072	79.31
232.306	69.31
232.541	73.31
232.775	90.31
233.009	91.31
233.243	89.31
233.477	72.31
233.711	74.31
233.945	89.31
234.179	80.31
234.413	82.31
234.647	83.31
234.881	81.31
235.115	86.31
235.349	77.31
235.583	83.31
235.817	81.31
236.051	96.31
236.285	81.31
236.519	79.31
236.753	71.31
236.987	75.31
237.221	69.31
237.455	83.31
237.689	101.31
237.922	81.31
238.156	82.31
238.39	61.31
238.624	82.31
238.858	93.31
239.091	83.31
239.325	77.31
239.559	74.31
239.793	71.31
240.027	74.31
240.26	73.31
240.494	75.31
240.728	71.31
240.961	88.31
241.195	91.31
241.429	71.31
241.662	66.31
241.896	74.31
242.13	73.31
242.363	72.31
242.597	78.31
242.83	75.31
243.064	91.31
243.298	85.31
243.531	77.31
243.765	72.31
243.998	73.31
244.232	91.31
244.465	76.31
244.699	76.31
244.932	72.31
245.166	81.31
245.399	78.31
245.633	72.31
245.866	80.31
246.099	85.31
246.333	72.31
246.566	70.31
246.8	72.31
247.033	87.31
247.266	75.31
247.5	76.31
247.733	81.31
247.966	84.31
248.2	75.31
248.433	82.31
248.666	75.31
248.899	101.31
249.133	74.31
249.366	89.31
249.599	93.31
249.832	74.31
250.066	76.31
250.299	68.31
250.532	76.31
250.765	83.31
250.998	83.31
251.231	74.31
251.465	79.31
251.698	76.31
251.931	83.31
252.164	75.31
252.397	74.31
252.63	83.31
252.863	87.31
253.096	85.31
253.329	51.31
253.562	75.31
253.795	62.31
254.028	70.31
254.261	74.31
254.494	89.31
254.727	75.31
254.96	81.31
255.193	67.31
255.426	69.31
255.659	100.31
255.892	74.31
256.124	83.31
256.357	89.31
256.59	78.31
256.823	87.31
257.056	106.31
257.289	91.31
257.521	79.31
257.754	76.31
257.987	68.31
258.22	95.31
258.452	72.31
258.685	63.31
258.918	83.31
259.151	66.31
259.383	88.31
259.616	100.31
259.849	82.31
260.081	79.31
260.314	90.31
260.547	83.31
260.779	89.31
261.012	86.31
261.244	86.31
261.477	85.31
261.71	83.31
261.942	103.31
262.175	96.31
262.407	89.31
262.64	80.31
262.872	87.31
263.105	75.31
263.337	93.31
263.57	83.31
263.802	81.31
264.035	80.31
264.267	72.31
264.499	75.31
264.732	73.31
264.964	76.31
265.197	81.31
265.429	87.31
265.661	77.31
265.894	83.31
266.126	100.31
266.358	83.31
266.591	91.31
266.823	90.31
267.055	89.31
267.287	90.31
267.52	86.31
267.752	85.31
267.984	95.31
268.216	77.31
268.448	96.31
268.681	84.31
268.913	97.31
269.145	87.31
269.377	76.31
269.609	71.31
269.841	93.31
270.073	86.31
270.306	95.31
270.538	88.31
270.77	86.31
271.002	83.31
271.234	97.31
271.466	85.31
271.698	98.31
271.93	82.31
272.162	80.31
272.394	81.31
272.626	92.31
272.858	92.31
273.09	86.31
273.322	91.31
273.553	87.31
273.785	88.31
274.017	79.31
274.249	76.31
274.481	87.31
274.713	84.31
274.945	72.31
275.176	86.31
275.408	73.31
275.64	82.31
275.872	91.31
276.104	91.31
276.335	87.31
276.567	97.31
276.799	87.31
277.031	97.31
277.262	92.31
277.494	85.31
277.726	85.31
277.957	84.31
278.189	92.31
278.421	91.31
278.652	68.31
278.884	101.31
279.115	90.31
279.347	81.31
279.579	87.31
279.81	95.31
280.042	95.31
280.273	91.31
280.505	89.31
280.736	73.31
280.968	76.31
281.199	96.31
281.431	99.31
281.662	76.31
281.894	83.31
282.125	107.31
282.356	100.31
282.588	122.31
282.819	99.31
283.051	92.31
283.282	86.31
283.513	102.31
283.745	87.31
283.976	90.31
284.207	104.31
284.439	96.31
284.67	81.31
284.901	91.31
285.132	87.31
285.364	91.31
285.595	92.31
285.826	90.31
286.057	88.31
286.288	84.31
286.52	101.31
286.751	69.31
286.982	78.31
287.213	68.31
287.444	98.31
287.675	92.31
287.906	91.31
288.138	98.31
288.369	81.31
288.6	81.31
288.831	97.31
289.062	98.31
289.293	99.31
289.524	81.31
289.755	89.31
289.986	95.31
290.217	95.31
290.448	101.31
290.679	87.31
290.91	73.31
291.141	96.31
291.371	81.31
291.602	86.31
291.833	93.31
292.064	97.31
292.295	99.31
292.526	89.31
292.757	90.31
292.987	83.31
293.218	100.31
293.449	89.31
293.68	90.31
293.91	83.31
294.141	90.31
294.372	87.31
294.603	83.31
294.833	95.31
295.064	78.31
295.295	100.31
295.525	93.31
295.756	96.31
295.987	95.31
296.217	106.31
296.448	106.31
296.679	92.31
296.909	81.31
297.14	83.31
297.37	87.31
297.601	91.31
297.831	92.31
298.062	87.31
298.292	102.31
298.523	104.31
298.753	91.31
298.984	75.31
299.214	97.31
299.445	86.31
299.675	91.31
299.905	91.31
300.136	97.31
300.366	108.31
300.597	91.31
300.827	90.31
301.057	87.31
301.288	114.31
301.518	91.31
301.748	91.31
301.979	93.31
302.209	90.31
302.439	82.31
302.669	87.31
302.9	84.31
303.13	96.31
303.36	105.31
303.59	96.31
303.82	104.31
304.051	95.31
304.281	109.31
304.511	96.31
304.741	92.31
304.971	96.31
305.201	88.31
305.431	88.31
305.661	95.31
305.891	100.31
306.121	88.31
306.352	94.31
306.582	111.31
306.812	102.31
307.042	79.31
307.272	91.31
307.502	87.31
307.731	96.31
307.961	89.31
308.191	90.31
308.421	104.31
308.651	87.31
308.881	100.31
309.111	113.31
309.341	88.31
309.571	87.31
309.8	101.31
310.03	89.31
310.26	102.31
310.49	108.31
310.72	107.31
310.949	93.31
311.179	90.31
311.409	80.31
311.639	81.31
311.868	102.31
312.098	93.31
312.328	93.31
312.557	95.31
312.787	100.31
313.017	99.31
313.246	97.31
313.476	98.31
313.706	114.31
313.935	91.31
314.165	93.31
314.394	95.31
314.624	90.31
314.853	89.31
315.083	101.31
315.312	93.31
315.542	97.31
315.771	96.31
316.001	84.31
316.23	109.31
316.46	92.31
316.689	95.31
316.919	92.31
317.148	93.31
317.377	94.31
317.607	93.31
317.836	91.31
318.065	93.31
318.295	99.31
318.524	97.31
318.753	95.31
318.983	96.31
319.212	85.31
319.441	92.31
319.67	107.31
319.9	91.31
320.129	98.31
320.358	81.31
320.587	91.31
320.816	107.31
321.046	111.31
321.275	87.31
321.504	68.31
321.733	91.31
321.962	89.31
322.191	94.31
322.42	95.31
322.649	104.31
322.878	96.31
323.108	109.31
323.337	114.31
323.566	109.31
323.795	124.31
324.024	161.31
324.253	283.31
324.482	580.31
324.71	1148.31
324.939	1497.31
325.168	575.31
325.397	186.31
325.626	138.31
325.855	114.31
326.084	112.31
326.313	112.31
326.542	143.31
326.77	183.31
326.999	365.31
327.228	700.31
327.457	1235.31
327.686	951.31
327.914	281.31
328.143	150.31
328.372	121.31
328.6	102.31
328.829	95.31
329.058	126.31
329.287	115.31
329.515	105.31
329.744	101.31
329.972	103.31
330.201	108.31
330.43	92.31
330.658	103.31
330.887	117.31
331.115	108.31
331.344	99.31
331.572	93.31
331.801	99.31
332.03	108.31
332.258	98.31
332.486	88.31
332.715	105.31
332.943	99.31
333.172	92.31
333.4	95.31
333.629	95.31
333.857	104.31
334.085	104.31
334.314	117.31
334.542	120.31
334.771	103.31
334.999	80.31
335.227	89.31
335.455	91.31
335.684	98.31
335.912	106.31
336.14	104.31
336.369	90.31
336.597	99.31
336.825	89.31
337.053	89.31
337.281	99.31
337.51	96.31
337.738	77.31
337.966	97.31
338.194	98.31
338.422	90.31
338.65	107.31
338.878	106.31
339.106	88.31
339.334	94.31
339.562	94.31
339.79	95.31
340.018	98.31
340.246	99.31
340.474	100.31
340.702	102.31
340.93	86.31
341.158	91.31
341.386	97.31
341.614	99.31
341.842	89.31
342.07	83.31
342.298	100.31
342.526	105.31
342.754	79.31
342.981	91.31
343.209	85.31
343.437	106.31
343.665	85.31
343.893	87.31
344.12	95.31
344.348	92.31
344.576	98.31
344.804	90.31
345.031	110.31
345.259	87.31
345.487	94.31
345.714	96.31
345.942	89.31
346.17	87.31
346.397	88.31
346.625	81.31
346.853	93.31
347.08	101.31
347.308	92.31
347.535	85.31
347.763	90.31
347.99	100.31
348.218	118.31
348.445	108.31
348.673	105.31
348.9	91.31
349.128	97.31
349.355	93.31
349.583	97.31
349.81	91.31
350.037	99.31
350.265	107.31
350.492	99.31
350.72	103.31
350.947	109.31
351.174	105.31
351.402	108.31
351.629	97.31
351.856	107.31
352.083	101.31
352.311	116.31
352.538	110.31
352.765	107.31
352.992	98.31
353.22	113.31
353.447	101.31
353.674	93.31
353.901	105.31
354.128	97.31
354.355	108.31
354.583	96.31
354.81	105.31
355.037	98.31
355.264	108.31
355.491	120.31
355.718	103.31
355.945	106.31
356.172	96.31
356.399	95.31
356.626	101.31
356.853	98.31
357.08	88.31
357.307	89.31
357.534	89.31
357.761	100.31
357.988	94.31
358.215	106.31
358.441	97.31
358.668	113.31
358.895	101.31
359.122	86.31
359.349	88.31
359.576	84.31
359.802	100.31
360.029	109.31
360.256	92.31
360.483	90.31
360.709	87.31
360.936	96.31
361.163	95.31
361.39	96.31
361.616	95.31
361.843	98.31
362.07	101.31
362.296	101.31
362.523	86.31
362.749	85.31
362.976	95.31
363.203	93.31
363.429	88.31
363.656	97.31
363.882	85.31
364.109	92.31
364.335	96.31
364.562	95.31
364.788	97.31
365.015	96.31
365.241	87.31
365.468	116.31
365.694	90.31
365.92	97.31
366.147	90.31
366.373	89.31
366.599	78.31
366.826	91.31
367.052	93.31
367.278	95.31
367.505	95.31
367.731	88.31
367.957	97.31
368.184	90.31
368.41	95.31
368.636	87.31
368.862	109.31
369.089	109.31
369.315	81.31
369.541	97.31
369.767	99.31
369.993	95.31
370.219	92.31
370.445	97.31
370.672	91.31
370.898	68.31
371.124	94.31
371.35	87.31
371.576	86.31
371.802	90.31
372.028	90.31
372.254	83.31
372.48	89.31
372.706	90.31
372.932	83.31
373.158	90.31
373.384	91.31
373.61	104.31
373.835	90.31
374.061	81.31
374.287	91.31
374.513	98.31
374.739	85.31
374.965	104.31
375.191	91.31
375.416	90.31
375.642	95.31
375.868	104.31
376.094	111.31
376.319	94.31
376.545	93.31
376.771	89.31
376.997	103.31
377.222	98.31
377.448	89.31
377.674	83.31
377.899	111.31
378.125	105.31
378.35	103.31
378.576	94.31
378.802	101.31
379.027	100.31
379.253	98.31
379.478	106.31
379.704	115.31
379.929	122.31
380.155	102.31
380.38	116.31
380.606	107.31
380.831	96.31
381.057	117.31
381.282	93.31
381.507	108.31
381.733	119.31
381.958	117.31
382.184	117.31
382.409	110.31
382.634	126.31
382.86	125.31
383.085	109.31
383.31	119.31
383.535	119.31
383.761	125.31
383.986	122.31
384.211	114.31
384.436	109.31
384.662	124.31
384.887	128.31
385.112	134.31
385.337	140.31
385.562	129.31
385.787	144.31
386.013	144.31
386.238	144.31
386.463	147.31
386.688	135.31
386.913	150.31
387.138	153.31
387.363	126.31
387.588	115.31
387.813	131.31
388.038	133.31
388.263	167.31
388.488	145.31
388.713	107.31
388.938	105.31
389.163	79.31
389.387	98.31
389.612	94.31
389.837	93.31
390.062	87.31
390.287	93.31
390.512	99.31
390.736	91.31
390.961	100.31
391.186	119.31
391.411	103.31
391.636	108.31
391.86	96.31
392.085	89.31
392.31	84.31
392.534	89.31
392.759	97.31
392.984	92.31
393.208	87.31
393.433	97.31
393.658	91.31
393.882	90.31
394.107	83.31
394.331	88.31
394.556	82.31
394.78	85.31
395.005	88.31
395.229	94.31
395.454	102.31
395.678	107.31
395.903	93.31
396.127	114.31
396.352	82.31
396.576	80.31
396.801	82.31
397.025	92.31
397.249	92.31
397.474	91.31
397.698	89.31
397.922	101.31
398.147	78.31
398.371	97.31
398.595	92.31
398.82	87.31
399.044	84.31
399.268	79.31
399.492	79.31
399.717	101.31
399.941	83.31
400.165	105.31
400.389	85.31
400.613	98.31
400.837	81.31
401.062	88.31
401.286	89.31
401.51	86.31
401.734	93.31
401.958	92.31
402.182	108.31
402.406	137.31
402.63	96.31
402.854	81.31
403.078	102.31
403.302	93.31
403.526	83.31
403.75	80.31
403.974	84.31
404.198	93.31
404.422	83.31
404.645	79.31
404.869	92.31
405.093	100.31
405.317	103.31
405.541	94.31
405.765	93.31
405.988	117.31
406.212	137.31
406.436	155.31
406.66	105.31
406.883	100.31
407.107	85.31
407.331	88.31
407.555	74.31
407.778	98.31
408.002	88.31
408.226	86.31
408.449	92.31
408.673	88.31
408.896	99.31
409.12	96.31
409.344	88.31
409.567	85.31
409.791	95.31
410.014	97.31
410.238	86.31
410.461	99.31
410.685	97.31
410.908	99.31
411.132	89.31
411.355	105.31
411.578	100.31
411.802	91.31
412.025	109.31
412.249	88.31
412.472	99.31
412.695	97.31
412.919	100.31
413.142	84.31
413.365	97.31
413.589	94.31
413.812	94.31
414.035	98.31
414.258	89.31
414.482	86.31
414.705	90.31
414.928	101.31
415.151	93.31
415.374	97.31
415.597	92.31
415.821	81.31
416.044	107.31
416.267	105.31
416.49	92.31
416.713	103.31
416.936	101.31
417.159	83.31
417.382	92.31
417.605	87.31
417.828	97.31
418.051	103.31
418.274	93.31
418.497	77.31
418.72	85.31
418.943	95.31
419.166	94.31
419.389	83.31
419.611	100.31
419.834	99.31
420.057	95.31
420.28	86.31
420.503	92.31
420.726	81.31
420.948	72.31
421.171	79.31
421.394	87.31
421.617	98.31
421.839	79.31
422.062	97.31
422.285	101.31
422.507	84.31
422.73	95.31
422.953	97.31
423.175	92.31
423.398	107.31
423.621	93.31
423.843	90.31
424.066	89.31
424.288	99.31
424.511	95.31
424.733	94.31
424.956	93.31
425.178	84.31
425.401	93.31
425.623	94.31
425.846	91.31
426.068	91.31
426.291	90.31
426.513	88.31
426.735	96.31
426.958	99.31
427.18	100.31
427.402	113.31
427.625	128.31
427.847	112.31
428.069	107.31
428.292	85.31
428.514	72.31
428.736	89.31
428.958	88.31
429.181	84.31
429.403	103.31
429.625	101.31
429.847	90.31
430.069	92.31
430.292	89.31
430.514	83.31
430.736	72.31
430.958	77.31
431.18	79.31
431.402	80.31
431.624	97.31
431.846	92.31
432.068	85.31
432.29	93.31
432.512	90.31
432.734	79.31
432.956	95.31
433.178	95.31
433.4	98.31
433.622	91.31
433.844	83.31
434.066	94.31
434.287	91.31
434.509	86.31
434.731	91.31
434.953	99.31
435.175	88.31
435.397	89.31
435.618	90.31
435.84	83.31
436.062	106.31
436.284	109.31
436.505	84.31
436.727	91.31
436.949	98.31
437.17	95.31
437.392	84.31
437.614	95.31
437.835	94.31
438.057	105.31
438.278	107.31
438.5	86.31
438.721	103.31
438.943	98.31
439.165	86.31
439.386	68.31
439.608	91.31
439.829	93.31
440.05	114.31
440.272	132.31
440.493	91.31
440.715	87.31
440.936	83.31
441.158	97.31
441.379	92.31
441.6	91.31
441.822	99.31
442.043	98.31
442.264	100.31
442.486	96.31
442.707	97.31
442.928	97.31
443.149	114.31
443.371	114.31
443.592	117.31
443.813	114.31
444.034	91.31
444.255	89.31
444.476	90.31
444.698	85.31
444.919	80.31
445.14	131.31
445.361	123.31
445.582	116.31
445.803	112.31
446.024	114.31
446.245	119.31
446.466	99.31
446.687	76.31
446.908	98.31
447.129	87.31
447.35	86.31
447.571	81.31
447.792	92.31
448.013	90.31
448.234	101.31
448.455	99.31
448.675	106.31
448.896	99.31
449.117	96.31
449.338	89.31
449.559	111.31
449.779	115.31
450	92.31
450.221	95.31
450.442	83.31
450.662	96.31
450.883	97.31
451.104	106.31
451.324	102.31
451.545	95.31
451.766	93.31
451.986	95.31
452.207	83.31
452.428	87.31
452.648	84.31
452.869	95.31
453.089	119.31
453.31	108.31
453.53	104.31
453.751	89.31
453.971	93.31
454.192	102.31
454.412	89.31
454.633	80.31
454.853	96.31
455.073	93.31
455.294	106.31
455.514	77.31
455.734	92.31
455.955	81.31
456.175	74.31
456.395	70.31
456.616	81.31
456.836	89.31
457.056	88.31
457.276	88.31
457.497	96.31
457.717	99.31
457.937	93.31
458.157	99.31
458.377	91.31
458.598	102.31
458.818	114.31
459.038	124.31
459.258	90.31
459.478	83.31
459.698	87.31
459.918	90.31
460.138	94.31
460.358	88.31
460.578	77.31
460.798	79.31
461.018	104.31
461.238	99.31
461.458	90.31
461.678	80.31
461.898	73.31
462.118	87.31
462.338	84.31
462.558	89.31
462.777	87.31
462.997	84.31
463.217	97.31
463.437	90.31
463.657	108.31
463.876	96.31
464.096	90.31
464.316	90.31
464.536	89.31
464.755	103.31
464.975	102.31
465.195	143.31
465.414	108.31
465.634	99.31
465.854	100.31
466.073	83.31
466.293	91.31
466.512	88.31
466.732	91.31
466.951	91.31
467.171	97.31
467.391	97.31
467.61	89.31
467.829	97.31
468.049	93.31
468.268	79.31
468.488	95.31
468.707	88.31
468.927	85.31
469.146	99.31
469.365	82.31
469.585	100.31
469.804	94.31
470.023	89.31
470.243	90.31
470.462	101.31
470.681	103.31
470.901	91.31
471.12	88.31
471.339	87.31
471.558	100.31
471.777	80.31
471.997	88.31
472.216	91.31
472.435	115.31
472.654	105.31
472.873	84.31
473.092	77.31
473.311	76.31
473.53	84.31
473.749	92.31
473.968	92.31
474.187	107.31
474.406	106.31
474.625	96.31
474.844	86.31
475.063	80.31
475.282	87.31
475.501	89.31
475.72	81.31
475.939	85.31
476.158	91.31
476.377	84.31
476.596	90.31
476.814	93.31
477.033	80.31
477.252	91.31
477.471	77.31
477.69	92.31
477.908	83.31
478.127	105.31
478.346	96.31
478.564	76.31
478.783	87.31
479.002	95.31
479.22	92.31
479.439	80.31
479.658	95.31
479.876	84.31
480.095	92.31
480.313	91.31
480.532	86.31
480.751	99.31
480.969	97.31
481.188	120.31
481.406	107.31
481.624	89.31
481.843	91.31
482.061	94.31
482.28	87.31
482.498	86.31
482.717	75.31
482.935	91.31
483.153	89.31
483.372	89.31
483.59	102.31
483.808	83.31
484.027	104.31
484.245	92.31
484.463	84.31
484.681	87.31
484.9	84.31
485.118	85.31
485.336	99.31
485.554	105.31
485.772	85.31
485.99	115.31
486.209	113.31
486.427	117.31
486.645	107.31
486.863	114.31
487.081	107.31
487.299	106.31
487.517	97.31
487.735	98.31
487.953	92.31
488.171	95.31
488.389	96.31
488.607	93.31
488.825	92.31
489.043	81.31
489.261	91.31
489.479	89.31
489.696	82.31
489.914	91.31
490.132	92.31
490.35	83.31
490.568	88.31
490.786	85.31
491.003	88.31
491.221	96.31
491.439	106.31
491.657	93.31
491.874	93.31
492.092	107.31
492.31	87.31
492.527	80.31
492.745	96.31
492.963	87.31
493.18	86.31
493.398	86.31
493.615	78.31
493.833	99.31
494.05	92.31
494.268	98.31
494.485	88.31
494.703	93.31
494.92	81.31
495.138	84.31
495.355	90.31
495.573	87.31
495.79	82.31
496.008	95.31
496.225	96.31
496.442	93.31
496.66	94.31
496.877	82.31
497.094	90.31
497.312	77.31
497.529	103.31
497.746	95.31
497.963	91.31
498.181	94.31
498.398	93.31
498.615	93.31
498.832	99.31
499.049	95.31
499.267	93.31
499.484	98.31
499.701	87.31
499.918	76.31
500.135	100.31
500.352	101.31
500.569	91.31
500.786	96.31
501.003	97.31
501.22	83.31
501.437	92.31
501.654	85.31
501.871	91.31
502.088	80.31
502.305	85.31
502.522	91.31
502.739	87.31
502.956	104.31
503.172	91.31
503.389	81.31
503.606	75.31
503.823	92.31
504.04	97.31
504.256	97.31
504.473	78.31
504.69	93.31
504.907	97.31
505.123	88.31
505.34	95.31
505.557	106.31
505.773	91.31
505.99	92.31
506.207	86.31
506.423	103.31
506.64	83.31
506.856	89.31
507.073	95.31
507.289	100.31
507.506	98.31
507.722	95.31
507.939	108.31
508.155	93.31
508.372	93.31
508.588	101.31
508.805	92.31
509.021	90.31
509.238	96.31
509.454	93.31
509.67	92.31
509.887	112.31
510.103	131.31
510.319	173.31
510.536	521.31
510.752	1439.31
510.968	410.31
511.184	121.31
511.401	93.31
511.617	91.31
511.833	91.31
512.049	86.31
512.265	90.31
512.481	96.31
512.698	96.31
512.914	85.31
513.13	91.31
513.346	86.31
513.562	80.31
513.778	85.31
513.994	87.31
514.21	99.31
514.426	91.31
514.642	106.31
514.858	105.31
515.074	129.31
515.29	302.31
515.506	844.31
515.721	341.31
