Data from Circ_1986_H10_HRD10591_00017.txt Node
Date: Wed Jan 03 12:15:29 EST 2024
User: Yrep
Spectrometer: HR+D1059
Trigger mode: 1
Integration Time (sec): 1.000000E-1
Scans to average: 1
Electric dark correction enabled: true
Nonlinearity correction enabled: false
Boxcar width: 0
XAxis mode: Wavelengths
Number of Pixels in Spectrum: 2048
>>>>>Begin Spectral Data<<<<<
223.165	-14.5
223.4	-14.5
223.635	-14.5
223.869	-24.5
224.104	-24.5
224.338	-8.5
224.573	-9.5
224.808	-10.5
225.042	-18.5
225.277	-10.5
225.511	-2.5
225.746	9.5
225.98	-4.5
226.215	11.5
226.449	24.5
226.683	33.5
226.918	31.5
227.152	17.5
227.387	24.5
227.621	32.5
227.856	61.5
228.09	51.5
228.324	52.5
228.559	63.5
228.793	60.5
229.027	72.5
229.262	96.5
229.496	65.5
229.73	73.5
229.964	85.5
230.199	71.5
230.433	71.5
230.667	88.5
230.901	85.5
231.136	75.5
231.37	85.5
231.604	76.5
231.838	71.5
232.072	84.5
232.306	79.5
232.541	88.5
232.775	91.5
233.009	84.5
233.243	77.5
233.477	70.5
233.711	73.5
233.945	71.5
234.179	84.5
234.413	77.5
234.647	92.5
234.881	81.5
235.115	79.5
235.349	83.5
235.583	89.5
235.817	79.5
236.051	87.5
236.285	82.5
236.519	70.5
236.753	74.5
236.987	87.5
237.221	92.5
237.455	72.5
237.689	93.5
237.922	81.5
238.156	72.5
238.39	72.5
238.624	71.5
238.858	82.5
239.091	83.5
239.325	84.5
239.559	74.5
239.793	81.5
240.027	75.5
240.26	73.5
240.494	74.5
240.728	76.5
240.961	61.5
241.195	83.5
241.429	80.5
241.662	79.5
241.896	79.5
242.13	80.5
242.363	84.5
242.597	87.5
242.83	81.5
243.064	79.5
243.298	75.5
243.531	79.5
243.765	65.5
243.998	87.5
244.232	85.5
244.465	81.5
244.699	83.5
244.932	83.5
245.166	76.5
245.399	79.5
245.633	80.5
245.866	66.5
246.099	85.5
246.333	77.5
246.566	79.5
246.8	76.5
247.033	79.5
247.266	88.5
247.5	84.5
247.733	67.5
247.966	94.5
248.2	79.5
248.433	92.5
248.666	76.5
248.899	83.5
249.133	85.5
249.366	88.5
249.599	87.5
249.832	87.5
250.066	97.5
250.299	85.5
250.532	91.5
250.765	70.5
250.998	88.5
251.231	80.5
251.465	84.5
251.698	80.5
251.931	82.5
252.164	80.5
252.397	73.5
252.63	79.5
252.863	79.5
253.096	85.5
253.329	91.5
253.562	84.5
253.795	82.5
254.028	89.5
254.261	70.5
254.494	75.5
254.727	71.5
254.96	67.5
255.193	95.5
255.426	93.5
255.659	86.5
255.892	87.5
256.124	89.5
256.357	85.5
256.59	75.5
256.823	83.5
257.056	76.5
257.289	82.5
257.521	83.5
257.754	81.5
257.987	71.5
258.22	82.5
258.452	83.5
258.685	74.5
258.918	74.5
259.151	87.5
259.383	92.5
259.616	83.5
259.849	82.5
260.081	89.5
260.314	85.5
260.547	84.5
260.779	81.5
261.012	88.5
261.244	83.5
261.477	87.5
261.71	85.5
261.942	107.5
262.175	113.5
262.407	88.5
262.64	82.5
262.872	87.5
263.105	80.5
263.337	88.5
263.57	86.5
263.802	83.5
264.035	82.5
264.267	79.5
264.499	88.5
264.732	89.5
264.964	95.5
265.197	84.5
265.429	101.5
265.661	80.5
265.894	83.5
266.126	96.5
266.358	77.5
266.591	99.5
266.823	91.5
267.055	71.5
267.287	88.5
267.52	78.5
267.752	80.5
267.984	87.5
268.216	96.5
268.448	88.5
268.681	83.5
268.913	77.5
269.145	72.5
269.377	93.5
269.609	83.5
269.841	95.5
270.073	85.5
270.306	84.5
270.538	76.5
270.77	74.5
271.002	83.5
271.234	85.5
271.466	88.5
271.698	83.5
271.93	98.5
272.162	78.5
272.394	92.5
272.626	83.5
272.858	80.5
273.09	77.5
273.322	87.5
273.553	81.5
273.785	99.5
274.017	99.5
274.249	99.5
274.481	86.5
274.713	91.5
274.945	80.5
275.176	85.5
275.408	81.5
275.64	86.5
275.872	101.5
276.104	81.5
276.335	87.5
276.567	92.5
276.799	97.5
277.031	83.5
277.262	96.5
277.494	88.5
277.726	90.5
277.957	74.5
278.189	89.5
278.421	90.5
278.652	74.5
278.884	86.5
279.115	80.5
279.347	79.5
279.579	83.5
279.81	81.5
280.042	83.5
280.273	92.5
280.505	96.5
280.736	98.5
280.968	91.5
281.199	82.5
281.431	82.5
281.662	79.5
281.894	95.5
282.125	93.5
282.356	96.5
282.588	107.5
282.819	103.5
283.051	90.5
283.282	81.5
283.513	91.5
283.745	77.5
283.976	88.5
284.207	63.5
284.439	83.5
284.67	90.5
284.901	84.5
285.132	88.5
285.364	90.5
285.595	89.5
285.826	76.5
286.057	80.5
286.288	81.5
286.52	71.5
286.751	83.5
286.982	83.5
287.213	88.5
287.444	83.5
287.675	85.5
287.906	90.5
288.138	92.5
288.369	101.5
288.6	97.5
288.831	92.5
289.062	83.5
289.293	84.5
289.524	87.5
289.755	87.5
289.986	105.5
290.217	97.5
290.448	84.5
290.679	97.5
290.91	79.5
291.141	96.5
291.371	73.5
291.602	88.5
291.833	95.5
292.064	98.5
292.295	83.5
292.526	93.5
292.757	90.5
292.987	91.5
293.218	85.5
293.449	99.5
293.68	97.5
293.91	94.5
294.141	91.5
294.372	83.5
294.603	89.5
294.833	90.5
295.064	88.5
295.295	87.5
295.525	88.5
295.756	97.5
295.987	96.5
296.217	93.5
296.448	115.5
296.679	85.5
296.909	107.5
297.14	75.5
297.37	91.5
297.601	90.5
297.831	87.5
298.062	74.5
298.292	100.5
298.523	95.5
298.753	92.5
298.984	76.5
299.214	82.5
299.445	83.5
299.675	97.5
299.905	94.5
300.136	84.5
300.366	95.5
300.597	87.5
300.827	84.5
301.057	90.5
301.288	102.5
301.518	95.5
301.748	91.5
301.979	97.5
302.209	91.5
302.439	100.5
302.669	95.5
302.9	82.5
303.13	94.5
303.36	100.5
303.59	69.5
303.82	93.5
304.051	88.5
304.281	87.5
304.511	101.5
304.741	93.5
304.971	94.5
305.201	92.5
305.431	93.5
305.661	92.5
305.891	96.5
306.121	81.5
306.352	83.5
306.582	91.5
306.812	92.5
307.042	96.5
307.272	83.5
307.502	101.5
307.731	86.5
307.961	86.5
308.191	97.5
308.421	101.5
308.651	76.5
308.881	79.5
309.111	97.5
309.341	88.5
309.571	107.5
309.8	95.5
310.03	86.5
310.26	85.5
310.49	97.5
310.72	88.5
310.949	99.5
311.179	93.5
311.409	104.5
311.639	95.5
311.868	97.5
312.098	89.5
312.328	92.5
312.557	98.5
312.787	105.5
313.017	100.5
313.246	90.5
313.476	86.5
313.706	80.5
313.935	92.5
314.165	97.5
314.394	103.5
314.624	97.5
314.853	100.5
315.083	87.5
315.312	83.5
315.542	96.5
315.771	97.5
316.001	93.5
316.23	96.5
316.46	83.5
316.689	99.5
316.919	95.5
317.148	98.5
317.377	88.5
317.607	92.5
317.836	85.5
318.065	82.5
318.295	88.5
318.524	101.5
318.753	100.5
318.983	91.5
319.212	108.5
319.441	104.5
319.67	92.5
319.9	99.5
320.129	96.5
320.358	73.5
320.587	93.5
320.816	87.5
321.046	104.5
321.275	91.5
321.504	88.5
321.733	70.5
321.962	82.5
322.191	89.5
322.42	103.5
322.649	105.5
322.878	100.5
323.108	102.5
323.337	111.5
323.566	111.5
323.795	114.5
324.024	161.5
324.253	284.5
324.482	584.5
324.71	1182.5
324.939	1512.5
325.168	582.5
325.397	191.5
325.626	126.5
325.855	112.5
326.084	115.5
326.313	114.5
326.542	138.5
326.77	182.5
326.999	356.5
327.228	684.5
327.457	1235.5
327.686	951.5
327.914	254.5
328.143	155.5
328.372	119.5
328.6	111.5
328.829	115.5
329.058	123.5
329.287	103.5
329.515	114.5
329.744	97.5
329.972	97.5
330.201	106.5
330.43	140.5
330.658	106.5
330.887	123.5
331.115	113.5
331.344	93.5
331.572	100.5
331.801	93.5
332.03	98.5
332.258	96.5
332.486	84.5
332.715	83.5
332.943	89.5
333.172	81.5
333.4	101.5
333.629	96.5
333.857	112.5
334.085	91.5
334.314	102.5
334.542	116.5
334.771	131.5
334.999	99.5
335.227	95.5
335.455	89.5
335.684	91.5
335.912	95.5
336.14	92.5
336.369	103.5
336.597	97.5
336.825	98.5
337.053	100.5
337.281	95.5
337.51	91.5
337.738	102.5
337.966	92.5
338.194	91.5
338.422	100.5
338.65	96.5
338.878	91.5
339.106	94.5
339.334	101.5
339.562	88.5
339.79	95.5
340.018	101.5
340.246	85.5
340.474	84.5
340.702	88.5
340.93	102.5
341.158	87.5
341.386	91.5
341.614	97.5
341.842	88.5
342.07	96.5
342.298	98.5
342.526	88.5
342.754	95.5
342.981	84.5
343.209	99.5
343.437	102.5
343.665	90.5
343.893	82.5
344.12	92.5
344.348	95.5
344.576	101.5
344.804	101.5
345.031	90.5
345.259	98.5
345.487	77.5
345.714	101.5
345.942	100.5
346.17	100.5
346.397	88.5
346.625	93.5
346.853	93.5
347.08	89.5
347.308	90.5
347.535	86.5
347.763	96.5
347.99	98.5
348.218	95.5
348.445	100.5
348.673	87.5
348.9	109.5
349.128	96.5
349.355	102.5
349.583	92.5
349.81	94.5
350.037	99.5
350.265	82.5
350.492	97.5
350.72	111.5
350.947	95.5
351.174	101.5
351.402	108.5
351.629	107.5
351.856	98.5
352.083	95.5
352.311	100.5
352.538	92.5
352.765	97.5
352.992	103.5
353.22	93.5
353.447	113.5
353.674	104.5
353.901	82.5
354.128	91.5
354.355	105.5
354.583	98.5
354.81	103.5
355.037	89.5
355.264	97.5
355.491	79.5
355.718	81.5
355.945	86.5
356.172	77.5
356.399	95.5
356.626	101.5
356.853	107.5
357.08	90.5
357.307	93.5
357.534	92.5
357.761	89.5
357.988	82.5
358.215	97.5
358.441	105.5
358.668	82.5
358.895	84.5
359.122	103.5
359.349	101.5
359.576	84.5
359.802	100.5
360.029	93.5
360.256	92.5
360.483	88.5
360.709	101.5
360.936	94.5
361.163	86.5
361.39	87.5
361.616	104.5
361.843	90.5
362.07	82.5
362.296	82.5
362.523	87.5
362.749	103.5
362.976	85.5
363.203	95.5
363.429	103.5
363.656	108.5
363.882	75.5
364.109	84.5
364.335	95.5
364.562	95.5
364.788	87.5
365.015	97.5
365.241	100.5
365.468	112.5
365.694	106.5
365.92	95.5
366.147	91.5
366.373	94.5
366.599	92.5
366.826	105.5
367.052	82.5
367.278	89.5
367.505	88.5
367.731	95.5
367.957	90.5
368.184	85.5
368.41	91.5
368.636	106.5
368.862	88.5
369.089	92.5
369.315	76.5
369.541	82.5
369.767	86.5
369.993	78.5
370.219	91.5
370.445	97.5
370.672	84.5
370.898	92.5
371.124	85.5
371.35	83.5
371.576	90.5
371.802	88.5
372.028	104.5
372.254	88.5
372.48	98.5
372.706	86.5
372.932	90.5
373.158	91.5
373.384	91.5
373.61	83.5
373.835	93.5
374.061	93.5
374.287	87.5
374.513	100.5
374.739	85.5
374.965	93.5
375.191	101.5
375.416	86.5
375.642	89.5
375.868	91.5
376.094	88.5
376.319	100.5
376.545	100.5
376.771	107.5
376.997	81.5
377.222	108.5
377.448	107.5
377.674	101.5
377.899	98.5
378.125	83.5
378.35	101.5
378.576	81.5
378.802	99.5
379.027	89.5
379.253	94.5
379.478	104.5
379.704	89.5
379.929	91.5
380.155	96.5
380.38	82.5
380.606	107.5
380.831	92.5
381.057	92.5
381.282	99.5
381.507	84.5
381.733	104.5
381.958	108.5
382.184	111.5
382.409	101.5
382.634	103.5
382.86	114.5
383.085	103.5
383.31	114.5
383.535	114.5
383.761	97.5
383.986	117.5
384.211	111.5
384.436	105.5
384.662	122.5
384.887	119.5
385.112	122.5
385.337	113.5
385.562	125.5
385.787	109.5
386.013	119.5
386.238	120.5
386.463	110.5
386.688	117.5
386.913	135.5
387.138	129.5
387.363	117.5
387.588	101.5
387.813	105.5
388.038	109.5
388.263	129.5
388.488	112.5
388.713	120.5
388.938	107.5
389.163	96.5
389.387	83.5
389.612	88.5
389.837	100.5
390.062	99.5
390.287	99.5
390.512	85.5
390.736	106.5
390.961	95.5
391.186	93.5
391.411	99.5
391.636	101.5
391.86	75.5
392.085	84.5
392.31	107.5
392.534	91.5
392.759	84.5
392.984	83.5
393.208	107.5
393.433	93.5
393.658	103.5
393.882	77.5
394.107	89.5
394.331	90.5
394.556	84.5
394.78	81.5
395.005	93.5
395.229	80.5
395.454	87.5
395.678	85.5
395.903	71.5
396.127	79.5
396.352	73.5
396.576	95.5
396.801	96.5
397.025	89.5
397.249	93.5
397.474	100.5
397.698	80.5
397.922	91.5
398.147	85.5
398.371	83.5
398.595	91.5
398.82	89.5
399.044	101.5
399.268	87.5
399.492	87.5
399.717	93.5
399.941	87.5
400.165	101.5
400.389	94.5
400.613	84.5
400.837	87.5
401.062	97.5
401.286	88.5
401.51	86.5
401.734	83.5
401.958	92.5
402.182	116.5
402.406	131.5
402.63	108.5
402.854	91.5
403.078	88.5
403.302	99.5
403.526	89.5
403.75	84.5
403.974	91.5
404.198	85.5
404.422	89.5
404.645	106.5
404.869	99.5
405.093	88.5
405.317	83.5
405.541	92.5
405.765	96.5
405.988	102.5
406.212	132.5
406.436	161.5
406.66	114.5
406.883	95.5
407.107	94.5
407.331	101.5
407.555	93.5
407.778	104.5
408.002	97.5
408.226	91.5
408.449	91.5
408.673	85.5
408.896	89.5
409.12	88.5
409.344	91.5
409.567	88.5
409.791	96.5
410.014	99.5
410.238	99.5
410.461	90.5
410.685	106.5
410.908	104.5
411.132	114.5
411.355	83.5
411.578	92.5
411.802	92.5
412.025	100.5
412.249	89.5
412.472	91.5
412.695	99.5
412.919	96.5
413.142	84.5
413.365	93.5
413.589	88.5
413.812	84.5
414.035	90.5
414.258	96.5
414.482	87.5
414.705	103.5
414.928	98.5
415.151	110.5
415.374	91.5
415.597	88.5
415.821	94.5
416.044	74.5
416.267	106.5
416.49	95.5
416.713	89.5
416.936	80.5
417.159	89.5
417.382	89.5
417.605	76.5
417.828	93.5
418.051	81.5
418.274	80.5
418.497	100.5
418.72	88.5
418.943	96.5
419.166	92.5
419.389	96.5
419.611	77.5
419.834	92.5
420.057	87.5
420.28	79.5
420.503	91.5
420.726	83.5
420.948	87.5
421.171	91.5
421.394	99.5
421.617	88.5
421.839	79.5
422.062	90.5
422.285	92.5
422.507	102.5
422.73	99.5
422.953	91.5
423.175	74.5
423.398	82.5
423.621	83.5
423.843	93.5
424.066	95.5
424.288	93.5
424.511	84.5
424.733	117.5
424.956	99.5
425.178	97.5
425.401	102.5
425.623	98.5
425.846	85.5
426.068	97.5
426.291	88.5
426.513	87.5
426.735	85.5
426.958	95.5
427.18	94.5
427.402	116.5
427.625	133.5
427.847	111.5
428.069	99.5
428.292	104.5
428.514	97.5
428.736	74.5
428.958	87.5
429.181	60.5
429.403	86.5
429.625	91.5
429.847	89.5
430.069	106.5
430.292	96.5
430.514	75.5
430.736	82.5
430.958	79.5
431.18	83.5
431.402	102.5
431.624	91.5
431.846	82.5
432.068	80.5
432.29	86.5
432.512	79.5
432.734	88.5
432.956	92.5
433.178	101.5
433.4	96.5
433.622	85.5
433.844	87.5
434.066	87.5
434.287	98.5
434.509	88.5
434.731	83.5
434.953	104.5
435.175	76.5
435.397	80.5
435.618	89.5
435.84	97.5
436.062	107.5
436.284	97.5
436.505	111.5
436.727	103.5
436.949	72.5
437.17	93.5
437.392	98.5
437.614	92.5
437.835	85.5
438.057	100.5
438.278	97.5
438.5	101.5
438.721	118.5
438.943	101.5
439.165	80.5
439.386	83.5
439.608	99.5
439.829	109.5
440.05	114.5
440.272	119.5
440.493	94.5
440.715	92.5
440.936	84.5
441.158	91.5
441.379	86.5
441.6	92.5
441.822	96.5
442.043	83.5
442.264	103.5
442.486	100.5
442.707	92.5
442.928	95.5
443.149	108.5
443.371	110.5
443.592	91.5
443.813	113.5
444.034	100.5
444.255	79.5
444.476	87.5
444.698	79.5
444.919	87.5
445.14	124.5
445.361	111.5
445.582	102.5
445.803	112.5
446.024	106.5
446.245	124.5
446.466	104.5
446.687	89.5
446.908	100.5
447.129	87.5
447.35	85.5
447.571	85.5
447.792	89.5
448.013	81.5
448.234	96.5
448.455	98.5
448.675	87.5
448.896	110.5
449.117	108.5
449.338	112.5
449.559	111.5
449.779	119.5
450	95.5
450.221	79.5
450.442	83.5
450.662	91.5
450.883	90.5
451.104	97.5
451.324	81.5
451.545	71.5
451.766	102.5
451.986	87.5
452.207	80.5
452.428	96.5
452.648	73.5
452.869	88.5
453.089	100.5
453.31	91.5
453.53	92.5
453.751	89.5
453.971	89.5
454.192	102.5
454.412	82.5
454.633	74.5
454.853	90.5
455.073	88.5
455.294	90.5
455.514	95.5
455.734	95.5
455.955	84.5
456.175	92.5
456.395	96.5
456.616	95.5
456.836	81.5
457.056	89.5
457.276	89.5
457.497	77.5
457.717	76.5
457.937	90.5
458.157	85.5
458.377	80.5
458.598	109.5
458.818	128.5
459.038	140.5
459.258	115.5
459.478	95.5
459.698	98.5
459.918	88.5
460.138	92.5
460.358	96.5
460.578	83.5
460.798	98.5
461.018	82.5
461.238	85.5
461.458	92.5
461.678	89.5
461.898	84.5
462.118	87.5
462.338	86.5
462.558	87.5
462.777	94.5
462.997	95.5
463.217	79.5
463.437	91.5
463.657	84.5
463.876	90.5
464.096	81.5
464.316	92.5
464.536	82.5
464.755	100.5
464.975	106.5
465.195	145.5
465.414	121.5
465.634	85.5
465.854	99.5
466.073	90.5
466.293	79.5
466.512	92.5
466.732	88.5
466.951	72.5
467.171	81.5
467.391	101.5
467.61	101.5
467.829	89.5
468.049	99.5
468.268	97.5
468.488	87.5
468.707	93.5
468.927	83.5
469.146	88.5
469.365	69.5
469.585	99.5
469.804	94.5
470.023	73.5
470.243	74.5
470.462	79.5
470.681	91.5
470.901	89.5
471.12	83.5
471.339	93.5
471.558	85.5
471.777	81.5
471.997	82.5
472.216	97.5
472.435	133.5
472.654	84.5
472.873	78.5
473.092	91.5
473.311	93.5
473.53	82.5
473.749	91.5
473.968	74.5
474.187	96.5
474.406	93.5
474.625	76.5
474.844	105.5
475.063	95.5
475.282	87.5
475.501	84.5
475.72	79.5
475.939	75.5
476.158	81.5
476.377	95.5
476.596	95.5
476.814	85.5
477.033	102.5
477.252	97.5
477.471	84.5
477.69	86.5
477.908	87.5
478.127	88.5
478.346	87.5
478.564	90.5
478.783	97.5
479.002	88.5
479.22	83.5
479.439	90.5
479.658	100.5
479.876	89.5
480.095	83.5
480.313	105.5
480.532	86.5
480.751	101.5
480.969	95.5
481.188	169.5
481.406	131.5
481.624	103.5
481.843	87.5
482.061	88.5
482.28	82.5
482.498	84.5
482.717	95.5
482.935	86.5
483.153	105.5
483.372	72.5
483.59	89.5
483.808	91.5
484.027	95.5
484.245	93.5
484.463	90.5
484.681	90.5
484.9	82.5
485.118	99.5
485.336	97.5
485.554	94.5
485.772	105.5
485.99	113.5
486.209	96.5
486.427	97.5
486.645	119.5
486.863	110.5
487.081	99.5
487.299	99.5
487.517	96.5
487.735	81.5
487.953	103.5
488.171	93.5
488.389	110.5
488.607	99.5
488.825	87.5
489.043	93.5
489.261	88.5
489.479	93.5
489.696	92.5
489.914	92.5
490.132	79.5
490.35	95.5
490.568	81.5
490.786	91.5
491.003	91.5
491.221	80.5
491.439	88.5
491.657	98.5
491.874	99.5
492.092	92.5
492.31	92.5
492.527	81.5
492.745	87.5
492.963	76.5
493.18	69.5
493.398	92.5
493.615	105.5
493.833	83.5
494.05	82.5
494.268	97.5
494.485	88.5
494.703	92.5
494.92	85.5
495.138	87.5
495.355	95.5
495.573	92.5
495.79	102.5
496.008	95.5
496.225	96.5
496.442	92.5
496.66	93.5
496.877	88.5
497.094	91.5
497.312	85.5
497.529	67.5
497.746	91.5
497.963	81.5
498.181	95.5
498.398	84.5
498.615	95.5
498.832	98.5
499.049	86.5
499.267	92.5
499.484	87.5
499.701	111.5
499.918	104.5
500.135	76.5
500.352	99.5
500.569	91.5
500.786	87.5
501.003	91.5
501.22	93.5
501.437	93.5
501.654	90.5
501.871	95.5
502.088	90.5
502.305	81.5
502.522	84.5
502.739	83.5
502.956	94.5
503.172	89.5
503.389	107.5
503.606	107.5
503.823	93.5
504.04	87.5
504.256	91.5
504.473	86.5
504.69	91.5
504.907	88.5
505.123	95.5
505.34	83.5
505.557	93.5
505.773	87.5
505.99	81.5
506.207	92.5
506.423	89.5
506.64	90.5
506.856	89.5
507.073	87.5
507.289	89.5
507.506	95.5
507.722	89.5
507.939	92.5
508.155	104.5
508.372	71.5
508.588	90.5
508.805	93.5
509.021	92.5
509.238	99.5
509.454	93.5
509.67	92.5
509.887	112.5
510.103	109.5
510.319	194.5
510.536	564.5
510.752	1578.5
510.968	471.5
511.184	142.5
511.401	114.5
511.617	91.5
511.833	93.5
512.049	101.5
512.265	94.5
512.481	80.5
512.698	92.5
512.914	100.5
513.13	101.5
513.346	97.5
513.562	92.5
513.778	98.5
513.994	104.5
514.21	103.5
514.426	106.5
514.642	105.5
514.858	109.5
515.074	125.5
515.29	318.5
515.506	927.5
515.721	360.5
515.937	138.5
516.153	109.5
516.369	107.5
516.585	95.5
516.801	97.5
517.016	92.5
517.232	93.5
517.448	99.5
517.664	83.5
517.879	97.5
518.095	103.5
518.311	88.5
518.527	85.5
518.742	88.5
518.958	95.5
519.173	96.5
519.389	100.5
519.605	82.5
519.82	94.5
520.036	97.5
520.251	100.5
520.467	92.5
520.682	90.5
520.898	97.5
521.113	97.5
521.329	124.5
521.544	152.5
521.76	374.5
521.975	1489.5
522.19	909.5
522.406	218.5
522.621	122.5
522.836	82.5
523.052	104.5
523.267	93.5
523.482	95.5
523.698	103.5
523.913	123.5
524.128	92.5
524.343	96.5
524.559	98.5
524.774	98.5
524.989	88.5
525.204	103.5
525.419	85.5
525.634	105.5
525.849	90.5
526.064	99.5
526.28	92.5
526.495	96.5
526.71	97.5
526.925	80.5
527.14	90.5
527.355	84.5
527.57	93.5
527.785	80.5
527.999	87.5
528.214	102.5
528.429	89.5
528.644	107.5
528.859	73.5
529.074	89.5
529.289	106.5
529.503	140.5
529.718	93.5
529.933	107.5
530.148	80.5
530.363	92.5
530.577	95.5
530.792	94.5
531.007	95.5
531.221	91.5
531.436	95.5
531.651	98.5
531.865	83.5
532.08	90.5
532.295	95.5
532.509	91.5
532.724	103.5
532.938	87.5
533.153	102.5
533.367	95.5
533.582	99.5
533.796	85.5
534.011	94.5
534.225	89.5
534.44	102.5
534.654	112.5
534.868	87.5
535.083	87.5
535.297	93.5
535.511	108.5
535.726	105.5
