Data from Circ_1982_H10_HRD10591_00015.txt Node
Date: Wed Jan 03 12:30:44 EST 2024
User: Yrep
Spectrometer: HR+D1059
Trigger mode: 1
Integration Time (sec): 1.000000E-1
Scans to average: 1
Electric dark correction enabled: true
Nonlinearity correction enabled: false
Boxcar width: 0
XAxis mode: Wavelengths
Number of Pixels in Spectrum: 2048
>>>>>Begin Spectral Data<<<<<
223.165	-11
223.4	-11
223.635	-11
223.869	-19
224.104	-34
224.338	-21
224.573	-19
224.808	-19
225.042	1
225.277	-2
225.511	-10
225.746	5
225.98	22
226.215	10
226.449	10
226.683	26
226.918	34
227.152	27
227.387	29
227.621	30
227.856	47
228.09	45
228.324	47
228.559	57
228.793	62
229.027	64
229.262	72
229.496	72
229.73	72
229.964	91
230.199	77
230.433	71
230.667	65
230.901	75
231.136	64
231.37	72
231.604	84
231.838	94
232.072	74
232.306	73
232.541	84
232.775	74
233.009	74
233.243	74
233.477	83
233.711	79
233.945	92
234.179	74
234.413	75
234.647	77
234.881	84
235.115	86
235.349	89
235.583	76
235.817	69
236.051	81
236.285	71
236.519	80
236.753	87
236.987	83
237.221	83
237.455	90
237.689	69
237.922	72
238.156	59
238.39	85
238.624	79
238.858	74
239.091	72
239.325	68
239.559	91
239.793	73
240.027	67
240.26	76
240.494	69
240.728	69
240.961	77
241.195	86
241.429	81
241.662	72
241.896	62
242.13	74
242.363	75
242.597	70
242.83	76
243.064	85
243.298	70
243.531	71
243.765	74
243.998	74
244.232	83
244.465	68
244.699	81
244.932	72
245.166	79
245.399	79
245.633	85
245.866	66
246.099	79
246.333	68
246.566	71
246.8	72
247.033	95
247.266	83
247.5	84
247.733	75
247.966	85
248.2	85
248.433	77
248.666	75
248.899	84
249.133	86
249.366	92
249.599	90
249.832	76
250.066	89
250.299	90
250.532	82
250.765	70
250.998	65
251.231	77
251.465	67
251.698	88
251.931	77
252.164	85
252.397	86
252.63	71
252.863	90
253.096	73
253.329	88
253.562	75
253.795	89
254.028	79
254.261	77
254.494	78
254.727	77
254.96	84
255.193	69
255.426	87
255.659	83
255.892	83
256.124	69
256.357	86
256.59	84
256.823	77
257.056	91
257.289	85
257.521	78
257.754	93
257.987	91
258.22	87
258.452	67
258.685	83
258.918	92
259.151	88
259.383	87
259.616	66
259.849	74
260.081	71
260.314	83
260.547	86
260.779	94
261.012	87
261.244	71
261.477	70
261.71	90
261.942	104
262.175	84
262.407	82
262.64	79
262.872	76
263.105	85
263.337	76
263.57	92
263.802	86
264.035	92
264.267	84
264.499	75
264.732	83
264.964	91
265.197	87
265.429	73
265.661	75
265.894	61
266.126	92
266.358	77
266.591	86
266.823	75
267.055	92
267.287	82
267.52	71
267.752	88
267.984	70
268.216	75
268.448	87
268.681	81
268.913	85
269.145	91
269.377	95
269.609	81
269.841	73
270.073	79
270.306	85
270.538	94
270.77	92
271.002	76
271.234	86
271.466	98
271.698	92
271.93	74
272.162	97
272.394	91
272.626	96
272.858	97
273.09	86
273.322	76
273.553	90
273.785	75
274.017	92
274.249	82
274.481	79
274.713	81
274.945	81
275.176	90
275.408	84
275.64	81
275.872	80
276.104	88
276.335	88
276.567	93
276.799	99
277.031	91
277.262	93
277.494	98
277.726	79
277.957	75
278.189	83
278.421	90
278.652	91
278.884	83
279.115	86
279.347	83
279.579	86
279.81	90
280.042	74
280.273	79
280.505	95
280.736	85
280.968	82
281.199	89
281.431	93
281.662	83
281.894	93
282.125	76
282.356	92
282.588	115
282.819	108
283.051	85
283.282	77
283.513	83
283.745	84
283.976	90
284.207	86
284.439	80
284.67	81
284.901	93
285.132	96
285.364	92
285.595	85
285.826	95
286.057	97
286.288	86
286.52	86
286.751	84
286.982	69
287.213	98
287.444	84
287.675	92
287.906	91
288.138	88
288.369	89
288.6	89
288.831	81
289.062	87
289.293	82
289.524	95
289.755	89
289.986	85
290.217	77
290.448	81
290.679	89
290.91	97
291.141	87
291.371	73
291.602	86
291.833	87
292.064	94
292.295	86
292.526	90
292.757	84
292.987	86
293.218	86
293.449	95
293.68	85
293.91	89
294.141	87
294.372	99
294.603	85
294.833	82
295.064	93
295.295	88
295.525	86
295.756	96
295.987	110
296.217	109
296.448	112
296.679	95
296.909	76
297.14	94
297.37	85
297.601	92
297.831	89
298.062	87
298.292	79
298.523	90
298.753	80
298.984	89
299.214	99
299.445	87
299.675	84
299.905	82
300.136	79
300.366	90
300.597	82
300.827	99
301.057	93
301.288	100
301.518	93
301.748	71
301.979	95
302.209	90
302.439	91
302.669	89
302.9	97
303.13	83
303.36	92
303.59	106
303.82	90
304.051	92
304.281	59
304.511	88
304.741	93
304.971	88
305.201	97
305.431	87
305.661	93
305.891	92
306.121	92
306.352	99
306.582	83
306.812	91
307.042	89
307.272	85
307.502	84
307.731	97
307.961	95
308.191	81
308.421	85
308.651	92
308.881	103
309.111	84
309.341	78
309.571	90
309.8	89
310.03	100
310.26	91
310.49	98
310.72	95
310.949	96
311.179	104
311.409	85
311.639	85
311.868	110
312.098	75
312.328	92
312.557	81
312.787	85
313.017	90
313.246	100
313.476	100
313.706	87
313.935	92
314.165	98
314.394	92
314.624	93
314.853	93
315.083	84
315.312	84
315.542	93
315.771	91
316.001	84
316.23	88
316.46	73
316.689	91
316.919	102
317.148	83
317.377	90
317.607	91
317.836	89
318.065	84
318.295	90
318.524	91
318.753	83
318.983	87
319.212	97
319.441	100
319.67	85
319.9	87
320.129	104
320.358	97
320.587	98
320.816	89
321.046	94
321.275	93
321.504	90
321.733	90
321.962	100
322.191	97
322.42	87
322.649	95
322.878	108
323.108	107
323.337	86
323.566	116
323.795	128
324.024	173
324.253	277
324.482	535
324.71	1091
324.939	1407
325.168	532
325.397	174
325.626	122
325.855	115
326.084	102
326.313	122
326.542	124
326.77	184
326.999	304
327.228	641
327.457	1105
327.686	895
327.914	274
328.143	143
328.372	124
328.6	90
328.829	106
329.058	109
329.287	99
329.515	99
329.744	95
329.972	105
330.201	105
330.43	97
330.658	90
330.887	113
331.115	91
331.344	101
331.572	91
331.801	77
332.03	91
332.258	94
332.486	83
332.715	100
332.943	105
333.172	99
333.4	95
333.629	98
333.857	103
334.085	100
334.314	103
334.542	110
334.771	113
334.999	98
335.227	90
335.455	84
335.684	95
335.912	83
336.14	86
336.369	88
336.597	85
336.825	94
337.053	98
337.281	72
337.51	103
337.738	89
337.966	87
338.194	99
338.422	104
338.65	88
338.878	97
339.106	92
339.334	78
339.562	92
339.79	89
340.018	88
340.246	98
340.474	95
340.702	92
340.93	108
341.158	89
341.386	80
341.614	96
341.842	98
342.07	90
342.298	100
342.526	85
342.754	97
342.981	79
343.209	86
343.437	98
343.665	100
343.893	89
344.12	91
344.348	97
344.576	86
344.804	99
345.031	94
345.259	99
345.487	95
345.714	102
345.942	87
346.17	97
346.397	86
346.625	92
346.853	88
347.08	93
347.308	86
347.535	100
347.763	96
347.99	92
348.218	88
348.445	103
348.673	87
348.9	92
349.128	88
349.355	83
349.583	99
349.81	109
350.037	99
350.265	98
350.492	87
350.72	90
350.947	88
351.174	102
351.402	108
351.629	104
351.856	105
352.083	89
352.311	97
352.538	99
352.765	101
352.992	92
353.22	101
353.447	89
353.674	98
353.901	87
354.128	96
354.355	96
354.583	86
354.81	87
355.037	88
355.264	85
355.491	89
355.718	93
355.945	89
356.172	93
356.399	97
356.626	90
356.853	100
357.08	88
357.307	85
357.534	92
357.761	98
357.988	96
358.215	105
358.441	82
358.668	97
358.895	82
359.122	92
359.349	76
359.576	92
359.802	82
360.029	100
360.256	98
360.483	91
360.709	95
360.936	73
361.163	94
361.39	81
361.616	95
361.843	95
362.07	83
362.296	82
362.523	88
362.749	80
362.976	76
363.203	91
363.429	95
363.656	88
363.882	80
364.109	81
364.335	77
364.562	83
364.788	73
365.015	89
365.241	98
365.468	99
365.694	95
365.92	104
366.147	88
366.373	87
366.599	78
366.826	96
367.052	90
367.278	82
367.505	88
367.731	88
367.957	87
368.184	84
368.41	93
368.636	99
368.862	109
369.089	104
369.315	75
369.541	93
369.767	91
369.993	99
370.219	91
370.445	80
370.672	87
370.898	76
371.124	87
371.35	89
371.576	87
371.802	88
372.028	98
372.254	95
372.48	84
372.706	96
372.932	83
373.158	85
373.384	96
373.61	96
373.835	97
374.061	77
374.287	95
374.513	99
374.739	82
374.965	91
375.191	95
375.416	89
375.642	99
375.868	84
376.094	107
376.319	79
376.545	91
376.771	86
376.997	97
377.222	83
377.448	95
377.674	79
377.899	101
378.125	88
378.35	88
378.576	92
378.802	102
379.027	97
379.253	92
379.478	82
379.704	87
379.929	83
380.155	105
380.38	87
380.606	103
380.831	84
381.057	99
381.282	92
381.507	98
381.733	91
381.958	96
382.184	104
382.409	93
382.634	98
382.86	99
383.085	87
383.31	102
383.535	95
383.761	101
383.986	112
384.211	105
384.436	100
384.662	105
384.887	99
385.112	109
385.337	106
385.562	91
385.787	104
386.013	118
386.238	119
386.463	106
386.688	121
386.913	119
387.138	108
387.363	108
387.588	100
387.813	103
388.038	103
388.263	122
388.488	101
388.713	101
388.938	91
389.163	100
389.387	91
389.612	86
389.837	89
390.062	90
390.287	80
390.512	82
390.736	85
390.961	96
391.186	87
391.411	95
391.636	89
391.86	76
392.085	82
392.31	89
392.534	85
392.759	83
392.984	90
393.208	86
393.433	119
393.658	84
393.882	80
394.107	85
394.331	86
394.556	86
394.78	88
395.005	81
395.229	67
395.454	105
395.678	85
395.903	87
396.127	96
396.352	87
396.576	93
396.801	82
397.025	95
397.249	87
397.474	90
397.698	88
397.922	84
398.147	90
398.371	85
398.595	84
398.82	75
399.044	69
399.268	87
399.492	88
399.717	86
399.941	87
400.165	89
400.389	90
400.613	82
400.837	92
401.062	89
401.286	98
401.51	74
401.734	63
401.958	95
402.182	97
402.406	120
402.63	88
402.854	74
403.078	89
403.302	82
403.526	83
403.75	79
403.974	84
404.198	86
404.422	93
404.645	92
404.869	89
405.093	92
405.317	92
405.541	99
405.765	91
405.988	109
406.212	137
406.436	139
406.66	129
406.883	89
407.107	96
407.331	89
407.555	103
407.778	87
408.002	85
408.226	89
408.449	91
408.673	91
408.896	94
409.12	107
409.344	84
409.567	85
409.791	87
410.014	95
410.238	88
410.461	89
410.685	100
410.908	100
411.132	98
411.355	73
411.578	105
411.802	83
412.025	89
412.249	82
412.472	84
412.695	82
412.919	85
413.142	89
413.365	98
413.589	104
413.812	92
414.035	96
414.258	71
414.482	92
414.705	88
414.928	97
415.151	104
415.374	96
415.597	87
415.821	90
416.044	89
416.267	92
416.49	92
416.713	90
416.936	77
417.159	84
417.382	88
417.605	73
417.828	87
418.051	98
418.274	102
418.497	99
418.72	87
418.943	89
419.166	80
419.389	87
419.611	87
419.834	94
420.057	92
420.28	84
420.503	87
420.726	89
420.948	82
421.171	99
421.394	98
421.617	92
421.839	85
422.062	91
422.285	100
422.507	95
422.73	93
422.953	95
423.175	93
423.398	95
423.621	99
423.843	88
424.066	74
424.288	77
424.511	105
424.733	75
424.956	91
425.178	97
425.401	89
425.623	98
425.846	83
426.068	76
426.291	95
426.513	75
426.735	81
426.958	99
427.18	89
427.402	100
427.625	133
427.847	110
428.069	95
428.292	79
428.514	85
428.736	77
428.958	84
429.181	80
429.403	83
429.625	82
429.847	88
430.069	79
430.292	94
430.514	83
430.736	80
430.958	74
431.18	94
431.402	85
431.624	66
431.846	88
432.068	89
432.29	89
432.512	88
432.734	80
432.956	81
433.178	101
433.4	84
433.622	97
433.844	81
434.066	87
434.287	100
434.509	88
434.731	79
434.953	77
435.175	87
435.397	85
435.618	79
435.84	93
436.062	97
436.284	103
436.505	97
436.727	81
436.949	90
437.17	76
437.392	80
437.614	97
437.835	113
438.057	102
438.278	85
438.5	91
438.721	109
438.943	84
439.165	74
439.386	81
439.608	95
439.829	84
440.05	103
440.272	111
440.493	85
440.715	76
440.936	95
441.158	93
441.379	81
441.6	101
441.822	108
442.043	89
442.264	97
442.486	88
442.707	80
442.928	97
443.149	116
443.371	100
443.592	104
443.813	99
444.034	109
444.255	95
444.476	92
444.698	87
444.919	94
445.14	123
445.361	111
445.582	107
445.803	103
446.024	102
446.245	111
446.466	104
446.687	83
446.908	93
447.129	98
447.35	83
447.571	87
447.792	90
448.013	96
448.234	96
448.455	96
448.675	99
448.896	95
449.117	88
449.338	97
449.559	122
449.779	121
450	94
450.221	95
450.442	82
450.662	81
450.883	101
451.104	99
451.324	75
451.545	97
451.766	88
451.986	75
452.207	89
452.428	95
452.648	85
452.869	97
453.089	92
453.31	92
453.53	87
453.751	89
453.971	97
454.192	89
454.412	68
454.633	80
454.853	84
455.073	89
455.294	77
455.514	88
455.734	97
455.955	83
456.175	98
456.395	88
456.616	83
456.836	94
457.056	75
457.276	82
457.497	77
457.717	83
457.937	73
458.157	89
458.377	82
458.598	93
458.818	117
459.038	133
459.258	87
459.478	96
459.698	89
459.918	92
460.138	84
460.358	91
460.578	80
460.798	88
461.018	82
461.238	79
461.458	65
461.678	91
461.898	89
462.118	89
462.338	89
462.558	83
462.777	85
462.997	84
463.217	92
463.437	66
463.657	85
463.876	86
464.096	92
464.316	93
464.536	89
464.755	95
464.975	117
465.195	124
465.414	125
465.634	89
465.854	84
466.073	95
466.293	92
466.512	97
466.732	102
466.951	92
467.171	91
467.391	76
467.61	88
467.829	102
468.049	95
468.268	95
468.488	87
468.707	95
468.927	97
469.146	95
469.365	80
469.585	82
469.804	91
470.023	79
470.243	87
470.462	97
470.681	99
470.901	82
471.12	70
471.339	78
471.558	94
471.777	84
471.997	79
472.216	95
472.435	116
472.654	92
472.873	88
473.092	76
473.311	85
473.53	78
473.749	99
473.968	104
474.187	94
474.406	89
474.625	96
474.844	93
475.063	87
475.282	88
475.501	76
475.72	79
475.939	85
476.158	93
476.377	73
476.596	83
476.814	93
477.033	108
477.252	99
477.471	96
477.69	89
477.908	83
478.127	97
478.346	76
478.564	97
478.783	89
479.002	88
479.22	100
479.439	87
479.658	92
479.876	90
480.095	86
480.313	104
480.532	89
480.751	84
480.969	96
481.188	139
481.406	105
481.624	95
481.843	77
482.061	89
482.28	97
482.498	99
482.717	80
482.935	81
483.153	93
483.372	83
483.59	83
483.808	85
484.027	84
484.245	98
484.463	98
484.681	99
484.9	88
485.118	79
485.336	91
485.554	94
485.772	98
485.99	101
486.209	101
486.427	99
486.645	104
486.863	96
487.081	94
487.299	91
487.517	107
487.735	97
487.953	91
488.171	87
488.389	101
488.607	92
488.825	95
489.043	80
489.261	92
489.479	95
489.696	91
489.914	89
490.132	75
490.35	96
490.568	79
490.786	87
491.003	72
491.221	99
491.439	96
491.657	99
491.874	93
492.092	96
492.31	84
492.527	89
492.745	90
492.963	87
493.18	100
493.398	96
493.615	96
493.833	97
494.05	97
494.268	91
494.485	90
494.703	86
494.92	84
495.138	84
495.355	91
495.573	93
495.79	91
496.008	100
496.225	91
496.442	76
496.66	92
496.877	87
497.094	96
497.312	86
497.529	104
497.746	86
497.963	84
498.181	87
498.398	91
498.615	88
498.832	90
499.049	84
499.267	103
499.484	81
499.701	92
499.918	85
500.135	94
500.352	98
500.569	88
500.786	95
501.003	89
501.22	80
501.437	85
501.654	94
501.871	97
502.088	95
502.305	81
502.522	82
502.739	74
502.956	89
503.172	84
503.389	96
503.606	101
503.823	93
504.04	85
504.256	78
504.473	97
504.69	94
504.907	92
505.123	82
505.34	80
505.557	90
505.773	83
505.99	73
506.207	81
506.423	85
506.64	79
506.856	91
507.073	88
507.289	91
507.506	95
507.722	108
507.939	92
508.155	112
508.372	82
508.588	105
508.805	99
509.021	100
509.238	84
509.454	103
509.67	84
509.887	105
510.103	114
510.319	160
510.536	520
510.752	1451
510.968	434
511.184	129
511.401	101
511.617	92
511.833	88
512.049	87
512.265	90
512.481	94
512.698	92
512.914	102
513.13	99
513.346	82
513.562	83
513.778	91
513.994	88
514.21	109
514.426	115
514.642	116
514.858	108
515.074	129
515.29	298
515.506	878
515.721	342
515.937	124
516.153	104
516.369	109
516.585	122
516.801	100
517.016	105
517.232	99
517.448	85
517.664	110
517.879	92
518.095	98
518.311	105
518.527	107
518.742	101
518.958	90
519.173	93
519.389	105
519.605	91
519.82	102
520.036	96
520.251	99
520.467	94
520.682	94
520.898	96
521.113	93
521.329	113
521.544	146
521.76	343
521.975	1383
522.19	841
522.406	228
522.621	123
522.836	89
523.052	95
523.267	81
523.482	93
523.698	109
523.913	109
524.128	98
524.343	92
524.559	102
524.774	90
524.989	76
525.204	96
525.419	81
525.634	98
525.849	93
526.064	82
526.28	89
526.495	91
526.71	71
526.925	94
527.14	76
527.355	95
527.57	99
527.785	83
527.999	95
528.214	113
528.429	110
528.644	77
528.859	94
529.074	87
529.289	92
529.503	119
529.718	91
529.933	93
530.148	89
530.363	80
530.577	72
530.792	77
531.007	103
531.221	87
531.436	97
531.651	89
531.865	92
532.08	78
532.295	95
532.509	80
532.724	89
532.938	81
533.153	77
533.367	99
533.582	89
533.796	87
534.011	102
534.225	79
534.44	75
534.654	100
534.868	90
535.083	98
535.297	99
535.511	109
535.726	111
535.94	101
536.154	95
536.369	85
536.583	84
536.797	98
537.011	88
537.225	95
537.44	90
537.654	98
537.868	89
538.082	86
538.296	81
538.51	97
538.724	94
538.938	88
539.153	95
539.367	103
539.581	91
539.795	97
540.009	90
540.222	91
540.436	101
540.65	92
540.864	91
541.078	102
541.292	98
541.506	95
541.72	93
541.934	87
542.147	88
542.361	85
542.575	88
542.789	91
543.002	80
543.216	90
543.43	89
543.644	93
543.857	98
544.071	81
544.285	86
544.498	94
544.712	98
544.925	92
545.139	97
545.352	88
545.566	93
545.779	98
545.993	103
546.206	79
546.42	87
546.633	86
546.847	88
547.06	101
547.274	93
547.487	104
547.7	88
547.914	85
548.127	86
548.34	84
548.554	94
548.767	97
548.98	74
549.193	93
549.407	96
549.62	97
549.833	82
550.046	98
550.259	88
550.473	96
550.686	88
550.899	94
551.112	75
551.325	103
551.538	93
551.751	80
551.964	85
552.177	82
552.39	86
552.603	88
552.816	83
553.029	92
553.242	82
553.455	104
553.667	94
553.88	97
554.093	89
554.306	85
554.519	92
554.732	109
554.944	83
555.157	94
555.37	88
555.583	87
555.795	101
556.008	89
556.221	98
556.433	83
556.646	90
556.859	91
557.071	94
557.284	95
557.496	91
557.709	95
557.921	106
558.134	88
558.346	101
558.559	97
558.771	98
558.984	92
559.196	98
559.409	81
559.621	76
559.833	88
560.046	87
560.258	68
560.47	98
560.683	86
560.895	89
561.107	89
561.32	97
561.532	87
561.744	93
561.956	96
562.168	83
562.381	74
562.593	94
562.805	104
563.017	103
563.229	91
563.441	92
563.653	79
563.865	107
564.077	84
564.289	99
564.501	94
564.713	92
564.925	89
565.137	106
565.349	86
565.561	101
565.773	82
565.985	91
566.197	97
566.408	98
566.62	71
566.832	95
567.044	86
567.255	84
567.467	76
567.679	95
567.891	83
568.102	100
568.314	79
568.526	89
568.737	84
568.949	90
569.161	91
569.372	87
569.584	82
569.795	92
570.007	103
570.218	182
570.43	117
570.641	87
570.853	79
571.064	83
571.276	87
571.487	84
571.698	100
571.91	87
572.121	87
572.333	82
572.544	67
572.755	87
572.966	88
573.178	90
573.389	87
573.6	96
573.811	96
574.023	93
574.234	92
574.445	80
574.656	84
574.867	92
575.078	75
575.289	94
575.501	87
575.712	93
575.923	83
576.134	89
576.345	79
576.556	84
576.767	104
576.978	102
577.188	93
577.399	92
577.61	83
577.821	99
578.032	108
578.243	214
578.454	469
578.665	154
578.875	91
579.086	96
579.297	99
579.508	101
579.718	83
579.929	79
580.14	80
580.35	82
580.561	91
580.772	81
580.982	95
581.193	90
581.403	85
581.614	88
581.825	100
582.035	97
582.246	84
582.456	95
582.667	89
582.877	89
583.087	93
583.298	72
583.508	87
583.719	77
583.929	92
584.139	90
584.35	81
584.56	97
584.77	81
584.981	80
585.191	93
585.401	96
585.611	100
585.821	97
586.032	90
586.242	81
586.452	83
