Data from Circ_1982_H10_HRD10591_00027.txt Node
Date: Wed Jan 03 12:30:46 EST 2024
User: Yrep
Spectrometer: HR+D1059
Trigger mode: 1
Integration Time (sec): 1.000000E-1
Scans to average: 1
Electric dark correction enabled: true
Nonlinearity correction enabled: false
Boxcar width: 0
XAxis mode: Wavelengths
Number of Pixels in Spectrum: 2048
>>>>>Begin Spectral Data<<<<<
223.165	-16.5
223.4	-16.5
223.635	-16.5
223.869	-19.5
224.104	-17.5
224.338	-7.5
224.573	-17.5
224.808	-7.5
225.042	-16.5
225.277	-7.5
225.511	-3.5
225.746	7.5
225.98	5.5
226.215	8.5
226.449	12.5
226.683	18.5
226.918	37.5
227.152	23.5
227.387	36.5
227.621	43.5
227.856	35.5
228.09	48.5
228.324	47.5
228.559	64.5
228.793	55.5
229.027	65.5
229.262	51.5
229.496	86.5
229.73	79.5
229.964	84.5
230.199	77.5
230.433	67.5
230.667	82.5
230.901	74.5
231.136	85.5
231.37	79.5
231.604	82.5
231.838	91.5
232.072	83.5
232.306	72.5
232.541	72.5
232.775	69.5
233.009	76.5
233.243	79.5
233.477	72.5
233.711	87.5
233.945	73.5
234.179	77.5
234.413	60.5
234.647	75.5
234.881	85.5
235.115	80.5
235.349	65.5
235.583	79.5
235.817	70.5
236.051	80.5
236.285	73.5
236.519	77.5
236.753	74.5
236.987	88.5
237.221	67.5
237.455	76.5
237.689	71.5
237.922	83.5
238.156	72.5
238.39	79.5
238.624	66.5
238.858	79.5
239.091	74.5
239.325	89.5
239.559	89.5
239.793	76.5
240.027	76.5
240.26	89.5
240.494	77.5
240.728	76.5
240.961	69.5
241.195	89.5
241.429	79.5
241.662	75.5
241.896	79.5
242.13	67.5
242.363	70.5
242.597	83.5
242.83	80.5
243.064	82.5
243.298	85.5
243.531	82.5
243.765	76.5
243.998	62.5
244.232	72.5
244.465	72.5
244.699	76.5
244.932	67.5
245.166	79.5
245.399	75.5
245.633	69.5
245.866	85.5
246.099	78.5
246.333	74.5
246.566	83.5
246.8	91.5
247.033	83.5
247.266	83.5
247.5	83.5
247.733	79.5
247.966	95.5
248.2	80.5
248.433	59.5
248.666	66.5
248.899	80.5
249.133	83.5
249.366	77.5
249.599	87.5
249.832	80.5
250.066	78.5
250.299	73.5
250.532	75.5
250.765	83.5
250.998	85.5
251.231	87.5
251.465	81.5
251.698	82.5
251.931	85.5
252.164	84.5
252.397	76.5
252.63	91.5
252.863	79.5
253.096	72.5
253.329	76.5
253.562	83.5
253.795	83.5
254.028	68.5
254.261	80.5
254.494	82.5
254.727	89.5
254.96	92.5
255.193	71.5
255.426	86.5
255.659	81.5
255.892	90.5
256.124	75.5
256.357	92.5
256.59	82.5
256.823	85.5
257.056	64.5
257.289	77.5
257.521	73.5
257.754	82.5
257.987	84.5
258.22	80.5
258.452	84.5
258.685	84.5
258.918	69.5
259.151	81.5
259.383	83.5
259.616	89.5
259.849	85.5
260.081	79.5
260.314	77.5
260.547	72.5
260.779	74.5
261.012	63.5
261.244	80.5
261.477	86.5
261.71	84.5
261.942	104.5
262.175	105.5
262.407	93.5
262.64	82.5
262.872	66.5
263.105	85.5
263.337	92.5
263.57	81.5
263.802	93.5
264.035	87.5
264.267	63.5
264.499	81.5
264.732	76.5
264.964	79.5
265.197	65.5
265.429	95.5
265.661	85.5
265.894	79.5
266.126	84.5
266.358	83.5
266.591	72.5
266.823	70.5
267.055	75.5
267.287	71.5
267.52	77.5
267.752	85.5
267.984	90.5
268.216	85.5
268.448	74.5
268.681	84.5
268.913	61.5
269.145	88.5
269.377	81.5
269.609	73.5
269.841	81.5
270.073	82.5
270.306	89.5
270.538	92.5
270.77	83.5
271.002	71.5
271.234	79.5
271.466	79.5
271.698	89.5
271.93	85.5
272.162	83.5
272.394	72.5
272.626	85.5
272.858	95.5
273.09	82.5
273.322	76.5
273.553	68.5
273.785	71.5
274.017	87.5
274.249	71.5
274.481	78.5
274.713	95.5
274.945	85.5
275.176	80.5
275.408	90.5
275.64	79.5
275.872	86.5
276.104	85.5
276.335	85.5
276.567	90.5
276.799	96.5
277.031	95.5
277.262	86.5
277.494	84.5
277.726	97.5
277.957	79.5
278.189	83.5
278.421	96.5
278.652	79.5
278.884	76.5
279.115	69.5
279.347	88.5
279.579	75.5
279.81	75.5
280.042	83.5
280.273	91.5
280.505	92.5
280.736	92.5
280.968	83.5
281.199	79.5
281.431	80.5
281.662	82.5
281.894	96.5
282.125	102.5
282.356	106.5
282.588	130.5
282.819	103.5
283.051	83.5
283.282	76.5
283.513	76.5
283.745	80.5
283.976	82.5
284.207	81.5
284.439	77.5
284.67	89.5
284.901	80.5
285.132	82.5
285.364	76.5
285.595	85.5
285.826	82.5
286.057	83.5
286.288	101.5
286.52	96.5
286.751	87.5
286.982	103.5
287.213	87.5
287.444	70.5
287.675	89.5
287.906	92.5
288.138	87.5
288.369	107.5
288.6	101.5
288.831	95.5
289.062	98.5
289.293	93.5
289.524	89.5
289.755	94.5
289.986	85.5
290.217	94.5
290.448	83.5
290.679	87.5
290.91	87.5
291.141	75.5
291.371	81.5
291.602	82.5
291.833	87.5
292.064	95.5
292.295	87.5
292.526	101.5
292.757	75.5
292.987	84.5
293.218	90.5
293.449	81.5
293.68	89.5
293.91	88.5
294.141	84.5
294.372	78.5
294.603	81.5
294.833	92.5
295.064	80.5
295.295	83.5
295.525	99.5
295.756	101.5
295.987	113.5
296.217	115.5
296.448	116.5
296.679	109.5
296.909	72.5
297.14	98.5
297.37	88.5
297.601	91.5
297.831	92.5
298.062	99.5
298.292	103.5
298.523	90.5
298.753	92.5
298.984	97.5
299.214	99.5
299.445	79.5
299.675	84.5
299.905	96.5
300.136	77.5
300.366	84.5
300.597	90.5
300.827	88.5
301.057	84.5
301.288	94.5
301.518	98.5
301.748	84.5
301.979	99.5
302.209	94.5
302.439	85.5
302.669	100.5
302.9	89.5
303.13	93.5
303.36	89.5
303.59	92.5
303.82	99.5
304.051	87.5
304.281	79.5
304.511	89.5
304.741	84.5
304.971	98.5
305.201	89.5
305.431	82.5
305.661	80.5
305.891	83.5
306.121	95.5
306.352	102.5
306.582	97.5
306.812	95.5
307.042	95.5
307.272	72.5
307.502	86.5
307.731	85.5
307.961	96.5
308.191	91.5
308.421	99.5
308.651	103.5
308.881	99.5
309.111	82.5
309.341	92.5
309.571	92.5
309.8	78.5
310.03	80.5
310.26	96.5
310.49	89.5
310.72	87.5
310.949	107.5
311.179	68.5
311.409	90.5
311.639	91.5
311.868	86.5
312.098	90.5
312.328	76.5
312.557	99.5
312.787	87.5
313.017	88.5
313.246	87.5
313.476	84.5
313.706	65.5
313.935	97.5
314.165	92.5
314.394	90.5
314.624	81.5
314.853	86.5
315.083	83.5
315.312	92.5
315.542	93.5
315.771	85.5
316.001	108.5
316.23	85.5
316.46	93.5
316.689	99.5
316.919	87.5
317.148	83.5
317.377	95.5
317.607	97.5
317.836	72.5
318.065	87.5
318.295	89.5
318.524	84.5
318.753	81.5
318.983	98.5
319.212	96.5
319.441	102.5
319.67	105.5
319.9	97.5
320.129	91.5
320.358	93.5
320.587	93.5
320.816	89.5
321.046	88.5
321.275	93.5
321.504	79.5
321.733	99.5
321.962	93.5
322.191	98.5
322.42	99.5
322.649	111.5
322.878	101.5
323.108	100.5
323.337	106.5
323.566	107.5
323.795	120.5
324.024	160.5
324.253	289.5
324.482	592.5
324.71	1195.5
324.939	1552.5
325.168	583.5
325.397	191.5
325.626	120.5
325.855	108.5
326.084	111.5
326.313	109.5
326.542	120.5
326.77	185.5
326.999	346.5
327.228	653.5
327.457	1192.5
327.686	953.5
327.914	267.5
328.143	153.5
328.372	135.5
328.6	97.5
328.829	124.5
329.058	109.5
329.287	123.5
329.515	101.5
329.744	100.5
329.972	98.5
330.201	97.5
330.43	116.5
330.658	97.5
330.887	121.5
331.115	102.5
331.344	87.5
331.572	87.5
331.801	84.5
332.03	90.5
332.258	103.5
332.486	94.5
332.715	79.5
332.943	82.5
333.172	77.5
333.4	79.5
333.629	97.5
333.857	100.5
334.085	111.5
334.314	91.5
334.542	124.5
334.771	123.5
334.999	83.5
335.227	107.5
335.455	98.5
335.684	83.5
335.912	92.5
336.14	104.5
336.369	115.5
336.597	99.5
336.825	81.5
337.053	97.5
337.281	105.5
337.51	103.5
337.738	87.5
337.966	93.5
338.194	98.5
338.422	89.5
338.65	108.5
338.878	92.5
339.106	94.5
339.334	96.5
339.562	88.5
339.79	86.5
340.018	100.5
340.246	97.5
340.474	91.5
340.702	79.5
340.93	92.5
341.158	106.5
341.386	98.5
341.614	83.5
341.842	96.5
342.07	100.5
342.298	95.5
342.526	74.5
342.754	101.5
342.981	79.5
343.209	87.5
343.437	103.5
343.665	88.5
343.893	95.5
344.12	94.5
344.348	97.5
344.576	74.5
344.804	92.5
345.031	96.5
345.259	94.5
345.487	91.5
345.714	93.5
345.942	97.5
346.17	105.5
346.397	91.5
346.625	91.5
346.853	106.5
347.08	85.5
347.308	85.5
347.535	93.5
347.763	98.5
347.99	102.5
348.218	91.5
348.445	101.5
348.673	83.5
348.9	93.5
349.128	93.5
349.355	70.5
349.583	92.5
349.81	83.5
350.037	96.5
350.265	81.5
350.492	97.5
350.72	96.5
350.947	82.5
351.174	110.5
351.402	88.5
351.629	106.5
351.856	104.5
352.083	84.5
352.311	93.5
352.538	111.5
352.765	112.5
352.992	105.5
353.22	103.5
353.447	107.5
353.674	107.5
353.901	87.5
354.128	97.5
354.355	88.5
354.583	97.5
354.81	106.5
355.037	85.5
355.264	95.5
355.491	100.5
355.718	80.5
355.945	81.5
356.172	99.5
356.399	98.5
356.626	96.5
356.853	95.5
357.08	100.5
357.307	81.5
357.534	96.5
357.761	88.5
357.988	111.5
358.215	97.5
358.441	104.5
358.668	88.5
358.895	90.5
359.122	89.5
359.349	82.5
359.576	97.5
359.802	107.5
360.029	105.5
360.256	104.5
360.483	104.5
360.709	77.5
360.936	109.5
361.163	104.5
361.39	82.5
361.616	89.5
361.843	79.5
362.07	89.5
362.296	90.5
362.523	101.5
362.749	94.5
362.976	87.5
363.203	93.5
363.429	74.5
363.656	74.5
363.882	85.5
364.109	99.5
364.335	99.5
364.562	103.5
364.788	79.5
365.015	95.5
365.241	100.5
365.468	114.5
365.694	101.5
365.92	85.5
366.147	85.5
366.373	88.5
366.599	94.5
366.826	68.5
367.052	89.5
367.278	81.5
367.505	91.5
367.731	83.5
367.957	89.5
368.184	99.5
368.41	94.5
368.636	97.5
368.862	117.5
369.089	96.5
369.315	86.5
369.541	96.5
369.767	103.5
369.993	95.5
370.219	87.5
370.445	91.5
370.672	79.5
370.898	99.5
371.124	91.5
371.35	88.5
371.576	93.5
371.802	96.5
372.028	73.5
372.254	84.5
372.48	96.5
372.706	87.5
372.932	92.5
373.158	92.5
373.384	89.5
373.61	82.5
373.835	93.5
374.061	102.5
374.287	78.5
374.513	97.5
374.739	90.5
374.965	95.5
375.191	92.5
375.416	101.5
375.642	97.5
375.868	85.5
376.094	94.5
376.319	93.5
376.545	91.5
376.771	83.5
376.997	85.5
377.222	91.5
377.448	90.5
377.674	94.5
377.899	92.5
378.125	87.5
378.35	81.5
378.576	92.5
378.802	90.5
379.027	88.5
379.253	105.5
379.478	106.5
379.704	92.5
379.929	98.5
380.155	103.5
380.38	80.5
380.606	85.5
380.831	75.5
381.057	89.5
381.282	85.5
381.507	89.5
381.733	101.5
381.958	87.5
382.184	101.5
382.409	85.5
382.634	92.5
382.86	99.5
383.085	109.5
383.31	109.5
383.535	101.5
383.761	95.5
383.986	98.5
384.211	82.5
384.436	99.5
384.662	104.5
384.887	107.5
385.112	107.5
385.337	100.5
385.562	95.5
385.787	103.5
386.013	110.5
386.238	118.5
386.463	96.5
386.688	105.5
386.913	98.5
387.138	97.5
387.363	104.5
387.588	103.5
387.813	98.5
388.038	89.5
388.263	112.5
388.488	105.5
388.713	91.5
388.938	89.5
389.163	93.5
389.387	98.5
389.612	93.5
389.837	82.5
390.062	81.5
390.287	88.5
390.512	96.5
390.736	98.5
390.961	88.5
391.186	99.5
391.411	87.5
391.636	87.5
391.86	89.5
392.085	60.5
392.31	76.5
392.534	81.5
392.759	88.5
392.984	87.5
393.208	86.5
393.433	90.5
393.658	101.5
393.882	75.5
394.107	77.5
394.331	89.5
394.556	91.5
394.78	91.5
395.005	99.5
395.229	91.5
395.454	90.5
395.678	85.5
395.903	97.5
396.127	96.5
396.352	81.5
396.576	100.5
396.801	94.5
397.025	96.5
397.249	90.5
397.474	87.5
397.698	103.5
397.922	89.5
398.147	81.5
398.371	84.5
398.595	83.5
398.82	85.5
399.044	88.5
399.268	103.5
399.492	87.5
399.717	80.5
399.941	85.5
400.165	95.5
400.389	83.5
400.613	83.5
400.837	77.5
401.062	90.5
401.286	91.5
401.51	93.5
401.734	88.5
401.958	89.5
402.182	97.5
402.406	122.5
402.63	102.5
402.854	95.5
403.078	92.5
403.302	94.5
403.526	92.5
403.75	76.5
403.974	98.5
404.198	72.5
404.422	94.5
404.645	85.5
404.869	85.5
405.093	105.5
405.317	97.5
405.541	97.5
405.765	93.5
405.988	89.5
406.212	145.5
406.436	178.5
406.66	126.5
406.883	94.5
407.107	97.5
407.331	99.5
407.555	97.5
407.778	75.5
408.002	86.5
408.226	100.5
408.449	87.5
408.673	85.5
408.896	107.5
409.12	104.5
409.344	76.5
409.567	86.5
409.791	92.5
410.014	87.5
410.238	91.5
410.461	100.5
410.685	93.5
410.908	90.5
411.132	96.5
411.355	93.5
411.578	88.5
411.802	87.5
412.025	79.5
412.249	97.5
412.472	85.5
412.695	77.5
412.919	83.5
413.142	96.5
413.365	107.5
413.589	91.5
413.812	74.5
414.035	85.5
414.258	88.5
414.482	87.5
414.705	76.5
414.928	90.5
415.151	87.5
415.374	94.5
415.597	86.5
415.821	95.5
416.044	82.5
416.267	93.5
416.49	87.5
416.713	92.5
416.936	90.5
417.159	94.5
417.382	84.5
417.605	96.5
417.828	94.5
418.051	91.5
418.274	74.5
418.497	95.5
418.72	89.5
418.943	91.5
419.166	94.5
419.389	79.5
419.611	88.5
419.834	80.5
420.057	81.5
420.28	71.5
420.503	93.5
420.726	83.5
420.948	99.5
421.171	95.5
421.394	90.5
421.617	86.5
421.839	87.5
422.062	107.5
422.285	93.5
422.507	101.5
422.73	95.5
422.953	97.5
423.175	74.5
423.398	67.5
423.621	75.5
423.843	87.5
424.066	83.5
424.288	95.5
424.511	91.5
424.733	107.5
424.956	102.5
425.178	85.5
425.401	107.5
425.623	79.5
425.846	92.5
426.068	101.5
426.291	102.5
426.513	79.5
426.735	89.5
426.958	84.5
427.18	95.5
427.402	113.5
427.625	125.5
427.847	105.5
428.069	115.5
428.292	93.5
428.514	92.5
428.736	85.5
428.958	84.5
429.181	78.5
429.403	90.5
429.625	94.5
429.847	95.5
430.069	103.5
430.292	103.5
430.514	79.5
430.736	87.5
430.958	83.5
431.18	92.5
431.402	73.5
431.624	93.5
431.846	86.5
432.068	83.5
432.29	84.5
432.512	89.5
432.734	88.5
432.956	90.5
433.178	82.5
433.4	92.5
433.622	107.5
433.844	103.5
434.066	91.5
434.287	103.5
434.509	84.5
434.731	95.5
434.953	101.5
435.175	90.5
435.397	77.5
435.618	76.5
435.84	95.5
436.062	97.5
436.284	106.5
436.505	91.5
436.727	87.5
436.949	80.5
437.17	92.5
437.392	82.5
437.614	89.5
437.835	101.5
438.057	102.5
438.278	85.5
438.5	95.5
438.721	105.5
438.943	107.5
439.165	93.5
439.386	86.5
439.608	82.5
439.829	86.5
440.05	112.5
440.272	128.5
440.493	94.5
440.715	75.5
440.936	73.5
441.158	91.5
441.379	91.5
441.6	89.5
441.822	88.5
442.043	88.5
442.264	101.5
442.486	105.5
442.707	93.5
442.928	106.5
443.149	107.5
443.371	116.5
443.592	81.5
443.813	98.5
444.034	94.5
444.255	94.5
444.476	87.5
444.698	86.5
444.919	89.5
445.14	150.5
445.361	114.5
445.582	100.5
445.803	111.5
446.024	107.5
446.245	121.5
446.466	110.5
446.687	80.5
446.908	92.5
447.129	83.5
447.35	76.5
447.571	103.5
447.792	95.5
448.013	95.5
448.234	107.5
448.455	106.5
448.675	114.5
448.896	107.5
449.117	85.5
449.338	96.5
449.559	125.5
449.779	109.5
450	95.5
450.221	91.5
450.442	88.5
450.662	86.5
450.883	84.5
451.104	93.5
451.324	89.5
451.545	85.5
451.766	88.5
451.986	91.5
452.207	74.5
452.428	103.5
452.648	89.5
452.869	92.5
453.089	100.5
453.31	110.5
453.53	82.5
453.751	87.5
453.971	89.5
454.192	94.5
454.412	94.5
454.633	95.5
454.853	92.5
455.073	94.5
455.294	92.5
455.514	92.5
455.734	96.5
455.955	88.5
456.175	82.5
456.395	85.5
456.616	96.5
456.836	75.5
457.056	87.5
457.276	76.5
457.497	79.5
457.717	84.5
457.937	85.5
458.157	82.5
458.377	85.5
458.598	96.5
458.818	106.5
459.038	124.5
459.258	100.5
459.478	91.5
459.698	74.5
459.918	69.5
460.138	88.5
460.358	81.5
460.578	81.5
460.798	93.5
461.018	104.5
461.238	75.5
461.458	85.5
461.678	81.5
461.898	88.5
462.118	82.5
462.338	84.5
462.558	89.5
462.777	90.5
462.997	73.5
463.217	90.5
463.437	87.5
463.657	83.5
463.876	67.5
464.096	86.5
464.316	81.5
464.536	84.5
464.755	89.5
464.975	89.5
465.195	143.5
465.414	142.5
465.634	96.5
465.854	84.5
466.073	85.5
466.293	91.5
466.512	88.5
466.732	80.5
466.951	82.5
467.171	91.5
467.391	95.5
467.61	97.5
467.829	101.5
468.049	102.5
468.268	90.5
468.488	79.5
468.707	82.5
468.927	79.5
469.146	76.5
469.365	86.5
469.585	81.5
469.804	84.5
470.023	98.5
470.243	82.5
470.462	97.5
470.681	99.5
470.901	106.5
471.12	103.5
471.339	98.5
471.558	75.5
471.777	91.5
471.997	95.5
472.216	109.5
472.435	132.5
472.654	106.5
472.873	81.5
473.092	88.5
473.311	87.5
473.53	87.5
473.749	100.5
473.968	95.5
474.187	102.5
474.406	92.5
474.625	81.5
474.844	95.5
475.063	90.5
475.282	75.5
475.501	86.5
475.72	86.5
475.939	78.5
476.158	88.5
476.377	80.5
476.596	84.5
476.814	90.5
477.033	91.5
477.252	85.5
477.471	82.5
477.69	88.5
477.908	81.5
478.127	81.5
478.346	100.5
478.564	82.5
478.783	96.5
479.002	82.5
479.22	74.5
479.439	107.5
479.658	101.5
479.876	89.5
480.095	87.5
480.313	84.5
480.532	102.5
480.751	93.5
480.969	91.5
481.188	155.5
481.406	121.5
481.624	95.5
481.843	97.5
482.061	69.5
482.28	90.5
482.498	89.5
482.717	95.5
482.935	92.5
483.153	91.5
483.372	88.5
483.59	89.5
483.808	75.5
484.027	86.5
484.245	91.5
484.463	101.5
484.681	93.5
484.9	89.5
485.118	97.5
485.336	82.5
485.554	93.5
485.772	102.5
485.99	87.5
486.209	88.5
486.427	101.5
486.645	103.5
486.863	98.5
487.081	103.5
487.299	109.5
487.517	104.5
487.735	80.5
487.953	82.5
488.171	101.5
488.389	93.5
488.607	85.5
488.825	89.5
489.043	77.5
489.261	85.5
489.479	85.5
489.696	87.5
489.914	81.5
490.132	87.5
490.35	112.5
490.568	90.5
490.786	81.5
491.003	99.5
491.221	98.5
491.439	75.5
491.657	87.5
491.874	89.5
492.092	84.5
492.31	87.5
492.527	102.5
492.745	89.5
492.963	86.5
493.18	85.5
493.398	99.5
493.615	104.5
493.833	105.5
494.05	79.5
494.268	83.5
494.485	87.5
494.703	98.5
494.92	89.5
495.138	89.5
495.355	101.5
495.573	84.5
495.79	86.5
496.008	91.5
496.225	98.5
496.442	92.5
496.66	93.5
496.877	80.5
497.094	77.5
497.312	83.5
497.529	88.5
497.746	89.5
497.963	77.5
498.181	83.5
498.398	90.5
498.615	113.5
498.832	117.5
499.049	89.5
499.267	84.5
499.484	75.5
499.701	88.5
499.918	89.5
500.135	79.5
500.352	97.5
500.569	89.5
500.786	86.5
501.003	85.5
501.22	79.5
501.437	86.5
501.654	89.5
501.871	104.5
502.088	85.5
502.305	92.5
502.522	96.5
502.739	99.5
502.956	80.5
503.172	80.5
503.389	81.5
503.606	98.5
503.823	69.5
504.04	90.5
504.256	91.5
504.473	96.5
504.69	97.5
504.907	83.5
505.123	91.5
505.34	100.5
505.557	98.5
505.773	88.5
505.99	96.5
506.207	91.5
506.423	77.5
506.64	85.5
506.856	96.5
507.073	91.5
507.289	97.5
507.506	91.5
507.722	97.5
507.939	110.5
508.155	100.5
508.372	86.5
508.588	92.5
508.805	98.5
509.021	91.5
509.238	91.5
509.454	87.5
509.67	94.5
509.887	103.5
510.103	118.5
510.319	186.5
510.536	570.5
510.752	1694.5
510.968	468.5
511.184	137.5
511.401	116.5
511.617	97.5
511.833	99.5
512.049	100.5
512.265	76.5
512.481	90.5
512.698	89.5
512.914	100.5
513.13	81.5
513.346	86.5
513.562	92.5
513.778	102.5
513.994	83.5
514.21	107.5
514.426	106.5
514.642	106.5
514.858	111.5
515.074	130.5
515.29	323.5
515.506	994.5
515.721	384.5
515.937	135.5
516.153	99.5
516.369	106.5
516.585	94.5
516.801	92.5
517.016	89.5
517.232	89.5
517.448	88.5
517.664	93.5
517.879	85.5
518.095	88.5
518.311	91.5
518.527	99.5
518.742	101.5
518.958	101.5
519.173	84.5
519.389	74.5
519.605	83.5
519.82	92.5
520.036	107.5
520.251	105.5
520.467	96.5
520.682	106.5
520.898	88.5
521.113	108.5
521.329	117.5
521.544	161.5
521.76	394.5
521.975	1646.5
522.19	979.5
522.406	235.5
522.621	111.5
522.836	87.5
523.052	95.5
523.267	86.5
523.482	83.5
523.698	90.5
523.913	112.5
524.128	99.5
524.343	96.5
524.559	95.5
524.774	93.5
524.989	103.5
525.204	95.5
525.419	96.5
525.634	92.5
525.849	79.5
526.064	87.5
526.28	88.5
526.495	81.5
526.71	89.5
526.925	77.5
527.14	95.5
527.355	82.5
527.57	86.5
527.785	89.5
527.999	75.5
528.214	83.5
528.429	94.5
528.644	92.5
528.859	85.5
529.074	100.5
529.289	103.5
529.503	143.5
529.718	94.5
529.933	79.5
530.148	80.5
530.363	84.5
530.577	85.5
530.792	97.5
531.007	81.5
531.221	83.5
531.436	87.5
531.651	94.5
531.865	87.5
532.08	96.5
532.295	99.5
532.509	92.5
532.724	103.5
532.938	81.5
533.153	102.5
533.367	88.5
533.582	96.5
533.796	103.5
534.011	95.5
534.225	92.5
534.44	112.5
534.654	91.5
534.868	106.5
535.083	99.5
535.297	97.5
535.511	91.5
535.726	85.5
535.94	85.5
536.154	86.5
536.369	80.5
