Data from Circ_1982_H10_HRD10591_00064.txt Node
Date: Wed Jan 03 12:30:54 EST 2024
User: Yrep
Spectrometer: HR+D1059
Trigger mode: 1
Integration Time (sec): 1.000000E-1
Scans to average: 1
Electric dark correction enabled: true
Nonlinearity correction enabled: false
Boxcar width: 0
XAxis mode: Wavelengths
Number of Pixels in Spectrum: 2048
>>>>>Begin Spectral Data<<<<<
223.165	-4.75
223.4	-4.75
223.635	-4.75
223.869	-24.75
224.104	-22.75
224.338	-7.75
224.573	-28.75
224.808	-9.75
225.042	-15.75
225.277	-7.75
225.511	-0.75
225.746	-5.75
225.98	8.25
226.215	29.25
226.449	19.25
226.683	12.25
226.918	26.25
227.152	33.25
227.387	32.25
227.621	43.25
227.856	43.25
228.09	39.25
228.324	51.25
228.559	55.25
228.793	154.25
229.027	415.25
229.262	493.25
229.496	574.25
229.73	729.25
229.964	747.25
230.199	520.25
230.433	437.25
230.667	469.25
230.901	455.25
231.136	422.25
231.37	451.25
231.604	426.25
231.838	438.25
232.072	456.25
232.306	440.25
232.541	447.25
232.775	472.25
233.009	454.25
233.243	480.25
233.477	468.25
233.711	488.25
233.945	519.25
234.179	517.25
234.413	523.25
234.647	513.25
234.881	511.25
235.115	517.25
235.349	535.25
235.583	561.25
235.817	570.25
236.051	616.25
236.285	596.25
236.519	605.25
236.753	705.25
236.987	860.25
237.221	1327.25
237.455	1434.25
237.689	833.25
237.922	743.25
238.156	711.25
238.39	662.25
238.624	642.25
238.858	641.25
239.091	658.25
239.325	659.25
239.559	665.25
239.793	672.25
240.027	725.25
240.26	867.25
240.494	947.25
240.728	902.25
240.961	871.25
241.195	819.25
241.429	789.25
241.662	766.25
241.896	753.25
242.13	743.25
242.363	776.25
242.597	812.25
242.83	823.25
243.064	841.25
243.298	796.25
243.531	842.25
243.765	850.25
243.998	833.25
244.232	851.25
244.465	840.25
244.699	889.25
244.932	896.25
245.166	883.25
245.399	919.25
245.633	911.25
245.866	911.25
246.099	951.25
246.333	948.25
246.566	940.25
246.8	959.25
247.033	1013.25
247.266	1021.25
247.5	1124.25
247.733	1161.25
247.966	1126.25
248.2	1119.25
248.433	1142.25
248.666	1185.25
248.899	1320.25
249.133	1462.25
249.366	1398.25
249.599	1345.25
249.832	1210.25
250.066	1205.25
250.299	1272.25
250.532	1359.25
250.765	1505.25
250.998	1702.25
251.231	1639.25
251.465	1491.25
251.698	1427.25
251.931	1432.25
252.164	1371.25
252.397	1415.25
252.63	1456.25
252.863	1539.25
253.096	1673.25
253.329	1714.25
253.562	1617.25
253.795	1542.25
254.028	1523.25
254.261	1598.25
254.494	1778.25
254.727	2062.25
254.96	2165.25
255.193	1912.25
255.426	1768.25
255.659	1651.25
255.892	1643.25
256.124	1694.25
256.357	1681.25
256.59	1633.25
256.823	1524.25
257.056	1542.25
257.289	1536.25
257.521	1539.25
257.754	1508.25
257.987	1536.25
258.22	1513.25
258.452	1548.25
258.685	1543.25
258.918	1595.25
259.151	1611.25
259.383	1653.25
259.616	1729.25
259.849	1720.25
260.081	1849.25
260.314	2066.25
260.547	1989.25
260.779	1841.25
261.012	1792.25
261.244	1724.25
261.477	1653.25
261.71	1695.25
261.942	1701.25
262.175	1716.25
262.407	1676.25
262.64	1620.25
262.872	1634.25
263.105	1629.25
263.337	1648.25
263.57	1682.25
263.802	1675.25
264.035	1649.25
264.267	1669.25
264.499	1658.25
264.732	1668.25
264.964	1657.25
265.197	1685.25
265.429	1690.25
265.661	1709.25
265.894	1712.25
266.126	1733.25
266.358	1736.25
266.591	1795.25
266.823	1844.25
267.055	1813.25
267.287	1871.25
267.52	1812.25
267.752	1849.25
267.984	1832.25
268.216	1893.25
268.448	1900.25
268.681	2001.25
268.913	2097.25
269.145	2273.25
269.377	2339.25
269.609	2285.25
269.841	2219.25
270.073	2357.25
270.306	2544.25
270.538	2722.25
270.77	2600.25
271.002	2439.25
271.234	2394.25
271.466	2538.25
271.698	2619.25
271.93	2695.25
272.162	2657.25
272.394	2579.25
272.626	2467.25
272.858	2312.25
273.09	2259.25
273.322	2230.25
273.553	2173.25
273.785	2178.25
274.017	2192.25
274.249	2238.25
274.481	2248.25
274.713	2233.25
274.945	2256.25
275.176	2296.25
275.408	2233.25
275.64	2226.25
275.872	2237.25
276.104	2282.25
276.335	2263.25
276.567	2336.25
276.799	2471.25
277.031	2698.25
277.262	2795.25
277.494	2720.25
277.726	2551.25
277.957	2429.25
278.189	2440.25
278.421	2401.25
278.652	2324.25
278.884	2351.25
279.115	2306.25
279.347	2372.25
279.579	2368.25
279.81	2331.25
280.042	2377.25
280.273	2379.25
280.505	2358.25
280.736	2391.25
280.968	2363.25
281.199	2401.25
281.431	2405.25
281.662	2428.25
281.894	2433.25
282.125	2500.25
282.356	2610.25
282.588	2772.25
282.819	2561.25
283.051	2520.25
283.282	2499.25
283.513	2527.25
283.745	2591.25
283.976	2623.25
284.207	2611.25
284.439	2618.25
284.67	2578.25
284.901	2630.25
285.132	2596.25
285.364	2551.25
285.595	2583.25
285.826	2618.25
286.057	2631.25
286.288	2636.25
286.52	2721.25
286.751	2663.25
286.982	2683.25
287.213	2690.25
287.444	2747.25
287.675	2748.25
287.906	2850.25
288.138	2924.25
288.369	2849.25
288.6	2851.25
288.831	2825.25
289.062	2812.25
289.293	2776.25
289.524	2809.25
289.755	2816.25
289.986	2772.25
290.217	2789.25
290.448	2781.25
290.679	2769.25
290.91	2792.25
291.141	2847.25
291.371	2795.25
291.602	2760.25
291.833	2759.25
292.064	2799.25
292.295	2751.25
292.526	2774.25
292.757	2802.25
292.987	2783.25
293.218	2803.25
293.449	2801.25
293.68	2783.25
293.91	2791.25
294.141	2794.25
294.372	2794.25
294.603	2891.25
294.833	2818.25
295.064	2869.25
295.295	2841.25
295.525	2826.25
295.756	2831.25
295.987	2932.25
296.217	3132.25
296.448	3027.25
296.679	2981.25
296.909	2899.25
297.14	2987.25
297.37	3017.25
297.601	3016.25
297.831	3016.25
298.062	3025.25
298.292	3027.25
298.523	3094.25
298.753	3087.25
298.984	3049.25
299.214	3075.25
299.445	3045.25
299.675	3056.25
299.905	3081.25
300.136	3080.25
300.366	3123.25
300.597	3104.25
300.827	3200.25
301.057	3338.25
301.288	3368.25
301.518	3274.25
301.748	3289.25
301.979	3355.25
302.209	3325.25
302.439	3325.25
302.669	3270.25
302.9	3211.25
303.13	3235.25
303.36	3312.25
303.59	3372.25
303.82	3326.25
304.051	3286.25
304.281	3260.25
304.511	3277.25
304.741	3227.25
304.971	3162.25
305.201	3244.25
305.431	3225.25
305.661	3210.25
305.891	3243.25
306.121	3190.25
306.352	3284.25
306.582	3277.25
306.812	3163.25
307.042	3225.25
307.272	3239.25
307.502	3202.25
307.731	3247.25
307.961	3232.25
308.191	3248.25
308.421	3252.25
308.651	3232.25
308.881	3181.25
309.111	3291.25
309.341	3271.25
309.571	3390.25
309.8	3466.25
310.03	3421.25
310.26	3468.25
310.49	3444.25
310.72	3594.25
310.949	3629.25
311.179	3645.25
311.409	3567.25
311.639	3597.25
311.868	3555.25
312.098	3554.25
312.328	3688.25
312.557	3820.25
312.787	3827.25
313.017	3745.25
313.246	3705.25
313.476	3596.25
313.706	3695.25
313.935	3754.25
314.165	3871.25
314.394	3902.25
314.624	3866.25
314.853	3753.25
315.083	3674.25
315.312	3677.25
315.542	3643.25
315.771	3627.25
316.001	3621.25
316.23	3633.25
316.46	3635.25
316.689	3654.25
316.919	3701.25
317.148	3695.25
317.377	3658.25
317.607	3667.25
317.836	3616.25
318.065	3599.25
318.295	3615.25
318.524	3613.25
318.753	3613.25
318.983	3601.25
319.212	3568.25
319.441	3685.25
319.67	3716.25
319.9	3660.25
320.129	3607.25
320.358	3611.25
320.587	3603.25
320.816	3723.25
321.046	3803.25
321.275	3733.25
321.504	3771.25
321.733	3726.25
321.962	3818.25
322.191	3827.25
322.42	3968.25
322.649	4035.25
322.878	4134.25
323.108	4132.25
323.337	4319.25
323.566	4478.25
323.795	4715.25
324.024	5118.25
324.253	6474.25
324.482	9481.25
324.71	14027.25
324.939	15629.25
325.168	10659.25
325.397	5940.25
325.626	4889.25
325.855	4670.25
326.084	4550.25
326.313	4520.25
326.542	4707.25
326.77	5171.25
326.999	6268.25
327.228	9000.25
327.457	13025.25
327.686	12240.25
327.914	6691.25
328.143	5418.25
328.372	5207.25
328.6	4964.25
328.829	4933.25
329.058	5114.25
329.287	5002.25
329.515	4745.25
329.744	4630.25
329.972	4747.25
330.201	4876.25
330.43	5200.25
330.658	5217.25
330.887	5445.25
331.115	5121.25
331.344	4845.25
331.572	4716.25
331.801	4866.25
332.03	4843.25
332.258	4821.25
332.486	4855.25
332.715	4937.25
332.943	5123.25
333.172	5292.25
333.4	5439.25
333.629	5541.25
333.857	5629.25
334.085	5635.25
334.314	5636.25
334.542	5750.25
334.771	5726.25
334.999	5289.25
335.227	5127.25
335.455	5099.25
335.684	5035.25
335.912	4926.25
336.14	4908.25
336.369	4865.25
336.597	4905.25
336.825	4805.25
337.053	4747.25
337.281	4674.25
337.51	4629.25
337.738	4628.25
337.966	4593.25
338.194	4602.25
338.422	4486.25
338.65	4472.25
338.878	4475.25
339.106	4495.25
339.334	4461.25
339.562	4353.25
339.79	4311.25
340.018	4274.25
340.246	4297.25
340.474	4351.25
340.702	4291.25
340.93	4286.25
341.158	4333.25
341.386	4269.25
341.614	4249.25
341.842	4281.25
342.07	4264.25
342.298	4321.25
342.526	4199.25
342.754	4251.25
342.981	4267.25
343.209	4392.25
343.437	4546.25
343.665	4836.25
343.893	5121.25
344.12	5088.25
344.348	4859.25
344.576	4693.25
344.804	4643.25
345.031	4548.25
345.259	4456.25
345.487	4362.25
345.714	4199.25
345.942	4191.25
346.17	4168.25
346.397	4183.25
346.625	4123.25
346.853	4077.25
347.08	4089.25
347.308	4137.25
347.535	4204.25
347.763	4246.25
347.99	4187.25
348.218	4215.25
348.445	4201.25
348.673	4151.25
348.9	4074.25
349.128	3949.25
349.355	3972.25
349.583	4029.25
349.81	3962.25
350.037	3963.25
350.265	3937.25
350.492	3983.25
350.72	3963.25
350.947	4051.25
351.174	4061.25
351.402	4132.25
351.629	4065.25
351.856	4124.25
352.083	4123.25
352.311	4122.25
352.538	4105.25
352.765	4115.25
352.992	4091.25
353.22	3982.25
353.447	3998.25
353.674	3947.25
353.901	3912.25
354.128	3916.25
354.355	3941.25
354.583	3857.25
354.81	3914.25
355.037	3933.25
355.264	3911.25
355.491	3867.25
355.718	3932.25
355.945	3884.25
356.172	3983.25
356.399	3891.25
356.626	3910.25
356.853	3948.25
357.08	3828.25
357.307	3837.25
357.534	3870.25
357.761	3914.25
357.988	3944.25
358.215	3991.25
358.441	3890.25
358.668	3912.25
358.895	4007.25
359.122	4025.25
359.349	4054.25
359.576	4141.25
359.802	4322.25
360.029	4412.25
360.256	4380.25
360.483	4201.25
360.709	4136.25
360.936	4056.25
361.163	4071.25
361.39	4119.25
361.616	4096.25
361.843	4082.25
362.07	4156.25
362.296	4128.25
362.523	4139.25
362.749	4043.25
362.976	4012.25
363.203	4006.25
363.429	3974.25
363.656	3965.25
363.882	3958.25
364.109	3954.25
364.335	3967.25
364.562	3944.25
364.788	3959.25
365.015	3949.25
365.241	3931.25
365.468	3985.25
365.694	4058.25
365.92	3973.25
366.147	3969.25
366.373	3952.25
366.599	3970.25
366.826	3893.25
367.052	3928.25
367.278	3985.25
367.505	4012.25
367.731	3995.25
367.957	4012.25
368.184	4056.25
368.41	4076.25
368.636	4178.25
368.862	4249.25
369.089	4124.25
369.315	4076.25
369.541	4059.25
369.767	4043.25
369.993	4113.25
370.219	4170.25
370.445	4159.25
370.672	4153.25
370.898	4193.25
371.124	4240.25
371.35	4256.25
371.576	4200.25
371.802	4187.25
372.028	4236.25
372.254	4239.25
372.48	4309.25
372.706	4425.25
372.932	4412.25
373.158	4424.25
373.384	4298.25
373.61	4264.25
373.835	4298.25
374.061	4331.25
374.287	4412.25
374.513	4427.25
374.739	4579.25
374.965	4704.25
375.191	4717.25
375.416	4615.25
375.642	4501.25
375.868	4490.25
376.094	4367.25
376.319	4331.25
376.545	4379.25
376.771	4316.25
376.997	4323.25
377.222	4330.25
377.448	4274.25
377.674	4296.25
377.899	4215.25
378.125	4255.25
378.35	4237.25
378.576	4189.25
378.802	4202.25
379.027	4265.25
379.253	4240.25
379.478	4151.25
379.704	4245.25
379.929	4269.25
380.155	4263.25
380.38	4245.25
380.606	4259.25
380.831	4240.25
381.057	4303.25
381.282	4291.25
381.507	4274.25
381.733	4348.25
381.958	4338.25
382.184	4407.25
382.409	4435.25
382.634	4497.25
382.86	4511.25
383.085	4546.25
383.31	4620.25
383.535	4666.25
383.761	4771.25
383.986	4773.25
384.211	4872.25
384.436	4936.25
384.662	5035.25
384.887	5094.25
385.112	5037.25
385.337	5178.25
385.562	5177.25
385.787	5217.25
386.013	5314.25
386.238	5228.25
386.463	5276.25
386.688	5219.25
386.913	5130.25
387.138	5078.25
387.363	5068.25
387.588	5076.25
387.813	5047.25
388.038	5073.25
388.263	5123.25
388.488	5154.25
388.713	5100.25
388.938	5060.25
389.163	5025.25
389.387	5036.25
389.612	5006.25
389.837	4985.25
390.062	4988.25
390.287	5013.25
390.512	4989.25
390.736	5096.25
390.961	5173.25
391.186	5255.25
391.411	5424.25
391.636	5527.25
391.86	5671.25
392.085	5761.25
392.31	5583.25
392.534	5523.25
392.759	5485.25
392.984	5340.25
393.208	5283.25
393.433	5266.25
393.658	5234.25
393.882	5329.25
394.107	5272.25
394.331	5374.25
394.556	5343.25
394.78	5403.25
395.005	5503.25
395.229	5489.25
395.454	5687.25
395.678	5799.25
395.903	5655.25
396.127	5811.25
396.352	5595.25
396.576	5451.25
396.801	5343.25
397.025	5421.25
397.249	5651.25
397.474	5810.25
397.698	5773.25
397.922	5849.25
398.147	5975.25
398.371	6067.25
398.595	6205.25
398.82	6469.25
399.044	7042.25
399.268	7831.25
399.492	8934.25
399.717	9515.25
399.941	9237.25
400.165	8551.25
400.389	7924.25
400.613	7202.25
400.837	6807.25
401.062	6560.25
401.286	6451.25
401.51	6490.25
401.734	6344.25
401.958	6547.25
402.182	6667.25
402.406	6737.25
402.63	6835.25
402.854	6915.25
403.078	6943.25
403.302	7113.25
403.526	7217.25
403.75	7249.25
403.974	7275.25
404.198	7333.25
404.422	7362.25
404.645	7314.25
404.869	7343.25
405.093	7581.25
405.317	7682.25
405.541	7669.25
405.765	7241.25
405.988	7145.25
406.212	7315.25
406.436	7411.25
406.66	7599.25
406.883	7535.25
407.107	8198.25
407.331	8827.25
407.555	9163.25
407.778	8852.25
408.002	8151.25
408.226	7779.25
408.449	7738.25
408.673	7577.25
408.896	7687.25
409.12	7808.25
409.344	7469.25
409.567	7088.25
409.791	7121.25
410.014	6948.25
410.238	6902.25
410.461	6892.25
410.685	6980.25
410.908	6947.25
411.132	7194.25
411.355	7221.25
411.578	6908.25
411.802	6713.25
412.025	6732.25
412.249	6889.25
412.472	7061.25
412.695	7089.25
412.919	6732.25
413.142	6530.25
413.365	6475.25
413.589	6507.25
413.812	6375.25
414.035	6242.25
414.258	6234.25
414.482	6346.25
414.705	6431.25
414.928	6319.25
415.151	6339.25
415.374	6280.25
415.597	6339.25
415.821	6178.25
416.044	6266.25
416.267	6179.25
416.49	6179.25
416.713	6070.25
416.936	6183.25
417.159	6196.25
417.382	6289.25
417.605	6307.25
417.828	6410.25
418.051	6580.25
418.274	6382.25
418.497	6250.25
418.72	6523.25
418.943	6409.25
419.166	6820.25
419.389	7146.25
419.611	7030.25
419.834	6905.25
420.057	6791.25
420.28	6634.25
420.503	6410.25
420.726	6524.25
420.948	6631.25
421.171	6932.25
421.394	6961.25
421.617	6492.25
421.839	6423.25
422.062	6574.25
422.285	6625.25
422.507	7311.25
422.73	7749.25
422.953	7251.25
423.175	6927.25
423.398	6952.25
423.621	6819.25
423.843	7172.25
424.066	7073.25
424.288	6967.25
424.511	7183.25
424.733	7605.25
424.956	7943.25
425.178	7567.25
425.401	7617.25
425.623	7545.25
425.846	6680.25
426.068	6504.25
426.291	6451.25
426.513	6431.25
426.735	6573.25
426.958	6956.25
427.18	7641.25
427.402	8719.25
427.625	8744.25
427.847	7477.25
428.069	6880.25
428.292	6329.25
428.514	6023.25
428.736	5891.25
428.958	5956.25
429.181	5695.25
429.403	5741.25
429.625	5983.25
429.847	6157.25
430.069	6692.25
430.292	6218.25
430.514	5766.25
430.736	5708.25
430.958	5652.25
431.18	5620.25
431.402	5604.25
431.624	5593.25
431.846	5654.25
432.068	5658.25
432.29	5820.25
432.512	5713.25
432.734	5797.25
432.956	5687.25
433.178	5752.25
433.4	5766.25
433.622	5657.25
433.844	5699.25
434.066	5702.25
434.287	5797.25
434.509	6071.25
434.731	6263.25
434.953	6347.25
435.175	6531.25
435.397	6665.25
435.618	6531.25
435.84	6848.25
436.062	7526.25
436.284	7591.25
436.505	6417.25
436.727	6095.25
436.949	5909.25
437.17	5782.25
437.392	5607.25
437.614	5875.25
437.835	6196.25
438.057	7096.25
438.278	7737.25
438.5	7627.25
438.721	8380.25
438.943	7395.25
439.165	6236.25
439.386	6111.25
439.608	6137.25
439.829	6152.25
440.05	6457.25
440.272	6801.25
440.493	6319.25
440.715	6069.25
440.936	5986.25
441.158	6095.25
441.379	6085.25
441.6	6511.25
441.822	6680.25
442.043	7137.25
442.264	7813.25
442.486	7528.25
442.707	6791.25
442.928	6601.25
443.149	6769.25
443.371	6908.25
443.592	7439.25
443.813	8388.25
444.034	8421.25
444.255	7337.25
444.476	7186.25
444.698	7419.25
444.919	7507.25
445.14	7293.25
445.361	7103.25
445.582	7255.25
445.803	7733.25
446.024	8300.25
446.245	7967.25
446.466	7188.25
446.687	6299.25
446.908	6053.25
447.129	5671.25
447.35	5611.25
447.571	5538.25
447.792	5445.25
448.013	5501.25
448.234	5671.25
448.455	6340.25
448.675	7516.25
448.896	7887.25
449.117	6584.25
449.338	6812.25
449.559	7857.25
449.779	8203.25
450	6303.25
450.221	5621.25
450.442	5434.25
450.662	5327.25
450.883	5393.25
451.104	5443.25
451.324	5321.25
451.545	5305.25
451.766	5115.25
451.986	4992.25
452.207	5020.25
452.428	4948.25
452.648	5027.25
452.869	5023.25
453.089	5059.25
453.31	5146.25
453.53	4998.25
453.751	4927.25
453.971	4919.25
454.192	5036.25
454.412	4848.25
454.633	4861.25
454.853	4806.25
455.073	4865.25
455.294	5214.25
455.514	5757.25
455.734	5263.25
455.955	4728.25
456.175	4673.25
456.395	4592.25
456.616	4600.25
456.836	4587.25
457.056	4553.25
457.276	4497.25
457.497	4689.25
457.717	4638.25
457.937	4767.25
458.157	4808.25
458.377	4872.25
458.598	5185.25
458.818	5776.25
459.038	6457.25
459.258	6413.25
459.478	5839.25
459.698	5741.25
459.918	5841.25
460.138	5972.25
460.358	6130.25
460.578	6193.25
460.798	6199.25
461.018	6219.25
461.238	6129.25
461.458	6082.25
461.678	6046.25
461.898	6278.25
462.118	6262.25
462.338	6600.25
462.558	6763.25
462.777	7098.25
462.997	7541.25
463.217	8079.25
463.437	7719.25
463.657	7233.25
463.876	7027.25
464.096	7157.25
464.316	7077.25
464.536	7195.25
464.755	6808.25
464.975	6708.25
465.195	6788.25
465.414	6816.25
465.634	6025.25
465.854	5787.25
466.073	5513.25
466.293	5367.25
466.512	5263.25
466.732	5149.25
466.951	5151.25
467.171	5105.25
467.391	5235.25
467.61	5224.25
467.829	5201.25
468.049	5182.25
468.268	4981.25
468.488	4919.25
468.707	5009.25
468.927	4899.25
469.146	4886.25
469.365	5004.25
469.585	5036.25
469.804	5203.25
470.023	5351.25
470.243	5255.25
470.462	5310.25
470.681	5478.25
470.901	5409.25
471.12	5266.25
471.339	5226.25
471.558	5183.25
471.777	5120.25
471.997	5067.25
472.216	5065.25
472.435	5215.25
472.654	5056.25
472.873	4935.25
473.092	4874.25
473.311	4866.25
473.53	4903.25
473.749	5021.25
473.968	5569.25
474.187	6433.25
474.406	6053.25
474.625	5224.25
474.844	5035.25
475.063	4949.25
475.282	4924.25
475.501	5006.25
475.72	5045.25
475.939	5055.25
476.158	5100.25
476.377	5151.25
476.596	5144.25
476.814	5235.25
477.033	5276.25
477.252	5393.25
477.471	5447.25
477.69	5554.25
477.908	5760.25
478.127	5801.25
478.346	5871.25
478.564	5972.25
478.783	6055.25
479.002	6208.25
479.22	6211.25
479.439	6303.25
479.658	6342.25
479.876	6450.25
480.095	6552.25
480.313	7000.25
480.532	6920.25
480.751	6768.25
480.969	6779.25
481.188	7047.25
481.406	6737.25
481.624	6252.25
481.843	6069.25
482.061	6004.25
482.28	5880.25
482.498	5815.25
482.717	5707.25
482.935	5867.25
483.153	5826.25
483.372	5830.25
483.59	5866.25
483.808	5757.25
484.027	5786.25
484.245	5876.25
484.463	5891.25
484.681	6027.25
484.9	6039.25
485.118	6011.25
485.336	6116.25
485.554	6146.25
485.772	6192.25
485.99	6185.25
486.209	6236.25
486.427	6264.25
486.645	6283.25
486.863	6417.25
487.081	6368.25
487.299	6327.25
487.517	6281.25
487.735	6201.25
487.953	6116.25
