Data from Circ_1982_H10_HRD10591_00036.txt Node
Date: Wed Jan 03 12:30:48 EST 2024
User: Yrep
Spectrometer: HR+D1059
Trigger mode: 1
Integration Time (sec): 1.000000E-1
Scans to average: 1
Electric dark correction enabled: true
Nonlinearity correction enabled: false
Boxcar width: 0
XAxis mode: Wavelengths
Number of Pixels in Spectrum: 2048
>>>>>Begin Spectral Data<<<<<
223.165	-30.5
223.4	-30.5
223.635	-30.5
223.869	-17.5
224.104	-15.5
224.338	-33.5
224.573	-16.5
224.808	-8.5
225.042	-8.5
225.277	-3.5
225.511	1.5
225.746	1.5
225.98	21.5
226.215	14.5
226.449	12.5
226.683	14.5
226.918	34.5
227.152	33.5
227.387	43.5
227.621	36.5
227.856	43.5
228.09	55.5
228.324	56.5
228.559	55.5
228.793	68.5
229.027	71.5
229.262	78.5
229.496	75.5
229.73	75.5
229.964	74.5
230.199	75.5
230.433	70.5
230.667	86.5
230.901	70.5
231.136	89.5
231.37	76.5
231.604	73.5
231.838	83.5
232.072	75.5
232.306	77.5
232.541	98.5
232.775	88.5
233.009	70.5
233.243	81.5
233.477	74.5
233.711	78.5
233.945	92.5
234.179	89.5
234.413	97.5
234.647	78.5
234.881	87.5
235.115	83.5
235.349	92.5
235.583	78.5
235.817	76.5
236.051	88.5
236.285	81.5
236.519	76.5
236.753	83.5
236.987	82.5
237.221	74.5
237.455	75.5
237.689	75.5
237.922	66.5
238.156	68.5
238.39	79.5
238.624	77.5
238.858	87.5
239.091	79.5
239.325	74.5
239.559	92.5
239.793	98.5
240.027	90.5
240.26	80.5
240.494	76.5
240.728	73.5
240.961	80.5
241.195	78.5
241.429	83.5
241.662	65.5
241.896	69.5
242.13	73.5
242.363	86.5
242.597	77.5
242.83	87.5
243.064	81.5
243.298	78.5
243.531	75.5
243.765	73.5
243.998	77.5
244.232	74.5
244.465	90.5
244.699	76.5
244.932	89.5
245.166	68.5
245.399	63.5
245.633	85.5
245.866	84.5
246.099	71.5
246.333	77.5
246.566	66.5
246.8	78.5
247.033	85.5
247.266	75.5
247.5	74.5
247.733	69.5
247.966	72.5
248.2	77.5
248.433	75.5
248.666	88.5
248.899	73.5
249.133	81.5
249.366	83.5
249.599	86.5
249.832	72.5
250.066	76.5
250.299	82.5
250.532	97.5
250.765	71.5
250.998	78.5
251.231	91.5
251.465	73.5
251.698	82.5
251.931	89.5
252.164	85.5
252.397	82.5
252.63	85.5
252.863	76.5
253.096	71.5
253.329	85.5
253.562	76.5
253.795	91.5
254.028	89.5
254.261	100.5
254.494	87.5
254.727	77.5
254.96	86.5
255.193	77.5
255.426	73.5
255.659	83.5
255.892	82.5
256.124	73.5
256.357	71.5
256.59	88.5
256.823	78.5
257.056	75.5
257.289	65.5
257.521	75.5
257.754	76.5
257.987	81.5
258.22	73.5
258.452	85.5
258.685	99.5
258.918	90.5
259.151	83.5
259.383	97.5
259.616	85.5
259.849	75.5
260.081	71.5
260.314	85.5
260.547	83.5
260.779	75.5
261.012	94.5
261.244	72.5
261.477	68.5
261.71	95.5
261.942	100.5
262.175	81.5
262.407	90.5
262.64	93.5
262.872	77.5
263.105	83.5
263.337	88.5
263.57	76.5
263.802	82.5
264.035	86.5
264.267	84.5
264.499	72.5
264.732	88.5
264.964	84.5
265.197	76.5
265.429	73.5
265.661	82.5
265.894	77.5
266.126	74.5
266.358	88.5
266.591	89.5
266.823	76.5
267.055	74.5
267.287	86.5
267.52	81.5
267.752	85.5
267.984	84.5
268.216	85.5
268.448	88.5
268.681	74.5
268.913	82.5
269.145	81.5
269.377	75.5
269.609	70.5
269.841	89.5
270.073	76.5
270.306	85.5
270.538	78.5
270.77	87.5
271.002	84.5
271.234	88.5
271.466	101.5
271.698	82.5
271.93	77.5
272.162	85.5
272.394	83.5
272.626	81.5
272.858	76.5
273.09	85.5
273.322	75.5
273.553	84.5
273.785	87.5
274.017	83.5
274.249	89.5
274.481	85.5
274.713	70.5
274.945	83.5
275.176	85.5
275.408	82.5
275.64	90.5
275.872	82.5
276.104	98.5
276.335	98.5
276.567	102.5
276.799	94.5
277.031	87.5
277.262	91.5
277.494	85.5
277.726	91.5
277.957	91.5
278.189	79.5
278.421	94.5
278.652	91.5
278.884	81.5
279.115	71.5
279.347	85.5
279.579	93.5
279.81	99.5
280.042	85.5
280.273	100.5
280.505	87.5
280.736	84.5
280.968	90.5
281.199	92.5
281.431	81.5
281.662	93.5
281.894	93.5
282.125	85.5
282.356	111.5
282.588	111.5
282.819	102.5
283.051	80.5
283.282	94.5
283.513	89.5
283.745	78.5
283.976	84.5
284.207	79.5
284.439	76.5
284.67	75.5
284.901	83.5
285.132	89.5
285.364	83.5
285.595	117.5
285.826	102.5
286.057	79.5
286.288	88.5
286.52	94.5
286.751	98.5
286.982	95.5
287.213	91.5
287.444	84.5
287.675	84.5
287.906	81.5
288.138	97.5
288.369	101.5
288.6	85.5
288.831	87.5
289.062	90.5
289.293	92.5
289.524	82.5
289.755	83.5
289.986	77.5
290.217	95.5
290.448	100.5
290.679	86.5
290.91	107.5
291.141	89.5
291.371	98.5
291.602	73.5
291.833	83.5
292.064	92.5
292.295	88.5
292.526	99.5
292.757	85.5
292.987	75.5
293.218	77.5
293.449	78.5
293.68	82.5
293.91	77.5
294.141	83.5
294.372	76.5
294.603	91.5
294.833	93.5
295.064	92.5
295.295	81.5
295.525	94.5
295.756	86.5
295.987	100.5
296.217	118.5
296.448	95.5
296.679	112.5
296.909	102.5
297.14	78.5
297.37	84.5
297.601	85.5
297.831	98.5
298.062	83.5
298.292	90.5
298.523	72.5
298.753	87.5
298.984	85.5
299.214	74.5
299.445	94.5
299.675	81.5
299.905	95.5
300.136	99.5
300.366	84.5
300.597	99.5
300.827	103.5
301.057	74.5
301.288	97.5
301.518	83.5
301.748	94.5
301.979	104.5
302.209	87.5
302.439	87.5
302.669	83.5
302.9	91.5
303.13	85.5
303.36	85.5
303.59	111.5
303.82	103.5
304.051	88.5
304.281	78.5
304.511	94.5
304.741	85.5
304.971	82.5
305.201	91.5
305.431	88.5
305.661	81.5
305.891	83.5
306.121	76.5
306.352	94.5
306.582	104.5
306.812	106.5
307.042	81.5
307.272	90.5
307.502	111.5
307.731	92.5
307.961	108.5
308.191	91.5
308.421	87.5
308.651	89.5
308.881	86.5
309.111	76.5
309.341	87.5
309.571	100.5
309.8	81.5
310.03	85.5
310.26	87.5
310.49	109.5
310.72	106.5
310.949	99.5
311.179	92.5
311.409	89.5
311.639	78.5
311.868	91.5
312.098	105.5
312.328	81.5
312.557	104.5
312.787	88.5
313.017	91.5
313.246	90.5
313.476	91.5
313.706	90.5
313.935	85.5
314.165	87.5
314.394	106.5
314.624	108.5
314.853	97.5
315.083	91.5
315.312	97.5
315.542	100.5
315.771	76.5
316.001	88.5
316.23	104.5
316.46	74.5
316.689	71.5
316.919	89.5
317.148	106.5
317.377	81.5
317.607	102.5
317.836	81.5
318.065	83.5
318.295	96.5
318.524	81.5
318.753	99.5
318.983	83.5
319.212	106.5
319.441	97.5
319.67	103.5
319.9	99.5
320.129	89.5
320.358	85.5
320.587	87.5
320.816	78.5
321.046	87.5
321.275	85.5
321.504	96.5
321.733	90.5
321.962	95.5
322.191	105.5
322.42	106.5
322.649	102.5
322.878	111.5
323.108	108.5
323.337	105.5
323.566	114.5
323.795	121.5
324.024	171.5
324.253	277.5
324.482	540.5
324.71	1142.5
324.939	1481.5
325.168	565.5
325.397	194.5
325.626	129.5
325.855	102.5
326.084	105.5
326.313	125.5
326.542	126.5
326.77	174.5
326.999	327.5
327.228	647.5
327.457	1167.5
327.686	918.5
327.914	276.5
328.143	143.5
328.372	134.5
328.6	121.5
328.829	103.5
329.058	126.5
329.287	99.5
329.515	97.5
329.744	99.5
329.972	111.5
330.201	123.5
330.43	121.5
330.658	90.5
330.887	111.5
331.115	105.5
331.344	89.5
331.572	106.5
331.801	96.5
332.03	86.5
332.258	103.5
332.486	81.5
332.715	110.5
332.943	94.5
333.172	102.5
333.4	97.5
333.629	97.5
333.857	107.5
334.085	111.5
334.314	101.5
334.542	117.5
334.771	118.5
334.999	104.5
335.227	89.5
335.455	87.5
335.684	108.5
335.912	100.5
336.14	96.5
336.369	87.5
336.597	100.5
336.825	94.5
337.053	97.5
337.281	96.5
337.51	87.5
337.738	92.5
337.966	95.5
338.194	93.5
338.422	94.5
338.65	91.5
338.878	91.5
339.106	98.5
339.334	89.5
339.562	96.5
339.79	109.5
340.018	89.5
340.246	97.5
340.474	77.5
340.702	100.5
340.93	101.5
341.158	100.5
341.386	94.5
341.614	90.5
341.842	92.5
342.07	101.5
342.298	103.5
342.526	93.5
342.754	81.5
342.981	105.5
343.209	104.5
343.437	85.5
343.665	81.5
343.893	90.5
344.12	102.5
344.348	90.5
344.576	87.5
344.804	93.5
345.031	93.5
345.259	91.5
345.487	106.5
345.714	85.5
345.942	95.5
346.17	93.5
346.397	100.5
346.625	90.5
346.853	94.5
347.08	85.5
347.308	93.5
347.535	93.5
347.763	106.5
347.99	99.5
348.218	105.5
348.445	86.5
348.673	97.5
348.9	98.5
349.128	98.5
349.355	95.5
349.583	91.5
349.81	99.5
350.037	95.5
350.265	105.5
350.492	95.5
350.72	93.5
350.947	89.5
351.174	102.5
351.402	100.5
351.629	98.5
351.856	90.5
352.083	104.5
352.311	113.5
352.538	106.5
352.765	99.5
352.992	103.5
353.22	104.5
353.447	106.5
353.674	100.5
353.901	93.5
354.128	110.5
354.355	90.5
354.583	105.5
354.81	97.5
355.037	103.5
355.264	98.5
355.491	92.5
355.718	84.5
355.945	95.5
356.172	81.5
356.399	87.5
356.626	97.5
356.853	100.5
357.08	90.5
357.307	91.5
357.534	87.5
357.761	100.5
357.988	90.5
358.215	97.5
358.441	108.5
358.668	89.5
358.895	99.5
359.122	95.5
359.349	90.5
359.576	84.5
359.802	97.5
360.029	93.5
360.256	114.5
360.483	99.5
360.709	89.5
360.936	93.5
361.163	89.5
361.39	85.5
361.616	87.5
361.843	94.5
362.07	94.5
362.296	96.5
362.523	96.5
362.749	91.5
362.976	81.5
363.203	94.5
363.429	90.5
363.656	97.5
363.882	111.5
364.109	86.5
364.335	99.5
364.562	99.5
364.788	102.5
365.015	81.5
365.241	102.5
365.468	107.5
365.694	87.5
365.92	103.5
366.147	100.5
366.373	91.5
366.599	86.5
366.826	87.5
367.052	88.5
367.278	81.5
367.505	87.5
367.731	87.5
367.957	99.5
368.184	105.5
368.41	90.5
368.636	97.5
368.862	107.5
369.089	101.5
369.315	91.5
369.541	99.5
369.767	93.5
369.993	96.5
370.219	97.5
370.445	90.5
370.672	91.5
370.898	93.5
371.124	83.5
371.35	88.5
371.576	100.5
371.802	101.5
372.028	90.5
372.254	76.5
372.48	95.5
372.706	83.5
372.932	94.5
373.158	92.5
373.384	83.5
373.61	86.5
373.835	91.5
374.061	102.5
374.287	83.5
374.513	94.5
374.739	94.5
374.965	81.5
375.191	76.5
375.416	83.5
375.642	91.5
375.868	91.5
376.094	81.5
376.319	90.5
376.545	89.5
376.771	97.5
376.997	88.5
377.222	98.5
377.448	89.5
377.674	94.5
377.899	93.5
378.125	103.5
378.35	97.5
378.576	89.5
378.802	97.5
379.027	93.5
379.253	83.5
379.478	101.5
379.704	91.5
379.929	100.5
380.155	96.5
380.38	93.5
380.606	93.5
380.831	105.5
381.057	93.5
381.282	103.5
381.507	107.5
381.733	88.5
381.958	99.5
382.184	91.5
382.409	96.5
382.634	106.5
382.86	93.5
383.085	102.5
383.31	90.5
383.535	106.5
383.761	97.5
383.986	102.5
384.211	109.5
384.436	103.5
384.662	104.5
384.887	95.5
385.112	110.5
385.337	100.5
385.562	101.5
385.787	114.5
386.013	99.5
386.238	108.5
386.463	116.5
386.688	126.5
386.913	100.5
387.138	113.5
387.363	93.5
387.588	97.5
387.813	98.5
388.038	106.5
388.263	107.5
388.488	109.5
388.713	100.5
388.938	92.5
389.163	91.5
389.387	101.5
389.612	100.5
389.837	92.5
390.062	96.5
390.287	87.5
390.512	91.5
390.736	101.5
390.961	84.5
391.186	100.5
391.411	86.5
391.636	83.5
391.86	89.5
392.085	88.5
392.31	70.5
392.534	87.5
392.759	89.5
392.984	83.5
393.208	88.5
393.433	78.5
393.658	99.5
393.882	85.5
394.107	103.5
394.331	85.5
394.556	92.5
394.78	108.5
395.005	88.5
395.229	77.5
395.454	74.5
395.678	85.5
395.903	89.5
396.127	86.5
396.352	101.5
396.576	81.5
396.801	78.5
397.025	81.5
397.249	78.5
397.474	89.5
397.698	83.5
397.922	75.5
398.147	81.5
398.371	91.5
398.595	94.5
398.82	81.5
399.044	60.5
399.268	79.5
399.492	95.5
399.717	99.5
399.941	87.5
400.165	104.5
400.389	84.5
400.613	78.5
400.837	84.5
401.062	91.5
401.286	89.5
401.51	90.5
401.734	76.5
401.958	103.5
402.182	114.5
402.406	134.5
402.63	104.5
402.854	94.5
403.078	85.5
403.302	86.5
403.526	80.5
403.75	93.5
403.974	79.5
404.198	98.5
404.422	71.5
404.645	96.5
404.869	89.5
405.093	89.5
405.317	97.5
405.541	95.5
405.765	91.5
405.988	104.5
406.212	150.5
406.436	172.5
406.66	129.5
406.883	111.5
407.107	98.5
407.331	96.5
407.555	104.5
407.778	98.5
408.002	100.5
408.226	95.5
408.449	92.5
408.673	91.5
408.896	86.5
409.12	83.5
409.344	71.5
409.567	88.5
409.791	90.5
410.014	87.5
410.238	104.5
410.461	93.5
410.685	104.5
410.908	101.5
411.132	112.5
411.355	94.5
411.578	93.5
411.802	89.5
412.025	76.5
412.249	77.5
412.472	91.5
412.695	76.5
412.919	90.5
413.142	98.5
413.365	97.5
413.589	83.5
413.812	108.5
414.035	97.5
414.258	85.5
414.482	83.5
414.705	92.5
414.928	96.5
415.151	85.5
415.374	88.5
415.597	99.5
415.821	107.5
416.044	91.5
416.267	85.5
416.49	94.5
416.713	85.5
416.936	86.5
417.159	92.5
417.382	87.5
417.605	93.5
417.828	98.5
418.051	90.5
418.274	71.5
418.497	82.5
418.72	89.5
418.943	108.5
419.166	92.5
419.389	97.5
419.611	74.5
419.834	98.5
420.057	83.5
420.28	89.5
420.503	92.5
420.726	83.5
420.948	94.5
421.171	99.5
421.394	90.5
421.617	105.5
421.839	90.5
422.062	91.5
422.285	94.5
422.507	85.5
422.73	91.5
422.953	96.5
423.175	103.5
423.398	92.5
423.621	84.5
423.843	91.5
424.066	82.5
424.288	92.5
424.511	77.5
424.733	94.5
424.956	86.5
425.178	97.5
425.401	103.5
425.623	97.5
425.846	87.5
426.068	104.5
426.291	81.5
426.513	81.5
426.735	92.5
426.958	86.5
427.18	99.5
427.402	119.5
427.625	131.5
427.847	114.5
428.069	98.5
428.292	88.5
428.514	101.5
428.736	87.5
428.958	78.5
429.181	102.5
429.403	84.5
429.625	96.5
429.847	94.5
430.069	102.5
430.292	97.5
430.514	93.5
430.736	91.5
430.958	87.5
431.18	86.5
431.402	83.5
431.624	78.5
431.846	91.5
432.068	93.5
432.29	89.5
432.512	104.5
432.734	95.5
432.956	92.5
433.178	89.5
433.4	96.5
433.622	89.5
433.844	84.5
434.066	101.5
434.287	77.5
434.509	83.5
434.731	98.5
434.953	78.5
435.175	102.5
435.397	102.5
435.618	81.5
435.84	87.5
436.062	99.5
436.284	97.5
436.505	91.5
436.727	100.5
436.949	96.5
437.17	97.5
437.392	95.5
437.614	87.5
437.835	93.5
438.057	101.5
438.278	105.5
438.5	99.5
438.721	99.5
438.943	91.5
439.165	75.5
439.386	83.5
439.608	103.5
439.829	87.5
440.05	106.5
440.272	108.5
440.493	97.5
440.715	81.5
440.936	84.5
441.158	107.5
441.379	92.5
441.6	97.5
441.822	95.5
442.043	92.5
442.264	86.5
442.486	119.5
442.707	105.5
442.928	110.5
443.149	110.5
443.371	112.5
443.592	98.5
443.813	95.5
444.034	102.5
444.255	71.5
444.476	99.5
444.698	81.5
444.919	89.5
445.14	122.5
445.361	109.5
445.582	113.5
445.803	115.5
446.024	125.5
446.245	115.5
446.466	103.5
446.687	81.5
446.908	88.5
447.129	94.5
447.35	84.5
447.571	94.5
447.792	93.5
448.013	70.5
448.234	98.5
448.455	97.5
448.675	100.5
448.896	93.5
449.117	99.5
449.338	93.5
449.559	107.5
449.779	117.5
450	78.5
450.221	88.5
450.442	99.5
450.662	91.5
450.883	99.5
451.104	116.5
451.324	97.5
451.545	89.5
451.766	84.5
451.986	83.5
452.207	86.5
452.428	88.5
452.648	88.5
452.869	106.5
453.089	90.5
453.31	95.5
453.53	74.5
453.751	85.5
453.971	93.5
454.192	98.5
454.412	83.5
454.633	85.5
454.853	86.5
455.073	82.5
455.294	85.5
455.514	105.5
455.734	70.5
455.955	78.5
456.175	78.5
456.395	94.5
456.616	83.5
456.836	89.5
457.056	90.5
457.276	83.5
457.497	76.5
457.717	81.5
457.937	86.5
458.157	89.5
458.377	81.5
458.598	95.5
458.818	136.5
459.038	133.5
459.258	93.5
459.478	77.5
459.698	78.5
459.918	101.5
460.138	86.5
460.358	74.5
460.578	92.5
460.798	105.5
461.018	82.5
461.238	83.5
461.458	81.5
461.678	84.5
461.898	100.5
462.118	81.5
462.338	92.5
462.558	91.5
462.777	77.5
462.997	84.5
463.217	62.5
463.437	74.5
463.657	89.5
463.876	85.5
464.096	81.5
464.316	99.5
464.536	93.5
464.755	96.5
464.975	85.5
465.195	140.5
465.414	115.5
465.634	109.5
465.854	91.5
466.073	83.5
466.293	101.5
466.512	93.5
466.732	89.5
466.951	82.5
467.171	91.5
467.391	77.5
467.61	96.5
467.829	103.5
468.049	106.5
468.268	91.5
468.488	84.5
468.707	87.5
468.927	79.5
469.146	83.5
469.365	74.5
469.585	87.5
469.804	89.5
470.023	97.5
470.243	87.5
470.462	87.5
470.681	92.5
470.901	86.5
471.12	83.5
471.339	85.5
471.558	85.5
471.777	95.5
471.997	94.5
472.216	105.5
472.435	130.5
472.654	86.5
472.873	94.5
473.092	85.5
473.311	93.5
473.53	84.5
473.749	84.5
473.968	82.5
474.187	86.5
474.406	78.5
474.625	85.5
474.844	77.5
475.063	85.5
475.282	89.5
475.501	93.5
475.72	90.5
475.939	93.5
476.158	92.5
476.377	71.5
476.596	89.5
476.814	91.5
477.033	91.5
477.252	84.5
477.471	81.5
477.69	86.5
477.908	91.5
478.127	92.5
478.346	89.5
478.564	87.5
478.783	88.5
479.002	99.5
479.22	96.5
479.439	88.5
479.658	94.5
479.876	94.5
480.095	87.5
480.313	87.5
480.532	112.5
480.751	95.5
480.969	93.5
481.188	162.5
481.406	135.5
481.624	104.5
481.843	89.5
482.061	72.5
482.28	74.5
482.498	93.5
482.717	93.5
482.935	77.5
483.153	110.5
483.372	85.5
483.59	86.5
483.808	86.5
484.027	93.5
484.245	93.5
484.463	88.5
484.681	94.5
484.9	82.5
485.118	94.5
485.336	90.5
485.554	94.5
485.772	90.5
485.99	104.5
486.209	115.5
486.427	97.5
486.645	90.5
486.863	100.5
487.081	95.5
487.299	90.5
487.517	100.5
487.735	91.5
487.953	103.5
488.171	105.5
488.389	107.5
488.607	94.5
488.825	87.5
489.043	93.5
489.261	92.5
489.479	95.5
489.696	94.5
489.914	87.5
490.132	74.5
490.35	90.5
490.568	70.5
490.786	97.5
491.003	89.5
491.221	88.5
491.439	93.5
491.657	93.5
491.874	94.5
492.092	79.5
492.31	99.5
492.527	97.5
492.745	85.5
492.963	106.5
493.18	105.5
493.398	89.5
493.615	103.5
493.833	89.5
494.05	92.5
494.268	90.5
494.485	103.5
494.703	101.5
494.92	92.5
495.138	88.5
495.355	84.5
495.573	83.5
495.79	101.5
496.008	86.5
496.225	98.5
496.442	100.5
496.66	102.5
496.877	85.5
497.094	105.5
497.312	79.5
497.529	91.5
497.746	70.5
497.963	85.5
498.181	76.5
498.398	79.5
498.615	100.5
498.832	93.5
499.049	107.5
499.267	85.5
499.484	87.5
499.701	93.5
499.918	92.5
500.135	83.5
500.352	93.5
500.569	97.5
500.786	99.5
501.003	90.5
501.22	66.5
501.437	83.5
501.654	93.5
501.871	93.5
502.088	84.5
502.305	86.5
502.522	95.5
502.739	84.5
502.956	81.5
503.172	88.5
503.389	97.5
503.606	95.5
503.823	107.5
504.04	92.5
504.256	88.5
504.473	91.5
504.69	78.5
504.907	92.5
505.123	79.5
505.34	97.5
505.557	91.5
505.773	85.5
505.99	78.5
506.207	93.5
506.423	87.5
506.64	88.5
506.856	70.5
507.073	88.5
507.289	105.5
507.506	85.5
507.722	104.5
507.939	102.5
508.155	93.5
508.372	87.5
508.588	96.5
508.805	98.5
509.021	103.5
509.238	86.5
509.454	88.5
509.67	98.5
509.887	99.5
510.103	123.5
510.319	176.5
510.536	551.5
510.752	1655.5
510.968	480.5
511.184	129.5
511.401	94.5
511.617	93.5
511.833	95.5
512.049	86.5
512.265	86.5
512.481	72.5
512.698	88.5
512.914	85.5
513.13	97.5
513.346	86.5
513.562	109.5
513.778	95.5
513.994	88.5
514.21	105.5
514.426	94.5
514.642	110.5
514.858	110.5
515.074	118.5
515.29	323.5
515.506	956.5
515.721	359.5
515.937	138.5
516.153	108.5
516.369	94.5
516.585	81.5
516.801	96.5
517.016	86.5
517.232	91.5
517.448	91.5
517.664	78.5
517.879	83.5
518.095	90.5
518.311	89.5
518.527	84.5
518.742	98.5
518.958	90.5
519.173	103.5
519.389	81.5
519.605	99.5
519.82	87.5
520.036	95.5
520.251	104.5
520.467	113.5
520.682	105.5
520.898	109.5
521.113	104.5
521.329	123.5
521.544	158.5
521.76	415.5
521.975	1596.5
522.19	944.5
522.406	236.5
522.621	103.5
522.836	94.5
523.052	94.5
523.267	86.5
523.482	93.5
523.698	95.5
523.913	119.5
524.128	99.5
524.343	72.5
524.559	78.5
524.774	100.5
524.989	99.5
525.204	104.5
525.419	94.5
525.634	94.5
525.849	97.5
526.064	91.5
526.28	88.5
526.495	85.5
526.71	89.5
526.925	76.5
527.14	89.5
527.355	93.5
527.57	88.5
527.785	83.5
527.999	108.5
528.214	85.5
528.429	97.5
528.644	91.5
528.859	77.5
529.074	84.5
529.289	119.5
529.503	146.5
529.718	90.5
529.933	87.5
530.148	90.5
530.363	89.5
530.577	89.5
530.792	81.5
531.007	86.5
531.221	85.5
531.436	86.5
531.651	107.5
531.865	77.5
532.08	86.5
532.295	95.5
532.509	91.5
532.724	92.5
532.938	92.5
533.153	94.5
533.367	85.5
533.582	94.5
533.796	101.5
534.011	108.5
534.225	81.5
534.44	72.5
534.654	89.5
534.868	96.5
535.083	91.5
535.297	86.5
535.511	85.5
535.726	100.5
535.94	112.5
