Data from Circ_1982_H10_HRD10591_00094.txt Node
Date: Wed Jan 03 12:31:00 EST 2024
User: Yrep
Spectrometer: HR+D1059
Trigger mode: 1
Integration Time (sec): 1.000000E-1
Scans to average: 1
Electric dark correction enabled: true
Nonlinearity correction enabled: false
Boxcar width: 0
XAxis mode: Wavelengths
Number of Pixels in Spectrum: 2048
>>>>>Begin Spectral Data<<<<<
223.165	-15.56
223.4	-15.56
223.635	-15.56
223.869	-27.56
224.104	-22.56
224.338	-13.56
224.573	-14.56
224.808	-28.56
225.042	-16.56
225.277	0.44
225.511	-4.56
225.746	10.44
225.98	9.44
226.215	11.44
226.449	15.44
226.683	41.44
226.918	19.44
227.152	35.44
227.387	40.44
227.621	41.44
227.856	56.44
228.09	40.44
228.324	52.44
228.559	71.44
228.793	55.44
229.027	62.44
229.262	64.44
229.496	77.44
229.73	85.44
229.964	73.44
230.199	71.44
230.433	69.44
230.667	72.44
230.901	87.44
231.136	78.44
231.37	86.44
231.604	76.44
231.838	75.44
232.072	90.44
232.306	88.44
232.541	88.44
232.775	76.44
233.009	83.44
233.243	73.44
233.477	81.44
233.711	79.44
233.945	80.44
234.179	83.44
234.413	102.44
234.647	77.44
234.881	83.44
235.115	74.44
235.349	85.44
235.583	73.44
235.817	91.44
236.051	77.44
236.285	75.44
236.519	72.44
236.753	77.44
236.987	77.44
237.221	90.44
237.455	73.44
237.689	84.44
237.922	70.44
238.156	85.44
238.39	74.44
238.624	87.44
238.858	71.44
239.091	71.44
239.325	73.44
239.559	82.44
239.793	73.44
240.027	68.44
240.26	75.44
240.494	81.44
240.728	70.44
240.961	79.44
241.195	67.44
241.429	84.44
241.662	71.44
241.896	72.44
242.13	93.44
242.363	82.44
242.597	83.44
242.83	64.44
243.064	69.44
243.298	71.44
243.531	73.44
243.765	67.44
243.998	85.44
244.232	71.44
244.465	77.44
244.699	84.44
244.932	79.44
245.166	85.44
245.399	85.44
245.633	72.44
245.866	81.44
246.099	72.44
246.333	64.44
246.566	66.44
246.8	61.44
247.033	65.44
247.266	80.44
247.5	72.44
247.733	54.44
247.966	70.44
248.2	95.44
248.433	64.44
248.666	79.44
248.899	87.44
249.133	68.44
249.366	84.44
249.599	86.44
249.832	74.44
250.066	85.44
250.299	76.44
250.532	78.44
250.765	97.44
250.998	76.44
251.231	77.44
251.465	81.44
251.698	72.44
251.931	77.44
252.164	83.44
252.397	76.44
252.63	91.44
252.863	86.44
253.096	87.44
253.329	76.44
253.562	70.44
253.795	79.44
254.028	69.44
254.261	69.44
254.494	74.44
254.727	76.44
254.96	81.44
255.193	83.44
255.426	72.44
255.659	69.44
255.892	87.44
256.124	85.44
256.357	82.44
256.59	80.44
256.823	75.44
257.056	66.44
257.289	86.44
257.521	91.44
257.754	81.44
257.987	82.44
258.22	79.44
258.452	74.44
258.685	77.44
258.918	70.44
259.151	72.44
259.383	85.44
259.616	80.44
259.849	65.44
260.081	70.44
260.314	86.44
260.547	81.44
260.779	86.44
261.012	79.44
261.244	99.44
261.477	93.44
261.71	81.44
261.942	105.44
262.175	103.44
262.407	83.44
262.64	83.44
262.872	96.44
263.105	89.44
263.337	80.44
263.57	86.44
263.802	88.44
264.035	71.44
264.267	77.44
264.499	79.44
264.732	85.44
264.964	89.44
265.197	89.44
265.429	79.44
265.661	87.44
265.894	79.44
266.126	78.44
266.358	90.44
266.591	63.44
266.823	89.44
267.055	90.44
267.287	69.44
267.52	83.44
267.752	71.44
267.984	72.44
268.216	81.44
268.448	74.44
268.681	87.44
268.913	86.44
269.145	83.44
269.377	74.44
269.609	85.44
269.841	82.44
270.073	70.44
270.306	85.44
270.538	67.44
270.77	72.44
271.002	78.44
271.234	85.44
271.466	83.44
271.698	76.44
271.93	76.44
272.162	87.44
272.394	86.44
272.626	95.44
272.858	91.44
273.09	86.44
273.322	88.44
273.553	76.44
273.785	87.44
274.017	91.44
274.249	76.44
274.481	84.44
274.713	93.44
274.945	88.44
275.176	87.44
275.408	83.44
275.64	85.44
275.872	75.44
276.104	82.44
276.335	67.44
276.567	75.44
276.799	100.44
277.031	87.44
277.262	80.44
277.494	89.44
277.726	73.44
277.957	74.44
278.189	83.44
278.421	93.44
278.652	74.44
278.884	70.44
279.115	91.44
279.347	94.44
279.579	85.44
279.81	97.44
280.042	84.44
280.273	88.44
280.505	71.44
280.736	76.44
280.968	88.44
281.199	97.44
281.431	85.44
281.662	86.44
281.894	92.44
282.125	93.44
282.356	100.44
282.588	122.44
282.819	91.44
283.051	97.44
283.282	102.44
283.513	89.44
283.745	76.44
283.976	86.44
284.207	90.44
284.439	86.44
284.67	74.44
284.901	98.44
285.132	91.44
285.364	100.44
285.595	82.44
285.826	84.44
286.057	89.44
286.288	88.44
286.52	79.44
286.751	75.44
286.982	83.44
287.213	86.44
287.444	95.44
287.675	95.44
287.906	89.44
288.138	90.44
288.369	89.44
288.6	104.44
288.831	80.44
289.062	92.44
289.293	95.44
289.524	77.44
289.755	89.44
289.986	76.44
290.217	90.44
290.448	81.44
290.679	89.44
290.91	91.44
291.141	95.44
291.371	87.44
291.602	74.44
291.833	89.44
292.064	73.44
292.295	93.44
292.526	79.44
292.757	72.44
292.987	86.44
293.218	86.44
293.449	85.44
293.68	99.44
293.91	104.44
294.141	87.44
294.372	90.44
294.603	90.44
294.833	86.44
295.064	91.44
295.295	98.44
295.525	87.44
295.756	96.44
295.987	97.44
296.217	118.44
296.448	115.44
296.679	93.44
296.909	87.44
297.14	89.44
297.37	88.44
297.601	73.44
297.831	91.44
298.062	81.44
298.292	83.44
298.523	104.44
298.753	86.44
298.984	87.44
299.214	82.44
299.445	93.44
299.675	85.44
299.905	92.44
300.136	86.44
300.366	85.44
300.597	75.44
300.827	86.44
301.057	85.44
301.288	89.44
301.518	88.44
301.748	81.44
301.979	112.44
302.209	63.44
302.439	95.44
302.669	80.44
302.9	85.44
303.13	85.44
303.36	90.44
303.59	79.44
303.82	94.44
304.051	84.44
304.281	81.44
304.511	80.44
304.741	96.44
304.971	84.44
305.201	86.44
305.431	91.44
305.661	89.44
305.891	95.44
306.121	94.44
306.352	99.44
306.582	84.44
306.812	93.44
307.042	99.44
307.272	101.44
307.502	88.44
307.731	95.44
307.961	97.44
308.191	98.44
308.421	87.44
308.651	83.44
308.881	93.44
309.111	84.44
309.341	95.44
309.571	90.44
309.8	89.44
310.03	91.44
310.26	93.44
310.49	88.44
310.72	82.44
310.949	100.44
311.179	90.44
311.409	91.44
311.639	90.44
311.868	101.44
312.098	88.44
312.328	102.44
312.557	112.44
312.787	81.44
313.017	97.44
313.246	94.44
313.476	103.44
313.706	101.44
313.935	88.44
314.165	97.44
314.394	102.44
314.624	100.44
314.853	104.44
315.083	85.44
315.312	90.44
315.542	89.44
315.771	99.44
316.001	91.44
316.23	91.44
316.46	76.44
316.689	96.44
316.919	99.44
317.148	86.44
317.377	104.44
317.607	112.44
317.836	88.44
318.065	94.44
318.295	98.44
318.524	89.44
318.753	89.44
318.983	99.44
319.212	85.44
319.441	99.44
319.67	91.44
319.9	96.44
320.129	93.44
320.358	96.44
320.587	94.44
320.816	87.44
321.046	95.44
321.275	95.44
321.504	96.44
321.733	102.44
321.962	84.44
322.191	103.44
322.42	98.44
322.649	93.44
322.878	102.44
323.108	106.44
323.337	105.44
323.566	118.44
323.795	131.44
324.024	162.44
324.253	311.44
324.482	634.44
324.71	1210.44
324.939	1559.44
325.168	588.44
325.397	195.44
325.626	140.44
325.855	130.44
326.084	111.44
326.313	128.44
326.542	133.44
326.77	182.44
326.999	337.44
327.228	694.44
327.457	1258.44
327.686	986.44
327.914	277.44
328.143	179.44
328.372	147.44
328.6	111.44
328.829	112.44
329.058	102.44
329.287	116.44
329.515	89.44
329.744	94.44
329.972	102.44
330.201	110.44
330.43	119.44
330.658	115.44
330.887	122.44
331.115	111.44
331.344	102.44
331.572	109.44
331.801	96.44
332.03	97.44
332.258	99.44
332.486	99.44
332.715	97.44
332.943	93.44
333.172	114.44
333.4	100.44
333.629	100.44
333.857	90.44
334.085	106.44
334.314	111.44
334.542	117.44
334.771	114.44
334.999	99.44
335.227	93.44
335.455	97.44
335.684	99.44
335.912	116.44
336.14	96.44
336.369	90.44
336.597	88.44
336.825	103.44
337.053	95.44
337.281	85.44
337.51	102.44
337.738	91.44
337.966	103.44
338.194	85.44
338.422	83.44
338.65	94.44
338.878	98.44
339.106	83.44
339.334	103.44
339.562	92.44
339.79	72.44
340.018	95.44
340.246	85.44
340.474	87.44
340.702	98.44
340.93	94.44
341.158	90.44
341.386	101.44
341.614	102.44
341.842	86.44
342.07	98.44
342.298	114.44
342.526	86.44
342.754	95.44
342.981	87.44
343.209	85.44
343.437	103.44
343.665	98.44
343.893	86.44
344.12	96.44
344.348	77.44
344.576	77.44
344.804	84.44
345.031	88.44
345.259	97.44
345.487	92.44
345.714	117.44
345.942	86.44
346.17	83.44
346.397	90.44
346.625	110.44
346.853	86.44
347.08	86.44
347.308	84.44
347.535	93.44
347.763	104.44
347.99	112.44
348.218	87.44
348.445	90.44
348.673	89.44
348.9	76.44
349.128	91.44
349.355	95.44
349.583	111.44
349.81	87.44
350.037	91.44
350.265	88.44
350.492	92.44
350.72	89.44
350.947	83.44
351.174	103.44
351.402	92.44
351.629	95.44
351.856	90.44
352.083	97.44
352.311	94.44
352.538	97.44
352.765	103.44
352.992	92.44
353.22	102.44
353.447	95.44
353.674	95.44
353.901	103.44
354.128	83.44
354.355	98.44
354.583	90.44
354.81	96.44
355.037	84.44
355.264	84.44
355.491	91.44
355.718	92.44
355.945	87.44
356.172	102.44
356.399	84.44
356.626	96.44
356.853	93.44
357.08	81.44
357.307	89.44
357.534	85.44
357.761	104.44
357.988	99.44
358.215	101.44
358.441	98.44
358.668	95.44
358.895	83.44
359.122	79.44
359.349	75.44
359.576	72.44
359.802	82.44
360.029	111.44
360.256	90.44
360.483	98.44
360.709	88.44
360.936	80.44
361.163	99.44
361.39	85.44
361.616	89.44
361.843	89.44
362.07	103.44
362.296	88.44
362.523	93.44
362.749	89.44
362.976	82.44
363.203	87.44
363.429	90.44
363.656	89.44
363.882	89.44
364.109	98.44
364.335	109.44
364.562	83.44
364.788	81.44
365.015	100.44
365.241	96.44
365.468	90.44
365.694	98.44
365.92	86.44
366.147	111.44
366.373	92.44
366.599	87.44
366.826	68.44
367.052	95.44
367.278	95.44
367.505	68.44
367.731	88.44
367.957	98.44
368.184	77.44
368.41	102.44
368.636	123.44
368.862	109.44
369.089	99.44
369.315	86.44
369.541	79.44
369.767	90.44
369.993	85.44
370.219	94.44
370.445	81.44
370.672	86.44
370.898	85.44
371.124	72.44
371.35	78.44
371.576	78.44
371.802	88.44
372.028	87.44
372.254	81.44
372.48	83.44
372.706	76.44
372.932	83.44
373.158	76.44
373.384	81.44
373.61	104.44
373.835	99.44
374.061	83.44
374.287	98.44
374.513	85.44
374.739	97.44
374.965	88.44
375.191	87.44
375.416	80.44
375.642	85.44
375.868	86.44
376.094	85.44
376.319	95.44
376.545	97.44
376.771	92.44
376.997	67.44
377.222	87.44
377.448	87.44
377.674	82.44
377.899	86.44
378.125	94.44
378.35	93.44
378.576	83.44
378.802	88.44
379.027	92.44
379.253	87.44
379.478	86.44
379.704	85.44
379.929	98.44
380.155	95.44
380.38	91.44
380.606	95.44
380.831	86.44
381.057	93.44
381.282	87.44
381.507	98.44
381.733	105.44
381.958	85.44
382.184	107.44
382.409	84.44
382.634	112.44
382.86	94.44
383.085	103.44
383.31	102.44
383.535	102.44
383.761	103.44
383.986	100.44
384.211	98.44
384.436	82.44
384.662	80.44
384.887	98.44
385.112	100.44
385.337	92.44
385.562	109.44
385.787	108.44
386.013	100.44
386.238	99.44
386.463	92.44
386.688	111.44
386.913	93.44
387.138	99.44
387.363	107.44
387.588	98.44
387.813	94.44
388.038	109.44
388.263	111.44
388.488	101.44
388.713	90.44
388.938	89.44
389.163	87.44
389.387	98.44
389.612	82.44
389.837	91.44
390.062	88.44
390.287	97.44
390.512	83.44
390.736	80.44
390.961	95.44
391.186	82.44
391.411	84.44
391.636	103.44
391.86	83.44
392.085	87.44
392.31	72.44
392.534	77.44
392.759	75.44
392.984	90.44
393.208	91.44
393.433	80.44
393.658	91.44
393.882	90.44
394.107	83.44
394.331	100.44
394.556	84.44
394.78	88.44
395.005	89.44
395.229	75.44
395.454	91.44
395.678	92.44
395.903	103.44
396.127	96.44
396.352	80.44
396.576	87.44
396.801	76.44
397.025	91.44
397.249	83.44
397.474	81.44
397.698	83.44
397.922	87.44
398.147	76.44
398.371	83.44
398.595	85.44
398.82	79.44
399.044	85.44
399.268	84.44
399.492	71.44
399.717	97.44
399.941	102.44
400.165	97.44
400.389	80.44
400.613	79.44
400.837	83.44
401.062	92.44
401.286	89.44
401.51	101.44
401.734	97.44
401.958	91.44
402.182	111.44
402.406	137.44
402.63	100.44
402.854	87.44
403.078	100.44
403.302	69.44
403.526	75.44
403.75	81.44
403.974	79.44
404.198	91.44
404.422	93.44
404.645	86.44
404.869	74.44
405.093	97.44
405.317	96.44
405.541	105.44
405.765	90.44
405.988	112.44
406.212	140.44
406.436	178.44
406.66	116.44
406.883	83.44
407.107	90.44
407.331	83.44
407.555	75.44
407.778	81.44
408.002	89.44
408.226	99.44
408.449	103.44
408.673	86.44
408.896	83.44
409.12	87.44
409.344	89.44
409.567	89.44
409.791	78.44
410.014	81.44
410.238	96.44
410.461	88.44
410.685	102.44
410.908	99.44
411.132	89.44
411.355	101.44
411.578	80.44
411.802	83.44
412.025	99.44
412.249	89.44
412.472	85.44
412.695	95.44
412.919	87.44
413.142	92.44
413.365	91.44
413.589	79.44
413.812	76.44
414.035	95.44
414.258	95.44
414.482	91.44
414.705	95.44
414.928	99.44
415.151	87.44
415.374	86.44
415.597	83.44
415.821	89.44
416.044	96.44
416.267	94.44
416.49	90.44
416.713	81.44
416.936	83.44
417.159	77.44
417.382	93.44
417.605	91.44
417.828	103.44
418.051	95.44
418.274	73.44
418.497	55.44
418.72	92.44
418.943	86.44
419.166	86.44
419.389	82.44
419.611	89.44
419.834	68.44
420.057	84.44
420.28	82.44
420.503	80.44
420.726	84.44
420.948	80.44
421.171	83.44
421.394	96.44
421.617	84.44
421.839	88.44
422.062	79.44
422.285	92.44
422.507	98.44
422.73	91.44
422.953	87.44
423.175	85.44
423.398	74.44
423.621	87.44
423.843	96.44
424.066	83.44
424.288	85.44
424.511	76.44
424.733	95.44
424.956	95.44
425.178	76.44
425.401	85.44
425.623	100.44
425.846	80.44
426.068	85.44
426.291	82.44
426.513	69.44
426.735	95.44
426.958	99.44
427.18	100.44
427.402	136.44
427.625	134.44
427.847	105.44
428.069	89.44
428.292	88.44
428.514	71.44
428.736	91.44
428.958	90.44
429.181	95.44
429.403	87.44
429.625	99.44
429.847	94.44
430.069	96.44
430.292	75.44
430.514	84.44
430.736	77.44
430.958	86.44
431.18	77.44
431.402	89.44
431.624	93.44
431.846	91.44
432.068	91.44
432.29	82.44
432.512	89.44
432.734	89.44
432.956	86.44
433.178	85.44
433.4	98.44
433.622	91.44
433.844	75.44
434.066	94.44
434.287	86.44
434.509	81.44
434.731	89.44
434.953	70.44
435.175	87.44
435.397	87.44
435.618	84.44
435.84	79.44
436.062	99.44
436.284	105.44
436.505	87.44
436.727	82.44
436.949	76.44
437.17	92.44
437.392	85.44
437.614	85.44
437.835	98.44
438.057	115.44
438.278	86.44
438.5	106.44
438.721	107.44
438.943	91.44
439.165	87.44
439.386	84.44
439.608	95.44
439.829	90.44
440.05	106.44
440.272	113.44
440.493	89.44
440.715	84.44
440.936	85.44
441.158	112.44
441.379	98.44
441.6	89.44
441.822	83.44
442.043	94.44
442.264	99.44
442.486	99.44
442.707	90.44
442.928	103.44
443.149	115.44
443.371	105.44
443.592	103.44
443.813	99.44
444.034	67.44
444.255	83.44
444.476	82.44
444.698	86.44
444.919	91.44
445.14	129.44
445.361	111.44
445.582	100.44
445.803	112.44
446.024	105.44
446.245	107.44
446.466	97.44
446.687	97.44
446.908	87.44
447.129	82.44
447.35	101.44
447.571	97.44
447.792	90.44
448.013	80.44
448.234	86.44
448.455	89.44
448.675	105.44
448.896	98.44
449.117	104.44
449.338	85.44
449.559	106.44
449.779	122.44
450	90.44
450.221	76.44
450.442	73.44
450.662	85.44
450.883	101.44
451.104	113.44
451.324	101.44
451.545	85.44
451.766	81.44
451.986	80.44
452.207	86.44
452.428	81.44
452.648	98.44
452.869	85.44
453.089	105.44
453.31	112.44
453.53	87.44
453.751	89.44
453.971	96.44
454.192	105.44
454.412	86.44
454.633	86.44
454.853	83.44
455.073	80.44
455.294	95.44
455.514	91.44
455.734	87.44
455.955	85.44
456.175	77.44
456.395	81.44
456.616	80.44
456.836	80.44
457.056	90.44
457.276	87.44
457.497	91.44
457.717	88.44
457.937	70.44
458.157	85.44
458.377	81.44
458.598	100.44
458.818	121.44
459.038	120.44
459.258	86.44
459.478	79.44
459.698	84.44
459.918	81.44
460.138	71.44
460.358	89.44
460.578	86.44
460.798	83.44
461.018	76.44
461.238	70.44
461.458	96.44
461.678	91.44
461.898	81.44
462.118	83.44
462.338	89.44
462.558	88.44
462.777	80.44
462.997	92.44
463.217	79.44
463.437	77.44
463.657	100.44
463.876	105.44
464.096	85.44
464.316	88.44
464.536	92.44
464.755	100.44
464.975	98.44
465.195	134.44
465.414	119.44
465.634	93.44
465.854	75.44
466.073	69.44
466.293	87.44
466.512	91.44
466.732	82.44
466.951	95.44
467.171	85.44
467.391	81.44
467.61	90.44
467.829	95.44
468.049	89.44
468.268	96.44
468.488	95.44
468.707	96.44
468.927	92.44
469.146	89.44
469.365	83.44
469.585	89.44
469.804	90.44
470.023	93.44
470.243	82.44
470.462	90.44
470.681	77.44
470.901	88.44
471.12	75.44
471.339	75.44
471.558	75.44
471.777	102.44
471.997	94.44
472.216	109.44
472.435	117.44
472.654	90.44
472.873	74.44
473.092	92.44
473.311	85.44
473.53	84.44
473.749	80.44
473.968	98.44
474.187	96.44
474.406	99.44
474.625	76.44
474.844	69.44
475.063	99.44
475.282	72.44
475.501	87.44
475.72	87.44
475.939	82.44
476.158	83.44
476.377	77.44
476.596	77.44
476.814	82.44
477.033	83.44
477.252	88.44
477.471	77.44
477.69	96.44
477.908	93.44
478.127	90.44
478.346	88.44
478.564	83.44
478.783	84.44
479.002	91.44
479.22	91.44
479.439	94.44
479.658	102.44
479.876	84.44
480.095	69.44
480.313	90.44
480.532	95.44
480.751	81.44
480.969	104.44
481.188	166.44
481.406	120.44
481.624	91.44
481.843	85.44
482.061	91.44
482.28	105.44
482.498	89.44
482.717	85.44
482.935	97.44
483.153	71.44
483.372	86.44
483.59	71.44
483.808	75.44
484.027	88.44
484.245	83.44
484.463	83.44
484.681	89.44
484.9	111.44
485.118	76.44
485.336	101.44
485.554	96.44
485.772	115.44
485.99	99.44
486.209	116.44
486.427	95.44
486.645	102.44
486.863	116.44
487.081	96.44
487.299	82.44
487.517	90.44
487.735	89.44
487.953	96.44
488.171	92.44
488.389	77.44
488.607	80.44
488.825	87.44
489.043	92.44
489.261	87.44
489.479	76.44
489.696	92.44
489.914	79.44
490.132	96.44
490.35	87.44
490.568	57.44
490.786	77.44
491.003	78.44
491.221	99.44
491.439	92.44
491.657	89.44
491.874	89.44
492.092	85.44
492.31	87.44
492.527	93.44
492.745	83.44
492.963	101.44
493.18	88.44
493.398	91.44
493.615	93.44
493.833	98.44
494.05	93.44
494.268	90.44
494.485	80.44
494.703	86.44
494.92	92.44
495.138	84.44
495.355	85.44
495.573	91.44
495.79	91.44
496.008	94.44
496.225	91.44
496.442	76.44
496.66	94.44
496.877	101.44
497.094	83.44
497.312	94.44
497.529	100.44
497.746	93.44
497.963	89.44
498.181	100.44
498.398	98.44
498.615	99.44
498.832	83.44
499.049	95.44
499.267	93.44
499.484	89.44
499.701	85.44
499.918	80.44
500.135	88.44
500.352	92.44
500.569	85.44
500.786	93.44
501.003	82.44
501.22	76.44
501.437	93.44
501.654	95.44
501.871	93.44
502.088	99.44
502.305	99.44
502.522	82.44
502.739	81.44
502.956	76.44
503.172	91.44
503.389	95.44
503.606	92.44
503.823	96.44
504.04	83.44
504.256	87.44
504.473	97.44
504.69	105.44
504.907	97.44
505.123	83.44
505.34	100.44
505.557	101.44
505.773	87.44
505.99	87.44
506.207	87.44
506.423	98.44
506.64	100.44
506.856	88.44
507.073	89.44
507.289	112.44
507.506	82.44
507.722	103.44
507.939	98.44
508.155	84.44
508.372	80.44
508.588	97.44
508.805	83.44
509.021	99.44
509.238	93.44
509.454	107.44
509.67	91.44
509.887	93.44
510.103	115.44
510.319	182.44
510.536	543.44
510.752	1660.44
510.968	481.44
511.184	131.44
511.401	92.44
511.617	75.44
511.833	102.44
512.049	108.44
512.265	85.44
512.481	93.44
512.698	76.44
512.914	88.44
513.13	84.44
513.346	79.44
513.562	85.44
513.778	91.44
513.994	88.44
514.21	91.44
514.426	117.44
514.642	114.44
514.858	108.44
515.074	133.44
515.29	331.44
515.506	989.44
515.721	379.44
515.937	142.44
516.153	97.44
516.369	69.44
516.585	76.44
516.801	87.44
517.016	89.44
