Data from Circ_1982_H10_HRD10591_00017.txt Node
Date: Wed Jan 03 12:30:44 EST 2024
User: Yrep
Spectrometer: HR+D1059
Trigger mode: 1
Integration Time (sec): 1.000000E-1
Scans to average: 1
Electric dark correction enabled: true
Nonlinearity correction enabled: false
Boxcar width: 0
XAxis mode: Wavelengths
Number of Pixels in Spectrum: 2048
>>>>>Begin Spectral Data<<<<<
223.165	-23.75
223.4	-23.75
223.635	-23.75
223.869	-23.75
224.104	-13.75
224.338	-6.75
224.573	-32.75
224.808	-22.75
225.042	-5.75
225.277	-14.75
225.511	8.25
225.746	-0.75
225.98	7.25
226.215	16.25
226.449	26.25
226.683	24.25
226.918	27.25
227.152	35.25
227.387	33.25
227.621	37.25
227.856	36.25
228.09	47.25
228.324	47.25
228.559	50.25
228.793	52.25
229.027	52.25
229.262	62.25
229.496	75.25
229.73	74.25
229.964	71.25
230.199	68.25
230.433	56.25
230.667	72.25
230.901	82.25
231.136	82.25
231.37	83.25
231.604	72.25
231.838	85.25
232.072	79.25
232.306	83.25
232.541	81.25
232.775	95.25
233.009	80.25
233.243	86.25
233.477	73.25
233.711	68.25
233.945	74.25
234.179	84.25
234.413	79.25
234.647	79.25
234.881	73.25
235.115	81.25
235.349	69.25
235.583	82.25
235.817	83.25
236.051	88.25
236.285	76.25
236.519	74.25
236.753	75.25
236.987	87.25
237.221	85.25
237.455	74.25
237.689	77.25
237.922	92.25
238.156	72.25
238.39	82.25
238.624	76.25
238.858	71.25
239.091	73.25
239.325	73.25
239.559	88.25
239.793	84.25
240.027	80.25
240.26	75.25
240.494	72.25
240.728	91.25
240.961	75.25
241.195	66.25
241.429	63.25
241.662	64.25
241.896	76.25
242.13	68.25
242.363	72.25
242.597	79.25
242.83	88.25
243.064	81.25
243.298	71.25
243.531	69.25
243.765	80.25
243.998	68.25
244.232	83.25
244.465	85.25
244.699	80.25
244.932	71.25
245.166	76.25
245.399	68.25
245.633	89.25
245.866	83.25
246.099	103.25
246.333	79.25
246.566	68.25
246.8	84.25
247.033	75.25
247.266	71.25
247.5	72.25
247.733	78.25
247.966	89.25
248.2	83.25
248.433	60.25
248.666	85.25
248.899	63.25
249.133	69.25
249.366	98.25
249.599	77.25
249.832	89.25
250.066	83.25
250.299	75.25
250.532	81.25
250.765	69.25
250.998	69.25
251.231	77.25
251.465	95.25
251.698	71.25
251.931	83.25
252.164	81.25
252.397	91.25
252.63	86.25
252.863	81.25
253.096	79.25
253.329	77.25
253.562	83.25
253.795	91.25
254.028	82.25
254.261	76.25
254.494	87.25
254.727	86.25
254.96	69.25
255.193	81.25
255.426	75.25
255.659	77.25
255.892	95.25
256.124	83.25
256.357	81.25
256.59	81.25
256.823	81.25
257.056	88.25
257.289	81.25
257.521	81.25
257.754	88.25
257.987	76.25
258.22	99.25
258.452	83.25
258.685	81.25
258.918	79.25
259.151	87.25
259.383	64.25
259.616	81.25
259.849	73.25
260.081	79.25
260.314	86.25
260.547	91.25
260.779	101.25
261.012	60.25
261.244	105.25
261.477	90.25
261.71	88.25
261.942	107.25
262.175	101.25
262.407	73.25
262.64	90.25
262.872	69.25
263.105	74.25
263.337	75.25
263.57	80.25
263.802	83.25
264.035	79.25
264.267	86.25
264.499	81.25
264.732	83.25
264.964	88.25
265.197	73.25
265.429	97.25
265.661	86.25
265.894	85.25
266.126	75.25
266.358	68.25
266.591	87.25
266.823	83.25
267.055	91.25
267.287	82.25
267.52	64.25
267.752	87.25
267.984	92.25
268.216	89.25
268.448	87.25
268.681	92.25
268.913	82.25
269.145	88.25
269.377	77.25
269.609	98.25
269.841	93.25
270.073	78.25
270.306	80.25
270.538	73.25
270.77	83.25
271.002	81.25
271.234	83.25
271.466	70.25
271.698	80.25
271.93	82.25
272.162	86.25
272.394	101.25
272.626	86.25
272.858	66.25
273.09	77.25
273.322	92.25
273.553	83.25
273.785	85.25
274.017	91.25
274.249	79.25
274.481	85.25
274.713	88.25
274.945	91.25
275.176	80.25
275.408	71.25
275.64	89.25
275.872	75.25
276.104	93.25
276.335	99.25
276.567	88.25
276.799	106.25
277.031	92.25
277.262	88.25
277.494	76.25
277.726	88.25
277.957	89.25
278.189	92.25
278.421	91.25
278.652	89.25
278.884	97.25
279.115	96.25
279.347	100.25
279.579	72.25
279.81	87.25
280.042	71.25
280.273	101.25
280.505	94.25
280.736	80.25
280.968	96.25
281.199	74.25
281.431	75.25
281.662	84.25
281.894	91.25
282.125	85.25
282.356	105.25
282.588	101.25
282.819	113.25
283.051	87.25
283.282	88.25
283.513	89.25
283.745	89.25
283.976	84.25
284.207	81.25
284.439	95.25
284.67	84.25
284.901	83.25
285.132	92.25
285.364	83.25
285.595	85.25
285.826	84.25
286.057	84.25
286.288	82.25
286.52	95.25
286.751	98.25
286.982	84.25
287.213	90.25
287.444	80.25
287.675	74.25
287.906	87.25
288.138	109.25
288.369	91.25
288.6	104.25
288.831	100.25
289.062	88.25
289.293	83.25
289.524	76.25
289.755	93.25
289.986	83.25
290.217	88.25
290.448	79.25
290.679	80.25
290.91	75.25
291.141	92.25
291.371	96.25
291.602	87.25
291.833	87.25
292.064	80.25
292.295	75.25
292.526	95.25
292.757	91.25
292.987	95.25
293.218	103.25
293.449	85.25
293.68	86.25
293.91	85.25
294.141	73.25
294.372	92.25
294.603	81.25
294.833	81.25
295.064	91.25
295.295	71.25
295.525	95.25
295.756	94.25
295.987	97.25
296.217	108.25
296.448	100.25
296.679	89.25
296.909	83.25
297.14	93.25
297.37	83.25
297.601	90.25
297.831	91.25
298.062	78.25
298.292	60.25
298.523	80.25
298.753	80.25
298.984	87.25
299.214	88.25
299.445	81.25
299.675	85.25
299.905	91.25
300.136	82.25
300.366	86.25
300.597	94.25
300.827	99.25
301.057	80.25
301.288	92.25
301.518	102.25
301.748	95.25
301.979	97.25
302.209	93.25
302.439	85.25
302.669	80.25
302.9	83.25
303.13	90.25
303.36	92.25
303.59	109.25
303.82	101.25
304.051	89.25
304.281	77.25
304.511	74.25
304.741	73.25
304.971	100.25
305.201	84.25
305.431	87.25
305.661	84.25
305.891	85.25
306.121	84.25
306.352	107.25
306.582	95.25
306.812	105.25
307.042	92.25
307.272	99.25
307.502	82.25
307.731	105.25
307.961	85.25
308.191	84.25
308.421	90.25
308.651	83.25
308.881	91.25
309.111	99.25
309.341	89.25
309.571	82.25
309.8	91.25
310.03	83.25
310.26	75.25
310.49	77.25
310.72	98.25
310.949	94.25
311.179	89.25
311.409	101.25
311.639	87.25
311.868	91.25
312.098	93.25
312.328	103.25
312.557	107.25
312.787	87.25
313.017	96.25
313.246	89.25
313.476	91.25
313.706	75.25
313.935	92.25
314.165	98.25
314.394	90.25
314.624	91.25
314.853	85.25
315.083	91.25
315.312	91.25
315.542	97.25
315.771	94.25
316.001	83.25
316.23	97.25
316.46	92.25
316.689	110.25
316.919	95.25
317.148	74.25
317.377	98.25
317.607	79.25
317.836	75.25
318.065	91.25
318.295	93.25
318.524	84.25
318.753	87.25
318.983	92.25
319.212	85.25
319.441	88.25
319.67	87.25
319.9	89.25
320.129	97.25
320.358	97.25
320.587	72.25
320.816	104.25
321.046	94.25
321.275	98.25
321.504	88.25
321.733	97.25
321.962	83.25
322.191	95.25
322.42	98.25
322.649	91.25
322.878	117.25
323.108	113.25
323.337	117.25
323.566	109.25
323.795	124.25
324.024	171.25
324.253	278.25
324.482	558.25
324.71	1117.25
324.939	1489.25
325.168	543.25
325.397	175.25
325.626	116.25
325.855	111.25
326.084	118.25
326.313	100.25
326.542	130.25
326.77	172.25
326.999	319.25
327.228	651.25
327.457	1173.25
327.686	931.25
327.914	293.25
328.143	147.25
328.372	123.25
328.6	112.25
328.829	102.25
329.058	118.25
329.287	118.25
329.515	104.25
329.744	101.25
329.972	97.25
330.201	111.25
330.43	115.25
330.658	110.25
330.887	127.25
331.115	95.25
331.344	83.25
331.572	101.25
331.801	95.25
332.03	93.25
332.258	92.25
332.486	89.25
332.715	94.25
332.943	101.25
333.172	101.25
333.4	106.25
333.629	92.25
333.857	108.25
334.085	95.25
334.314	101.25
334.542	93.25
334.771	112.25
334.999	83.25
335.227	104.25
335.455	93.25
335.684	103.25
335.912	95.25
336.14	106.25
336.369	91.25
336.597	88.25
336.825	101.25
337.053	93.25
337.281	84.25
337.51	105.25
337.738	89.25
337.966	91.25
338.194	98.25
338.422	103.25
338.65	93.25
338.878	86.25
339.106	92.25
339.334	97.25
339.562	82.25
339.79	83.25
340.018	77.25
340.246	105.25
340.474	88.25
340.702	74.25
340.93	87.25
341.158	80.25
341.386	87.25
341.614	86.25
341.842	103.25
342.07	101.25
342.298	76.25
342.526	70.25
342.754	71.25
342.981	82.25
343.209	94.25
343.437	117.25
343.665	83.25
343.893	83.25
344.12	85.25
344.348	87.25
344.576	84.25
344.804	91.25
345.031	84.25
345.259	76.25
345.487	97.25
345.714	87.25
345.942	84.25
346.17	81.25
346.397	92.25
346.625	89.25
346.853	87.25
347.08	96.25
347.308	80.25
347.535	86.25
347.763	99.25
347.99	92.25
348.218	97.25
348.445	96.25
348.673	97.25
348.9	118.25
349.128	98.25
349.355	93.25
349.583	93.25
349.81	99.25
350.037	85.25
350.265	92.25
350.492	91.25
350.72	97.25
350.947	89.25
351.174	95.25
351.402	101.25
351.629	85.25
351.856	99.25
352.083	100.25
352.311	105.25
352.538	98.25
352.765	112.25
352.992	99.25
353.22	77.25
353.447	105.25
353.674	115.25
353.901	89.25
354.128	104.25
354.355	90.25
354.583	90.25
354.81	100.25
355.037	89.25
355.264	86.25
355.491	89.25
355.718	95.25
355.945	96.25
356.172	87.25
356.399	97.25
356.626	61.25
356.853	79.25
357.08	98.25
357.307	89.25
357.534	92.25
357.761	114.25
357.988	81.25
358.215	95.25
358.441	96.25
358.668	89.25
358.895	97.25
359.122	81.25
359.349	77.25
359.576	98.25
359.802	83.25
360.029	107.25
360.256	85.25
360.483	92.25
360.709	85.25
360.936	72.25
361.163	89.25
361.39	101.25
361.616	91.25
361.843	96.25
362.07	96.25
362.296	98.25
362.523	86.25
362.749	81.25
362.976	81.25
363.203	100.25
363.429	85.25
363.656	72.25
363.882	101.25
364.109	85.25
364.335	92.25
364.562	91.25
364.788	79.25
365.015	92.25
365.241	92.25
365.468	99.25
365.694	97.25
365.92	105.25
366.147	81.25
366.373	84.25
366.599	86.25
366.826	88.25
367.052	81.25
367.278	87.25
367.505	80.25
367.731	79.25
367.957	96.25
368.184	87.25
368.41	100.25
368.636	88.25
368.862	103.25
369.089	83.25
369.315	90.25
369.541	82.25
369.767	89.25
369.993	83.25
370.219	79.25
370.445	89.25
370.672	84.25
370.898	73.25
371.124	95.25
371.35	91.25
371.576	99.25
371.802	84.25
372.028	82.25
372.254	62.25
372.48	76.25
372.706	96.25
372.932	91.25
373.158	81.25
373.384	83.25
373.61	84.25
373.835	85.25
374.061	87.25
374.287	91.25
374.513	93.25
374.739	91.25
374.965	88.25
375.191	72.25
375.416	92.25
375.642	90.25
375.868	88.25
376.094	97.25
376.319	96.25
376.545	79.25
376.771	86.25
376.997	90.25
377.222	91.25
377.448	81.25
377.674	97.25
377.899	84.25
378.125	94.25
378.35	84.25
378.576	88.25
378.802	93.25
379.027	90.25
379.253	96.25
379.478	95.25
379.704	100.25
379.929	93.25
380.155	91.25
380.38	104.25
380.606	93.25
380.831	91.25
381.057	99.25
381.282	111.25
381.507	97.25
381.733	99.25
381.958	87.25
382.184	105.25
382.409	92.25
382.634	105.25
382.86	107.25
383.085	96.25
383.31	97.25
383.535	89.25
383.761	111.25
383.986	95.25
384.211	99.25
384.436	94.25
384.662	106.25
384.887	99.25
385.112	116.25
385.337	109.25
385.562	101.25
385.787	115.25
386.013	112.25
386.238	103.25
386.463	102.25
386.688	122.25
386.913	114.25
387.138	107.25
387.363	109.25
387.588	109.25
387.813	112.25
388.038	114.25
388.263	121.25
388.488	114.25
388.713	97.25
388.938	94.25
389.163	104.25
389.387	73.25
389.612	85.25
389.837	99.25
390.062	97.25
390.287	96.25
390.512	94.25
390.736	74.25
390.961	82.25
391.186	104.25
391.411	95.25
391.636	99.25
391.86	80.25
392.085	85.25
392.31	90.25
392.534	79.25
392.759	87.25
392.984	88.25
393.208	96.25
393.433	89.25
393.658	82.25
393.882	83.25
394.107	87.25
394.331	82.25
394.556	84.25
394.78	89.25
395.005	103.25
395.229	89.25
395.454	91.25
395.678	95.25
395.903	75.25
396.127	81.25
396.352	98.25
396.576	84.25
396.801	90.25
397.025	83.25
397.249	85.25
397.474	76.25
397.698	81.25
397.922	88.25
398.147	88.25
398.371	92.25
398.595	81.25
398.82	84.25
399.044	77.25
399.268	80.25
399.492	85.25
399.717	78.25
399.941	86.25
400.165	85.25
400.389	84.25
400.613	89.25
400.837	79.25
401.062	81.25
401.286	77.25
401.51	79.25
401.734	89.25
401.958	98.25
402.182	109.25
402.406	122.25
402.63	89.25
402.854	90.25
403.078	87.25
403.302	96.25
403.526	87.25
403.75	84.25
403.974	86.25
404.198	76.25
404.422	68.25
404.645	101.25
404.869	91.25
405.093	96.25
405.317	97.25
405.541	100.25
405.765	88.25
405.988	85.25
406.212	150.25
406.436	147.25
406.66	118.25
406.883	89.25
407.107	92.25
407.331	114.25
407.555	90.25
407.778	81.25
408.002	98.25
408.226	87.25
408.449	85.25
408.673	84.25
408.896	100.25
409.12	96.25
409.344	99.25
409.567	75.25
409.791	96.25
410.014	93.25
410.238	87.25
410.461	94.25
410.685	97.25
410.908	92.25
411.132	100.25
411.355	92.25
411.578	82.25
411.802	88.25
412.025	82.25
412.249	85.25
412.472	86.25
412.695	91.25
412.919	80.25
413.142	94.25
413.365	98.25
413.589	76.25
413.812	88.25
414.035	87.25
414.258	102.25
414.482	88.25
414.705	90.25
414.928	86.25
415.151	80.25
415.374	89.25
415.597	97.25
415.821	96.25
416.044	83.25
416.267	86.25
416.49	66.25
416.713	81.25
416.936	92.25
417.159	87.25
417.382	83.25
417.605	86.25
417.828	81.25
418.051	91.25
418.274	80.25
418.497	87.25
418.72	80.25
418.943	84.25
419.166	91.25
419.389	82.25
419.611	70.25
419.834	83.25
420.057	81.25
420.28	78.25
420.503	96.25
420.726	92.25
420.948	75.25
421.171	90.25
421.394	96.25
421.617	89.25
421.839	98.25
422.062	95.25
422.285	89.25
422.507	98.25
422.73	96.25
422.953	102.25
423.175	87.25
423.398	84.25
423.621	81.25
423.843	81.25
424.066	85.25
424.288	76.25
424.511	83.25
424.733	85.25
424.956	103.25
425.178	89.25
425.401	90.25
425.623	96.25
425.846	85.25
426.068	99.25
426.291	90.25
426.513	92.25
426.735	88.25
426.958	92.25
427.18	102.25
427.402	115.25
427.625	140.25
427.847	102.25
428.069	102.25
428.292	75.25
428.514	84.25
428.736	97.25
428.958	74.25
429.181	92.25
429.403	93.25
429.625	96.25
429.847	93.25
430.069	98.25
430.292	92.25
430.514	84.25
430.736	86.25
430.958	81.25
431.18	92.25
431.402	81.25
431.624	76.25
431.846	78.25
432.068	90.25
432.29	91.25
432.512	86.25
432.734	69.25
432.956	99.25
433.178	93.25
433.4	93.25
433.622	90.25
433.844	94.25
434.066	85.25
434.287	82.25
434.509	88.25
434.731	89.25
434.953	79.25
435.175	83.25
435.397	86.25
435.618	92.25
435.84	108.25
436.062	112.25
436.284	96.25
436.505	108.25
436.727	81.25
436.949	92.25
437.17	88.25
437.392	90.25
437.614	83.25
437.835	82.25
438.057	83.25
438.278	94.25
438.5	98.25
438.721	103.25
438.943	93.25
439.165	92.25
439.386	75.25
439.608	85.25
439.829	97.25
440.05	111.25
440.272	122.25
440.493	96.25
440.715	85.25
440.936	83.25
441.158	92.25
441.379	84.25
441.6	87.25
441.822	98.25
442.043	87.25
442.264	102.25
442.486	86.25
442.707	90.25
442.928	103.25
443.149	108.25
443.371	102.25
443.592	101.25
443.813	103.25
444.034	97.25
444.255	77.25
444.476	98.25
444.698	75.25
444.919	76.25
445.14	135.25
445.361	107.25
445.582	97.25
445.803	104.25
446.024	107.25
446.245	105.25
446.466	97.25
446.687	96.25
446.908	93.25
447.129	95.25
447.35	85.25
447.571	82.25
447.792	89.25
448.013	94.25
448.234	102.25
448.455	91.25
448.675	100.25
448.896	111.25
449.117	99.25
449.338	92.25
449.559	108.25
449.779	108.25
450	94.25
450.221	89.25
450.442	96.25
450.662	102.25
450.883	95.25
451.104	91.25
451.324	88.25
451.545	83.25
451.766	88.25
451.986	87.25
452.207	83.25
452.428	85.25
452.648	99.25
452.869	94.25
453.089	115.25
453.31	107.25
453.53	86.25
453.751	84.25
453.971	98.25
454.192	97.25
454.412	85.25
454.633	84.25
454.853	87.25
455.073	88.25
455.294	86.25
455.514	85.25
455.734	94.25
455.955	72.25
456.175	84.25
456.395	84.25
456.616	82.25
456.836	75.25
457.056	78.25
457.276	80.25
457.497	89.25
457.717	85.25
457.937	85.25
458.157	81.25
458.377	99.25
458.598	80.25
458.818	117.25
459.038	116.25
459.258	80.25
459.478	71.25
459.698	90.25
459.918	76.25
460.138	85.25
460.358	77.25
460.578	88.25
460.798	96.25
461.018	109.25
461.238	84.25
461.458	79.25
461.678	81.25
461.898	89.25
462.118	88.25
462.338	84.25
462.558	98.25
462.777	83.25
462.997	103.25
463.217	73.25
463.437	83.25
463.657	83.25
463.876	80.25
464.096	89.25
464.316	102.25
464.536	92.25
464.755	92.25
464.975	100.25
465.195	133.25
465.414	124.25
465.634	97.25
465.854	76.25
466.073	91.25
466.293	92.25
466.512	83.25
466.732	85.25
466.951	83.25
467.171	100.25
467.391	76.25
467.61	91.25
467.829	91.25
468.049	103.25
468.268	88.25
468.488	90.25
468.707	82.25
468.927	89.25
469.146	82.25
469.365	84.25
469.585	91.25
469.804	99.25
470.023	70.25
470.243	101.25
470.462	91.25
470.681	107.25
470.901	87.25
471.12	79.25
471.339	80.25
471.558	73.25
471.777	91.25
471.997	70.25
472.216	107.25
472.435	120.25
472.654	85.25
472.873	90.25
473.092	98.25
473.311	73.25
473.53	95.25
473.749	88.25
473.968	89.25
474.187	80.25
474.406	97.25
474.625	95.25
474.844	84.25
475.063	93.25
475.282	96.25
475.501	89.25
475.72	109.25
475.939	93.25
476.158	80.25
476.377	96.25
476.596	91.25
476.814	67.25
477.033	79.25
477.252	97.25
477.471	92.25
477.69	82.25
477.908	87.25
478.127	85.25
478.346	88.25
478.564	97.25
478.783	103.25
479.002	87.25
479.22	85.25
479.439	84.25
479.658	98.25
479.876	99.25
480.095	87.25
480.313	83.25
480.532	90.25
480.751	87.25
480.969	98.25
481.188	126.25
481.406	107.25
481.624	88.25
481.843	90.25
482.061	75.25
482.28	90.25
482.498	80.25
482.717	92.25
482.935	75.25
483.153	83.25
483.372	90.25
483.59	81.25
483.808	89.25
484.027	94.25
484.245	81.25
484.463	85.25
484.681	91.25
484.9	102.25
485.118	96.25
485.336	99.25
485.554	115.25
485.772	93.25
485.99	103.25
486.209	93.25
486.427	104.25
486.645	106.25
486.863	95.25
487.081	109.25
487.299	91.25
487.517	84.25
487.735	105.25
487.953	96.25
488.171	90.25
488.389	91.25
488.607	95.25
488.825	72.25
489.043	92.25
489.261	88.25
489.479	89.25
489.696	92.25
489.914	98.25
490.132	99.25
490.35	91.25
490.568	77.25
490.786	81.25
491.003	85.25
491.221	90.25
491.439	83.25
491.657	94.25
491.874	89.25
492.092	76.25
492.31	99.25
492.527	92.25
492.745	97.25
492.963	93.25
493.18	94.25
493.398	86.25
493.615	97.25
493.833	86.25
494.05	89.25
494.268	103.25
494.485	84.25
494.703	83.25
494.92	89.25
495.138	87.25
495.355	86.25
495.573	95.25
495.79	99.25
496.008	87.25
496.225	93.25
496.442	88.25
496.66	103.25
496.877	95.25
497.094	107.25
497.312	86.25
497.529	91.25
497.746	83.25
497.963	76.25
498.181	95.25
498.398	88.25
498.615	117.25
498.832	98.25
499.049	83.25
499.267	100.25
499.484	81.25
499.701	90.25
499.918	85.25
500.135	97.25
500.352	109.25
500.569	108.25
500.786	121.25
501.003	91.25
501.22	96.25
501.437	84.25
501.654	93.25
501.871	87.25
502.088	85.25
502.305	91.25
502.522	92.25
502.739	89.25
502.956	94.25
503.172	87.25
503.389	84.25
503.606	105.25
503.823	94.25
504.04	88.25
504.256	98.25
504.473	79.25
504.69	88.25
504.907	98.25
505.123	91.25
505.34	86.25
505.557	94.25
505.773	85.25
505.99	76.25
506.207	89.25
506.423	88.25
506.64	80.25
506.856	104.25
507.073	79.25
507.289	87.25
507.506	88.25
507.722	104.25
507.939	100.25
508.155	102.25
508.372	92.25
508.588	92.25
508.805	92.25
509.021	87.25
509.238	91.25
509.454	98.25
509.67	105.25
509.887	100.25
510.103	126.25
510.319	184.25
510.536	512.25
510.752	1491.25
510.968	406.25
511.184	120.25
511.401	97.25
511.617	101.25
511.833	87.25
512.049	96.25
512.265	103.25
512.481	92.25
512.698	93.25
512.914	84.25
513.13	73.25
513.346	82.25
513.562	94.25
513.778	96.25
513.994	87.25
514.21	104.25
514.426	126.25
514.642	120.25
514.858	100.25
515.074	115.25
515.29	297.25
515.506	901.25
515.721	351.25
515.937	129.25
516.153	95.25
516.369	95.25
516.585	85.25
516.801	96.25
