Data from Circ_1982_H10_HRD10591_00045.txt Node
Date: Wed Jan 03 12:30:50 EST 2024
User: Yrep
Spectrometer: HR+D1059
Trigger mode: 1
Integration Time (sec): 1.000000E-1
Scans to average: 1
Electric dark correction enabled: true
Nonlinearity correction enabled: false
Boxcar width: 0
XAxis mode: Wavelengths
Number of Pixels in Spectrum: 2048
>>>>>Begin Spectral Data<<<<<
223.165	-16.25
223.4	-16.25
223.635	-16.25
223.869	-10.25
224.104	-11.25
224.338	-10.25
224.573	-31.25
224.808	-12.25
225.042	-11.25
225.277	-7.25
225.511	8.75
225.746	4.75
225.98	0.75
226.215	5.75
226.449	18.75
226.683	19.75
226.918	27.75
227.152	23.75
227.387	26.75
227.621	31.75
227.856	48.75
228.09	47.75
228.324	44.75
228.559	56.75
228.793	56.75
229.027	52.75
229.262	67.75
229.496	53.75
229.73	70.75
229.964	76.75
230.199	68.75
230.433	68.75
230.667	65.75
230.901	81.75
231.136	90.75
231.37	72.75
231.604	80.75
231.838	83.75
232.072	71.75
232.306	82.75
232.541	67.75
232.775	86.75
233.009	86.75
233.243	85.75
233.477	82.75
233.711	75.75
233.945	75.75
234.179	78.75
234.413	78.75
234.647	79.75
234.881	73.75
235.115	66.75
235.349	81.75
235.583	80.75
235.817	84.75
236.051	88.75
236.285	70.75
236.519	84.75
236.753	80.75
236.987	74.75
237.221	73.75
237.455	79.75
237.689	98.75
237.922	86.75
238.156	86.75
238.39	92.75
238.624	86.75
238.858	74.75
239.091	69.75
239.325	82.75
239.559	82.75
239.793	63.75
240.027	87.75
240.26	71.75
240.494	76.75
240.728	80.75
240.961	76.75
241.195	58.75
241.429	82.75
241.662	80.75
241.896	72.75
242.13	72.75
242.363	78.75
242.597	63.75
242.83	68.75
243.064	63.75
243.298	75.75
243.531	56.75
243.765	78.75
243.998	82.75
244.232	74.75
244.465	89.75
244.699	81.75
244.932	72.75
245.166	76.75
245.399	78.75
245.633	84.75
245.866	78.75
246.099	71.75
246.333	93.75
246.566	73.75
246.8	83.75
247.033	92.75
247.266	59.75
247.5	80.75
247.733	76.75
247.966	88.75
248.2	81.75
248.433	82.75
248.666	78.75
248.899	85.75
249.133	85.75
249.366	85.75
249.599	74.75
249.832	74.75
250.066	78.75
250.299	75.75
250.532	71.75
250.765	63.75
250.998	81.75
251.231	67.75
251.465	69.75
251.698	74.75
251.931	68.75
252.164	72.75
252.397	87.75
252.63	84.75
252.863	63.75
253.096	67.75
253.329	65.75
253.562	70.75
253.795	81.75
254.028	80.75
254.261	84.75
254.494	78.75
254.727	84.75
254.96	63.75
255.193	74.75
255.426	88.75
255.659	72.75
255.892	83.75
256.124	85.75
256.357	86.75
256.59	65.75
256.823	86.75
257.056	83.75
257.289	76.75
257.521	80.75
257.754	88.75
257.987	81.75
258.22	91.75
258.452	85.75
258.685	69.75
258.918	82.75
259.151	91.75
259.383	80.75
259.616	84.75
259.849	80.75
260.081	89.75
260.314	88.75
260.547	93.75
260.779	87.75
261.012	97.75
261.244	84.75
261.477	97.75
261.71	88.75
261.942	106.75
262.175	88.75
262.407	73.75
262.64	73.75
262.872	91.75
263.105	83.75
263.337	88.75
263.57	82.75
263.802	72.75
264.035	80.75
264.267	87.75
264.499	87.75
264.732	96.75
264.964	82.75
265.197	80.75
265.429	73.75
265.661	57.75
265.894	70.75
266.126	76.75
266.358	81.75
266.591	64.75
266.823	74.75
267.055	71.75
267.287	67.75
267.52	86.75
267.752	90.75
267.984	84.75
268.216	83.75
268.448	85.75
268.681	82.75
268.913	88.75
269.145	75.75
269.377	88.75
269.609	101.75
269.841	66.75
270.073	83.75
270.306	78.75
270.538	67.75
270.77	70.75
271.002	64.75
271.234	85.75
271.466	84.75
271.698	86.75
271.93	85.75
272.162	81.75
272.394	97.75
272.626	89.75
272.858	83.75
273.09	83.75
273.322	81.75
273.553	76.75
273.785	92.75
274.017	70.75
274.249	93.75
274.481	77.75
274.713	97.75
274.945	78.75
275.176	96.75
275.408	83.75
275.64	75.75
275.872	82.75
276.104	75.75
276.335	85.75
276.567	91.75
276.799	108.75
277.031	91.75
277.262	70.75
277.494	90.75
277.726	89.75
277.957	69.75
278.189	82.75
278.421	71.75
278.652	78.75
278.884	85.75
279.115	85.75
279.347	79.75
279.579	88.75
279.81	78.75
280.042	94.75
280.273	87.75
280.505	89.75
280.736	90.75
280.968	79.75
281.199	78.75
281.431	86.75
281.662	84.75
281.894	86.75
282.125	87.75
282.356	106.75
282.588	102.75
282.819	97.75
283.051	89.75
283.282	79.75
283.513	82.75
283.745	78.75
283.976	78.75
284.207	79.75
284.439	86.75
284.67	71.75
284.901	70.75
285.132	76.75
285.364	71.75
285.595	86.75
285.826	97.75
286.057	90.75
286.288	73.75
286.52	91.75
286.751	68.75
286.982	99.75
287.213	80.75
287.444	83.75
287.675	91.75
287.906	102.75
288.138	72.75
288.369	86.75
288.6	94.75
288.831	74.75
289.062	76.75
289.293	80.75
289.524	74.75
289.755	81.75
289.986	81.75
290.217	89.75
290.448	90.75
290.679	71.75
290.91	79.75
291.141	92.75
291.371	90.75
291.602	92.75
291.833	87.75
292.064	95.75
292.295	81.75
292.526	91.75
292.757	96.75
292.987	80.75
293.218	83.75
293.449	87.75
293.68	87.75
293.91	87.75
294.141	101.75
294.372	82.75
294.603	100.75
294.833	85.75
295.064	86.75
295.295	90.75
295.525	84.75
295.756	101.75
295.987	110.75
296.217	126.75
296.448	96.75
296.679	84.75
296.909	78.75
297.14	90.75
297.37	83.75
297.601	87.75
297.831	86.75
298.062	105.75
298.292	80.75
298.523	68.75
298.753	83.75
298.984	80.75
299.214	79.75
299.445	69.75
299.675	84.75
299.905	75.75
300.136	89.75
300.366	73.75
300.597	79.75
300.827	90.75
301.057	84.75
301.288	92.75
301.518	86.75
301.748	82.75
301.979	107.75
302.209	82.75
302.439	100.75
302.669	80.75
302.9	68.75
303.13	89.75
303.36	99.75
303.59	81.75
303.82	88.75
304.051	84.75
304.281	74.75
304.511	107.75
304.741	89.75
304.971	98.75
305.201	80.75
305.431	93.75
305.661	76.75
305.891	88.75
306.121	94.75
306.352	99.75
306.582	98.75
306.812	92.75
307.042	88.75
307.272	91.75
307.502	92.75
307.731	83.75
307.961	88.75
308.191	95.75
308.421	83.75
308.651	90.75
308.881	90.75
309.111	87.75
309.341	90.75
309.571	81.75
309.8	104.75
310.03	114.75
310.26	87.75
310.49	95.75
310.72	75.75
310.949	94.75
311.179	80.75
311.409	97.75
311.639	84.75
311.868	77.75
312.098	86.75
312.328	98.75
312.557	87.75
312.787	95.75
313.017	96.75
313.246	95.75
313.476	99.75
313.706	96.75
313.935	96.75
314.165	99.75
314.394	98.75
314.624	96.75
314.853	90.75
315.083	98.75
315.312	82.75
315.542	86.75
315.771	83.75
316.001	79.75
316.23	87.75
316.46	92.75
316.689	96.75
316.919	87.75
317.148	94.75
317.377	98.75
317.607	104.75
317.836	94.75
318.065	78.75
318.295	87.75
318.524	88.75
318.753	81.75
318.983	91.75
319.212	107.75
319.441	95.75
319.67	94.75
319.9	102.75
320.129	97.75
320.358	92.75
320.587	108.75
320.816	75.75
321.046	93.75
321.275	110.75
321.504	89.75
321.733	99.75
321.962	98.75
322.191	91.75
322.42	86.75
322.649	104.75
322.878	95.75
323.108	112.75
323.337	108.75
323.566	114.75
323.795	120.75
324.024	177.75
324.253	271.75
324.482	600.75
324.71	1163.75
324.939	1475.75
325.168	571.75
325.397	193.75
325.626	120.75
325.855	115.75
326.084	116.75
326.313	119.75
326.542	122.75
326.77	180.75
326.999	326.75
327.228	655.75
327.457	1161.75
327.686	942.75
327.914	265.75
328.143	144.75
328.372	119.75
328.6	123.75
328.829	106.75
329.058	126.75
329.287	104.75
329.515	101.75
329.744	105.75
329.972	105.75
330.201	108.75
330.43	110.75
330.658	102.75
330.887	125.75
331.115	106.75
331.344	99.75
331.572	95.75
331.801	95.75
332.03	95.75
332.258	89.75
332.486	76.75
332.715	99.75
332.943	84.75
333.172	83.75
333.4	90.75
333.629	97.75
333.857	103.75
334.085	96.75
334.314	102.75
334.542	124.75
334.771	109.75
334.999	100.75
335.227	92.75
335.455	84.75
335.684	100.75
335.912	97.75
336.14	86.75
336.369	80.75
336.597	88.75
336.825	95.75
337.053	98.75
337.281	91.75
337.51	94.75
337.738	94.75
337.966	96.75
338.194	91.75
338.422	80.75
338.65	87.75
338.878	84.75
339.106	96.75
339.334	88.75
339.562	90.75
339.79	95.75
340.018	90.75
340.246	84.75
340.474	81.75
340.702	98.75
340.93	73.75
341.158	88.75
341.386	95.75
341.614	91.75
341.842	101.75
342.07	81.75
342.298	89.75
342.526	101.75
342.754	86.75
342.981	81.75
343.209	92.75
343.437	80.75
343.665	78.75
343.893	89.75
344.12	90.75
344.348	90.75
344.576	86.75
344.804	83.75
345.031	75.75
345.259	86.75
345.487	94.75
345.714	80.75
345.942	93.75
346.17	94.75
346.397	87.75
346.625	93.75
346.853	95.75
347.08	80.75
347.308	96.75
347.535	97.75
347.763	90.75
347.99	90.75
348.218	101.75
348.445	86.75
348.673	96.75
348.9	82.75
349.128	98.75
349.355	82.75
349.583	89.75
349.81	98.75
350.037	96.75
350.265	99.75
350.492	92.75
350.72	92.75
350.947	99.75
351.174	97.75
351.402	109.75
351.629	113.75
351.856	98.75
352.083	94.75
352.311	81.75
352.538	90.75
352.765	95.75
352.992	88.75
353.22	107.75
353.447	92.75
353.674	105.75
353.901	103.75
354.128	91.75
354.355	92.75
354.583	94.75
354.81	94.75
355.037	86.75
355.264	93.75
355.491	92.75
355.718	81.75
355.945	102.75
356.172	102.75
356.399	85.75
356.626	92.75
356.853	88.75
357.08	100.75
357.307	92.75
357.534	84.75
357.761	91.75
357.988	91.75
358.215	93.75
358.441	87.75
358.668	91.75
358.895	94.75
359.122	94.75
359.349	87.75
359.576	102.75
359.802	99.75
360.029	103.75
360.256	87.75
360.483	82.75
360.709	80.75
360.936	71.75
361.163	74.75
361.39	100.75
361.616	88.75
361.843	91.75
362.07	72.75
362.296	95.75
362.523	84.75
362.749	82.75
362.976	59.75
363.203	81.75
363.429	98.75
363.656	97.75
363.882	84.75
364.109	98.75
364.335	76.75
364.562	83.75
364.788	58.75
365.015	96.75
365.241	89.75
365.468	98.75
365.694	103.75
365.92	82.75
366.147	94.75
366.373	98.75
366.599	65.75
366.826	87.75
367.052	82.75
367.278	89.75
367.505	89.75
367.731	92.75
367.957	73.75
368.184	90.75
368.41	86.75
368.636	101.75
368.862	101.75
369.089	86.75
369.315	107.75
369.541	97.75
369.767	84.75
369.993	88.75
370.219	86.75
370.445	82.75
370.672	80.75
370.898	99.75
371.124	84.75
371.35	78.75
371.576	80.75
371.802	86.75
372.028	85.75
372.254	84.75
372.48	87.75
372.706	82.75
372.932	80.75
373.158	84.75
373.384	100.75
373.61	89.75
373.835	90.75
374.061	83.75
374.287	85.75
374.513	87.75
374.739	101.75
374.965	78.75
375.191	88.75
375.416	88.75
375.642	86.75
375.868	78.75
376.094	98.75
376.319	106.75
376.545	90.75
376.771	85.75
376.997	92.75
377.222	72.75
377.448	85.75
377.674	70.75
377.899	80.75
378.125	80.75
378.35	92.75
378.576	91.75
378.802	82.75
379.027	106.75
379.253	88.75
379.478	88.75
379.704	87.75
379.929	89.75
380.155	83.75
380.38	86.75
380.606	94.75
380.831	90.75
381.057	83.75
381.282	81.75
381.507	87.75
381.733	88.75
381.958	86.75
382.184	102.75
382.409	98.75
382.634	111.75
382.86	85.75
383.085	90.75
383.31	107.75
383.535	102.75
383.761	90.75
383.986	100.75
384.211	99.75
384.436	101.75
384.662	88.75
384.887	82.75
385.112	95.75
385.337	108.75
385.562	94.75
385.787	96.75
386.013	125.75
386.238	116.75
386.463	103.75
386.688	103.75
386.913	104.75
387.138	96.75
387.363	102.75
387.588	97.75
387.813	96.75
388.038	100.75
388.263	97.75
388.488	106.75
388.713	88.75
388.938	86.75
389.163	93.75
389.387	94.75
389.612	82.75
389.837	82.75
390.062	90.75
390.287	81.75
390.512	87.75
390.736	90.75
390.961	87.75
391.186	86.75
391.411	97.75
391.636	90.75
391.86	69.75
392.085	94.75
392.31	100.75
392.534	80.75
392.759	89.75
392.984	80.75
393.208	78.75
393.433	96.75
393.658	92.75
393.882	94.75
394.107	84.75
394.331	93.75
394.556	83.75
394.78	91.75
395.005	91.75
395.229	74.75
395.454	83.75
395.678	95.75
395.903	82.75
396.127	88.75
396.352	92.75
396.576	84.75
396.801	93.75
397.025	97.75
397.249	91.75
397.474	82.75
397.698	79.75
397.922	94.75
398.147	65.75
398.371	81.75
398.595	96.75
398.82	73.75
399.044	84.75
399.268	81.75
399.492	96.75
399.717	99.75
399.941	90.75
400.165	105.75
400.389	96.75
400.613	102.75
400.837	87.75
401.062	87.75
401.286	87.75
401.51	95.75
401.734	89.75
401.958	96.75
402.182	98.75
402.406	114.75
402.63	92.75
402.854	86.75
403.078	90.75
403.302	82.75
403.526	89.75
403.75	90.75
403.974	90.75
404.198	90.75
404.422	103.75
404.645	84.75
404.869	98.75
405.093	93.75
405.317	84.75
405.541	88.75
405.765	105.75
405.988	114.75
406.212	154.75
406.436	165.75
406.66	123.75
406.883	86.75
407.107	93.75
407.331	104.75
407.555	82.75
407.778	93.75
408.002	100.75
408.226	88.75
408.449	81.75
408.673	86.75
408.896	76.75
409.12	91.75
409.344	88.75
409.567	91.75
409.791	95.75
410.014	83.75
410.238	81.75
410.461	97.75
410.685	91.75
410.908	82.75
411.132	100.75
411.355	92.75
411.578	81.75
411.802	96.75
412.025	84.75
412.249	78.75
412.472	88.75
412.695	109.75
412.919	87.75
413.142	86.75
413.365	90.75
413.589	64.75
413.812	99.75
414.035	82.75
414.258	87.75
414.482	76.75
414.705	94.75
414.928	89.75
415.151	91.75
415.374	102.75
415.597	84.75
415.821	84.75
416.044	95.75
416.267	82.75
416.49	96.75
416.713	83.75
416.936	88.75
417.159	87.75
417.382	94.75
417.605	89.75
417.828	96.75
418.051	84.75
418.274	90.75
418.497	75.75
418.72	94.75
418.943	81.75
419.166	86.75
419.389	81.75
419.611	77.75
419.834	67.75
420.057	97.75
420.28	92.75
420.503	96.75
420.726	83.75
420.948	80.75
421.171	86.75
421.394	85.75
421.617	86.75
421.839	97.75
422.062	74.75
422.285	93.75
422.507	88.75
422.73	93.75
422.953	85.75
423.175	75.75
423.398	80.75
423.621	91.75
423.843	84.75
424.066	81.75
424.288	87.75
424.511	79.75
424.733	78.75
424.956	78.75
425.178	85.75
425.401	92.75
425.623	91.75
425.846	79.75
426.068	94.75
426.291	91.75
426.513	86.75
426.735	87.75
426.958	99.75
427.18	94.75
427.402	129.75
427.625	112.75
427.847	103.75
428.069	98.75
428.292	73.75
428.514	94.75
428.736	78.75
428.958	79.75
429.181	85.75
429.403	93.75
429.625	76.75
429.847	83.75
430.069	80.75
430.292	95.75
430.514	79.75
430.736	91.75
430.958	89.75
431.18	88.75
431.402	82.75
431.624	92.75
431.846	101.75
432.068	100.75
432.29	58.75
432.512	92.75
432.734	82.75
432.956	91.75
433.178	88.75
433.4	95.75
433.622	81.75
433.844	81.75
434.066	105.75
434.287	88.75
434.509	87.75
434.731	92.75
434.953	90.75
435.175	91.75
435.397	80.75
435.618	84.75
435.84	105.75
436.062	110.75
436.284	100.75
436.505	82.75
436.727	103.75
436.949	102.75
437.17	84.75
437.392	88.75
437.614	96.75
437.835	97.75
438.057	97.75
438.278	80.75
438.5	92.75
438.721	87.75
438.943	113.75
439.165	83.75
439.386	88.75
439.608	96.75
439.829	81.75
440.05	101.75
440.272	117.75
440.493	88.75
440.715	76.75
440.936	84.75
441.158	91.75
441.379	89.75
441.6	82.75
441.822	74.75
442.043	97.75
442.264	91.75
442.486	91.75
442.707	99.75
442.928	94.75
443.149	98.75
443.371	122.75
443.592	84.75
443.813	92.75
444.034	98.75
444.255	95.75
444.476	91.75
444.698	81.75
444.919	94.75
445.14	127.75
445.361	129.75
445.582	106.75
445.803	117.75
446.024	119.75
446.245	125.75
446.466	105.75
446.687	83.75
446.908	75.75
447.129	67.75
447.35	85.75
447.571	95.75
447.792	87.75
448.013	95.75
448.234	102.75
448.455	86.75
448.675	105.75
448.896	104.75
449.117	87.75
449.338	89.75
449.559	112.75
449.779	99.75
450	73.75
450.221	79.75
450.442	92.75
450.662	101.75
450.883	98.75
451.104	97.75
451.324	83.75
451.545	62.75
451.766	83.75
451.986	73.75
452.207	86.75
452.428	75.75
452.648	79.75
452.869	91.75
453.089	103.75
453.31	100.75
453.53	86.75
453.751	69.75
453.971	72.75
454.192	90.75
454.412	82.75
454.633	86.75
454.853	84.75
455.073	91.75
455.294	88.75
455.514	91.75
455.734	94.75
455.955	105.75
456.175	69.75
456.395	60.75
456.616	86.75
456.836	92.75
457.056	87.75
457.276	74.75
457.497	78.75
457.717	80.75
457.937	86.75
458.157	87.75
458.377	95.75
458.598	97.75
458.818	126.75
459.038	113.75
459.258	110.75
459.478	100.75
459.698	98.75
459.918	76.75
460.138	72.75
460.358	74.75
460.578	95.75
460.798	79.75
461.018	82.75
461.238	94.75
461.458	84.75
461.678	72.75
461.898	80.75
462.118	92.75
462.338	83.75
462.558	78.75
462.777	82.75
462.997	85.75
463.217	88.75
463.437	85.75
463.657	90.75
463.876	90.75
464.096	88.75
464.316	98.75
464.536	95.75
464.755	99.75
464.975	97.75
465.195	123.75
465.414	124.75
465.634	80.75
465.854	83.75
466.073	90.75
466.293	79.75
466.512	78.75
466.732	83.75
466.951	77.75
467.171	92.75
467.391	89.75
467.61	94.75
467.829	92.75
468.049	98.75
468.268	86.75
468.488	81.75
468.707	81.75
468.927	92.75
469.146	90.75
469.365	87.75
469.585	90.75
469.804	76.75
470.023	106.75
470.243	83.75
470.462	79.75
470.681	87.75
470.901	89.75
471.12	82.75
471.339	86.75
471.558	97.75
471.777	93.75
471.997	85.75
472.216	104.75
472.435	124.75
472.654	103.75
472.873	90.75
473.092	63.75
473.311	70.75
473.53	80.75
473.749	84.75
473.968	86.75
474.187	109.75
474.406	97.75
474.625	83.75
474.844	86.75
475.063	75.75
475.282	80.75
475.501	97.75
475.72	70.75
475.939	86.75
476.158	96.75
476.377	90.75
476.596	86.75
476.814	83.75
477.033	89.75
477.252	86.75
477.471	84.75
477.69	80.75
477.908	82.75
478.127	95.75
478.346	87.75
478.564	86.75
478.783	101.75
479.002	69.75
479.22	81.75
479.439	88.75
479.658	104.75
479.876	96.75
480.095	92.75
480.313	84.75
480.532	79.75
480.751	94.75
480.969	98.75
481.188	154.75
481.406	125.75
481.624	84.75
481.843	91.75
482.061	87.75
482.28	80.75
482.498	83.75
482.717	87.75
482.935	92.75
483.153	88.75
483.372	89.75
483.59	79.75
483.808	81.75
484.027	75.75
484.245	99.75
484.463	90.75
484.681	112.75
484.9	103.75
485.118	96.75
485.336	105.75
485.554	95.75
485.772	103.75
485.99	109.75
486.209	108.75
486.427	94.75
486.645	103.75
486.863	97.75
487.081	90.75
487.299	98.75
487.517	96.75
487.735	97.75
487.953	110.75
488.171	87.75
488.389	105.75
488.607	90.75
488.825	81.75
489.043	91.75
489.261	83.75
489.479	93.75
489.696	78.75
489.914	72.75
490.132	86.75
490.35	107.75
490.568	99.75
490.786	87.75
491.003	80.75
491.221	91.75
491.439	98.75
491.657	97.75
491.874	81.75
492.092	90.75
492.31	76.75
492.527	78.75
492.745	80.75
492.963	74.75
493.18	81.75
493.398	94.75
493.615	78.75
493.833	98.75
494.05	82.75
494.268	92.75
494.485	80.75
494.703	91.75
494.92	86.75
495.138	98.75
495.355	95.75
495.573	101.75
495.79	105.75
496.008	81.75
496.225	83.75
496.442	91.75
496.66	102.75
496.877	94.75
497.094	100.75
497.312	88.75
497.529	86.75
497.746	80.75
497.963	80.75
498.181	86.75
498.398	80.75
498.615	99.75
498.832	79.75
499.049	84.75
499.267	85.75
499.484	86.75
499.701	78.75
499.918	102.75
500.135	89.75
500.352	91.75
500.569	102.75
500.786	80.75
501.003	90.75
501.22	74.75
501.437	94.75
501.654	95.75
501.871	103.75
502.088	88.75
502.305	101.75
502.522	90.75
502.739	91.75
502.956	89.75
503.172	91.75
503.389	92.75
503.606	97.75
503.823	84.75
504.04	91.75
504.256	99.75
504.473	88.75
504.69	92.75
504.907	87.75
505.123	93.75
505.34	94.75
505.557	91.75
505.773	91.75
505.99	93.75
506.207	80.75
506.423	75.75
506.64	87.75
506.856	91.75
507.073	92.75
507.289	103.75
507.506	100.75
507.722	107.75
507.939	90.75
508.155	86.75
508.372	83.75
508.588	82.75
508.805	87.75
509.021	97.75
509.238	89.75
509.454	93.75
509.67	94.75
509.887	97.75
510.103	113.75
510.319	165.75
510.536	532.75
510.752	1564.75
510.968	455.75
511.184	142.75
511.401	98.75
511.617	88.75
511.833	96.75
512.049	90.75
512.265	92.75
512.481	99.75
512.698	92.75
512.914	101.75
513.13	92.75
513.346	88.75
513.562	87.75
513.778	98.75
513.994	96.75
514.21	103.75
514.426	95.75
514.642	113.75
514.858	92.75
515.074	146.75
515.29	306.75
515.506	946.75
515.721	348.75
515.937	124.75
516.153	110.75
516.369	107.75
516.585	85.75
516.801	96.75
517.016	103.75
517.232	82.75
