Data from Circ_1982_H10_HRD10591_00044.txt Node
Date: Wed Jan 03 12:30:50 EST 2024
User: Yrep
Spectrometer: HR+D1059
Trigger mode: 1
Integration Time (sec): 1.000000E-1
Scans to average: 1
Electric dark correction enabled: true
Nonlinearity correction enabled: false
Boxcar width: 0
XAxis mode: Wavelengths
Number of Pixels in Spectrum: 2048
>>>>>Begin Spectral Data<<<<<
223.165	-4.38
223.4	-4.38
223.635	-4.38
223.869	-21.38
224.104	-17.38
224.338	-19.38
224.573	-17.38
224.808	-7.38
225.042	-3.38
225.277	-20.38
225.511	-2.38
225.746	10.62
225.98	5.62
226.215	11.62
226.449	8.62
226.683	19.62
226.918	19.62
227.152	37.62
227.387	15.62
227.621	41.62
227.856	43.62
228.09	43.62
228.324	36.62
228.559	57.62
228.793	55.62
229.027	52.62
229.262	70.62
229.496	55.62
229.73	66.62
229.964	79.62
230.199	76.62
230.433	68.62
230.667	88.62
230.901	92.62
231.136	86.62
231.37	75.62
231.604	81.62
231.838	72.62
232.072	85.62
232.306	79.62
232.541	80.62
232.775	76.62
233.009	82.62
233.243	82.62
233.477	81.62
233.711	65.62
233.945	92.62
234.179	85.62
234.413	81.62
234.647	75.62
234.881	87.62
235.115	72.62
235.349	74.62
235.583	74.62
235.817	71.62
236.051	75.62
236.285	85.62
236.519	64.62
236.753	74.62
236.987	71.62
237.221	84.62
237.455	80.62
237.689	77.62
237.922	68.62
238.156	72.62
238.39	65.62
238.624	67.62
238.858	68.62
239.091	73.62
239.325	67.62
239.559	83.62
239.793	77.62
240.027	71.62
240.26	82.62
240.494	76.62
240.728	73.62
240.961	63.62
241.195	66.62
241.429	76.62
241.662	69.62
241.896	68.62
242.13	64.62
242.363	67.62
242.597	71.62
242.83	73.62
243.064	89.62
243.298	81.62
243.531	77.62
243.765	75.62
243.998	92.62
244.232	82.62
244.465	81.62
244.699	81.62
244.932	71.62
245.166	78.62
245.399	69.62
245.633	67.62
245.866	80.62
246.099	71.62
246.333	79.62
246.566	79.62
246.8	72.62
247.033	79.62
247.266	66.62
247.5	81.62
247.733	83.62
247.966	87.62
248.2	80.62
248.433	92.62
248.666	78.62
248.899	82.62
249.133	89.62
249.366	104.62
249.599	87.62
249.832	79.62
250.066	83.62
250.299	79.62
250.532	84.62
250.765	84.62
250.998	96.62
251.231	82.62
251.465	85.62
251.698	74.62
251.931	70.62
252.164	64.62
252.397	63.62
252.63	91.62
252.863	79.62
253.096	87.62
253.329	88.62
253.562	68.62
253.795	82.62
254.028	77.62
254.261	90.62
254.494	88.62
254.727	84.62
254.96	67.62
255.193	80.62
255.426	84.62
255.659	91.62
255.892	85.62
256.124	63.62
256.357	79.62
256.59	71.62
256.823	77.62
257.056	90.62
257.289	90.62
257.521	80.62
257.754	74.62
257.987	67.62
258.22	81.62
258.452	75.62
258.685	77.62
258.918	73.62
259.151	80.62
259.383	73.62
259.616	100.62
259.849	77.62
260.081	74.62
260.314	89.62
260.547	78.62
260.779	99.62
261.012	80.62
261.244	93.62
261.477	84.62
261.71	92.62
261.942	111.62
262.175	103.62
262.407	76.62
262.64	98.62
262.872	95.62
263.105	87.62
263.337	95.62
263.57	84.62
263.802	79.62
264.035	79.62
264.267	78.62
264.499	72.62
264.732	94.62
264.964	81.62
265.197	83.62
265.429	88.62
265.661	75.62
265.894	93.62
266.126	81.62
266.358	83.62
266.591	90.62
266.823	81.62
267.055	79.62
267.287	69.62
267.52	71.62
267.752	84.62
267.984	84.62
268.216	90.62
268.448	92.62
268.681	91.62
268.913	81.62
269.145	80.62
269.377	85.62
269.609	80.62
269.841	90.62
270.073	66.62
270.306	89.62
270.538	72.62
270.77	75.62
271.002	80.62
271.234	75.62
271.466	76.62
271.698	79.62
271.93	85.62
272.162	83.62
272.394	77.62
272.626	76.62
272.858	97.62
273.09	81.62
273.322	81.62
273.553	85.62
273.785	79.62
274.017	85.62
274.249	79.62
274.481	86.62
274.713	83.62
274.945	81.62
275.176	82.62
275.408	84.62
275.64	79.62
275.872	75.62
276.104	90.62
276.335	96.62
276.567	106.62
276.799	90.62
277.031	92.62
277.262	85.62
277.494	88.62
277.726	95.62
277.957	82.62
278.189	97.62
278.421	97.62
278.652	80.62
278.884	84.62
279.115	78.62
279.347	80.62
279.579	69.62
279.81	79.62
280.042	71.62
280.273	80.62
280.505	93.62
280.736	93.62
280.968	83.62
281.199	90.62
281.431	83.62
281.662	85.62
281.894	90.62
282.125	94.62
282.356	98.62
282.588	103.62
282.819	105.62
283.051	88.62
283.282	75.62
283.513	96.62
283.745	90.62
283.976	91.62
284.207	101.62
284.439	81.62
284.67	89.62
284.901	92.62
285.132	84.62
285.364	88.62
285.595	75.62
285.826	88.62
286.057	87.62
286.288	87.62
286.52	82.62
286.751	76.62
286.982	87.62
287.213	79.62
287.444	82.62
287.675	96.62
287.906	96.62
288.138	81.62
288.369	80.62
288.6	82.62
288.831	87.62
289.062	101.62
289.293	87.62
289.524	73.62
289.755	86.62
289.986	87.62
290.217	93.62
290.448	74.62
290.679	93.62
290.91	84.62
291.141	96.62
291.371	96.62
291.602	82.62
291.833	80.62
292.064	88.62
292.295	80.62
292.526	81.62
292.757	74.62
292.987	70.62
293.218	89.62
293.449	72.62
293.68	80.62
293.91	80.62
294.141	83.62
294.372	73.62
294.603	79.62
294.833	77.62
295.064	84.62
295.295	75.62
295.525	82.62
295.756	91.62
295.987	112.62
296.217	112.62
296.448	111.62
296.679	97.62
296.909	84.62
297.14	92.62
297.37	97.62
297.601	84.62
297.831	88.62
298.062	86.62
298.292	85.62
298.523	73.62
298.753	79.62
298.984	68.62
299.214	76.62
299.445	87.62
299.675	96.62
299.905	91.62
300.136	89.62
300.366	92.62
300.597	93.62
300.827	82.62
301.057	100.62
301.288	88.62
301.518	91.62
301.748	100.62
301.979	98.62
302.209	96.62
302.439	85.62
302.669	77.62
302.9	91.62
303.13	107.62
303.36	87.62
303.59	87.62
303.82	101.62
304.051	91.62
304.281	103.62
304.511	87.62
304.741	97.62
304.971	83.62
305.201	85.62
305.431	95.62
305.661	83.62
305.891	85.62
306.121	96.62
306.352	96.62
306.582	94.62
306.812	89.62
307.042	73.62
307.272	94.62
307.502	98.62
307.731	82.62
307.961	95.62
308.191	80.62
308.421	86.62
308.651	93.62
308.881	104.62
309.111	94.62
309.341	93.62
309.571	77.62
309.8	92.62
310.03	90.62
310.26	82.62
310.49	93.62
310.72	103.62
310.949	100.62
311.179	89.62
311.409	92.62
311.639	95.62
311.868	93.62
312.098	98.62
312.328	92.62
312.557	87.62
312.787	96.62
313.017	99.62
313.246	98.62
313.476	96.62
313.706	82.62
313.935	85.62
314.165	87.62
314.394	93.62
314.624	84.62
314.853	73.62
315.083	96.62
315.312	77.62
315.542	103.62
315.771	87.62
316.001	102.62
316.23	92.62
316.46	91.62
316.689	76.62
316.919	92.62
317.148	99.62
317.377	93.62
317.607	79.62
317.836	83.62
318.065	104.62
318.295	89.62
318.524	90.62
318.753	88.62
318.983	89.62
319.212	89.62
319.441	82.62
319.67	93.62
319.9	75.62
320.129	106.62
320.358	92.62
320.587	88.62
320.816	109.62
321.046	99.62
321.275	97.62
321.504	95.62
321.733	98.62
321.962	85.62
322.191	94.62
322.42	101.62
322.649	110.62
322.878	113.62
323.108	127.62
323.337	121.62
323.566	116.62
323.795	121.62
324.024	157.62
324.253	285.62
324.482	569.62
324.71	1138.62
324.939	1441.62
325.168	555.62
325.397	184.62
325.626	120.62
325.855	107.62
326.084	117.62
326.313	120.62
326.542	123.62
326.77	175.62
326.999	315.62
327.228	642.62
327.457	1156.62
327.686	901.62
327.914	264.62
328.143	175.62
328.372	131.62
328.6	122.62
328.829	109.62
329.058	108.62
329.287	111.62
329.515	104.62
329.744	107.62
329.972	100.62
330.201	100.62
330.43	106.62
330.658	114.62
330.887	120.62
331.115	105.62
331.344	92.62
331.572	105.62
331.801	75.62
332.03	101.62
332.258	83.62
332.486	82.62
332.715	89.62
332.943	92.62
333.172	82.62
333.4	101.62
333.629	82.62
333.857	86.62
334.085	96.62
334.314	101.62
334.542	123.62
334.771	117.62
334.999	99.62
335.227	91.62
335.455	88.62
335.684	86.62
335.912	76.62
336.14	103.62
336.369	100.62
336.597	95.62
336.825	98.62
337.053	89.62
337.281	83.62
337.51	92.62
337.738	100.62
337.966	81.62
338.194	86.62
338.422	89.62
338.65	91.62
338.878	95.62
339.106	89.62
339.334	102.62
339.562	92.62
339.79	87.62
340.018	91.62
340.246	95.62
340.474	91.62
340.702	92.62
340.93	87.62
341.158	97.62
341.386	100.62
341.614	90.62
341.842	86.62
342.07	103.62
342.298	86.62
342.526	94.62
342.754	85.62
342.981	90.62
343.209	86.62
343.437	104.62
343.665	84.62
343.893	99.62
344.12	102.62
344.348	90.62
344.576	83.62
344.804	86.62
345.031	96.62
345.259	95.62
345.487	85.62
345.714	85.62
345.942	88.62
346.17	80.62
346.397	86.62
346.625	106.62
346.853	104.62
347.08	98.62
347.308	97.62
347.535	89.62
347.763	97.62
347.99	91.62
348.218	91.62
348.445	81.62
348.673	100.62
348.9	92.62
349.128	99.62
349.355	96.62
349.583	84.62
349.81	85.62
350.037	87.62
350.265	96.62
350.492	98.62
350.72	99.62
350.947	97.62
351.174	99.62
351.402	93.62
351.629	100.62
351.856	104.62
352.083	97.62
352.311	104.62
352.538	106.62
352.765	104.62
352.992	108.62
353.22	103.62
353.447	102.62
353.674	101.62
353.901	104.62
354.128	98.62
354.355	97.62
354.583	102.62
354.81	108.62
355.037	86.62
355.264	92.62
355.491	102.62
355.718	89.62
355.945	93.62
356.172	101.62
356.399	104.62
356.626	107.62
356.853	113.62
357.08	100.62
357.307	92.62
357.534	81.62
357.761	83.62
357.988	81.62
358.215	83.62
358.441	99.62
358.668	80.62
358.895	80.62
359.122	91.62
359.349	82.62
359.576	88.62
359.802	104.62
360.029	91.62
360.256	99.62
360.483	92.62
360.709	83.62
360.936	103.62
361.163	89.62
361.39	92.62
361.616	69.62
361.843	98.62
362.07	91.62
362.296	86.62
362.523	101.62
362.749	97.62
362.976	83.62
363.203	89.62
363.429	95.62
363.656	106.62
363.882	96.62
364.109	83.62
364.335	83.62
364.562	115.62
364.788	98.62
365.015	102.62
365.241	97.62
365.468	108.62
365.694	93.62
365.92	72.62
366.147	95.62
366.373	95.62
366.599	96.62
366.826	92.62
367.052	77.62
367.278	93.62
367.505	98.62
367.731	99.62
367.957	95.62
368.184	91.62
368.41	88.62
368.636	108.62
368.862	112.62
369.089	98.62
369.315	96.62
369.541	88.62
369.767	79.62
369.993	91.62
370.219	93.62
370.445	90.62
370.672	99.62
370.898	84.62
371.124	95.62
371.35	91.62
371.576	104.62
371.802	77.62
372.028	87.62
372.254	83.62
372.48	93.62
372.706	88.62
372.932	98.62
373.158	76.62
373.384	87.62
373.61	88.62
373.835	98.62
374.061	83.62
374.287	88.62
374.513	87.62
374.739	88.62
374.965	88.62
375.191	97.62
375.416	101.62
375.642	84.62
375.868	107.62
376.094	87.62
376.319	78.62
376.545	84.62
376.771	96.62
376.997	79.62
377.222	87.62
377.448	85.62
377.674	85.62
377.899	96.62
378.125	95.62
378.35	90.62
378.576	99.62
378.802	84.62
379.027	85.62
379.253	96.62
379.478	95.62
379.704	92.62
379.929	103.62
380.155	99.62
380.38	91.62
380.606	87.62
380.831	105.62
381.057	115.62
381.282	74.62
381.507	81.62
381.733	113.62
381.958	107.62
382.184	99.62
382.409	101.62
382.634	97.62
382.86	108.62
383.085	108.62
383.31	101.62
383.535	93.62
383.761	91.62
383.986	95.62
384.211	91.62
384.436	89.62
384.662	103.62
384.887	103.62
385.112	103.62
385.337	119.62
385.562	111.62
385.787	104.62
386.013	108.62
386.238	119.62
386.463	100.62
386.688	106.62
386.913	106.62
387.138	110.62
387.363	114.62
387.588	107.62
387.813	96.62
388.038	111.62
388.263	116.62
388.488	104.62
388.713	93.62
388.938	108.62
389.163	113.62
389.387	90.62
389.612	81.62
389.837	91.62
390.062	84.62
390.287	93.62
390.512	96.62
390.736	89.62
390.961	73.62
391.186	87.62
391.411	102.62
391.636	102.62
391.86	88.62
392.085	87.62
392.31	82.62
392.534	75.62
392.759	88.62
392.984	85.62
393.208	99.62
393.433	87.62
393.658	86.62
393.882	87.62
394.107	80.62
394.331	100.62
394.556	75.62
394.78	86.62
395.005	85.62
395.229	89.62
395.454	84.62
395.678	64.62
395.903	91.62
396.127	82.62
396.352	74.62
396.576	69.62
396.801	84.62
397.025	93.62
397.249	81.62
397.474	104.62
397.698	91.62
397.922	105.62
398.147	70.62
398.371	83.62
398.595	81.62
398.82	88.62
399.044	86.62
399.268	92.62
399.492	94.62
399.717	87.62
399.941	90.62
400.165	93.62
400.389	86.62
400.613	74.62
400.837	87.62
401.062	83.62
401.286	74.62
401.51	81.62
401.734	97.62
401.958	81.62
402.182	99.62
402.406	120.62
402.63	83.62
402.854	90.62
403.078	95.62
403.302	104.62
403.526	85.62
403.75	91.62
403.974	85.62
404.198	88.62
404.422	85.62
404.645	99.62
404.869	88.62
405.093	100.62
405.317	106.62
405.541	82.62
405.765	82.62
405.988	109.62
406.212	139.62
406.436	168.62
406.66	123.62
406.883	99.62
407.107	69.62
407.331	86.62
407.555	103.62
407.778	90.62
408.002	96.62
408.226	94.62
408.449	93.62
408.673	99.62
408.896	96.62
409.12	79.62
409.344	92.62
409.567	97.62
409.791	59.62
410.014	91.62
410.238	91.62
410.461	85.62
410.685	95.62
410.908	99.62
411.132	101.62
411.355	99.62
411.578	95.62
411.802	96.62
412.025	76.62
412.249	98.62
412.472	101.62
412.695	90.62
412.919	83.62
413.142	74.62
413.365	102.62
413.589	85.62
413.812	85.62
414.035	96.62
414.258	93.62
414.482	85.62
414.705	84.62
414.928	86.62
415.151	88.62
415.374	84.62
415.597	85.62
415.821	101.62
416.044	72.62
416.267	87.62
416.49	82.62
416.713	90.62
416.936	101.62
417.159	86.62
417.382	83.62
417.605	84.62
417.828	85.62
418.051	85.62
418.274	89.62
418.497	99.62
418.72	87.62
418.943	95.62
419.166	74.62
419.389	95.62
419.611	99.62
419.834	88.62
420.057	89.62
420.28	101.62
420.503	81.62
420.726	92.62
420.948	82.62
421.171	90.62
421.394	87.62
421.617	84.62
421.839	77.62
422.062	88.62
422.285	88.62
422.507	93.62
422.73	92.62
422.953	89.62
423.175	97.62
423.398	102.62
423.621	92.62
423.843	89.62
424.066	82.62
424.288	72.62
424.511	87.62
424.733	94.62
424.956	91.62
425.178	91.62
425.401	104.62
425.623	102.62
425.846	81.62
426.068	91.62
426.291	95.62
426.513	77.62
426.735	89.62
426.958	88.62
427.18	101.62
427.402	120.62
427.625	113.62
427.847	93.62
428.069	101.62
428.292	89.62
428.514	87.62
428.736	73.62
428.958	76.62
429.181	84.62
429.403	82.62
429.625	104.62
429.847	96.62
430.069	93.62
430.292	92.62
430.514	85.62
430.736	85.62
430.958	90.62
431.18	82.62
431.402	67.62
431.624	79.62
431.846	82.62
432.068	75.62
432.29	89.62
432.512	87.62
432.734	84.62
432.956	99.62
433.178	92.62
433.4	69.62
433.622	88.62
433.844	96.62
434.066	87.62
434.287	83.62
434.509	84.62
434.731	73.62
434.953	85.62
435.175	87.62
435.397	74.62
435.618	98.62
435.84	92.62
436.062	92.62
436.284	111.62
436.505	98.62
436.727	94.62
436.949	94.62
437.17	97.62
437.392	96.62
437.614	80.62
437.835	84.62
438.057	103.62
438.278	93.62
438.5	106.62
438.721	98.62
438.943	98.62
439.165	66.62
439.386	72.62
439.608	79.62
439.829	101.62
440.05	108.62
440.272	116.62
440.493	102.62
440.715	82.62
440.936	80.62
441.158	82.62
441.379	95.62
441.6	88.62
441.822	85.62
442.043	85.62
442.264	109.62
442.486	87.62
442.707	98.62
442.928	94.62
443.149	103.62
443.371	110.62
443.592	109.62
443.813	106.62
444.034	99.62
444.255	88.62
444.476	95.62
444.698	83.62
444.919	83.62
445.14	129.62
445.361	112.62
445.582	95.62
445.803	101.62
446.024	116.62
446.245	109.62
446.466	94.62
446.687	86.62
446.908	77.62
447.129	84.62
447.35	83.62
447.571	84.62
447.792	94.62
448.013	87.62
448.234	85.62
448.455	97.62
448.675	98.62
448.896	98.62
449.117	95.62
449.338	84.62
449.559	111.62
449.779	123.62
450	81.62
450.221	91.62
450.442	74.62
450.662	83.62
450.883	87.62
451.104	91.62
451.324	96.62
451.545	77.62
451.766	99.62
451.986	76.62
452.207	91.62
452.428	85.62
452.648	92.62
452.869	84.62
453.089	104.62
453.31	94.62
453.53	77.62
453.751	92.62
453.971	104.62
454.192	87.62
454.412	91.62
454.633	84.62
454.853	79.62
455.073	89.62
455.294	90.62
455.514	86.62
455.734	85.62
455.955	90.62
456.175	87.62
456.395	77.62
456.616	89.62
456.836	72.62
457.056	79.62
457.276	86.62
457.497	85.62
457.717	91.62
457.937	82.62
458.157	86.62
458.377	96.62
458.598	97.62
458.818	120.62
459.038	122.62
459.258	114.62
459.478	81.62
459.698	88.62
459.918	94.62
460.138	89.62
460.358	76.62
460.578	89.62
460.798	83.62
461.018	87.62
461.238	89.62
461.458	83.62
461.678	73.62
461.898	97.62
462.118	73.62
462.338	73.62
462.558	91.62
462.777	93.62
462.997	92.62
463.217	91.62
463.437	71.62
463.657	83.62
463.876	92.62
464.096	96.62
464.316	93.62
464.536	76.62
464.755	87.62
464.975	97.62
465.195	131.62
465.414	115.62
465.634	82.62
465.854	76.62
466.073	84.62
466.293	84.62
466.512	91.62
466.732	71.62
466.951	95.62
467.171	102.62
467.391	84.62
467.61	85.62
467.829	94.62
468.049	107.62
468.268	94.62
468.488	79.62
468.707	101.62
468.927	73.62
469.146	89.62
469.365	95.62
469.585	91.62
469.804	84.62
470.023	60.62
470.243	101.62
470.462	88.62
470.681	88.62
470.901	93.62
471.12	95.62
471.339	85.62
471.558	84.62
471.777	81.62
471.997	100.62
472.216	110.62
472.435	114.62
472.654	96.62
472.873	86.62
473.092	81.62
473.311	82.62
473.53	82.62
473.749	89.62
473.968	106.62
474.187	75.62
474.406	89.62
474.625	90.62
474.844	82.62
475.063	79.62
475.282	85.62
475.501	76.62
475.72	91.62
475.939	86.62
476.158	72.62
476.377	71.62
476.596	91.62
476.814	74.62
477.033	99.62
477.252	77.62
477.471	88.62
477.69	90.62
477.908	80.62
478.127	76.62
478.346	83.62
478.564	72.62
478.783	91.62
479.002	95.62
479.22	103.62
479.439	91.62
479.658	92.62
479.876	85.62
480.095	83.62
480.313	81.62
480.532	81.62
480.751	91.62
480.969	104.62
481.188	164.62
481.406	124.62
481.624	104.62
481.843	83.62
482.061	82.62
482.28	90.62
482.498	87.62
482.717	95.62
482.935	95.62
483.153	97.62
483.372	76.62
483.59	86.62
483.808	85.62
484.027	87.62
484.245	93.62
484.463	107.62
484.681	93.62
484.9	91.62
485.118	91.62
485.336	105.62
485.554	110.62
485.772	114.62
485.99	91.62
486.209	76.62
486.427	100.62
486.645	107.62
486.863	119.62
487.081	98.62
487.299	102.62
487.517	107.62
487.735	88.62
487.953	100.62
488.171	92.62
488.389	95.62
488.607	87.62
488.825	88.62
489.043	94.62
489.261	85.62
489.479	103.62
489.696	92.62
489.914	90.62
490.132	86.62
490.35	104.62
490.568	100.62
490.786	86.62
491.003	97.62
491.221	102.62
491.439	97.62
491.657	92.62
491.874	81.62
492.092	79.62
492.31	90.62
492.527	90.62
492.745	89.62
492.963	90.62
493.18	98.62
493.398	91.62
493.615	111.62
493.833	95.62
494.05	88.62
494.268	93.62
494.485	82.62
494.703	107.62
494.92	84.62
495.138	95.62
495.355	93.62
495.573	93.62
495.79	78.62
496.008	84.62
496.225	90.62
496.442	79.62
496.66	95.62
496.877	86.62
497.094	93.62
497.312	91.62
497.529	96.62
497.746	93.62
497.963	92.62
498.181	90.62
498.398	72.62
498.615	93.62
498.832	99.62
499.049	79.62
499.267	83.62
499.484	92.62
499.701	92.62
499.918	80.62
500.135	77.62
500.352	82.62
500.569	68.62
500.786	99.62
501.003	90.62
501.22	91.62
501.437	92.62
501.654	84.62
501.871	99.62
502.088	100.62
502.305	110.62
502.522	95.62
502.739	89.62
502.956	79.62
503.172	81.62
503.389	75.62
503.606	90.62
503.823	107.62
504.04	100.62
504.256	93.62
504.473	80.62
504.69	96.62
504.907	87.62
505.123	89.62
505.34	101.62
505.557	98.62
505.773	96.62
505.99	82.62
506.207	89.62
506.423	82.62
506.64	80.62
506.856	85.62
507.073	96.62
507.289	102.62
507.506	92.62
507.722	94.62
507.939	103.62
508.155	86.62
508.372	94.62
508.588	94.62
508.805	98.62
509.021	121.62
509.238	99.62
509.454	83.62
509.67	83.62
509.887	104.62
510.103	121.62
510.319	170.62
510.536	543.62
510.752	1577.62
510.968	464.62
511.184	130.62
511.401	100.62
511.617	105.62
511.833	100.62
512.049	95.62
512.265	82.62
512.481	83.62
512.698	92.62
512.914	88.62
513.13	92.62
513.346	97.62
513.562	76.62
513.778	82.62
513.994	97.62
514.21	97.62
514.426	103.62
514.642	113.62
514.858	110.62
515.074	120.62
515.29	317.62
515.506	930.62
515.721	352.62
515.937	124.62
516.153	98.62
516.369	86.62
516.585	92.62
