Data from Circ_1982_H10_HRD10591_00074.txt Node
Date: Wed Jan 03 12:30:56 EST 2024
User: Yrep
Spectrometer: HR+D1059
Trigger mode: 1
Integration Time (sec): 1.000000E-1
Scans to average: 1
Electric dark correction enabled: true
Nonlinearity correction enabled: false
Boxcar width: 0
XAxis mode: Wavelengths
Number of Pixels in Spectrum: 2048
>>>>>Begin Spectral Data<<<<<
223.165	-16.06
223.4	-16.06
223.635	-16.06
223.869	-21.06
224.104	-17.06
224.338	-20.06
224.573	-10.06
224.808	-3.06
225.042	-7.06
225.277	-4.06
225.511	-10.06
225.746	9.94
225.98	-0.06
226.215	8.94
226.449	11.94
226.683	15.94
226.918	24.94
227.152	36.94
227.387	35.94
227.621	21.94
227.856	41.94
228.09	46.94
228.324	51.94
228.559	47.94
228.793	67.94
229.027	52.94
229.262	67.94
229.496	72.94
229.73	74.94
229.964	72.94
230.199	62.94
230.433	84.94
230.667	88.94
230.901	72.94
231.136	63.94
231.37	76.94
231.604	68.94
231.838	77.94
232.072	104.94
232.306	85.94
232.541	93.94
232.775	86.94
233.009	78.94
233.243	71.94
233.477	85.94
233.711	65.94
233.945	68.94
234.179	84.94
234.413	82.94
234.647	82.94
234.881	84.94
235.115	74.94
235.349	84.94
235.583	86.94
235.817	81.94
236.051	71.94
236.285	70.94
236.519	73.94
236.753	83.94
236.987	71.94
237.221	84.94
237.455	68.94
237.689	76.94
237.922	77.94
238.156	70.94
238.39	58.94
238.624	69.94
238.858	77.94
239.091	62.94
239.325	76.94
239.559	82.94
239.793	81.94
240.027	86.94
240.26	72.94
240.494	70.94
240.728	68.94
240.961	72.94
241.195	84.94
241.429	84.94
241.662	83.94
241.896	87.94
242.13	79.94
242.363	64.94
242.597	85.94
242.83	81.94
243.064	92.94
243.298	80.94
243.531	75.94
243.765	77.94
243.998	66.94
244.232	81.94
244.465	80.94
244.699	66.94
244.932	84.94
245.166	82.94
245.399	90.94
245.633	76.94
245.866	77.94
246.099	75.94
246.333	76.94
246.566	78.94
246.8	75.94
247.033	76.94
247.266	75.94
247.5	78.94
247.733	90.94
247.966	64.94
248.2	81.94
248.433	78.94
248.666	70.94
248.899	68.94
249.133	90.94
249.366	79.94
249.599	87.94
249.832	73.94
250.066	82.94
250.299	84.94
250.532	90.94
250.765	84.94
250.998	70.94
251.231	80.94
251.465	71.94
251.698	92.94
251.931	81.94
252.164	87.94
252.397	87.94
252.63	80.94
252.863	77.94
253.096	73.94
253.329	77.94
253.562	75.94
253.795	82.94
254.028	99.94
254.261	83.94
254.494	65.94
254.727	72.94
254.96	65.94
255.193	66.94
255.426	77.94
255.659	84.94
255.892	74.94
256.124	85.94
256.357	75.94
256.59	89.94
256.823	87.94
257.056	65.94
257.289	72.94
257.521	88.94
257.754	71.94
257.987	72.94
258.22	73.94
258.452	81.94
258.685	68.94
258.918	88.94
259.151	85.94
259.383	96.94
259.616	68.94
259.849	77.94
260.081	86.94
260.314	64.94
260.547	65.94
260.779	87.94
261.012	82.94
261.244	88.94
261.477	78.94
261.71	85.94
261.942	84.94
262.175	98.94
262.407	85.94
262.64	90.94
262.872	84.94
263.105	93.94
263.337	86.94
263.57	82.94
263.802	83.94
264.035	91.94
264.267	78.94
264.499	96.94
264.732	78.94
264.964	84.94
265.197	88.94
265.429	85.94
265.661	98.94
265.894	85.94
266.126	85.94
266.358	69.94
266.591	85.94
266.823	92.94
267.055	77.94
267.287	94.94
267.52	88.94
267.752	74.94
267.984	97.94
268.216	91.94
268.448	93.94
268.681	71.94
268.913	76.94
269.145	92.94
269.377	101.94
269.609	92.94
269.841	83.94
270.073	89.94
270.306	71.94
270.538	71.94
270.77	73.94
271.002	82.94
271.234	77.94
271.466	86.94
271.698	75.94
271.93	70.94
272.162	65.94
272.394	79.94
272.626	88.94
272.858	82.94
273.09	79.94
273.322	79.94
273.553	82.94
273.785	83.94
274.017	83.94
274.249	82.94
274.481	85.94
274.713	88.94
274.945	76.94
275.176	82.94
275.408	98.94
275.64	81.94
275.872	73.94
276.104	76.94
276.335	84.94
276.567	101.94
276.799	96.94
277.031	91.94
277.262	81.94
277.494	72.94
277.726	94.94
277.957	80.94
278.189	82.94
278.421	86.94
278.652	97.94
278.884	79.94
279.115	89.94
279.347	79.94
279.579	74.94
279.81	86.94
280.042	100.94
280.273	84.94
280.505	88.94
280.736	89.94
280.968	84.94
281.199	77.94
281.431	99.94
281.662	90.94
281.894	89.94
282.125	80.94
282.356	115.94
282.588	131.94
282.819	105.94
283.051	89.94
283.282	82.94
283.513	89.94
283.745	76.94
283.976	89.94
284.207	86.94
284.439	87.94
284.67	72.94
284.901	86.94
285.132	98.94
285.364	88.94
285.595	78.94
285.826	77.94
286.057	83.94
286.288	92.94
286.52	105.94
286.751	91.94
286.982	87.94
287.213	76.94
287.444	78.94
287.675	81.94
287.906	89.94
288.138	87.94
288.369	97.94
288.6	93.94
288.831	84.94
289.062	86.94
289.293	90.94
289.524	78.94
289.755	88.94
289.986	84.94
290.217	89.94
290.448	87.94
290.679	82.94
290.91	93.94
291.141	86.94
291.371	84.94
291.602	93.94
291.833	85.94
292.064	94.94
292.295	96.94
292.526	98.94
292.757	91.94
292.987	83.94
293.218	80.94
293.449	81.94
293.68	89.94
293.91	94.94
294.141	81.94
294.372	86.94
294.603	67.94
294.833	77.94
295.064	88.94
295.295	104.94
295.525	107.94
295.756	98.94
295.987	109.94
296.217	131.94
296.448	106.94
296.679	89.94
296.909	76.94
297.14	88.94
297.37	87.94
297.601	81.94
297.831	96.94
298.062	102.94
298.292	83.94
298.523	94.94
298.753	85.94
298.984	94.94
299.214	86.94
299.445	94.94
299.675	88.94
299.905	74.94
300.136	92.94
300.366	82.94
300.597	88.94
300.827	89.94
301.057	98.94
301.288	89.94
301.518	90.94
301.748	89.94
301.979	105.94
302.209	87.94
302.439	60.94
302.669	85.94
302.9	86.94
303.13	92.94
303.36	99.94
303.59	101.94
303.82	103.94
304.051	92.94
304.281	87.94
304.511	84.94
304.741	88.94
304.971	88.94
305.201	81.94
305.431	82.94
305.661	89.94
305.891	105.94
306.121	102.94
306.352	92.94
306.582	86.94
306.812	90.94
307.042	90.94
307.272	90.94
307.502	93.94
307.731	82.94
307.961	93.94
308.191	78.94
308.421	82.94
308.651	84.94
308.881	91.94
309.111	99.94
309.341	91.94
309.571	92.94
309.8	87.94
310.03	93.94
310.26	99.94
310.49	80.94
310.72	87.94
310.949	93.94
311.179	89.94
311.409	107.94
311.639	94.94
311.868	97.94
312.098	87.94
312.328	90.94
312.557	90.94
312.787	98.94
313.017	91.94
313.246	92.94
313.476	88.94
313.706	94.94
313.935	93.94
314.165	81.94
314.394	81.94
314.624	98.94
314.853	105.94
315.083	95.94
315.312	86.94
315.542	92.94
315.771	92.94
316.001	96.94
316.23	86.94
316.46	86.94
316.689	76.94
316.919	88.94
317.148	107.94
317.377	96.94
317.607	88.94
317.836	95.94
318.065	86.94
318.295	82.94
318.524	91.94
318.753	92.94
318.983	86.94
319.212	96.94
319.441	102.94
319.67	99.94
319.9	93.94
320.129	86.94
320.358	82.94
320.587	87.94
320.816	97.94
321.046	107.94
321.275	85.94
321.504	91.94
321.733	88.94
321.962	85.94
322.191	71.94
322.42	104.94
322.649	110.94
322.878	88.94
323.108	96.94
323.337	120.94
323.566	127.94
323.795	132.94
324.024	165.94
324.253	282.94
324.482	572.94
324.71	1151.94
324.939	1480.94
325.168	553.94
325.397	196.94
325.626	132.94
325.855	107.94
326.084	107.94
326.313	120.94
326.542	135.94
326.77	210.94
326.999	340.94
327.228	649.94
327.457	1194.94
327.686	948.94
327.914	277.94
328.143	162.94
328.372	123.94
328.6	123.94
328.829	101.94
329.058	117.94
329.287	115.94
329.515	106.94
329.744	108.94
329.972	99.94
330.201	101.94
330.43	110.94
330.658	100.94
330.887	130.94
331.115	114.94
331.344	104.94
331.572	91.94
331.801	84.94
332.03	94.94
332.258	90.94
332.486	82.94
332.715	98.94
332.943	91.94
333.172	92.94
333.4	85.94
333.629	94.94
333.857	93.94
334.085	97.94
334.314	105.94
334.542	116.94
334.771	111.94
334.999	98.94
335.227	99.94
335.455	88.94
335.684	95.94
335.912	99.94
336.14	91.94
336.369	97.94
336.597	93.94
336.825	80.94
337.053	84.94
337.281	81.94
337.51	90.94
337.738	89.94
337.966	105.94
338.194	101.94
338.422	90.94
338.65	94.94
338.878	91.94
339.106	114.94
339.334	98.94
339.562	89.94
339.79	91.94
340.018	85.94
340.246	85.94
340.474	85.94
340.702	89.94
340.93	96.94
341.158	78.94
341.386	100.94
341.614	96.94
341.842	105.94
342.07	109.94
342.298	83.94
342.526	79.94
342.754	95.94
342.981	89.94
343.209	77.94
343.437	103.94
343.665	100.94
343.893	83.94
344.12	98.94
344.348	85.94
344.576	76.94
344.804	97.94
345.031	90.94
345.259	89.94
345.487	100.94
345.714	112.94
345.942	99.94
346.17	96.94
346.397	89.94
346.625	93.94
346.853	91.94
347.08	96.94
347.308	102.94
347.535	89.94
347.763	93.94
347.99	104.94
348.218	102.94
348.445	91.94
348.673	105.94
348.9	98.94
349.128	104.94
349.355	91.94
349.583	102.94
349.81	102.94
350.037	99.94
350.265	99.94
350.492	83.94
350.72	87.94
350.947	101.94
351.174	96.94
351.402	102.94
351.629	106.94
351.856	97.94
352.083	90.94
352.311	112.94
352.538	96.94
352.765	85.94
352.992	113.94
353.22	102.94
353.447	97.94
353.674	98.94
353.901	96.94
354.128	103.94
354.355	84.94
354.583	95.94
354.81	87.94
355.037	105.94
355.264	107.94
355.491	92.94
355.718	93.94
355.945	97.94
356.172	93.94
356.399	75.94
356.626	98.94
356.853	88.94
357.08	90.94
357.307	106.94
357.534	98.94
357.761	88.94
357.988	99.94
358.215	83.94
358.441	89.94
358.668	96.94
358.895	82.94
359.122	80.94
359.349	80.94
359.576	98.94
359.802	109.94
360.029	105.94
360.256	99.94
360.483	100.94
360.709	84.94
360.936	91.94
361.163	91.94
361.39	85.94
361.616	83.94
361.843	91.94
362.07	80.94
362.296	98.94
362.523	99.94
362.749	82.94
362.976	81.94
363.203	104.94
363.429	91.94
363.656	72.94
363.882	90.94
364.109	88.94
364.335	95.94
364.562	88.94
364.788	78.94
365.015	81.94
365.241	100.94
365.468	96.94
365.694	103.94
365.92	93.94
366.147	88.94
366.373	86.94
366.599	102.94
366.826	87.94
367.052	82.94
367.278	86.94
367.505	86.94
367.731	96.94
367.957	87.94
368.184	99.94
368.41	90.94
368.636	86.94
368.862	101.94
369.089	98.94
369.315	76.94
369.541	96.94
369.767	99.94
369.993	105.94
370.219	90.94
370.445	70.94
370.672	90.94
370.898	84.94
371.124	77.94
371.35	99.94
371.576	88.94
371.802	70.94
372.028	107.94
372.254	92.94
372.48	100.94
372.706	89.94
372.932	88.94
373.158	97.94
373.384	96.94
373.61	99.94
373.835	95.94
374.061	94.94
374.287	97.94
374.513	83.94
374.739	82.94
374.965	86.94
375.191	94.94
375.416	96.94
375.642	91.94
375.868	84.94
376.094	91.94
376.319	85.94
376.545	93.94
376.771	97.94
376.997	80.94
377.222	101.94
377.448	79.94
377.674	106.94
377.899	93.94
378.125	88.94
378.35	104.94
378.576	81.94
378.802	80.94
379.027	107.94
379.253	85.94
379.478	83.94
379.704	92.94
379.929	81.94
380.155	86.94
380.38	88.94
380.606	86.94
380.831	85.94
381.057	103.94
381.282	99.94
381.507	102.94
381.733	89.94
381.958	92.94
382.184	82.94
382.409	97.94
382.634	96.94
382.86	86.94
383.085	107.94
383.31	103.94
383.535	89.94
383.761	98.94
383.986	91.94
384.211	104.94
384.436	96.94
384.662	109.94
384.887	100.94
385.112	99.94
385.337	86.94
385.562	101.94
385.787	90.94
386.013	92.94
386.238	103.94
386.463	101.94
386.688	105.94
386.913	97.94
387.138	103.94
387.363	108.94
387.588	104.94
387.813	86.94
388.038	105.94
388.263	119.94
388.488	99.94
388.713	99.94
388.938	105.94
389.163	94.94
389.387	105.94
389.612	102.94
389.837	90.94
390.062	85.94
390.287	89.94
390.512	81.94
390.736	113.94
390.961	76.94
391.186	106.94
391.411	83.94
391.636	97.94
391.86	80.94
392.085	84.94
392.31	81.94
392.534	89.94
392.759	89.94
392.984	85.94
393.208	76.94
393.433	69.94
393.658	89.94
393.882	77.94
394.107	76.94
394.331	95.94
394.556	84.94
394.78	80.94
395.005	77.94
395.229	75.94
395.454	78.94
395.678	84.94
395.903	93.94
396.127	81.94
396.352	60.94
396.576	81.94
396.801	77.94
397.025	82.94
397.249	94.94
397.474	83.94
397.698	84.94
397.922	90.94
398.147	81.94
398.371	94.94
398.595	88.94
398.82	95.94
399.044	73.94
399.268	84.94
399.492	90.94
399.717	91.94
399.941	77.94
400.165	96.94
400.389	71.94
400.613	98.94
400.837	95.94
401.062	84.94
401.286	91.94
401.51	98.94
401.734	74.94
401.958	94.94
402.182	107.94
402.406	114.94
402.63	123.94
402.854	89.94
403.078	89.94
403.302	90.94
403.526	96.94
403.75	88.94
403.974	80.94
404.198	100.94
404.422	73.94
404.645	91.94
404.869	79.94
405.093	89.94
405.317	98.94
405.541	93.94
405.765	92.94
405.988	109.94
406.212	147.94
406.436	179.94
406.66	105.94
406.883	98.94
407.107	89.94
407.331	92.94
407.555	97.94
407.778	88.94
408.002	93.94
408.226	86.94
408.449	80.94
408.673	81.94
408.896	93.94
409.12	83.94
409.344	90.94
409.567	92.94
409.791	87.94
410.014	97.94
410.238	98.94
410.461	80.94
410.685	106.94
410.908	88.94
411.132	106.94
411.355	99.94
411.578	89.94
411.802	96.94
412.025	78.94
412.249	89.94
412.472	84.94
412.695	96.94
412.919	90.94
413.142	102.94
413.365	94.94
413.589	87.94
413.812	95.94
414.035	76.94
414.258	82.94
414.482	89.94
414.705	91.94
414.928	81.94
415.151	88.94
415.374	84.94
415.597	86.94
415.821	81.94
416.044	84.94
416.267	97.94
416.49	98.94
416.713	91.94
416.936	100.94
417.159	96.94
417.382	83.94
417.605	90.94
417.828	88.94
418.051	88.94
418.274	81.94
418.497	91.94
418.72	73.94
418.943	82.94
419.166	100.94
419.389	88.94
419.611	82.94
419.834	82.94
420.057	87.94
420.28	81.94
420.503	92.94
420.726	80.94
420.948	93.94
421.171	93.94
421.394	89.94
421.617	91.94
421.839	95.94
422.062	80.94
422.285	101.94
422.507	104.94
422.73	95.94
422.953	85.94
423.175	89.94
423.398	81.94
423.621	93.94
423.843	91.94
424.066	84.94
424.288	87.94
424.511	104.94
424.733	124.94
424.956	89.94
425.178	84.94
425.401	88.94
425.623	81.94
425.846	90.94
426.068	93.94
426.291	100.94
426.513	99.94
426.735	100.94
426.958	86.94
427.18	107.94
427.402	119.94
427.625	145.94
427.847	109.94
428.069	110.94
428.292	91.94
428.514	82.94
428.736	91.94
428.958	71.94
429.181	81.94
429.403	91.94
429.625	77.94
429.847	90.94
430.069	87.94
430.292	91.94
430.514	81.94
430.736	74.94
430.958	88.94
431.18	83.94
431.402	94.94
431.624	84.94
431.846	87.94
432.068	94.94
432.29	102.94
432.512	88.94
432.734	83.94
432.956	96.94
433.178	96.94
433.4	94.94
433.622	103.94
433.844	83.94
434.066	92.94
434.287	80.94
434.509	97.94
434.731	100.94
434.953	101.94
435.175	108.94
435.397	91.94
435.618	76.94
435.84	87.94
436.062	109.94
436.284	111.94
436.505	104.94
436.727	94.94
436.949	89.94
437.17	92.94
437.392	86.94
437.614	104.94
437.835	90.94
438.057	102.94
438.278	101.94
438.5	93.94
438.721	95.94
438.943	98.94
439.165	89.94
439.386	82.94
439.608	82.94
439.829	97.94
440.05	103.94
440.272	118.94
440.493	82.94
440.715	90.94
440.936	81.94
441.158	89.94
441.379	85.94
441.6	80.94
441.822	101.94
442.043	92.94
442.264	108.94
442.486	94.94
442.707	85.94
442.928	99.94
443.149	115.94
443.371	122.94
443.592	89.94
443.813	100.94
444.034	97.94
444.255	87.94
444.476	92.94
444.698	101.94
444.919	96.94
445.14	115.94
445.361	122.94
445.582	110.94
445.803	128.94
446.024	107.94
446.245	119.94
446.466	95.94
446.687	84.94
446.908	90.94
447.129	82.94
447.35	99.94
447.571	106.94
447.792	89.94
448.013	93.94
448.234	86.94
448.455	88.94
448.675	97.94
448.896	98.94
449.117	93.94
449.338	105.94
449.559	112.94
449.779	119.94
450	97.94
450.221	85.94
450.442	75.94
450.662	90.94
450.883	104.94
451.104	92.94
451.324	87.94
451.545	72.94
451.766	92.94
451.986	83.94
452.207	83.94
452.428	91.94
452.648	93.94
452.869	111.94
453.089	94.94
453.31	101.94
453.53	88.94
453.751	93.94
453.971	100.94
454.192	100.94
454.412	91.94
454.633	93.94
454.853	107.94
455.073	95.94
455.294	78.94
455.514	93.94
455.734	93.94
455.955	86.94
456.175	85.94
456.395	81.94
456.616	85.94
456.836	82.94
457.056	82.94
457.276	80.94
457.497	80.94
457.717	91.94
457.937	82.94
458.157	91.94
458.377	101.94
458.598	96.94
458.818	128.94
459.038	124.94
459.258	94.94
459.478	84.94
459.698	89.94
459.918	90.94
460.138	98.94
460.358	84.94
460.578	75.94
460.798	63.94
461.018	80.94
461.238	84.94
461.458	81.94
461.678	80.94
461.898	87.94
462.118	91.94
462.338	82.94
462.558	90.94
462.777	92.94
462.997	89.94
463.217	85.94
463.437	83.94
463.657	84.94
463.876	90.94
464.096	104.94
464.316	85.94
464.536	88.94
464.755	84.94
464.975	86.94
465.195	127.94
465.414	135.94
465.634	89.94
465.854	90.94
466.073	102.94
466.293	94.94
466.512	84.94
466.732	87.94
466.951	90.94
467.171	84.94
467.391	86.94
467.61	97.94
467.829	87.94
468.049	96.94
468.268	103.94
468.488	78.94
468.707	82.94
468.927	93.94
469.146	79.94
469.365	77.94
469.585	91.94
469.804	93.94
470.023	95.94
470.243	91.94
470.462	94.94
470.681	97.94
470.901	96.94
471.12	82.94
471.339	81.94
471.558	92.94
471.777	93.94
471.997	77.94
472.216	106.94
472.435	140.94
472.654	78.94
472.873	95.94
473.092	85.94
473.311	76.94
473.53	92.94
473.749	86.94
473.968	101.94
474.187	92.94
474.406	94.94
474.625	88.94
474.844	92.94
475.063	82.94
475.282	85.94
475.501	86.94
475.72	83.94
475.939	93.94
476.158	81.94
476.377	92.94
476.596	82.94
476.814	86.94
477.033	71.94
477.252	93.94
477.471	85.94
477.69	82.94
477.908	84.94
478.127	86.94
478.346	87.94
478.564	80.94
478.783	100.94
479.002	92.94
479.22	97.94
479.439	99.94
479.658	91.94
479.876	82.94
480.095	91.94
480.313	93.94
480.532	97.94
480.751	87.94
480.969	105.94
481.188	169.94
481.406	130.94
481.624	91.94
481.843	77.94
482.061	80.94
482.28	82.94
482.498	85.94
482.717	91.94
482.935	86.94
483.153	89.94
483.372	87.94
483.59	78.94
483.808	98.94
484.027	104.94
484.245	94.94
484.463	98.94
484.681	105.94
484.9	101.94
485.118	93.94
485.336	104.94
485.554	98.94
485.772	115.94
485.99	108.94
486.209	112.94
486.427	97.94
486.645	98.94
486.863	129.94
487.081	102.94
487.299	103.94
487.517	96.94
487.735	101.94
487.953	83.94
488.171	98.94
488.389	95.94
488.607	92.94
488.825	92.94
489.043	99.94
489.261	110.94
489.479	90.94
489.696	78.94
489.914	86.94
490.132	78.94
490.35	97.94
490.568	88.94
490.786	91.94
491.003	83.94
491.221	86.94
491.439	88.94
491.657	93.94
491.874	100.94
492.092	93.94
492.31	94.94
492.527	90.94
492.745	95.94
492.963	79.94
493.18	91.94
493.398	97.94
493.615	96.94
493.833	104.94
494.05	101.94
494.268	86.94
494.485	90.94
494.703	96.94
494.92	89.94
495.138	88.94
495.355	89.94
495.573	103.94
495.79	95.94
496.008	77.94
496.225	83.94
496.442	94.94
496.66	77.94
496.877	85.94
497.094	94.94
497.312	91.94
497.529	96.94
497.746	93.94
497.963	90.94
498.181	80.94
498.398	82.94
498.615	95.94
498.832	109.94
499.049	81.94
499.267	78.94
499.484	80.94
499.701	85.94
499.918	82.94
500.135	79.94
500.352	100.94
500.569	88.94
500.786	84.94
501.003	93.94
501.22	91.94
501.437	72.94
501.654	99.94
501.871	92.94
502.088	85.94
502.305	87.94
502.522	91.94
502.739	92.94
502.956	88.94
503.172	87.94
503.389	88.94
503.606	94.94
503.823	93.94
504.04	82.94
504.256	93.94
504.473	84.94
504.69	84.94
504.907	98.94
505.123	98.94
505.34	85.94
505.557	81.94
505.773	97.94
505.99	70.94
506.207	91.94
506.423	89.94
506.64	97.94
506.856	80.94
507.073	93.94
507.289	92.94
507.506	100.94
507.722	86.94
507.939	105.94
508.155	106.94
508.372	94.94
508.588	91.94
508.805	110.94
509.021	94.94
509.238	103.94
509.454	98.94
509.67	111.94
509.887	108.94
510.103	116.94
510.319	197.94
510.536	592.94
510.752	1666.94
510.968	455.94
511.184	121.94
511.401	112.94
511.617	104.94
511.833	83.94
512.049	80.94
512.265	93.94
512.481	91.94
512.698	85.94
512.914	92.94
513.13	99.94
513.346	111.94
513.562	77.94
513.778	88.94
513.994	96.94
514.21	100.94
514.426	98.94
514.642	123.94
514.858	100.94
515.074	128.94
515.29	324.94
515.506	939.94
515.721	361.94
515.937	120.94
516.153	103.94
516.369	86.94
516.585	103.94
