Data from Circ_1982_H10_HRD10591_00062.txt Node
Date: Wed Jan 03 12:30:53 EST 2024
User: Yrep
Spectrometer: HR+D1059
Trigger mode: 1
Integration Time (sec): 1.000000E-1
Scans to average: 1
Electric dark correction enabled: true
Nonlinearity correction enabled: false
Boxcar width: 0
XAxis mode: Wavelengths
Number of Pixels in Spectrum: 2048
>>>>>Begin Spectral Data<<<<<
223.165	-15.5
223.4	-15.5
223.635	-15.5
223.869	-7.5
224.104	-20.5
224.338	-9.5
224.573	-15.5
224.808	-10.5
225.042	-9.5
225.277	-8.5
225.511	-4.5
225.746	5.5
225.98	4.5
226.215	8.5
226.449	15.5
226.683	19.5
226.918	25.5
227.152	22.5
227.387	48.5
227.621	33.5
227.856	46.5
228.09	36.5
228.324	44.5
228.559	54.5
228.793	64.5
229.027	67.5
229.262	62.5
229.496	67.5
229.73	63.5
229.964	74.5
230.199	76.5
230.433	78.5
230.667	85.5
230.901	65.5
231.136	79.5
231.37	70.5
231.604	73.5
231.838	70.5
232.072	92.5
232.306	83.5
232.541	88.5
232.775	76.5
233.009	85.5
233.243	69.5
233.477	75.5
233.711	81.5
233.945	78.5
234.179	76.5
234.413	78.5
234.647	71.5
234.881	82.5
235.115	80.5
235.349	75.5
235.583	66.5
235.817	74.5
236.051	80.5
236.285	68.5
236.519	80.5
236.753	97.5
236.987	74.5
237.221	78.5
237.455	70.5
237.689	76.5
237.922	74.5
238.156	65.5
238.39	91.5
238.624	63.5
238.858	66.5
239.091	80.5
239.325	78.5
239.559	84.5
239.793	64.5
240.027	72.5
240.26	55.5
240.494	78.5
240.728	73.5
240.961	77.5
241.195	69.5
241.429	75.5
241.662	60.5
241.896	65.5
242.13	74.5
242.363	79.5
242.597	62.5
242.83	75.5
243.064	75.5
243.298	72.5
243.531	72.5
243.765	71.5
243.998	73.5
244.232	80.5
244.465	84.5
244.699	76.5
244.932	85.5
245.166	84.5
245.399	84.5
245.633	67.5
245.866	65.5
246.099	72.5
246.333	82.5
246.566	75.5
246.8	80.5
247.033	84.5
247.266	77.5
247.5	70.5
247.733	70.5
247.966	89.5
248.2	84.5
248.433	70.5
248.666	66.5
248.899	80.5
249.133	82.5
249.366	93.5
249.599	84.5
249.832	88.5
250.066	84.5
250.299	73.5
250.532	84.5
250.765	67.5
250.998	74.5
251.231	74.5
251.465	77.5
251.698	76.5
251.931	103.5
252.164	70.5
252.397	55.5
252.63	75.5
252.863	95.5
253.096	68.5
253.329	73.5
253.562	80.5
253.795	74.5
254.028	72.5
254.261	78.5
254.494	91.5
254.727	69.5
254.96	78.5
255.193	80.5
255.426	85.5
255.659	81.5
255.892	103.5
256.124	75.5
256.357	86.5
256.59	78.5
256.823	68.5
257.056	92.5
257.289	89.5
257.521	70.5
257.754	79.5
257.987	78.5
258.22	56.5
258.452	80.5
258.685	80.5
258.918	102.5
259.151	84.5
259.383	76.5
259.616	87.5
259.849	81.5
260.081	74.5
260.314	74.5
260.547	78.5
260.779	78.5
261.012	80.5
261.244	82.5
261.477	68.5
261.71	97.5
261.942	83.5
262.175	87.5
262.407	82.5
262.64	69.5
262.872	88.5
263.105	88.5
263.337	78.5
263.57	78.5
263.802	80.5
264.035	79.5
264.267	67.5
264.499	82.5
264.732	71.5
264.964	78.5
265.197	72.5
265.429	87.5
265.661	81.5
265.894	86.5
266.126	76.5
266.358	72.5
266.591	80.5
266.823	74.5
267.055	88.5
267.287	80.5
267.52	72.5
267.752	86.5
267.984	82.5
268.216	95.5
268.448	80.5
268.681	88.5
268.913	91.5
269.145	92.5
269.377	85.5
269.609	82.5
269.841	80.5
270.073	94.5
270.306	83.5
270.538	75.5
270.77	72.5
271.002	61.5
271.234	71.5
271.466	86.5
271.698	90.5
271.93	92.5
272.162	76.5
272.394	63.5
272.626	79.5
272.858	67.5
273.09	80.5
273.322	76.5
273.553	74.5
273.785	82.5
274.017	82.5
274.249	75.5
274.481	87.5
274.713	82.5
274.945	79.5
275.176	73.5
275.408	88.5
275.64	83.5
275.872	78.5
276.104	93.5
276.335	96.5
276.567	88.5
276.799	87.5
277.031	89.5
277.262	78.5
277.494	72.5
277.726	80.5
277.957	80.5
278.189	83.5
278.421	76.5
278.652	84.5
278.884	93.5
279.115	94.5
279.347	90.5
279.579	102.5
279.81	84.5
280.042	84.5
280.273	92.5
280.505	78.5
280.736	89.5
280.968	82.5
281.199	97.5
281.431	89.5
281.662	87.5
281.894	84.5
282.125	89.5
282.356	97.5
282.588	122.5
282.819	102.5
283.051	75.5
283.282	89.5
283.513	70.5
283.745	82.5
283.976	88.5
284.207	91.5
284.439	100.5
284.67	84.5
284.901	82.5
285.132	92.5
285.364	84.5
285.595	84.5
285.826	82.5
286.057	94.5
286.288	78.5
286.52	84.5
286.751	80.5
286.982	84.5
287.213	77.5
287.444	66.5
287.675	80.5
287.906	88.5
288.138	87.5
288.369	92.5
288.6	78.5
288.831	86.5
289.062	83.5
289.293	85.5
289.524	91.5
289.755	83.5
289.986	78.5
290.217	86.5
290.448	78.5
290.679	98.5
290.91	69.5
291.141	89.5
291.371	76.5
291.602	78.5
291.833	73.5
292.064	82.5
292.295	100.5
292.526	86.5
292.757	93.5
292.987	92.5
293.218	97.5
293.449	96.5
293.68	91.5
293.91	71.5
294.141	81.5
294.372	85.5
294.603	88.5
294.833	72.5
295.064	71.5
295.295	78.5
295.525	97.5
295.756	102.5
295.987	98.5
296.217	106.5
296.448	107.5
296.679	88.5
296.909	85.5
297.14	104.5
297.37	75.5
297.601	83.5
297.831	82.5
298.062	95.5
298.292	91.5
298.523	82.5
298.753	97.5
298.984	73.5
299.214	83.5
299.445	78.5
299.675	91.5
299.905	99.5
300.136	88.5
300.366	89.5
300.597	87.5
300.827	103.5
301.057	90.5
301.288	93.5
301.518	94.5
301.748	85.5
301.979	103.5
302.209	85.5
302.439	98.5
302.669	84.5
302.9	90.5
303.13	78.5
303.36	81.5
303.59	92.5
303.82	90.5
304.051	91.5
304.281	88.5
304.511	78.5
304.741	83.5
304.971	92.5
305.201	90.5
305.431	92.5
305.661	87.5
305.891	112.5
306.121	83.5
306.352	95.5
306.582	96.5
306.812	89.5
307.042	103.5
307.272	83.5
307.502	84.5
307.731	77.5
307.961	91.5
308.191	99.5
308.421	95.5
308.651	86.5
308.881	93.5
309.111	78.5
309.341	72.5
309.571	86.5
309.8	91.5
310.03	90.5
310.26	111.5
310.49	93.5
310.72	91.5
310.949	112.5
311.179	98.5
311.409	88.5
311.639	91.5
311.868	96.5
312.098	89.5
312.328	75.5
312.557	80.5
312.787	99.5
313.017	82.5
313.246	93.5
313.476	98.5
313.706	75.5
313.935	90.5
314.165	75.5
314.394	89.5
314.624	96.5
314.853	104.5
315.083	80.5
315.312	82.5
315.542	81.5
315.771	102.5
316.001	92.5
316.23	95.5
316.46	100.5
316.689	101.5
316.919	84.5
317.148	92.5
317.377	86.5
317.607	88.5
317.836	94.5
318.065	95.5
318.295	98.5
318.524	84.5
318.753	96.5
318.983	97.5
319.212	106.5
319.441	108.5
319.67	104.5
319.9	87.5
320.129	100.5
320.358	96.5
320.587	102.5
320.816	91.5
321.046	86.5
321.275	79.5
321.504	91.5
321.733	96.5
321.962	101.5
322.191	99.5
322.42	101.5
322.649	95.5
322.878	108.5
323.108	121.5
323.337	98.5
323.566	110.5
323.795	123.5
324.024	153.5
324.253	274.5
324.482	556.5
324.71	1092.5
324.939	1401.5
325.168	529.5
325.397	184.5
325.626	125.5
325.855	87.5
326.084	122.5
326.313	124.5
326.542	122.5
326.77	157.5
326.999	310.5
327.228	630.5
327.457	1147.5
327.686	910.5
327.914	284.5
328.143	170.5
328.372	119.5
328.6	106.5
328.829	99.5
329.058	115.5
329.287	100.5
329.515	94.5
329.744	85.5
329.972	88.5
330.201	103.5
330.43	117.5
330.658	108.5
330.887	103.5
331.115	114.5
331.344	88.5
331.572	103.5
331.801	110.5
332.03	102.5
332.258	87.5
332.486	90.5
332.715	92.5
332.943	74.5
333.172	90.5
333.4	97.5
333.629	96.5
333.857	112.5
334.085	108.5
334.314	101.5
334.542	115.5
334.771	116.5
334.999	91.5
335.227	100.5
335.455	88.5
335.684	86.5
335.912	96.5
336.14	105.5
336.369	90.5
336.597	100.5
336.825	93.5
337.053	94.5
337.281	91.5
337.51	92.5
337.738	99.5
337.966	89.5
338.194	95.5
338.422	86.5
338.65	98.5
338.878	98.5
339.106	76.5
339.334	87.5
339.562	82.5
339.79	79.5
340.018	86.5
340.246	102.5
340.474	81.5
340.702	93.5
340.93	90.5
341.158	97.5
341.386	86.5
341.614	85.5
341.842	83.5
342.07	72.5
342.298	72.5
342.526	99.5
342.754	103.5
342.981	98.5
343.209	78.5
343.437	82.5
343.665	88.5
343.893	87.5
344.12	78.5
344.348	97.5
344.576	87.5
344.804	83.5
345.031	95.5
345.259	103.5
345.487	97.5
345.714	98.5
345.942	83.5
346.17	92.5
346.397	101.5
346.625	108.5
346.853	88.5
347.08	83.5
347.308	95.5
347.535	88.5
347.763	81.5
347.99	91.5
348.218	93.5
348.445	98.5
348.673	102.5
348.9	97.5
349.128	98.5
349.355	88.5
349.583	89.5
349.81	100.5
350.037	91.5
350.265	98.5
350.492	98.5
350.72	103.5
350.947	100.5
351.174	96.5
351.402	88.5
351.629	76.5
351.856	89.5
352.083	102.5
352.311	107.5
352.538	104.5
352.765	116.5
352.992	111.5
353.22	105.5
353.447	99.5
353.674	99.5
353.901	104.5
354.128	86.5
354.355	109.5
354.583	90.5
354.81	96.5
355.037	91.5
355.264	93.5
355.491	75.5
355.718	74.5
355.945	94.5
356.172	99.5
356.399	101.5
356.626	99.5
356.853	88.5
357.08	100.5
357.307	77.5
357.534	84.5
357.761	95.5
357.988	89.5
358.215	90.5
358.441	96.5
358.668	97.5
358.895	94.5
359.122	92.5
359.349	75.5
359.576	89.5
359.802	94.5
360.029	97.5
360.256	90.5
360.483	80.5
360.709	85.5
360.936	93.5
361.163	81.5
361.39	84.5
361.616	95.5
361.843	78.5
362.07	90.5
362.296	89.5
362.523	94.5
362.749	82.5
362.976	104.5
363.203	89.5
363.429	108.5
363.656	96.5
363.882	89.5
364.109	88.5
364.335	82.5
364.562	89.5
364.788	89.5
365.015	92.5
365.241	84.5
365.468	87.5
365.694	94.5
365.92	82.5
366.147	86.5
366.373	86.5
366.599	90.5
366.826	82.5
367.052	90.5
367.278	85.5
367.505	87.5
367.731	91.5
367.957	106.5
368.184	92.5
368.41	87.5
368.636	99.5
368.862	116.5
369.089	102.5
369.315	80.5
369.541	90.5
369.767	76.5
369.993	67.5
370.219	91.5
370.445	88.5
370.672	80.5
370.898	74.5
371.124	91.5
371.35	98.5
371.576	77.5
371.802	73.5
372.028	80.5
372.254	103.5
372.48	79.5
372.706	82.5
372.932	97.5
373.158	94.5
373.384	89.5
373.61	90.5
373.835	87.5
374.061	88.5
374.287	98.5
374.513	102.5
374.739	85.5
374.965	81.5
375.191	82.5
375.416	77.5
375.642	89.5
375.868	76.5
376.094	88.5
376.319	99.5
376.545	98.5
376.771	90.5
376.997	87.5
377.222	89.5
377.448	84.5
377.674	97.5
377.899	111.5
378.125	85.5
378.35	108.5
378.576	82.5
378.802	90.5
379.027	93.5
379.253	86.5
379.478	91.5
379.704	107.5
379.929	98.5
380.155	87.5
380.38	100.5
380.606	88.5
380.831	95.5
381.057	100.5
381.282	95.5
381.507	91.5
381.733	86.5
381.958	105.5
382.184	81.5
382.409	103.5
382.634	107.5
382.86	104.5
383.085	98.5
383.31	97.5
383.535	108.5
383.761	95.5
383.986	76.5
384.211	84.5
384.436	93.5
384.662	98.5
384.887	95.5
385.112	106.5
385.337	90.5
385.562	100.5
385.787	107.5
386.013	97.5
386.238	109.5
386.463	89.5
386.688	102.5
386.913	99.5
387.138	100.5
387.363	98.5
387.588	110.5
387.813	95.5
388.038	98.5
388.263	86.5
388.488	94.5
388.713	97.5
388.938	100.5
389.163	90.5
389.387	90.5
389.612	92.5
389.837	85.5
390.062	88.5
390.287	74.5
390.512	86.5
390.736	78.5
390.961	95.5
391.186	82.5
391.411	89.5
391.636	99.5
391.86	92.5
392.085	94.5
392.31	89.5
392.534	82.5
392.759	92.5
392.984	96.5
393.208	84.5
393.433	87.5
393.658	99.5
393.882	84.5
394.107	87.5
394.331	95.5
394.556	87.5
394.78	89.5
395.005	100.5
395.229	90.5
395.454	89.5
395.678	90.5
395.903	71.5
396.127	78.5
396.352	85.5
396.576	85.5
396.801	90.5
397.025	97.5
397.249	88.5
397.474	85.5
397.698	88.5
397.922	82.5
398.147	87.5
398.371	91.5
398.595	91.5
398.82	82.5
399.044	87.5
399.268	88.5
399.492	76.5
399.717	95.5
399.941	90.5
400.165	95.5
400.389	88.5
400.613	79.5
400.837	67.5
401.062	88.5
401.286	80.5
401.51	85.5
401.734	85.5
401.958	89.5
402.182	107.5
402.406	123.5
402.63	103.5
402.854	89.5
403.078	83.5
403.302	72.5
403.526	74.5
403.75	95.5
403.974	87.5
404.198	89.5
404.422	92.5
404.645	97.5
404.869	86.5
405.093	101.5
405.317	96.5
405.541	85.5
405.765	109.5
405.988	83.5
406.212	124.5
406.436	153.5
406.66	114.5
406.883	79.5
407.107	82.5
407.331	85.5
407.555	95.5
407.778	101.5
408.002	89.5
408.226	88.5
408.449	87.5
408.673	89.5
408.896	81.5
409.12	89.5
409.344	78.5
409.567	86.5
409.791	85.5
410.014	90.5
410.238	88.5
410.461	89.5
410.685	89.5
410.908	85.5
411.132	103.5
411.355	93.5
411.578	90.5
411.802	72.5
412.025	96.5
412.249	82.5
412.472	84.5
412.695	91.5
412.919	83.5
413.142	72.5
413.365	84.5
413.589	82.5
413.812	86.5
414.035	75.5
414.258	96.5
414.482	102.5
414.705	87.5
414.928	89.5
415.151	86.5
415.374	100.5
415.597	91.5
415.821	78.5
416.044	99.5
416.267	67.5
416.49	92.5
416.713	102.5
416.936	74.5
417.159	81.5
417.382	90.5
417.605	84.5
417.828	94.5
418.051	96.5
418.274	67.5
418.497	73.5
418.72	92.5
418.943	94.5
419.166	80.5
419.389	90.5
419.611	104.5
419.834	89.5
420.057	94.5
420.28	76.5
420.503	71.5
420.726	86.5
420.948	80.5
421.171	81.5
421.394	91.5
421.617	83.5
421.839	95.5
422.062	86.5
422.285	83.5
422.507	79.5
422.73	105.5
422.953	78.5
423.175	80.5
423.398	86.5
423.621	86.5
423.843	92.5
424.066	86.5
424.288	89.5
424.511	99.5
424.733	98.5
424.956	104.5
425.178	99.5
425.401	112.5
425.623	96.5
425.846	97.5
426.068	87.5
426.291	91.5
426.513	85.5
426.735	89.5
426.958	89.5
427.18	87.5
427.402	112.5
427.625	130.5
427.847	110.5
428.069	91.5
428.292	86.5
428.514	85.5
428.736	93.5
428.958	83.5
429.181	93.5
429.403	94.5
429.625	82.5
429.847	83.5
430.069	82.5
430.292	96.5
430.514	80.5
430.736	83.5
430.958	79.5
431.18	85.5
431.402	79.5
431.624	78.5
431.846	71.5
432.068	86.5
432.29	80.5
432.512	83.5
432.734	76.5
432.956	86.5
433.178	88.5
433.4	92.5
433.622	75.5
433.844	76.5
434.066	87.5
434.287	94.5
434.509	76.5
434.731	98.5
434.953	89.5
435.175	91.5
435.397	86.5
435.618	96.5
435.84	86.5
436.062	94.5
436.284	100.5
436.505	101.5
436.727	95.5
436.949	84.5
437.17	74.5
437.392	89.5
437.614	91.5
437.835	90.5
438.057	107.5
438.278	107.5
438.5	100.5
438.721	110.5
438.943	94.5
439.165	82.5
439.386	81.5
439.608	86.5
439.829	80.5
440.05	99.5
440.272	117.5
440.493	88.5
440.715	88.5
440.936	80.5
441.158	81.5
441.379	87.5
441.6	85.5
441.822	86.5
442.043	90.5
442.264	84.5
442.486	102.5
442.707	73.5
442.928	82.5
443.149	106.5
443.371	105.5
443.592	98.5
443.813	101.5
444.034	93.5
444.255	98.5
444.476	86.5
444.698	73.5
444.919	90.5
445.14	134.5
445.361	120.5
445.582	106.5
445.803	107.5
446.024	116.5
446.245	114.5
446.466	107.5
446.687	76.5
446.908	87.5
447.129	83.5
447.35	89.5
447.571	105.5
447.792	82.5
448.013	84.5
448.234	109.5
448.455	85.5
448.675	94.5
448.896	103.5
449.117	86.5
449.338	94.5
449.559	105.5
449.779	104.5
450	114.5
450.221	88.5
450.442	76.5
450.662	78.5
450.883	100.5
451.104	99.5
451.324	82.5
451.545	91.5
451.766	86.5
451.986	75.5
452.207	88.5
452.428	86.5
452.648	82.5
452.869	92.5
453.089	95.5
453.31	89.5
453.53	91.5
453.751	91.5
453.971	83.5
454.192	95.5
454.412	87.5
454.633	82.5
454.853	86.5
455.073	81.5
455.294	87.5
455.514	87.5
455.734	93.5
455.955	78.5
456.175	76.5
456.395	76.5
456.616	67.5
456.836	89.5
457.056	81.5
457.276	68.5
457.497	68.5
457.717	75.5
457.937	78.5
458.157	75.5
458.377	94.5
458.598	100.5
458.818	119.5
459.038	136.5
459.258	94.5
459.478	78.5
459.698	96.5
459.918	83.5
460.138	64.5
460.358	71.5
460.578	82.5
460.798	100.5
461.018	92.5
461.238	84.5
461.458	84.5
461.678	91.5
461.898	86.5
462.118	82.5
462.338	85.5
462.558	83.5
462.777	82.5
462.997	91.5
463.217	89.5
463.437	89.5
463.657	84.5
463.876	91.5
464.096	85.5
464.316	79.5
464.536	84.5
464.755	86.5
464.975	87.5
465.195	124.5
465.414	119.5
465.634	82.5
465.854	81.5
466.073	67.5
466.293	81.5
466.512	79.5
466.732	68.5
466.951	79.5
467.171	84.5
467.391	80.5
467.61	95.5
467.829	69.5
468.049	80.5
468.268	93.5
468.488	74.5
468.707	90.5
468.927	90.5
469.146	100.5
469.365	87.5
469.585	91.5
469.804	71.5
470.023	80.5
470.243	83.5
470.462	84.5
470.681	82.5
470.901	81.5
471.12	79.5
471.339	78.5
471.558	87.5
471.777	79.5
471.997	85.5
472.216	108.5
472.435	120.5
472.654	95.5
472.873	71.5
473.092	79.5
473.311	81.5
473.53	89.5
473.749	89.5
473.968	90.5
474.187	95.5
474.406	73.5
474.625	80.5
474.844	85.5
475.063	91.5
475.282	86.5
475.501	93.5
475.72	82.5
475.939	75.5
476.158	80.5
476.377	81.5
476.596	85.5
476.814	96.5
477.033	95.5
477.252	83.5
477.471	66.5
477.69	90.5
477.908	90.5
478.127	71.5
478.346	86.5
478.564	83.5
478.783	88.5
479.002	85.5
479.22	90.5
479.439	92.5
479.658	90.5
479.876	79.5
480.095	96.5
480.313	94.5
480.532	76.5
480.751	80.5
480.969	119.5
481.188	146.5
481.406	134.5
481.624	88.5
481.843	92.5
482.061	90.5
482.28	95.5
482.498	78.5
482.717	81.5
482.935	90.5
483.153	92.5
483.372	97.5
483.59	94.5
483.808	85.5
484.027	87.5
484.245	102.5
484.463	89.5
484.681	79.5
484.9	81.5
485.118	82.5
485.336	85.5
485.554	82.5
485.772	95.5
485.99	103.5
486.209	105.5
486.427	93.5
486.645	102.5
486.863	96.5
487.081	88.5
487.299	90.5
487.517	93.5
487.735	99.5
487.953	90.5
488.171	91.5
488.389	95.5
488.607	89.5
488.825	96.5
489.043	87.5
489.261	78.5
489.479	79.5
489.696	83.5
489.914	82.5
490.132	93.5
490.35	88.5
490.568	79.5
490.786	84.5
491.003	80.5
491.221	79.5
491.439	72.5
491.657	98.5
491.874	88.5
492.092	83.5
492.31	87.5
492.527	82.5
492.745	80.5
492.963	89.5
493.18	91.5
493.398	86.5
493.615	80.5
493.833	90.5
494.05	96.5
494.268	80.5
494.485	83.5
494.703	74.5
494.92	86.5
495.138	85.5
495.355	82.5
495.573	87.5
495.79	88.5
496.008	83.5
496.225	80.5
496.442	97.5
496.66	93.5
496.877	101.5
497.094	89.5
497.312	94.5
497.529	90.5
497.746	104.5
497.963	104.5
498.181	98.5
498.398	74.5
498.615	103.5
498.832	97.5
499.049	76.5
499.267	98.5
499.484	90.5
499.701	89.5
499.918	83.5
500.135	76.5
500.352	74.5
500.569	74.5
500.786	96.5
501.003	78.5
501.22	95.5
501.437	79.5
501.654	94.5
501.871	95.5
502.088	92.5
502.305	83.5
502.522	90.5
502.739	74.5
502.956	87.5
503.172	91.5
503.389	86.5
503.606	84.5
503.823	86.5
504.04	75.5
504.256	83.5
504.473	87.5
504.69	104.5
504.907	98.5
505.123	87.5
505.34	71.5
505.557	73.5
505.773	93.5
505.99	94.5
506.207	85.5
506.423	88.5
506.64	80.5
506.856	91.5
507.073	100.5
507.289	105.5
507.506	82.5
507.722	94.5
507.939	102.5
508.155	90.5
508.372	87.5
508.588	100.5
508.805	91.5
509.021	80.5
509.238	93.5
509.454	105.5
509.67	91.5
509.887	106.5
510.103	117.5
510.319	152.5
510.536	515.5
510.752	1484.5
510.968	421.5
511.184	130.5
511.401	106.5
511.617	90.5
511.833	99.5
512.049	98.5
512.265	73.5
512.481	92.5
512.698	90.5
512.914	88.5
513.13	107.5
513.346	83.5
513.562	82.5
513.778	83.5
513.994	84.5
514.21	83.5
514.426	105.5
514.642	100.5
514.858	104.5
515.074	122.5
515.29	312.5
515.506	882.5
515.721	326.5
515.937	129.5
516.153	94.5
516.369	82.5
516.585	104.5
516.801	87.5
517.016	86.5
517.232	79.5
517.448	84.5
517.664	100.5
517.879	76.5
518.095	91.5
518.311	97.5
518.527	83.5
518.742	95.5
518.958	79.5
519.173	87.5
519.389	98.5
519.605	91.5
519.82	83.5
520.036	99.5
520.251	95.5
520.467	105.5
520.682	91.5
520.898	101.5
521.113	100.5
521.329	113.5
521.544	155.5
521.76	356.5
521.975	1463.5
522.19	855.5
522.406	210.5
522.621	105.5
522.836	98.5
523.052	94.5
523.267	92.5
523.482	87.5
523.698	86.5
523.913	102.5
524.128	103.5
524.343	87.5
524.559	95.5
524.774	94.5
524.989	88.5
525.204	96.5
525.419	97.5
525.634	95.5
525.849	81.5
526.064	75.5
526.28	82.5
526.495	94.5
526.71	94.5
526.925	88.5
527.14	90.5
527.355	87.5
527.57	86.5
527.785	84.5
527.999	92.5
528.214	84.5
528.429	94.5
528.644	80.5
528.859	93.5
529.074	91.5
529.289	117.5
529.503	143.5
529.718	96.5
529.933	71.5
530.148	73.5
530.363	92.5
530.577	91.5
530.792	91.5
531.007	82.5
531.221	74.5
531.436	88.5
531.651	94.5
531.865	95.5
532.08	75.5
532.295	98.5
532.509	96.5
532.724	86.5
532.938	82.5
533.153	85.5
533.367	96.5
533.582	93.5
533.796	98.5
534.011	93.5
534.225	103.5
534.44	101.5
534.654	99.5
534.868	91.5
535.083	76.5
535.297	87.5
535.511	95.5
535.726	99.5
535.94	94.5
536.154	94.5
536.369	88.5
536.583	81.5
536.797	87.5
537.011	95.5
537.225	75.5
