Data from Circ_1982_H10_HRD10591_00002.txt Node
Date: Wed Jan 03 12:30:41 EST 2024
User: Yrep
Spectrometer: HR+D1059
Trigger mode: 1
Integration Time (sec): 1.000000E-1
Scans to average: 1
Electric dark correction enabled: true
Nonlinearity correction enabled: false
Boxcar width: 0
XAxis mode: Wavelengths
Number of Pixels in Spectrum: 2048
>>>>>Begin Spectral Data<<<<<
223.165	-13
223.4	-13
223.635	-13
223.869	-30
224.104	-21
224.338	-19
224.573	-13
224.808	-12
225.042	-10
225.277	-2
225.511	-5
225.746	0
225.98	10
226.215	9
226.449	10
226.683	23
226.918	41
227.152	32
227.387	40
227.621	35
227.856	49
228.09	43
228.324	33
228.559	68
228.793	52
229.027	57
229.262	64
229.496	63
229.73	58
229.964	79
230.199	70
230.433	66
230.667	87
230.901	68
231.136	70
231.37	83
231.604	79
231.838	72
232.072	78
232.306	82
232.541	73
232.775	72
233.009	77
233.243	86
233.477	83
233.711	69
233.945	87
234.179	85
234.413	87
234.647	88
234.881	74
235.115	76
235.349	79
235.583	71
235.817	80
236.051	72
236.285	64
236.519	82
236.753	88
236.987	58
237.221	89
237.455	75
237.689	76
237.922	72
238.156	73
238.39	85
238.624	94
238.858	89
239.091	73
239.325	63
239.559	49
239.793	81
240.027	79
240.26	78
240.494	89
240.728	72
240.961	80
241.195	76
241.429	79
241.662	55
241.896	66
242.13	75
242.363	75
242.597	69
242.83	76
243.064	76
243.298	85
243.531	85
243.765	64
243.998	72
244.232	90
244.465	80
244.699	70
244.932	81
245.166	77
245.399	90
245.633	83
245.866	82
246.099	74
246.333	90
246.566	84
246.8	76
247.033	75
247.266	77
247.5	64
247.733	77
247.966	66
248.2	80
248.433	85
248.666	90
248.899	73
249.133	77
249.366	98
249.599	79
249.832	81
250.066	86
250.299	75
250.532	85
250.765	83
250.998	75
251.231	87
251.465	69
251.698	72
251.931	74
252.164	82
252.397	69
252.63	83
252.863	85
253.096	79
253.329	79
253.562	72
253.795	92
254.028	77
254.261	99
254.494	88
254.727	87
254.96	80
255.193	76
255.426	99
255.659	82
255.892	65
256.124	79
256.357	75
256.59	79
256.823	85
257.056	97
257.289	74
257.521	72
257.754	69
257.987	71
258.22	85
258.452	97
258.685	82
258.918	82
259.151	73
259.383	79
259.616	80
259.849	81
260.081	60
260.314	81
260.547	81
260.779	64
261.012	89
261.244	83
261.477	76
261.71	91
261.942	99
262.175	99
262.407	91
262.64	83
262.872	86
263.105	87
263.337	83
263.57	75
263.802	73
264.035	81
264.267	98
264.499	90
264.732	79
264.964	76
265.197	81
265.429	81
265.661	79
265.894	100
266.126	83
266.358	67
266.591	71
266.823	72
267.055	84
267.287	82
267.52	92
267.752	82
267.984	91
268.216	80
268.448	88
268.681	75
268.913	90
269.145	81
269.377	81
269.609	81
269.841	82
270.073	87
270.306	82
270.538	84
270.77	100
271.002	90
271.234	84
271.466	88
271.698	73
271.93	84
272.162	92
272.394	93
272.626	82
272.858	80
273.09	81
273.322	88
273.553	93
273.785	81
274.017	87
274.249	91
274.481	81
274.713	72
274.945	85
275.176	92
275.408	96
275.64	91
275.872	93
276.104	83
276.335	93
276.567	86
276.799	79
277.031	101
277.262	83
277.494	89
277.726	83
277.957	80
278.189	87
278.421	81
278.652	78
278.884	87
279.115	92
279.347	86
279.579	88
279.81	83
280.042	83
280.273	99
280.505	97
280.736	71
280.968	91
281.199	80
281.431	87
281.662	66
281.894	83
282.125	93
282.356	103
282.588	115
282.819	97
283.051	83
283.282	89
283.513	103
283.745	92
283.976	100
284.207	88
284.439	79
284.67	71
284.901	87
285.132	79
285.364	82
285.595	81
285.826	85
286.057	86
286.288	98
286.52	77
286.751	81
286.982	79
287.213	93
287.444	90
287.675	86
287.906	99
288.138	95
288.369	103
288.6	90
288.831	79
289.062	89
289.293	102
289.524	89
289.755	84
289.986	79
290.217	100
290.448	88
290.679	95
290.91	85
291.141	79
291.371	93
291.602	84
291.833	72
292.064	87
292.295	79
292.526	91
292.757	91
292.987	75
293.218	89
293.449	67
293.68	94
293.91	81
294.141	88
294.372	88
294.603	87
294.833	97
295.064	87
295.295	103
295.525	90
295.756	89
295.987	107
296.217	124
296.448	119
296.679	85
296.909	83
297.14	82
297.37	102
297.601	80
297.831	72
298.062	96
298.292	91
298.523	89
298.753	80
298.984	85
299.214	99
299.445	82
299.675	81
299.905	88
300.136	93
300.366	87
300.597	89
300.827	94
301.057	106
301.288	90
301.518	83
301.748	89
301.979	104
302.209	85
302.439	84
302.669	88
302.9	90
303.13	91
303.36	100
303.59	99
303.82	77
304.051	90
304.281	93
304.511	89
304.741	82
304.971	92
305.201	92
305.431	84
305.661	89
305.891	99
306.121	99
306.352	93
306.582	98
306.812	79
307.042	82
307.272	95
307.502	93
307.731	81
307.961	104
308.191	85
308.421	95
308.651	95
308.881	97
309.111	91
309.341	82
309.571	101
309.8	79
310.03	84
310.26	90
310.49	81
310.72	88
310.949	90
311.179	86
311.409	72
311.639	86
311.868	81
312.098	102
312.328	84
312.557	92
312.787	86
313.017	96
313.246	89
313.476	79
313.706	103
313.935	79
314.165	93
314.394	94
314.624	83
314.853	89
315.083	100
315.312	89
315.542	101
315.771	97
316.001	95
316.23	95
316.46	91
316.689	98
316.919	83
317.148	86
317.377	89
317.607	77
317.836	84
318.065	91
318.295	72
318.524	89
318.753	94
318.983	84
319.212	87
319.441	98
319.67	88
319.9	91
320.129	96
320.358	87
320.587	88
320.816	85
321.046	99
321.275	94
321.504	84
321.733	88
321.962	104
322.191	93
322.42	95
322.649	110
322.878	99
323.108	112
323.337	107
323.566	103
323.795	112
324.024	155
324.253	277
324.482	507
324.71	1033
324.939	1349
325.168	493
325.397	181
325.626	127
325.855	106
326.084	110
326.313	103
326.542	114
326.77	179
326.999	316
327.228	589
327.457	1068
327.686	826
327.914	259
328.143	151
328.372	117
328.6	114
328.829	102
329.058	105
329.287	102
329.515	110
329.744	100
329.972	96
330.201	104
330.43	121
330.658	117
330.887	113
331.115	114
331.344	94
331.572	99
331.801	84
332.03	98
332.258	89
332.486	99
332.715	84
332.943	102
333.172	94
333.4	83
333.629	95
333.857	93
334.085	98
334.314	97
334.542	107
334.771	104
334.999	104
335.227	97
335.455	91
335.684	106
335.912	94
336.14	93
336.369	88
336.597	105
336.825	85
337.053	84
337.281	83
337.51	87
337.738	90
337.966	82
338.194	83
338.422	79
338.65	102
338.878	81
339.106	100
339.334	79
339.562	71
339.79	82
340.018	98
340.246	90
340.474	87
340.702	99
340.93	92
341.158	95
341.386	98
341.614	98
341.842	91
342.07	90
342.298	82
342.526	97
342.754	98
342.981	89
343.209	94
343.437	93
343.665	84
343.893	97
344.12	89
344.348	95
344.576	87
344.804	88
345.031	87
345.259	96
345.487	85
345.714	80
345.942	82
346.17	90
346.397	87
346.625	83
346.853	88
347.08	88
347.308	85
347.535	88
347.763	101
347.99	85
348.218	97
348.445	89
348.673	87
348.9	100
349.128	91
349.355	79
349.583	98
349.81	99
350.037	97
350.265	93
350.492	100
350.72	103
350.947	97
351.174	106
351.402	115
351.629	103
351.856	91
352.083	90
352.311	93
352.538	103
352.765	100
352.992	109
353.22	108
353.447	96
353.674	95
353.901	99
354.128	100
354.355	86
354.583	90
354.81	92
355.037	99
355.264	100
355.491	92
355.718	78
355.945	88
356.172	101
356.399	91
356.626	98
356.853	96
357.08	98
357.307	96
357.534	92
357.761	87
357.988	103
358.215	81
358.441	107
358.668	107
358.895	98
359.122	89
359.349	87
359.576	73
359.802	91
360.029	88
360.256	98
360.483	74
360.709	90
360.936	95
361.163	95
361.39	88
361.616	100
361.843	91
362.07	81
362.296	86
362.523	89
362.749	83
362.976	83
363.203	91
363.429	98
363.656	80
363.882	77
364.109	104
364.335	91
364.562	84
364.788	82
365.015	77
365.241	91
365.468	97
365.694	88
365.92	81
366.147	87
366.373	89
366.599	88
366.826	97
367.052	93
367.278	83
367.505	101
367.731	80
367.957	99
368.184	87
368.41	105
368.636	102
368.862	97
369.089	94
369.315	98
369.541	81
369.767	86
369.993	105
370.219	80
370.445	90
370.672	79
370.898	77
371.124	79
371.35	92
371.576	99
371.802	88
372.028	80
372.254	88
372.48	85
372.706	85
372.932	93
373.158	80
373.384	97
373.61	95
373.835	92
374.061	87
374.287	87
374.513	93
374.739	84
374.965	83
375.191	82
375.416	107
375.642	80
375.868	95
376.094	93
376.319	91
376.545	98
376.771	83
376.997	97
377.222	88
377.448	92
377.674	83
377.899	82
378.125	87
378.35	93
378.576	81
378.802	90
379.027	86
379.253	97
379.478	96
379.704	102
379.929	103
380.155	85
380.38	98
380.606	100
380.831	113
381.057	104
381.282	100
381.507	92
381.733	113
381.958	104
382.184	97
382.409	106
382.634	113
382.86	92
383.085	115
383.31	108
383.535	100
383.761	113
383.986	112
384.211	97
384.436	91
384.662	101
384.887	111
385.112	106
385.337	124
385.562	112
385.787	102
386.013	112
386.238	113
386.463	117
386.688	125
386.913	114
387.138	118
387.363	114
387.588	107
387.813	112
388.038	107
388.263	116
388.488	115
388.713	109
388.938	93
389.163	95
389.387	91
389.612	89
389.837	89
390.062	97
390.287	107
390.512	101
390.736	83
390.961	100
391.186	94
391.411	83
391.636	85
391.86	89
392.085	90
392.31	85
392.534	74
392.759	84
392.984	87
393.208	100
393.433	120
393.658	107
393.882	78
394.107	93
394.331	90
394.556	84
394.78	81
395.005	87
395.229	93
395.454	86
395.678	79
395.903	103
396.127	77
396.352	89
396.576	100
396.801	97
397.025	113
397.249	104
397.474	99
397.698	76
397.922	95
398.147	98
398.371	104
398.595	92
398.82	81
399.044	87
399.268	80
399.492	95
399.717	87
399.941	83
400.165	108
400.389	83
400.613	72
400.837	90
401.062	75
401.286	83
401.51	88
401.734	73
401.958	95
402.182	101
402.406	124
402.63	95
402.854	85
403.078	83
403.302	93
403.526	87
403.75	95
403.974	91
404.198	94
404.422	75
404.645	75
404.869	76
405.093	98
405.317	88
405.541	84
405.765	97
405.988	105
406.212	138
406.436	159
406.66	114
406.883	100
407.107	96
407.331	74
407.555	106
407.778	97
408.002	92
408.226	80
408.449	82
408.673	88
408.896	100
409.12	86
409.344	82
409.567	85
409.791	91
410.014	92
410.238	84
410.461	87
410.685	97
410.908	93
411.132	100
411.355	81
411.578	100
411.802	93
412.025	83
412.249	89
412.472	95
412.695	95
412.919	89
413.142	88
413.365	86
413.589	93
413.812	81
414.035	97
414.258	81
414.482	85
414.705	92
414.928	94
415.151	94
415.374	85
415.597	91
415.821	91
416.044	75
416.267	86
416.49	84
416.713	87
416.936	89
417.159	79
417.382	92
417.605	79
417.828	99
418.051	78
418.274	87
418.497	83
418.72	75
418.943	85
419.166	88
419.389	87
419.611	95
419.834	95
420.057	93
420.28	87
420.503	87
420.726	80
420.948	83
421.171	103
421.394	95
421.617	98
421.839	90
422.062	87
422.285	91
422.507	117
422.73	108
422.953	101
423.175	83
423.398	74
423.621	84
423.843	93
424.066	89
424.288	91
424.511	103
424.733	90
424.956	101
425.178	100
425.401	92
425.623	104
425.846	97
426.068	104
426.291	82
426.513	85
426.735	92
426.958	83
427.18	106
427.402	121
427.625	127
427.847	117
428.069	103
428.292	91
428.514	91
428.736	81
428.958	79
429.181	97
429.403	82
429.625	78
429.847	90
430.069	87
430.292	83
430.514	76
430.736	75
430.958	86
431.18	84
431.402	85
431.624	91
431.846	86
432.068	88
432.29	83
432.512	81
432.734	83
432.956	80
433.178	103
433.4	107
433.622	89
433.844	90
434.066	94
434.287	93
434.509	80
434.731	95
434.953	82
435.175	85
435.397	87
435.618	80
435.84	96
436.062	115
436.284	107
436.505	117
436.727	86
436.949	88
437.17	107
437.392	87
437.614	107
437.835	94
438.057	98
438.278	92
438.5	83
438.721	112
438.943	99
439.165	78
439.386	88
439.608	93
439.829	82
440.05	105
440.272	115
440.493	96
440.715	85
440.936	93
441.158	90
441.379	93
441.6	96
441.822	88
442.043	95
442.264	87
442.486	91
442.707	97
442.928	108
443.149	117
443.371	104
443.592	105
443.813	95
444.034	80
444.255	95
444.476	88
444.698	92
444.919	80
445.14	120
445.361	121
445.582	123
445.803	105
446.024	114
446.245	114
446.466	106
446.687	87
446.908	84
447.129	89
447.35	87
447.571	93
447.792	90
448.013	87
448.234	105
448.455	93
448.675	92
448.896	110
449.117	107
449.338	116
449.559	105
449.779	96
450	87
450.221	89
450.442	101
450.662	94
450.883	82
451.104	104
451.324	81
451.545	85
451.766	86
451.986	85
452.207	88
452.428	88
452.648	91
452.869	106
453.089	99
453.31	107
453.53	88
453.751	87
453.971	95
454.192	84
454.412	65
454.633	91
454.853	85
455.073	72
455.294	86
455.514	87
455.734	86
455.955	80
456.175	77
456.395	76
456.616	93
456.836	91
457.056	89
457.276	97
457.497	74
457.717	92
457.937	80
458.157	85
458.377	88
458.598	76
458.818	112
459.038	113
459.258	116
459.478	88
459.698	77
459.918	81
460.138	90
460.358	81
460.578	77
460.798	77
461.018	91
461.238	74
461.458	88
461.678	89
461.898	87
462.118	80
462.338	86
462.558	75
462.777	63
462.997	81
463.217	95
463.437	95
463.657	88
463.876	82
464.096	98
464.316	81
464.536	96
464.755	87
464.975	95
465.195	130
465.414	134
465.634	95
465.854	84
466.073	91
466.293	76
466.512	76
466.732	84
466.951	91
467.171	91
467.391	93
467.61	81
467.829	98
468.049	97
468.268	101
468.488	88
468.707	79
468.927	81
469.146	74
469.365	93
469.585	84
469.804	101
470.023	94
470.243	86
470.462	80
470.681	106
470.901	80
471.12	80
471.339	101
471.558	92
471.777	81
471.997	89
472.216	96
472.435	119
472.654	89
472.873	97
473.092	91
473.311	92
473.53	77
473.749	91
473.968	85
474.187	84
474.406	91
474.625	75
474.844	73
475.063	88
475.282	72
475.501	90
475.72	71
475.939	83
476.158	84
476.377	76
476.596	93
476.814	93
477.033	104
477.252	93
477.471	91
477.69	96
477.908	99
478.127	92
478.346	82
478.564	87
478.783	77
479.002	106
479.22	95
479.439	97
479.658	76
479.876	107
480.095	93
480.313	94
480.532	95
480.751	84
480.969	91
481.188	141
481.406	113
481.624	93
481.843	95
482.061	83
482.28	90
482.498	88
482.717	83
482.935	99
483.153	92
483.372	91
483.59	97
483.808	94
484.027	73
484.245	90
484.463	108
484.681	99
484.9	91
485.118	86
485.336	90
485.554	109
485.772	111
485.99	110
486.209	105
486.427	107
486.645	108
486.863	102
487.081	100
487.299	96
487.517	95
487.735	88
487.953	96
488.171	82
488.389	96
488.607	101
488.825	81
489.043	93
489.261	85
489.479	74
489.696	85
489.914	88
490.132	83
490.35	83
490.568	72
490.786	98
491.003	73
491.221	87
491.439	88
491.657	97
491.874	100
492.092	91
492.31	90
492.527	93
492.745	85
492.963	90
493.18	81
493.398	89
493.615	89
493.833	90
494.05	97
494.268	98
494.485	81
494.703	95
494.92	73
495.138	81
495.355	82
495.573	87
495.79	102
496.008	106
496.225	97
496.442	88
496.66	94
496.877	95
497.094	94
497.312	85
497.529	81
497.746	75
497.963	91
498.181	95
498.398	99
498.615	109
498.832	85
499.049	91
499.267	87
499.484	84
499.701	97
499.918	84
500.135	87
500.352	93
500.569	87
500.786	86
501.003	96
501.22	86
501.437	87
501.654	84
501.871	107
502.088	94
502.305	96
502.522	91
502.739	95
502.956	78
503.172	97
503.389	93
503.606	97
503.823	96
504.04	92
504.256	97
504.473	85
504.69	84
504.907	99
505.123	87
505.34	81
505.557	87
505.773	95
505.99	97
506.207	89
506.423	86
506.64	84
506.856	99
507.073	95
507.289	98
507.506	93
507.722	103
507.939	93
508.155	100
508.372	88
508.588	98
508.805	81
509.021	90
509.238	87
509.454	96
509.67	85
509.887	98
510.103	118
510.319	167
510.536	482
510.752	1361
510.968	405
511.184	122
511.401	105
511.617	98
511.833	90
512.049	84
512.265	83
512.481	93
512.698	67
512.914	92
513.13	82
513.346	89
513.562	91
513.778	85
513.994	83
514.21	100
514.426	102
514.642	113
514.858	106
515.074	126
515.29	281
515.506	812
515.721	302
515.937	133
516.153	99
516.369	96
516.585	89
516.801	100
517.016	80
517.232	96
517.448	82
517.664	87
517.879	79
518.095	61
518.311	83
518.527	92
518.742	95
518.958	95
519.173	100
519.389	97
519.605	91
519.82	90
520.036	90
520.251	100
520.467	101
520.682	104
520.898	96
521.113	108
521.329	106
521.544	151
521.76	342
521.975	1322
522.19	803
522.406	201
522.621	111
522.836	92
523.052	91
523.267	83
523.482	96
523.698	97
523.913	95
524.128	92
524.343	96
524.559	107
524.774	92
524.989	96
525.204	82
525.419	93
525.634	91
525.849	87
526.064	92
526.28	87
526.495	93
526.71	91
526.925	96
527.14	91
527.355	83
527.57	88
527.785	68
527.999	91
528.214	77
528.429	84
528.644	92
528.859	100
529.074	94
529.289	120
529.503	137
529.718	100
529.933	93
530.148	83
530.363	86
530.577	88
530.792	97
531.007	90
531.221	83
531.436	92
531.651	105
531.865	88
532.08	93
532.295	93
532.509	97
532.724	93
532.938	83
533.153	89
533.367	86
533.582	97
533.796	90
534.011	86
534.225	84
534.44	90
534.654	88
534.868	93
535.083	99
535.297	88
535.511	79
535.726	83
535.94	91
536.154	78
536.369	88
536.583	100
536.797	102
537.011	97
537.225	93
537.44	94
537.654	97
537.868	87
538.082	90
538.296	72
538.51	99
538.724	88
538.938	83
539.153	111
539.367	102
539.581	99
539.795	88
540.009	83
540.222	93
540.436	77
540.65	79
540.864	85
541.078	75
541.292	87
541.506	87
541.72	98
541.934	102
542.147	86
542.361	96
542.575	60
542.789	85
543.002	85
543.216	99
543.43	101
543.644	88
543.857	99
544.071	107
544.285	100
544.498	87
544.712	91
544.925	87
545.139	94
545.352	83
545.566	98
545.779	88
545.993	87
546.206	91
546.42	84
546.633	87
546.847	89
547.06	91
547.274	97
547.487	84
547.7	87
547.914	97
548.127	87
548.34	83
548.554	91
548.767	93
548.98	85
549.193	96
549.407	98
549.62	95
549.833	88
550.046	71
550.259	89
550.473	88
550.686	76
550.899	95
551.112	99
551.325	89
551.538	82
551.751	84
551.964	87
552.177	86
552.39	104
552.603	99
552.816	83
553.029	91
553.242	93
553.455	88
553.667	88
553.88	95
554.093	89
554.306	91
554.519	91
554.732	81
554.944	104
555.157	83
555.37	88
555.583	79
555.795	97
556.008	82
556.221	75
556.433	81
556.646	98
556.859	97
557.071	91
557.284	101
557.496	85
557.709	81
557.921	91
558.134	83
558.346	86
558.559	76
558.771	87
558.984	93
559.196	83
559.409	90
559.621	90
559.833	83
560.046	87
560.258	91
560.47	75
560.683	83
560.895	87
561.107	95
561.32	82
561.532	84
561.744	95
561.956	91
562.168	107
562.381	106
562.593	98
562.805	84
563.017	89
563.229	92
563.441	86
563.653	98
563.865	84
564.077	81
564.289	91
564.501	89
564.713	103
564.925	81
565.137	96
565.349	81
565.561	82
565.773	89
565.985	81
566.197	101
566.408	83
566.62	88
566.832	88
567.044	67
567.255	89
567.467	97
567.679	91
567.891	83
568.102	94
568.314	73
568.526	92
568.737	88
568.949	82
569.161	90
569.372	86
569.584	87
569.795	92
570.007	105
570.218	149
570.43	107
570.641	101
570.853	96
571.064	106
571.276	81
571.487	88
571.698	74
571.91	95
572.121	86
572.333	95
572.544	85
572.755	88
572.966	99
573.178	93
573.389	91
573.6	90
573.811	111
574.023	94
574.234	96
574.445	70
574.656	81
574.867	86
575.078	101
575.289	86
575.501	95
575.712	97
575.923	97
576.134	81
576.345	96
576.556	75
576.767	79
576.978	85
577.188	83
577.399	87
577.61	80
577.821	103
578.032	91
578.243	193
578.454	434
578.665	149
578.875	94
579.086	85
579.297	90
579.508	93
579.718	83
579.929	76
580.14	84
580.35	86
580.561	84
580.772	98
580.982	95
581.193	87
581.403	90
581.614	97
581.825	78
582.035	71
582.246	89
582.456	87
582.667	85
582.877	83
583.087	86
583.298	87
583.508	91
583.719	89
583.929	87
584.139	92
584.35	76
584.56	85
584.77	86
584.981	78
585.191	87
585.401	94
585.611	95
585.821	92
