Data from Circ_1982_H10_HRD10591_00029.txt Node
Date: Wed Jan 03 12:30:47 EST 2024
User: Yrep
Spectrometer: HR+D1059
Trigger mode: 1
Integration Time (sec): 1.000000E-1
Scans to average: 1
Electric dark correction enabled: true
Nonlinearity correction enabled: false
Boxcar width: 0
XAxis mode: Wavelengths
Number of Pixels in Spectrum: 2048
>>>>>Begin Spectral Data<<<<<
223.165	-9.56
223.4	-9.56
223.635	-9.56
223.869	-11.56
224.104	-26.56
224.338	-9.56
224.573	-7.56
224.808	-12.56
225.042	2.44
225.277	-0.56
225.511	-7.56
225.746	-3.56
225.98	-0.56
226.215	6.44
226.449	25.44
226.683	25.44
226.918	11.44
227.152	18.44
227.387	36.44
227.621	32.44
227.856	53.44
228.09	46.44
228.324	76.44
228.559	60.44
228.793	164.44
229.027	420.44
229.262	502.44
229.496	594.44
229.73	757.44
229.964	762.44
230.199	529.44
230.433	493.44
230.667	483.44
230.901	435.44
231.136	443.44
231.37	462.44
231.604	446.44
231.838	448.44
232.072	476.44
232.306	458.44
232.541	457.44
232.775	475.44
233.009	459.44
233.243	460.44
233.477	491.44
233.711	470.44
233.945	520.44
234.179	513.44
234.413	510.44
234.647	517.44
234.881	508.44
235.115	505.44
235.349	537.44
235.583	558.44
235.817	584.44
236.051	612.44
236.285	621.44
236.519	606.44
236.753	673.44
236.987	867.44
237.221	1270.44
237.455	1373.44
237.689	842.44
237.922	740.44
238.156	714.44
238.39	711.44
238.624	689.44
238.858	653.44
239.091	658.44
239.325	674.44
239.559	680.44
239.793	710.44
240.027	734.44
240.26	872.44
240.494	930.44
240.728	952.44
240.961	903.44
241.195	822.44
241.429	775.44
241.662	763.44
241.896	793.44
242.13	781.44
242.363	768.44
242.597	809.44
242.83	819.44
243.064	818.44
243.298	828.44
243.531	835.44
243.765	877.44
243.998	845.44
244.232	848.44
244.465	909.44
244.699	928.44
244.932	895.44
245.166	917.44
245.399	930.44
245.633	899.44
245.866	932.44
246.099	940.44
246.333	953.44
246.566	983.44
246.8	988.44
247.033	1026.44
247.266	1052.44
247.5	1107.44
247.733	1181.44
247.966	1133.44
248.2	1188.44
248.433	1165.44
248.666	1240.44
248.899	1364.44
249.133	1422.44
249.366	1410.44
249.599	1306.44
249.832	1244.44
250.066	1279.44
250.299	1280.44
250.532	1348.44
250.765	1569.44
250.998	1681.44
251.231	1600.44
251.465	1452.44
251.698	1395.44
251.931	1454.44
252.164	1422.44
252.397	1462.44
252.63	1518.44
252.863	1539.44
253.096	1673.44
253.329	1702.44
253.562	1646.44
253.795	1546.44
254.028	1540.44
254.261	1624.44
254.494	1763.44
254.727	2051.44
254.96	2242.44
255.193	1984.44
255.426	1772.44
255.659	1674.44
255.892	1718.44
256.124	1713.44
256.357	1636.44
256.59	1620.44
256.823	1549.44
257.056	1510.44
257.289	1547.44
257.521	1574.44
257.754	1552.44
257.987	1530.44
258.22	1531.44
258.452	1540.44
258.685	1562.44
258.918	1585.44
259.151	1644.44
259.383	1700.44
259.616	1688.44
259.849	1780.44
260.081	1899.44
260.314	2041.44
260.547	1953.44
260.779	1824.44
261.012	1814.44
261.244	1726.44
261.477	1673.44
261.71	1715.44
261.942	1737.44
262.175	1742.44
262.407	1694.44
262.64	1651.44
262.872	1626.44
263.105	1658.44
263.337	1645.44
263.57	1674.44
263.802	1670.44
264.035	1651.44
264.267	1677.44
264.499	1688.44
264.732	1704.44
264.964	1718.44
265.197	1726.44
265.429	1735.44
265.661	1702.44
265.894	1752.44
266.126	1723.44
266.358	1772.44
266.591	1812.44
266.823	1859.44
267.055	1856.44
267.287	1884.44
267.52	1884.44
267.752	1834.44
267.984	1865.44
268.216	1906.44
268.448	1928.44
268.681	1976.44
268.913	2066.44
269.145	2289.44
269.377	2354.44
269.609	2305.44
269.841	2212.44
270.073	2342.44
270.306	2604.44
270.538	2698.44
270.77	2632.44
271.002	2449.44
271.234	2443.44
271.466	2545.44
271.698	2676.44
271.93	2636.44
272.162	2671.44
272.394	2604.44
272.626	2469.44
272.858	2374.44
273.09	2273.44
273.322	2296.44
273.553	2171.44
273.785	2244.44
274.017	2226.44
274.249	2256.44
274.481	2254.44
274.713	2234.44
274.945	2338.44
275.176	2277.44
275.408	2304.44
275.64	2253.44
275.872	2278.44
276.104	2317.44
276.335	2268.44
276.567	2406.44
276.799	2505.44
277.031	2698.44
277.262	2872.44
277.494	2720.44
277.726	2592.44
277.957	2507.44
278.189	2441.44
278.421	2395.44
278.652	2374.44
278.884	2405.44
279.115	2389.44
279.347	2380.44
279.579	2396.44
279.81	2400.44
280.042	2387.44
280.273	2438.44
280.505	2392.44
280.736	2390.44
280.968	2404.44
281.199	2494.44
281.431	2444.44
281.662	2465.44
281.894	2494.44
282.125	2490.44
282.356	2603.44
282.588	2777.44
282.819	2638.44
283.051	2548.44
283.282	2514.44
283.513	2551.44
283.745	2591.44
283.976	2630.44
284.207	2619.44
284.439	2636.44
284.67	2652.44
284.901	2621.44
285.132	2620.44
285.364	2653.44
285.595	2645.44
285.826	2641.44
286.057	2692.44
286.288	2671.44
286.52	2691.44
286.751	2684.44
286.982	2711.44
287.213	2719.44
287.444	2751.44
287.675	2795.44
287.906	2901.44
288.138	2940.44
288.369	2877.44
288.6	2875.44
288.831	2874.44
289.062	2822.44
289.293	2838.44
289.524	2800.44
289.755	2791.44
289.986	2781.44
290.217	2827.44
290.448	2792.44
290.679	2829.44
290.91	2809.44
291.141	2798.44
291.371	2806.44
291.602	2797.44
291.833	2800.44
292.064	2834.44
292.295	2813.44
292.526	2854.44
292.757	2818.44
292.987	2846.44
293.218	2779.44
293.449	2886.44
293.68	2891.44
293.91	2858.44
294.141	2865.44
294.372	2841.44
294.603	2848.44
294.833	2860.44
295.064	2879.44
295.295	2907.44
295.525	2920.44
295.756	2931.44
295.987	2961.44
296.217	3213.44
296.448	3076.44
296.679	2930.44
296.909	2957.44
297.14	2931.44
297.37	3027.44
297.601	3088.44
297.831	3000.44
298.062	3045.44
298.292	3124.44
298.523	3135.44
298.753	3132.44
298.984	3069.44
299.214	3101.44
299.445	3089.44
299.675	3065.44
299.905	3094.44
300.136	3172.44
300.366	3159.44
300.597	3178.44
300.827	3224.44
301.057	3307.44
301.288	3334.44
301.518	3309.44
301.748	3353.44
301.979	3416.44
302.209	3397.44
302.439	3375.44
302.669	3324.44
302.9	3228.44
303.13	3330.44
303.36	3354.44
303.59	3410.44
303.82	3375.44
304.051	3332.44
304.281	3327.44
304.511	3258.44
304.741	3328.44
304.971	3324.44
305.201	3280.44
305.431	3251.44
305.661	3281.44
305.891	3273.44
306.121	3259.44
306.352	3284.44
306.582	3291.44
306.812	3243.44
307.042	3254.44
307.272	3292.44
307.502	3252.44
307.731	3288.44
307.961	3317.44
308.191	3236.44
308.421	3260.44
308.651	3319.44
308.881	3287.44
309.111	3297.44
309.341	3331.44
309.571	3442.44
309.8	3441.44
310.03	3507.44
310.26	3556.44
310.49	3532.44
310.72	3649.44
310.949	3696.44
311.179	3680.44
311.409	3584.44
311.639	3603.44
311.868	3590.44
312.098	3621.44
312.328	3764.44
312.557	3808.44
312.787	3899.44
313.017	3766.44
313.246	3711.44
313.476	3640.44
313.706	3682.44
313.935	3805.44
314.165	3930.44
314.394	3909.44
314.624	3822.44
314.853	3798.44
315.083	3802.44
315.312	3734.44
315.542	3718.44
315.771	3632.44
316.001	3594.44
316.23	3626.44
316.46	3653.44
316.689	3638.44
316.919	3746.44
317.148	3728.44
317.377	3687.44
317.607	3682.44
317.836	3680.44
318.065	3645.44
318.295	3626.44
318.524	3691.44
318.753	3626.44
318.983	3629.44
319.212	3630.44
319.441	3692.44
319.67	3723.44
319.9	3611.44
320.129	3645.44
320.358	3685.44
320.587	3706.44
320.816	3735.44
321.046	3822.44
321.275	3803.44
321.504	3794.44
321.733	3830.44
321.962	3870.44
322.191	3931.44
322.42	4012.44
322.649	4122.44
322.878	4094.44
323.108	4213.44
323.337	4369.44
323.566	4499.44
323.795	4728.44
324.024	5108.44
324.253	6466.44
324.482	9413.44
324.71	13979.44
324.939	15630.44
325.168	10578.44
325.397	6034.44
325.626	4994.44
325.855	4676.44
326.084	4551.44
326.313	4549.44
326.542	4695.44
326.77	5249.44
326.999	6310.44
327.228	8932.44
327.457	12999.44
327.686	12236.44
327.914	6712.44
328.143	5486.44
328.372	5204.44
328.6	4958.44
328.829	4988.44
329.058	5125.44
329.287	5105.44
329.515	4837.44
329.744	4688.44
329.972	4766.44
330.201	5000.44
330.43	5147.44
330.658	5319.44
330.887	5466.44
331.115	5156.44
331.344	4892.44
331.572	4738.44
331.801	4911.44
332.03	4954.44
332.258	4841.44
332.486	4958.44
332.715	5029.44
332.943	5121.44
333.172	5323.44
333.4	5418.44
333.629	5542.44
333.857	5757.44
334.085	5684.44
334.314	5697.44
334.542	5806.44
334.771	5756.44
334.999	5307.44
335.227	5205.44
335.455	5097.44
335.684	5040.44
335.912	4972.44
336.14	4900.44
336.369	4858.44
336.597	4968.44
336.825	4955.44
337.053	4807.44
337.281	4819.44
337.51	4749.44
337.738	4677.44
337.966	4616.44
338.194	4664.44
338.422	4730.44
338.65	4558.44
338.878	4477.44
339.106	4458.44
339.334	4492.44
339.562	4351.44
339.79	4355.44
340.018	4373.44
340.246	4373.44
340.474	4400.44
340.702	4402.44
340.93	4369.44
341.158	4361.44
341.386	4376.44
341.614	4356.44
341.842	4341.44
342.07	4306.44
342.298	4352.44
342.526	4285.44
342.754	4292.44
342.981	4282.44
343.209	4385.44
343.437	4587.44
343.665	4863.44
343.893	5142.44
344.12	5197.44
344.348	4916.44
344.576	4769.44
344.804	4708.44
345.031	4537.44
345.259	4528.44
345.487	4408.44
345.714	4309.44
345.942	4219.44
346.17	4194.44
346.397	4164.44
346.625	4113.44
346.853	4183.44
347.08	4167.44
347.308	4229.44
347.535	4226.44
347.763	4246.44
347.99	4297.44
348.218	4256.44
348.445	4291.44
348.673	4159.44
348.9	4136.44
349.128	4040.44
349.355	4076.44
349.583	4018.44
349.81	4108.44
350.037	4009.44
350.265	3928.44
350.492	4004.44
350.72	3981.44
350.947	4051.44
351.174	4201.44
351.402	4119.44
351.629	4068.44
351.856	4106.44
352.083	4178.44
352.311	4215.44
352.538	4086.44
352.765	4181.44
352.992	4063.44
353.22	4118.44
353.447	4044.44
353.674	3998.44
353.901	3962.44
354.128	3885.44
354.355	3875.44
354.583	4023.44
354.81	3980.44
355.037	3985.44
355.264	3939.44
355.491	3966.44
355.718	3926.44
355.945	3916.44
356.172	3916.44
356.399	3942.44
356.626	4002.44
356.853	3956.44
357.08	3921.44
357.307	3947.44
357.534	3882.44
357.761	3932.44
357.988	4004.44
358.215	3949.44
358.441	3987.44
358.668	3948.44
358.895	4037.44
359.122	4014.44
359.349	4140.44
359.576	4190.44
359.802	4269.44
360.029	4467.44
360.256	4458.44
360.483	4333.44
360.709	4218.44
360.936	4140.44
361.163	4172.44
361.39	4084.44
361.616	4146.44
361.843	4096.44
362.07	4124.44
362.296	4170.44
362.523	4060.44
362.749	4152.44
362.976	4059.44
363.203	4020.44
363.429	4009.44
363.656	4021.44
363.882	4114.44
364.109	4008.44
364.335	3992.44
364.562	4028.44
364.788	4020.44
365.015	4024.44
365.241	4030.44
365.468	4016.44
365.694	4087.44
365.92	4043.44
366.147	3989.44
366.373	4039.44
366.599	4021.44
366.826	3953.44
367.052	3944.44
367.278	4116.44
367.505	4023.44
367.731	4019.44
367.957	4037.44
368.184	4082.44
368.41	4075.44
368.636	4146.44
368.862	4258.44
369.089	4118.44
369.315	4123.44
369.541	4060.44
369.767	4116.44
369.993	4173.44
370.219	4139.44
370.445	4171.44
370.672	4217.44
370.898	4221.44
371.124	4247.44
371.35	4346.44
371.576	4318.44
371.802	4269.44
372.028	4280.44
372.254	4261.44
372.48	4352.44
372.706	4445.44
372.932	4482.44
373.158	4370.44
373.384	4341.44
373.61	4298.44
373.835	4372.44
374.061	4380.44
374.287	4427.44
374.513	4521.44
374.739	4608.44
374.965	4799.44
375.191	4795.44
375.416	4600.44
375.642	4595.44
375.868	4492.44
376.094	4437.44
376.319	4446.44
376.545	4315.44
376.771	4297.44
376.997	4379.44
377.222	4392.44
377.448	4235.44
377.674	4235.44
377.899	4242.44
378.125	4289.44
378.35	4222.44
378.576	4232.44
378.802	4249.44
379.027	4319.44
379.253	4326.44
379.478	4221.44
379.704	4314.44
379.929	4280.44
380.155	4260.44
380.38	4267.44
380.606	4357.44
380.831	4284.44
381.057	4345.44
381.282	4354.44
381.507	4362.44
381.733	4438.44
381.958	4410.44
382.184	4468.44
382.409	4501.44
382.634	4549.44
382.86	4512.44
383.085	4614.44
383.31	4736.44
383.535	4713.44
383.761	4820.44
383.986	4897.44
384.211	4932.44
384.436	5055.44
384.662	5051.44
384.887	5202.44
385.112	5154.44
385.337	5214.44
385.562	5178.44
385.787	5269.44
386.013	5359.44
386.238	5356.44
386.463	5309.44
386.688	5282.44
386.913	5163.44
387.138	5156.44
387.363	5157.44
387.588	5138.44
387.813	5158.44
388.038	5173.44
388.263	5138.44
388.488	5157.44
388.713	5162.44
388.938	5148.44
389.163	5117.44
389.387	5137.44
389.612	5109.44
389.837	5065.44
390.062	5041.44
390.287	5117.44
390.512	5112.44
390.736	5118.44
390.961	5260.44
391.186	5287.44
391.411	5480.44
391.636	5632.44
391.86	5807.44
392.085	5855.44
392.31	5715.44
392.534	5572.44
392.759	5481.44
392.984	5444.44
393.208	5347.44
393.433	5400.44
393.658	5325.44
393.882	5347.44
394.107	5414.44
394.331	5428.44
394.556	5457.44
394.78	5434.44
395.005	5504.44
395.229	5534.44
395.454	5620.44
395.678	5758.44
395.903	5826.44
396.127	5830.44
396.352	5641.44
396.576	5442.44
396.801	5453.44
397.025	5557.44
397.249	5573.44
397.474	5822.44
397.698	5873.44
397.922	5924.44
398.147	6002.44
398.371	6173.44
398.595	6274.44
398.82	6532.44
399.044	7114.44
399.268	7876.44
399.492	8946.44
399.717	9599.44
399.941	9323.44
400.165	8654.44
400.389	8020.44
400.613	7304.44
400.837	6804.44
401.062	6690.44
401.286	6496.44
401.51	6526.44
401.734	6481.44
401.958	6608.44
402.182	6739.44
402.406	6837.44
402.63	6821.44
402.854	7047.44
403.078	7115.44
403.302	7075.44
403.526	7268.44
403.75	7371.44
403.974	7416.44
404.198	7336.44
404.422	7447.44
404.645	7453.44
404.869	7427.44
405.093	7559.44
405.317	7841.44
405.541	7839.44
405.765	7286.44
405.988	7186.44
406.212	7352.44
406.436	7480.44
406.66	7630.44
406.883	7654.44
407.107	8292.44
407.331	8856.44
407.555	9313.44
407.778	8934.44
408.002	8292.44
408.226	7819.44
408.449	7789.44
408.673	7594.44
408.896	7740.44
409.12	7821.44
409.344	7469.44
409.567	7153.44
409.791	7116.44
410.014	7033.44
410.238	6995.44
410.461	6987.44
410.685	7048.44
410.908	7060.44
411.132	7325.44
411.355	7353.44
411.578	6925.44
411.802	6698.44
412.025	6786.44
412.249	6931.44
412.472	7066.44
412.695	7140.44
412.919	6775.44
413.142	6608.44
413.365	6537.44
413.589	6514.44
413.812	6413.44
414.035	6262.44
414.258	6363.44
414.482	6437.44
414.705	6423.44
414.928	6436.44
415.151	6418.44
415.374	6375.44
415.597	6346.44
415.821	6208.44
416.044	6221.44
416.267	6211.44
416.49	6244.44
416.713	6137.44
416.936	6273.44
417.159	6329.44
417.382	6381.44
417.605	6412.44
417.828	6464.44
418.051	6622.44
418.274	6578.44
418.497	6379.44
418.72	6532.44
418.943	6466.44
419.166	6916.44
419.389	7246.44
419.611	7132.44
419.834	6941.44
420.057	6786.44
420.28	6720.44
420.503	6477.44
420.726	6489.44
420.948	6593.44
421.171	6996.44
421.394	6935.44
421.617	6546.44
421.839	6437.44
422.062	6564.44
422.285	6747.44
422.507	7344.44
422.73	7750.44
422.953	7240.44
423.175	6950.44
423.398	6946.44
423.621	6902.44
423.843	7218.44
424.066	7185.44
424.288	7039.44
424.511	7286.44
424.733	7675.44
424.956	8082.44
425.178	7586.44
425.401	7665.44
425.623	7554.44
425.846	6709.44
426.068	6645.44
426.291	6436.44
426.513	6425.44
426.735	6593.44
426.958	6983.44
427.18	7681.44
427.402	8680.44
427.625	8723.44
427.847	7469.44
428.069	6816.44
428.292	6373.44
428.514	6059.44
428.736	5913.44
428.958	5933.44
429.181	5783.44
429.403	5761.44
429.625	5975.44
429.847	6228.44
430.069	6682.44
430.292	6302.44
430.514	5834.44
430.736	5813.44
430.958	5625.44
431.18	5702.44
431.402	5659.44
431.624	5720.44
431.846	5764.44
432.068	5747.44
432.29	5836.44
432.512	5719.44
432.734	5821.44
432.956	5757.44
433.178	5865.44
433.4	5781.44
433.622	5804.44
433.844	5797.44
434.066	5813.44
434.287	5899.44
434.509	6070.44
434.731	6285.44
434.953	6427.44
435.175	6576.44
435.397	6650.44
435.618	6589.44
435.84	6869.44
436.062	7616.44
436.284	7515.44
436.505	6388.44
436.727	6132.44
436.949	5920.44
437.17	5819.44
437.392	5778.44
437.614	5914.44
437.835	6244.44
438.057	7017.44
438.278	7681.44
438.5	7620.44
438.721	8395.44
438.943	7380.44
439.165	6306.44
439.386	6117.44
439.608	6159.44
439.829	6225.44
440.05	6605.44
440.272	6842.44
440.493	6362.44
440.715	6067.44
440.936	6006.44
441.158	5995.44
441.379	6212.44
441.6	6472.44
441.822	6736.44
442.043	7074.44
442.264	7829.44
442.486	7507.44
442.707	6827.44
442.928	6669.44
443.149	6771.44
443.371	7001.44
443.592	7498.44
443.813	8432.44
444.034	8394.44
444.255	7459.44
444.476	7298.44
444.698	7492.44
444.919	7566.44
445.14	7452.44
445.361	7199.44
445.582	7264.44
445.803	7685.44
446.024	8362.44
446.245	7931.44
446.466	7185.44
446.687	6377.44
446.908	6082.44
447.129	5756.44
447.35	5597.44
447.571	5597.44
447.792	5545.44
448.013	5563.44
448.234	5708.44
448.455	6381.44
448.675	7432.44
448.896	7804.44
449.117	6523.44
449.338	6720.44
449.559	7851.44
449.779	8052.44
450	6267.44
450.221	5683.44
450.442	5461.44
450.662	5413.44
450.883	5522.44
451.104	5576.44
451.324	5400.44
451.545	5333.44
451.766	5222.44
451.986	5083.44
452.207	5075.44
452.428	5012.44
452.648	5062.44
452.869	5037.44
453.089	5075.44
453.31	5296.44
453.53	5029.44
453.751	4963.44
453.971	4940.44
454.192	5138.44
454.412	4979.44
454.633	4877.44
454.853	4813.44
455.073	4877.44
455.294	5261.44
455.514	5697.44
455.734	5301.44
455.955	4829.44
456.175	4722.44
456.395	4656.44
456.616	4639.44
456.836	4672.44
457.056	4626.44
457.276	4541.44
457.497	4759.44
457.717	4691.44
457.937	4786.44
458.157	4802.44
458.377	4895.44
458.598	5221.44
458.818	5804.44
459.038	6516.44
459.258	6504.44
459.478	5857.44
459.698	5772.44
459.918	5840.44
460.138	6002.44
460.358	6242.44
460.578	6296.44
460.798	6349.44
461.018	6368.44
461.238	6258.44
461.458	6198.44
461.678	6129.44
461.898	6347.44
462.118	6329.44
462.338	6645.44
462.558	6815.44
462.777	7109.44
462.997	7709.44
463.217	8189.44
463.437	7861.44
463.657	7345.44
463.876	7214.44
464.096	7201.44
464.316	7155.44
464.536	7141.44
464.755	6900.44
464.975	6859.44
465.195	6872.44
465.414	6823.44
465.634	6073.44
465.854	5820.44
466.073	5582.44
466.293	5398.44
466.512	5314.44
466.732	5204.44
466.951	5192.44
467.171	5212.44
467.391	5277.44
467.61	5282.44
467.829	5208.44
468.049	5170.44
468.268	5014.44
468.488	5006.44
468.707	4937.44
468.927	5001.44
469.146	4953.44
469.365	5001.44
469.585	5028.44
469.804	5240.44
470.023	5438.44
470.243	5317.44
470.462	5390.44
470.681	5575.44
470.901	5549.44
471.12	5278.44
471.339	5219.44
471.558	5189.44
471.777	5172.44
471.997	5107.44
472.216	5144.44
472.435	5301.44
472.654	5053.44
472.873	4978.44
473.092	4920.44
473.311	4937.44
473.53	5008.44
473.749	5089.44
473.968	5583.44
474.187	6481.44
474.406	6129.44
474.625	5271.44
474.844	5056.44
475.063	4952.44
475.282	4946.44
475.501	5059.44
475.72	5076.44
475.939	5127.44
476.158	5137.44
476.377	5200.44
476.596	5114.44
476.814	5294.44
477.033	5312.44
477.252	5407.44
477.471	5424.44
477.69	5610.44
477.908	5832.44
478.127	5859.44
478.346	5959.44
478.564	6065.44
478.783	6117.44
479.002	6248.44
479.22	6298.44
479.439	6335.44
479.658	6448.44
479.876	6512.44
480.095	6713.44
480.313	7146.44
480.532	7030.44
480.751	6884.44
480.969	6816.44
481.188	7137.44
481.406	6816.44
481.624	6344.44
481.843	6231.44
482.061	6082.44
482.28	6017.44
482.498	5837.44
482.717	5926.44
482.935	5897.44
483.153	5865.44
483.372	5915.44
483.59	5845.44
483.808	5832.44
484.027	5876.44
484.245	5984.44
484.463	5917.44
484.681	6073.44
484.9	6109.44
485.118	6114.44
485.336	6179.44
485.554	6276.44
485.772	6197.44
485.99	6240.44
486.209	6244.44
486.427	6337.44
486.645	6297.44
486.863	6503.44
487.081	6448.44
487.299	6320.44
487.517	6307.44
487.735	6259.44
487.953	6218.44
