Data from Circ_1982_H10_HRD10591_00035.txt Node
Date: Wed Jan 03 12:30:48 EST 2024
User: Yrep
Spectrometer: HR+D1059
Trigger mode: 1
Integration Time (sec): 1.000000E-1
Scans to average: 1
Electric dark correction enabled: true
Nonlinearity correction enabled: false
Boxcar width: 0
XAxis mode: Wavelengths
Number of Pixels in Spectrum: 2048
>>>>>Begin Spectral Data<<<<<
223.165	-28.81
223.4	-28.81
223.635	-28.81
223.869	-22.81
224.104	-23.81
224.338	-7.81
224.573	8.19
224.808	-17.81
225.042	-15.81
225.277	-12.81
225.511	5.19
225.746	10.19
225.98	4.19
226.215	10.19
226.449	16.19
226.683	14.19
226.918	20.19
227.152	41.19
227.387	32.19
227.621	33.19
227.856	57.19
228.09	34.19
228.324	53.19
228.559	75.19
228.793	59.19
229.027	55.19
229.262	67.19
229.496	74.19
229.73	72.19
229.964	79.19
230.199	75.19
230.433	63.19
230.667	71.19
230.901	85.19
231.136	83.19
231.37	67.19
231.604	73.19
231.838	76.19
232.072	83.19
232.306	86.19
232.541	91.19
232.775	76.19
233.009	87.19
233.243	76.19
233.477	75.19
233.711	83.19
233.945	83.19
234.179	79.19
234.413	78.19
234.647	71.19
234.881	79.19
235.115	79.19
235.349	88.19
235.583	84.19
235.817	81.19
236.051	85.19
236.285	65.19
236.519	85.19
236.753	70.19
236.987	77.19
237.221	67.19
237.455	77.19
237.689	88.19
237.922	79.19
238.156	90.19
238.39	87.19
238.624	82.19
238.858	69.19
239.091	62.19
239.325	75.19
239.559	65.19
239.793	78.19
240.027	77.19
240.26	76.19
240.494	83.19
240.728	74.19
240.961	88.19
241.195	63.19
241.429	73.19
241.662	67.19
241.896	75.19
242.13	72.19
242.363	73.19
242.597	76.19
242.83	64.19
243.064	61.19
243.298	57.19
243.531	67.19
243.765	76.19
243.998	77.19
244.232	65.19
244.465	76.19
244.699	81.19
244.932	87.19
245.166	81.19
245.399	82.19
245.633	87.19
245.866	103.19
246.099	87.19
246.333	92.19
246.566	75.19
246.8	81.19
247.033	80.19
247.266	83.19
247.5	85.19
247.733	67.19
247.966	81.19
248.2	81.19
248.433	81.19
248.666	77.19
248.899	93.19
249.133	84.19
249.366	99.19
249.599	82.19
249.832	79.19
250.066	85.19
250.299	82.19
250.532	84.19
250.765	84.19
250.998	80.19
251.231	88.19
251.465	82.19
251.698	84.19
251.931	58.19
252.164	68.19
252.397	83.19
252.63	87.19
252.863	67.19
253.096	71.19
253.329	78.19
253.562	75.19
253.795	73.19
254.028	85.19
254.261	89.19
254.494	79.19
254.727	91.19
254.96	75.19
255.193	98.19
255.426	90.19
255.659	70.19
255.892	87.19
256.124	88.19
256.357	83.19
256.59	97.19
256.823	85.19
257.056	86.19
257.289	86.19
257.521	85.19
257.754	83.19
257.987	82.19
258.22	84.19
258.452	83.19
258.685	72.19
258.918	71.19
259.151	87.19
259.383	84.19
259.616	76.19
259.849	89.19
260.081	89.19
260.314	95.19
260.547	86.19
260.779	72.19
261.012	85.19
261.244	79.19
261.477	98.19
261.71	90.19
261.942	91.19
262.175	105.19
262.407	76.19
262.64	75.19
262.872	79.19
263.105	93.19
263.337	83.19
263.57	78.19
263.802	90.19
264.035	92.19
264.267	71.19
264.499	77.19
264.732	83.19
264.964	78.19
265.197	90.19
265.429	89.19
265.661	77.19
265.894	83.19
266.126	85.19
266.358	75.19
266.591	88.19
266.823	89.19
267.055	69.19
267.287	87.19
267.52	82.19
267.752	81.19
267.984	82.19
268.216	85.19
268.448	93.19
268.681	87.19
268.913	99.19
269.145	74.19
269.377	81.19
269.609	88.19
269.841	70.19
270.073	79.19
270.306	96.19
270.538	81.19
270.77	86.19
271.002	103.19
271.234	91.19
271.466	83.19
271.698	90.19
271.93	85.19
272.162	96.19
272.394	80.19
272.626	88.19
272.858	79.19
273.09	98.19
273.322	97.19
273.553	90.19
273.785	90.19
274.017	91.19
274.249	88.19
274.481	84.19
274.713	96.19
274.945	93.19
275.176	95.19
275.408	75.19
275.64	76.19
275.872	84.19
276.104	88.19
276.335	90.19
276.567	97.19
276.799	99.19
277.031	94.19
277.262	85.19
277.494	93.19
277.726	84.19
277.957	74.19
278.189	95.19
278.421	88.19
278.652	86.19
278.884	87.19
279.115	71.19
279.347	95.19
279.579	68.19
279.81	95.19
280.042	97.19
280.273	91.19
280.505	89.19
280.736	93.19
280.968	100.19
281.199	87.19
281.431	89.19
281.662	82.19
281.894	78.19
282.125	96.19
282.356	101.19
282.588	118.19
282.819	94.19
283.051	89.19
283.282	81.19
283.513	92.19
283.745	95.19
283.976	94.19
284.207	82.19
284.439	91.19
284.67	94.19
284.901	92.19
285.132	98.19
285.364	94.19
285.595	91.19
285.826	91.19
286.057	102.19
286.288	76.19
286.52	81.19
286.751	87.19
286.982	88.19
287.213	73.19
287.444	73.19
287.675	93.19
287.906	93.19
288.138	83.19
288.369	90.19
288.6	78.19
288.831	99.19
289.062	89.19
289.293	69.19
289.524	85.19
289.755	90.19
289.986	83.19
290.217	74.19
290.448	85.19
290.679	90.19
290.91	87.19
291.141	90.19
291.371	98.19
291.602	100.19
291.833	83.19
292.064	80.19
292.295	79.19
292.526	85.19
292.757	94.19
292.987	91.19
293.218	89.19
293.449	79.19
293.68	85.19
293.91	94.19
294.141	86.19
294.372	88.19
294.603	98.19
294.833	75.19
295.064	84.19
295.295	91.19
295.525	95.19
295.756	85.19
295.987	110.19
296.217	120.19
296.448	103.19
296.679	91.19
296.909	78.19
297.14	99.19
297.37	86.19
297.601	99.19
297.831	85.19
298.062	76.19
298.292	77.19
298.523	88.19
298.753	77.19
298.984	79.19
299.214	79.19
299.445	97.19
299.675	87.19
299.905	98.19
300.136	77.19
300.366	91.19
300.597	82.19
300.827	89.19
301.057	97.19
301.288	104.19
301.518	101.19
301.748	93.19
301.979	93.19
302.209	91.19
302.439	76.19
302.669	75.19
302.9	92.19
303.13	89.19
303.36	99.19
303.59	111.19
303.82	103.19
304.051	112.19
304.281	87.19
304.511	101.19
304.741	86.19
304.971	93.19
305.201	100.19
305.431	102.19
305.661	101.19
305.891	82.19
306.121	94.19
306.352	93.19
306.582	93.19
306.812	79.19
307.042	89.19
307.272	97.19
307.502	100.19
307.731	84.19
307.961	98.19
308.191	94.19
308.421	78.19
308.651	112.19
308.881	90.19
309.111	77.19
309.341	108.19
309.571	90.19
309.8	100.19
310.03	97.19
310.26	88.19
310.49	95.19
310.72	92.19
310.949	111.19
311.179	106.19
311.409	108.19
311.639	84.19
311.868	84.19
312.098	89.19
312.328	82.19
312.557	105.19
312.787	92.19
313.017	98.19
313.246	98.19
313.476	89.19
313.706	98.19
313.935	95.19
314.165	92.19
314.394	93.19
314.624	85.19
314.853	87.19
315.083	93.19
315.312	89.19
315.542	85.19
315.771	89.19
316.001	85.19
316.23	79.19
316.46	105.19
316.689	92.19
316.919	88.19
317.148	86.19
317.377	86.19
317.607	89.19
317.836	97.19
318.065	98.19
318.295	94.19
318.524	92.19
318.753	98.19
318.983	87.19
319.212	104.19
319.441	98.19
319.67	109.19
319.9	111.19
320.129	88.19
320.358	86.19
320.587	102.19
320.816	97.19
321.046	94.19
321.275	101.19
321.504	101.19
321.733	98.19
321.962	109.19
322.191	103.19
322.42	99.19
322.649	117.19
322.878	101.19
323.108	120.19
323.337	115.19
323.566	136.19
323.795	130.19
324.024	171.19
324.253	286.19
324.482	569.19
324.71	1166.19
324.939	1471.19
325.168	560.19
325.397	199.19
325.626	141.19
325.855	119.19
326.084	111.19
326.313	113.19
326.542	145.19
326.77	188.19
326.999	353.19
327.228	665.19
327.457	1192.19
327.686	960.19
327.914	283.19
328.143	163.19
328.372	132.19
328.6	112.19
328.829	97.19
329.058	124.19
329.287	112.19
329.515	99.19
329.744	98.19
329.972	90.19
330.201	104.19
330.43	120.19
330.658	114.19
330.887	118.19
331.115	107.19
331.344	95.19
331.572	96.19
331.801	98.19
332.03	91.19
332.258	84.19
332.486	86.19
332.715	89.19
332.943	98.19
333.172	106.19
333.4	103.19
333.629	102.19
333.857	110.19
334.085	116.19
334.314	99.19
334.542	118.19
334.771	127.19
334.999	95.19
335.227	100.19
335.455	99.19
335.684	110.19
335.912	104.19
336.14	98.19
336.369	84.19
336.597	95.19
336.825	87.19
337.053	92.19
337.281	84.19
337.51	81.19
337.738	99.19
337.966	90.19
338.194	89.19
338.422	98.19
338.65	94.19
338.878	85.19
339.106	84.19
339.334	99.19
339.562	92.19
339.79	89.19
340.018	109.19
340.246	81.19
340.474	85.19
340.702	102.19
340.93	82.19
341.158	89.19
341.386	91.19
341.614	88.19
341.842	101.19
342.07	94.19
342.298	91.19
342.526	88.19
342.754	92.19
342.981	81.19
343.209	84.19
343.437	104.19
343.665	96.19
343.893	83.19
344.12	92.19
344.348	76.19
344.576	91.19
344.804	94.19
345.031	89.19
345.259	104.19
345.487	95.19
345.714	101.19
345.942	90.19
346.17	87.19
346.397	89.19
346.625	91.19
346.853	92.19
347.08	81.19
347.308	90.19
347.535	105.19
347.763	100.19
347.99	104.19
348.218	108.19
348.445	99.19
348.673	96.19
348.9	97.19
349.128	92.19
349.355	98.19
349.583	94.19
349.81	102.19
350.037	95.19
350.265	95.19
350.492	96.19
350.72	88.19
350.947	98.19
351.174	88.19
351.402	96.19
351.629	107.19
351.856	90.19
352.083	91.19
352.311	92.19
352.538	107.19
352.765	101.19
352.992	113.19
353.22	106.19
353.447	96.19
353.674	108.19
353.901	88.19
354.128	92.19
354.355	108.19
354.583	103.19
354.81	105.19
355.037	89.19
355.264	92.19
355.491	95.19
355.718	110.19
355.945	89.19
356.172	112.19
356.399	91.19
356.626	94.19
356.853	88.19
357.08	100.19
357.307	88.19
357.534	90.19
357.761	95.19
357.988	90.19
358.215	98.19
358.441	88.19
358.668	90.19
358.895	83.19
359.122	93.19
359.349	91.19
359.576	101.19
359.802	97.19
360.029	95.19
360.256	99.19
360.483	93.19
360.709	95.19
360.936	81.19
361.163	104.19
361.39	91.19
361.616	88.19
361.843	98.19
362.07	108.19
362.296	93.19
362.523	86.19
362.749	83.19
362.976	88.19
363.203	89.19
363.429	83.19
363.656	98.19
363.882	78.19
364.109	82.19
364.335	85.19
364.562	80.19
364.788	81.19
365.015	89.19
365.241	93.19
365.468	85.19
365.694	99.19
365.92	103.19
366.147	90.19
366.373	101.19
366.599	79.19
366.826	91.19
367.052	84.19
367.278	76.19
367.505	68.19
367.731	89.19
367.957	94.19
368.184	92.19
368.41	97.19
368.636	94.19
368.862	106.19
369.089	93.19
369.315	81.19
369.541	92.19
369.767	82.19
369.993	89.19
370.219	82.19
370.445	85.19
370.672	81.19
370.898	95.19
371.124	92.19
371.35	87.19
371.576	95.19
371.802	86.19
372.028	76.19
372.254	94.19
372.48	96.19
372.706	79.19
372.932	110.19
373.158	90.19
373.384	87.19
373.61	94.19
373.835	92.19
374.061	90.19
374.287	100.19
374.513	104.19
374.739	86.19
374.965	86.19
375.191	83.19
375.416	84.19
375.642	90.19
375.868	91.19
376.094	82.19
376.319	113.19
376.545	78.19
376.771	93.19
376.997	99.19
377.222	91.19
377.448	94.19
377.674	89.19
377.899	99.19
378.125	89.19
378.35	86.19
378.576	84.19
378.802	89.19
379.027	103.19
379.253	85.19
379.478	81.19
379.704	84.19
379.929	100.19
380.155	98.19
380.38	87.19
380.606	91.19
380.831	90.19
381.057	111.19
381.282	81.19
381.507	94.19
381.733	107.19
381.958	91.19
382.184	105.19
382.409	105.19
382.634	95.19
382.86	110.19
383.085	105.19
383.31	97.19
383.535	95.19
383.761	91.19
383.986	98.19
384.211	110.19
384.436	104.19
384.662	99.19
384.887	89.19
385.112	105.19
385.337	107.19
385.562	101.19
385.787	107.19
386.013	107.19
386.238	107.19
386.463	115.19
386.688	109.19
386.913	100.19
387.138	108.19
387.363	105.19
387.588	106.19
387.813	93.19
388.038	115.19
388.263	107.19
388.488	107.19
388.713	107.19
388.938	75.19
389.163	100.19
389.387	106.19
389.612	94.19
389.837	90.19
390.062	108.19
390.287	86.19
390.512	78.19
390.736	91.19
390.961	97.19
391.186	90.19
391.411	89.19
391.636	105.19
391.86	82.19
392.085	91.19
392.31	100.19
392.534	75.19
392.759	104.19
392.984	94.19
393.208	101.19
393.433	99.19
393.658	87.19
393.882	93.19
394.107	85.19
394.331	76.19
394.556	78.19
394.78	95.19
395.005	94.19
395.229	101.19
395.454	93.19
395.678	77.19
395.903	83.19
396.127	99.19
396.352	102.19
396.576	78.19
396.801	91.19
397.025	96.19
397.249	78.19
397.474	91.19
397.698	87.19
397.922	91.19
398.147	97.19
398.371	76.19
398.595	82.19
398.82	84.19
399.044	76.19
399.268	81.19
399.492	83.19
399.717	92.19
399.941	84.19
400.165	92.19
400.389	98.19
400.613	82.19
400.837	79.19
401.062	93.19
401.286	97.19
401.51	99.19
401.734	87.19
401.958	109.19
402.182	107.19
402.406	133.19
402.63	99.19
402.854	78.19
403.078	89.19
403.302	86.19
403.526	93.19
403.75	101.19
403.974	84.19
404.198	96.19
404.422	99.19
404.645	93.19
404.869	83.19
405.093	86.19
405.317	95.19
405.541	99.19
405.765	101.19
405.988	118.19
406.212	141.19
406.436	180.19
406.66	108.19
406.883	94.19
407.107	84.19
407.331	95.19
407.555	95.19
407.778	77.19
408.002	85.19
408.226	85.19
408.449	83.19
408.673	95.19
408.896	92.19
409.12	111.19
409.344	101.19
409.567	100.19
409.791	94.19
410.014	107.19
410.238	78.19
410.461	98.19
410.685	87.19
410.908	106.19
411.132	97.19
411.355	91.19
411.578	92.19
411.802	93.19
412.025	87.19
412.249	107.19
412.472	82.19
412.695	71.19
412.919	87.19
413.142	93.19
413.365	89.19
413.589	91.19
413.812	96.19
414.035	101.19
414.258	92.19
414.482	81.19
414.705	76.19
414.928	93.19
415.151	88.19
415.374	90.19
415.597	86.19
415.821	86.19
416.044	86.19
416.267	77.19
416.49	96.19
416.713	95.19
416.936	96.19
417.159	89.19
417.382	88.19
417.605	80.19
417.828	94.19
418.051	90.19
418.274	88.19
418.497	78.19
418.72	83.19
418.943	92.19
419.166	87.19
419.389	87.19
419.611	93.19
419.834	87.19
420.057	76.19
420.28	73.19
420.503	86.19
420.726	93.19
420.948	82.19
421.171	94.19
421.394	92.19
421.617	92.19
421.839	85.19
422.062	83.19
422.285	90.19
422.507	104.19
422.73	92.19
422.953	93.19
423.175	87.19
423.398	91.19
423.621	86.19
423.843	92.19
424.066	74.19
424.288	90.19
424.511	90.19
424.733	99.19
424.956	93.19
425.178	83.19
425.401	97.19
425.623	99.19
425.846	86.19
426.068	81.19
426.291	70.19
426.513	89.19
426.735	84.19
426.958	89.19
427.18	90.19
427.402	119.19
427.625	128.19
427.847	106.19
428.069	94.19
428.292	74.19
428.514	95.19
428.736	91.19
428.958	86.19
429.181	83.19
429.403	95.19
429.625	90.19
429.847	90.19
430.069	99.19
430.292	92.19
430.514	85.19
430.736	72.19
430.958	73.19
431.18	77.19
431.402	81.19
431.624	99.19
431.846	84.19
432.068	73.19
432.29	76.19
432.512	87.19
432.734	87.19
432.956	93.19
433.178	103.19
433.4	88.19
433.622	87.19
433.844	81.19
434.066	102.19
434.287	90.19
434.509	82.19
434.731	91.19
434.953	90.19
435.175	83.19
435.397	85.19
435.618	93.19
435.84	105.19
436.062	104.19
436.284	101.19
436.505	81.19
436.727	83.19
436.949	102.19
437.17	92.19
437.392	87.19
437.614	91.19
437.835	99.19
438.057	95.19
438.278	90.19
438.5	100.19
438.721	107.19
438.943	110.19
439.165	83.19
439.386	87.19
439.608	85.19
439.829	84.19
440.05	92.19
440.272	107.19
440.493	102.19
440.715	95.19
440.936	97.19
441.158	86.19
441.379	96.19
441.6	91.19
441.822	74.19
442.043	89.19
442.264	87.19
442.486	107.19
442.707	72.19
442.928	93.19
443.149	113.19
443.371	125.19
443.592	101.19
443.813	98.19
444.034	90.19
444.255	89.19
444.476	83.19
444.698	94.19
444.919	97.19
445.14	117.19
445.361	124.19
445.582	109.19
445.803	118.19
446.024	120.19
446.245	123.19
446.466	87.19
446.687	92.19
446.908	86.19
447.129	73.19
447.35	83.19
447.571	91.19
447.792	81.19
448.013	84.19
448.234	97.19
448.455	102.19
448.675	97.19
448.896	105.19
449.117	93.19
449.338	103.19
449.559	103.19
449.779	107.19
450	97.19
450.221	89.19
450.442	90.19
450.662	98.19
450.883	99.19
451.104	105.19
451.324	88.19
451.545	84.19
451.766	76.19
451.986	92.19
452.207	90.19
452.428	84.19
452.648	95.19
452.869	93.19
453.089	99.19
453.31	105.19
453.53	91.19
453.751	81.19
453.971	94.19
454.192	91.19
454.412	94.19
454.633	82.19
454.853	89.19
455.073	89.19
455.294	83.19
455.514	100.19
455.734	87.19
455.955	76.19
456.175	69.19
456.395	91.19
456.616	99.19
456.836	98.19
457.056	86.19
457.276	81.19
457.497	83.19
457.717	83.19
457.937	83.19
458.157	82.19
458.377	85.19
458.598	96.19
458.818	124.19
459.038	130.19
459.258	97.19
459.478	80.19
459.698	92.19
459.918	78.19
460.138	81.19
460.358	81.19
460.578	98.19
460.798	91.19
461.018	91.19
461.238	85.19
461.458	91.19
461.678	82.19
461.898	83.19
462.118	89.19
462.338	85.19
462.558	91.19
462.777	98.19
462.997	96.19
463.217	95.19
463.437	89.19
463.657	87.19
463.876	102.19
464.096	93.19
464.316	86.19
464.536	87.19
464.755	82.19
464.975	96.19
465.195	136.19
465.414	117.19
465.634	84.19
465.854	90.19
466.073	81.19
466.293	94.19
466.512	92.19
466.732	90.19
466.951	93.19
467.171	85.19
467.391	87.19
467.61	92.19
467.829	88.19
468.049	99.19
468.268	90.19
468.488	71.19
468.707	86.19
468.927	83.19
469.146	99.19
469.365	83.19
469.585	94.19
469.804	91.19
470.023	88.19
470.243	100.19
470.462	93.19
470.681	102.19
470.901	82.19
471.12	84.19
471.339	76.19
471.558	90.19
471.777	100.19
471.997	90.19
472.216	106.19
472.435	129.19
472.654	97.19
472.873	97.19
473.092	84.19
473.311	97.19
473.53	79.19
473.749	91.19
473.968	89.19
474.187	104.19
474.406	100.19
474.625	103.19
474.844	97.19
475.063	84.19
475.282	92.19
475.501	85.19
475.72	98.19
475.939	85.19
476.158	78.19
476.377	90.19
476.596	84.19
476.814	80.19
477.033	85.19
477.252	92.19
477.471	89.19
477.69	75.19
477.908	86.19
478.127	99.19
478.346	92.19
478.564	93.19
478.783	93.19
479.002	94.19
479.22	100.19
479.439	102.19
479.658	102.19
479.876	91.19
480.095	84.19
480.313	94.19
480.532	101.19
480.751	76.19
480.969	118.19
481.188	144.19
481.406	117.19
481.624	85.19
481.843	85.19
482.061	91.19
482.28	92.19
482.498	92.19
482.717	85.19
482.935	70.19
483.153	89.19
483.372	87.19
483.59	86.19
483.808	97.19
484.027	99.19
484.245	76.19
484.463	100.19
484.681	101.19
484.9	111.19
485.118	102.19
485.336	87.19
485.554	97.19
485.772	105.19
485.99	103.19
486.209	124.19
486.427	117.19
486.645	111.19
486.863	104.19
487.081	94.19
487.299	103.19
487.517	102.19
487.735	89.19
487.953	101.19
488.171	85.19
488.389	91.19
488.607	93.19
488.825	83.19
489.043	102.19
489.261	100.19
489.479	90.19
489.696	103.19
489.914	83.19
490.132	91.19
490.35	83.19
490.568	91.19
490.786	98.19
491.003	96.19
491.221	96.19
491.439	94.19
491.657	92.19
491.874	89.19
492.092	92.19
492.31	99.19
492.527	81.19
492.745	90.19
492.963	97.19
493.18	89.19
493.398	97.19
493.615	90.19
493.833	109.19
494.05	101.19
494.268	86.19
494.485	97.19
494.703	83.19
494.92	90.19
495.138	96.19
495.355	93.19
495.573	102.19
495.79	98.19
496.008	93.19
496.225	86.19
496.442	86.19
496.66	101.19
496.877	83.19
497.094	95.19
497.312	99.19
497.529	93.19
497.746	97.19
497.963	84.19
498.181	95.19
498.398	90.19
498.615	94.19
498.832	89.19
499.049	94.19
499.267	97.19
499.484	84.19
499.701	90.19
499.918	93.19
500.135	97.19
500.352	94.19
500.569	93.19
500.786	95.19
501.003	92.19
501.22	80.19
501.437	94.19
501.654	82.19
501.871	91.19
502.088	92.19
502.305	82.19
502.522	90.19
502.739	81.19
502.956	85.19
503.172	90.19
503.389	85.19
503.606	98.19
503.823	102.19
504.04	90.19
504.256	92.19
504.473	96.19
504.69	93.19
504.907	84.19
505.123	81.19
505.34	85.19
505.557	86.19
505.773	88.19
505.99	86.19
506.207	78.19
506.423	74.19
506.64	85.19
506.856	89.19
507.073	81.19
507.289	89.19
507.506	86.19
507.722	106.19
507.939	98.19
508.155	81.19
508.372	99.19
508.588	106.19
508.805	107.19
509.021	105.19
509.238	99.19
509.454	93.19
509.67	98.19
509.887	93.19
510.103	116.19
510.319	162.19
510.536	542.19
510.752	1550.19
510.968	445.19
511.184	121.19
511.401	111.19
511.617	96.19
511.833	99.19
512.049	80.19
512.265	89.19
512.481	95.19
512.698	101.19
512.914	100.19
513.13	86.19
513.346	72.19
513.562	93.19
513.778	94.19
513.994	97.19
514.21	89.19
514.426	95.19
514.642	122.19
514.858	98.19
515.074	133.19
515.29	305.19
515.506	910.19
515.721	344.19
515.937	125.19
516.153	105.19
516.369	99.19
