Data from Circ_1982_H10_HRD10591_00061.txt Node
Date: Wed Jan 03 12:30:53 EST 2024
User: Yrep
Spectrometer: HR+D1059
Trigger mode: 1
Integration Time (sec): 1.000000E-1
Scans to average: 1
Electric dark correction enabled: true
Nonlinearity correction enabled: false
Boxcar width: 0
XAxis mode: Wavelengths
Number of Pixels in Spectrum: 2048
>>>>>Begin Spectral Data<<<<<
223.165	-11.12
223.4	-11.12
223.635	-11.12
223.869	-15.12
224.104	-29.12
224.338	-19.12
224.573	-9.12
224.808	-10.12
225.042	-10.12
225.277	4.88
225.511	0.88
225.746	3.88
225.98	-3.12
226.215	17.88
226.449	14.88
226.683	20.88
226.918	14.88
227.152	28.88
227.387	40.88
227.621	46.88
227.856	48.88
228.09	48.88
228.324	40.88
228.559	65.88
228.793	52.88
229.027	65.88
229.262	71.88
229.496	65.88
229.73	85.88
229.964	74.88
230.199	66.88
230.433	76.88
230.667	69.88
230.901	65.88
231.136	63.88
231.37	67.88
231.604	68.88
231.838	87.88
232.072	81.88
232.306	89.88
232.541	80.88
232.775	85.88
233.009	84.88
233.243	82.88
233.477	70.88
233.711	88.88
233.945	70.88
234.179	84.88
234.413	78.88
234.647	80.88
234.881	86.88
235.115	86.88
235.349	73.88
235.583	83.88
235.817	82.88
236.051	78.88
236.285	69.88
236.519	74.88
236.753	83.88
236.987	82.88
237.221	76.88
237.455	68.88
237.689	70.88
237.922	81.88
238.156	73.88
238.39	66.88
238.624	88.88
238.858	66.88
239.091	76.88
239.325	79.88
239.559	78.88
239.793	85.88
240.027	71.88
240.26	78.88
240.494	88.88
240.728	81.88
240.961	59.88
241.195	78.88
241.429	72.88
241.662	72.88
241.896	80.88
242.13	79.88
242.363	79.88
242.597	69.88
242.83	80.88
243.064	62.88
243.298	64.88
243.531	85.88
243.765	78.88
243.998	80.88
244.232	80.88
244.465	87.88
244.699	75.88
244.932	66.88
245.166	85.88
245.399	70.88
245.633	85.88
245.866	82.88
246.099	78.88
246.333	83.88
246.566	80.88
246.8	76.88
247.033	79.88
247.266	80.88
247.5	74.88
247.733	90.88
247.966	79.88
248.2	82.88
248.433	84.88
248.666	76.88
248.899	64.88
249.133	95.88
249.366	66.88
249.599	87.88
249.832	83.88
250.066	79.88
250.299	75.88
250.532	71.88
250.765	75.88
250.998	71.88
251.231	79.88
251.465	75.88
251.698	69.88
251.931	68.88
252.164	62.88
252.397	71.88
252.63	80.88
252.863	68.88
253.096	79.88
253.329	68.88
253.562	76.88
253.795	60.88
254.028	67.88
254.261	94.88
254.494	78.88
254.727	72.88
254.96	82.88
255.193	66.88
255.426	94.88
255.659	74.88
255.892	81.88
256.124	80.88
256.357	61.88
256.59	86.88
256.823	75.88
257.056	82.88
257.289	74.88
257.521	91.88
257.754	69.88
257.987	82.88
258.22	94.88
258.452	87.88
258.685	79.88
258.918	85.88
259.151	86.88
259.383	87.88
259.616	85.88
259.849	74.88
260.081	74.88
260.314	88.88
260.547	90.88
260.779	80.88
261.012	71.88
261.244	78.88
261.477	91.88
261.71	85.88
261.942	90.88
262.175	107.88
262.407	72.88
262.64	78.88
262.872	87.88
263.105	79.88
263.337	87.88
263.57	85.88
263.802	71.88
264.035	73.88
264.267	85.88
264.499	74.88
264.732	91.88
264.964	64.88
265.197	80.88
265.429	88.88
265.661	73.88
265.894	79.88
266.126	75.88
266.358	89.88
266.591	79.88
266.823	89.88
267.055	80.88
267.287	87.88
267.52	98.88
267.752	72.88
267.984	65.88
268.216	68.88
268.448	74.88
268.681	89.88
268.913	110.88
269.145	69.88
269.377	94.88
269.609	83.88
269.841	73.88
270.073	75.88
270.306	64.88
270.538	86.88
270.77	82.88
271.002	79.88
271.234	90.88
271.466	74.88
271.698	80.88
271.93	81.88
272.162	86.88
272.394	87.88
272.626	78.88
272.858	81.88
273.09	85.88
273.322	90.88
273.553	64.88
273.785	82.88
274.017	84.88
274.249	79.88
274.481	76.88
274.713	81.88
274.945	89.88
275.176	84.88
275.408	94.88
275.64	97.88
275.872	90.88
276.104	89.88
276.335	91.88
276.567	86.88
276.799	72.88
277.031	93.88
277.262	76.88
277.494	94.88
277.726	69.88
277.957	80.88
278.189	83.88
278.421	86.88
278.652	99.88
278.884	80.88
279.115	87.88
279.347	80.88
279.579	85.88
279.81	78.88
280.042	68.88
280.273	89.88
280.505	72.88
280.736	79.88
280.968	80.88
281.199	73.88
281.431	88.88
281.662	79.88
281.894	100.88
282.125	100.88
282.356	106.88
282.588	95.88
282.819	107.88
283.051	82.88
283.282	81.88
283.513	86.88
283.745	75.88
283.976	84.88
284.207	92.88
284.439	79.88
284.67	73.88
284.901	82.88
285.132	78.88
285.364	92.88
285.595	76.88
285.826	88.88
286.057	78.88
286.288	93.88
286.52	74.88
286.751	96.88
286.982	80.88
287.213	101.88
287.444	74.88
287.675	80.88
287.906	97.88
288.138	93.88
288.369	96.88
288.6	90.88
288.831	76.88
289.062	76.88
289.293	68.88
289.524	87.88
289.755	88.88
289.986	82.88
290.217	99.88
290.448	99.88
290.679	84.88
290.91	84.88
291.141	83.88
291.371	88.88
291.602	73.88
291.833	82.88
292.064	103.88
292.295	89.88
292.526	81.88
292.757	75.88
292.987	92.88
293.218	87.88
293.449	73.88
293.68	79.88
293.91	86.88
294.141	89.88
294.372	92.88
294.603	85.88
294.833	73.88
295.064	88.88
295.295	97.88
295.525	103.88
295.756	95.88
295.987	105.88
296.217	117.88
296.448	99.88
296.679	93.88
296.909	98.88
297.14	85.88
297.37	94.88
297.601	99.88
297.831	84.88
298.062	93.88
298.292	86.88
298.523	86.88
298.753	78.88
298.984	91.88
299.214	60.88
299.445	92.88
299.675	92.88
299.905	97.88
300.136	84.88
300.366	91.88
300.597	86.88
300.827	86.88
301.057	90.88
301.288	96.88
301.518	93.88
301.748	99.88
301.979	97.88
302.209	87.88
302.439	78.88
302.669	96.88
302.9	70.88
303.13	89.88
303.36	80.88
303.59	79.88
303.82	92.88
304.051	90.88
304.281	89.88
304.511	101.88
304.741	90.88
304.971	84.88
305.201	83.88
305.431	91.88
305.661	76.88
305.891	78.88
306.121	98.88
306.352	110.88
306.582	90.88
306.812	89.88
307.042	91.88
307.272	83.88
307.502	88.88
307.731	94.88
307.961	92.88
308.191	100.88
308.421	84.88
308.651	80.88
308.881	95.88
309.111	89.88
309.341	97.88
309.571	90.88
309.8	86.88
310.03	92.88
310.26	102.88
310.49	90.88
310.72	79.88
310.949	89.88
311.179	99.88
311.409	89.88
311.639	89.88
311.868	92.88
312.098	87.88
312.328	82.88
312.557	100.88
312.787	90.88
313.017	89.88
313.246	89.88
313.476	87.88
313.706	104.88
313.935	99.88
314.165	91.88
314.394	88.88
314.624	88.88
314.853	98.88
315.083	86.88
315.312	89.88
315.542	92.88
315.771	90.88
316.001	83.88
316.23	92.88
316.46	93.88
316.689	90.88
316.919	91.88
317.148	87.88
317.377	78.88
317.607	104.88
317.836	93.88
318.065	94.88
318.295	92.88
318.524	91.88
318.753	91.88
318.983	84.88
319.212	94.88
319.441	98.88
319.67	102.88
319.9	89.88
320.129	86.88
320.358	80.88
320.587	96.88
320.816	89.88
321.046	79.88
321.275	89.88
321.504	74.88
321.733	94.88
321.962	100.88
322.191	80.88
322.42	100.88
322.649	101.88
322.878	99.88
323.108	100.88
323.337	99.88
323.566	116.88
323.795	135.88
324.024	164.88
324.253	282.88
324.482	576.88
324.71	1108.88
324.939	1448.88
325.168	540.88
325.397	185.88
325.626	131.88
325.855	113.88
326.084	107.88
326.313	116.88
326.542	123.88
326.77	171.88
326.999	326.88
327.228	656.88
327.457	1137.88
327.686	900.88
327.914	260.88
328.143	144.88
328.372	126.88
328.6	112.88
328.829	113.88
329.058	109.88
329.287	109.88
329.515	99.88
329.744	84.88
329.972	94.88
330.201	96.88
330.43	110.88
330.658	106.88
330.887	122.88
331.115	113.88
331.344	97.88
331.572	95.88
331.801	89.88
332.03	96.88
332.258	91.88
332.486	91.88
332.715	84.88
332.943	86.88
333.172	80.88
333.4	88.88
333.629	102.88
333.857	96.88
334.085	99.88
334.314	116.88
334.542	119.88
334.771	115.88
334.999	102.88
335.227	94.88
335.455	96.88
335.684	91.88
335.912	88.88
336.14	81.88
336.369	84.88
336.597	88.88
336.825	88.88
337.053	91.88
337.281	87.88
337.51	87.88
337.738	82.88
337.966	88.88
338.194	77.88
338.422	89.88
338.65	93.88
338.878	89.88
339.106	98.88
339.334	91.88
339.562	87.88
339.79	99.88
340.018	98.88
340.246	92.88
340.474	79.88
340.702	82.88
340.93	90.88
341.158	83.88
341.386	90.88
341.614	89.88
341.842	92.88
342.07	94.88
342.298	89.88
342.526	86.88
342.754	92.88
342.981	83.88
343.209	84.88
343.437	97.88
343.665	84.88
343.893	91.88
344.12	90.88
344.348	90.88
344.576	79.88
344.804	82.88
345.031	89.88
345.259	98.88
345.487	97.88
345.714	94.88
345.942	82.88
346.17	92.88
346.397	96.88
346.625	88.88
346.853	96.88
347.08	89.88
347.308	84.88
347.535	92.88
347.763	106.88
347.99	80.88
348.218	102.88
348.445	95.88
348.673	100.88
348.9	108.88
349.128	88.88
349.355	88.88
349.583	95.88
349.81	100.88
350.037	94.88
350.265	86.88
350.492	86.88
350.72	86.88
350.947	102.88
351.174	100.88
351.402	88.88
351.629	90.88
351.856	99.88
352.083	90.88
352.311	101.88
352.538	100.88
352.765	98.88
352.992	98.88
353.22	113.88
353.447	99.88
353.674	87.88
353.901	96.88
354.128	98.88
354.355	93.88
354.583	85.88
354.81	105.88
355.037	103.88
355.264	99.88
355.491	88.88
355.718	99.88
355.945	94.88
356.172	97.88
356.399	86.88
356.626	96.88
356.853	92.88
357.08	85.88
357.307	100.88
357.534	93.88
357.761	84.88
357.988	90.88
358.215	89.88
358.441	92.88
358.668	86.88
358.895	89.88
359.122	90.88
359.349	68.88
359.576	88.88
359.802	99.88
360.029	83.88
360.256	104.88
360.483	90.88
360.709	91.88
360.936	82.88
361.163	94.88
361.39	80.88
361.616	76.88
361.843	79.88
362.07	100.88
362.296	98.88
362.523	94.88
362.749	91.88
362.976	80.88
363.203	92.88
363.429	88.88
363.656	95.88
363.882	85.88
364.109	79.88
364.335	81.88
364.562	101.88
364.788	82.88
365.015	89.88
365.241	85.88
365.468	99.88
365.694	98.88
365.92	96.88
366.147	97.88
366.373	92.88
366.599	81.88
366.826	92.88
367.052	79.88
367.278	89.88
367.505	88.88
367.731	92.88
367.957	85.88
368.184	92.88
368.41	99.88
368.636	107.88
368.862	102.88
369.089	93.88
369.315	86.88
369.541	92.88
369.767	81.88
369.993	73.88
370.219	85.88
370.445	85.88
370.672	88.88
370.898	90.88
371.124	78.88
371.35	76.88
371.576	80.88
371.802	87.88
372.028	82.88
372.254	79.88
372.48	82.88
372.706	73.88
372.932	80.88
373.158	76.88
373.384	74.88
373.61	89.88
373.835	79.88
374.061	94.88
374.287	96.88
374.513	97.88
374.739	86.88
374.965	97.88
375.191	91.88
375.416	80.88
375.642	77.88
375.868	95.88
376.094	94.88
376.319	95.88
376.545	93.88
376.771	83.88
376.997	91.88
377.222	99.88
377.448	86.88
377.674	88.88
377.899	84.88
378.125	83.88
378.35	88.88
378.576	81.88
378.802	86.88
379.027	88.88
379.253	87.88
379.478	97.88
379.704	89.88
379.929	90.88
380.155	97.88
380.38	86.88
380.606	73.88
380.831	96.88
381.057	100.88
381.282	90.88
381.507	97.88
381.733	116.88
381.958	105.88
382.184	84.88
382.409	97.88
382.634	100.88
382.86	104.88
383.085	91.88
383.31	105.88
383.535	95.88
383.761	96.88
383.986	105.88
384.211	92.88
384.436	103.88
384.662	103.88
384.887	83.88
385.112	91.88
385.337	85.88
385.562	93.88
385.787	94.88
386.013	104.88
386.238	99.88
386.463	102.88
386.688	105.88
386.913	111.88
387.138	96.88
387.363	101.88
387.588	102.88
387.813	103.88
388.038	94.88
388.263	118.88
388.488	102.88
388.713	100.88
388.938	94.88
389.163	100.88
389.387	99.88
389.612	93.88
389.837	105.88
390.062	103.88
390.287	104.88
390.512	91.88
390.736	91.88
390.961	88.88
391.186	100.88
391.411	64.88
391.636	75.88
391.86	80.88
392.085	93.88
392.31	78.88
392.534	69.88
392.759	80.88
392.984	101.88
393.208	84.88
393.433	81.88
393.658	71.88
393.882	87.88
394.107	84.88
394.331	92.88
394.556	93.88
394.78	74.88
395.005	88.88
395.229	77.88
395.454	80.88
395.678	88.88
395.903	84.88
396.127	94.88
396.352	93.88
396.576	79.88
396.801	84.88
397.025	84.88
397.249	82.88
397.474	97.88
397.698	87.88
397.922	91.88
398.147	80.88
398.371	100.88
398.595	88.88
398.82	97.88
399.044	84.88
399.268	92.88
399.492	72.88
399.717	80.88
399.941	84.88
400.165	84.88
400.389	87.88
400.613	75.88
400.837	85.88
401.062	84.88
401.286	78.88
401.51	96.88
401.734	101.88
401.958	91.88
402.182	103.88
402.406	119.88
402.63	87.88
402.854	84.88
403.078	95.88
403.302	86.88
403.526	82.88
403.75	77.88
403.974	95.88
404.198	97.88
404.422	93.88
404.645	85.88
404.869	89.88
405.093	107.88
405.317	101.88
405.541	85.88
405.765	84.88
405.988	94.88
406.212	126.88
406.436	152.88
406.66	129.88
406.883	98.88
407.107	91.88
407.331	88.88
407.555	94.88
407.778	82.88
408.002	87.88
408.226	92.88
408.449	104.88
408.673	87.88
408.896	94.88
409.12	98.88
409.344	82.88
409.567	94.88
409.791	96.88
410.014	83.88
410.238	93.88
410.461	97.88
410.685	89.88
410.908	100.88
411.132	96.88
411.355	87.88
411.578	89.88
411.802	91.88
412.025	79.88
412.249	107.88
412.472	94.88
412.695	89.88
412.919	75.88
413.142	84.88
413.365	88.88
413.589	91.88
413.812	94.88
414.035	84.88
414.258	72.88
414.482	89.88
414.705	78.88
414.928	84.88
415.151	96.88
415.374	82.88
415.597	75.88
415.821	90.88
416.044	90.88
416.267	85.88
416.49	90.88
416.713	100.88
416.936	81.88
417.159	71.88
417.382	86.88
417.605	87.88
417.828	94.88
418.051	89.88
418.274	82.88
418.497	80.88
418.72	81.88
418.943	68.88
419.166	93.88
419.389	94.88
419.611	82.88
419.834	87.88
420.057	93.88
420.28	68.88
420.503	73.88
420.726	84.88
420.948	96.88
421.171	80.88
421.394	92.88
421.617	92.88
421.839	90.88
422.062	85.88
422.285	94.88
422.507	81.88
422.73	89.88
422.953	91.88
423.175	75.88
423.398	82.88
423.621	88.88
423.843	78.88
424.066	86.88
424.288	86.88
424.511	77.88
424.733	95.88
424.956	103.88
425.178	92.88
425.401	87.88
425.623	95.88
425.846	95.88
426.068	88.88
426.291	76.88
426.513	76.88
426.735	84.88
426.958	94.88
427.18	95.88
427.402	125.88
427.625	126.88
427.847	96.88
428.069	102.88
428.292	91.88
428.514	96.88
428.736	70.88
428.958	83.88
429.181	75.88
429.403	78.88
429.625	81.88
429.847	95.88
430.069	96.88
430.292	95.88
430.514	82.88
430.736	95.88
430.958	73.88
431.18	82.88
431.402	88.88
431.624	79.88
431.846	71.88
432.068	84.88
432.29	76.88
432.512	86.88
432.734	75.88
432.956	97.88
433.178	107.88
433.4	90.88
433.622	102.88
433.844	95.88
434.066	79.88
434.287	87.88
434.509	69.88
434.731	94.88
434.953	78.88
435.175	97.88
435.397	97.88
435.618	78.88
435.84	92.88
436.062	119.88
436.284	83.88
436.505	93.88
436.727	79.88
436.949	87.88
437.17	82.88
437.392	96.88
437.614	88.88
437.835	103.88
438.057	95.88
438.278	92.88
438.5	79.88
438.721	92.88
438.943	94.88
439.165	94.88
439.386	93.88
439.608	98.88
439.829	101.88
440.05	106.88
440.272	115.88
440.493	82.88
440.715	84.88
440.936	84.88
441.158	84.88
441.379	78.88
441.6	91.88
441.822	98.88
442.043	88.88
442.264	98.88
442.486	76.88
442.707	75.88
442.928	103.88
443.149	115.88
443.371	102.88
443.592	91.88
443.813	95.88
444.034	80.88
444.255	88.88
444.476	78.88
444.698	91.88
444.919	90.88
445.14	116.88
445.361	111.88
445.582	103.88
445.803	111.88
446.024	107.88
446.245	114.88
446.466	82.88
446.687	98.88
446.908	72.88
447.129	84.88
447.35	79.88
447.571	83.88
447.792	85.88
448.013	101.88
448.234	96.88
448.455	87.88
448.675	100.88
448.896	81.88
449.117	94.88
449.338	92.88
449.559	110.88
449.779	103.88
450	97.88
450.221	91.88
450.442	73.88
450.662	78.88
450.883	92.88
451.104	94.88
451.324	90.88
451.545	91.88
451.766	87.88
451.986	73.88
452.207	85.88
452.428	84.88
452.648	89.88
452.869	100.88
453.089	84.88
453.31	83.88
453.53	90.88
453.751	78.88
453.971	98.88
454.192	99.88
454.412	101.88
454.633	95.88
454.853	86.88
455.073	83.88
455.294	82.88
455.514	95.88
455.734	73.88
455.955	70.88
456.175	84.88
456.395	84.88
456.616	80.88
456.836	74.88
457.056	85.88
457.276	87.88
457.497	78.88
457.717	88.88
457.937	76.88
458.157	83.88
458.377	86.88
458.598	81.88
458.818	112.88
459.038	125.88
459.258	98.88
459.478	90.88
459.698	89.88
459.918	87.88
460.138	81.88
460.358	75.88
460.578	100.88
460.798	78.88
461.018	80.88
461.238	80.88
461.458	82.88
461.678	101.88
461.898	88.88
462.118	82.88
462.338	87.88
462.558	85.88
462.777	73.88
462.997	78.88
463.217	80.88
463.437	79.88
463.657	75.88
463.876	66.88
464.096	89.88
464.316	82.88
464.536	89.88
464.755	91.88
464.975	92.88
465.195	128.88
465.414	135.88
465.634	80.88
465.854	92.88
466.073	76.88
466.293	90.88
466.512	88.88
466.732	98.88
466.951	83.88
467.171	89.88
467.391	85.88
467.61	100.88
467.829	79.88
468.049	85.88
468.268	92.88
468.488	86.88
468.707	92.88
468.927	88.88
469.146	97.88
469.365	91.88
469.585	82.88
469.804	89.88
470.023	86.88
470.243	86.88
470.462	89.88
470.681	89.88
470.901	89.88
471.12	85.88
471.339	82.88
471.558	99.88
471.777	82.88
471.997	80.88
472.216	89.88
472.435	123.88
472.654	96.88
472.873	94.88
473.092	70.88
473.311	94.88
473.53	85.88
473.749	85.88
473.968	101.88
474.187	102.88
474.406	82.88
474.625	83.88
474.844	80.88
475.063	96.88
475.282	87.88
475.501	92.88
475.72	83.88
475.939	74.88
476.158	85.88
476.377	91.88
476.596	85.88
476.814	90.88
477.033	87.88
477.252	78.88
477.471	90.88
477.69	86.88
477.908	82.88
478.127	81.88
478.346	80.88
478.564	82.88
478.783	99.88
479.002	86.88
479.22	86.88
479.439	100.88
479.658	100.88
479.876	87.88
480.095	83.88
480.313	85.88
480.532	88.88
480.751	98.88
480.969	94.88
481.188	159.88
481.406	119.88
481.624	88.88
481.843	72.88
482.061	78.88
482.28	78.88
482.498	93.88
482.717	90.88
482.935	96.88
483.153	102.88
483.372	87.88
483.59	81.88
483.808	83.88
484.027	107.88
484.245	94.88
484.463	104.88
484.681	91.88
484.9	91.88
485.118	90.88
485.336	72.88
485.554	108.88
485.772	90.88
485.99	106.88
486.209	119.88
486.427	99.88
486.645	100.88
486.863	99.88
487.081	97.88
487.299	96.88
487.517	94.88
487.735	85.88
487.953	99.88
488.171	90.88
488.389	83.88
488.607	96.88
488.825	89.88
489.043	71.88
489.261	95.88
489.479	84.88
489.696	73.88
489.914	80.88
490.132	74.88
490.35	92.88
490.568	87.88
490.786	89.88
491.003	91.88
491.221	81.88
491.439	74.88
491.657	90.88
491.874	81.88
492.092	79.88
492.31	89.88
492.527	86.88
492.745	90.88
492.963	84.88
493.18	80.88
493.398	88.88
493.615	100.88
493.833	108.88
494.05	94.88
494.268	81.88
494.485	92.88
494.703	81.88
494.92	89.88
495.138	84.88
495.355	84.88
495.573	91.88
495.79	88.88
496.008	98.88
496.225	89.88
496.442	88.88
496.66	105.88
496.877	94.88
497.094	86.88
497.312	90.88
497.529	80.88
497.746	87.88
497.963	83.88
498.181	95.88
498.398	95.88
498.615	92.88
498.832	89.88
499.049	88.88
499.267	76.88
499.484	74.88
499.701	84.88
499.918	84.88
500.135	97.88
500.352	91.88
500.569	82.88
500.786	93.88
501.003	102.88
501.22	86.88
501.437	95.88
501.654	84.88
501.871	90.88
502.088	88.88
502.305	95.88
502.522	96.88
502.739	86.88
502.956	87.88
503.172	96.88
503.389	71.88
503.606	88.88
503.823	106.88
504.04	94.88
504.256	86.88
504.473	93.88
504.69	94.88
504.907	79.88
505.123	87.88
505.34	99.88
505.557	90.88
505.773	97.88
505.99	72.88
506.207	82.88
506.423	92.88
506.64	70.88
506.856	94.88
507.073	97.88
507.289	107.88
507.506	93.88
507.722	100.88
507.939	87.88
508.155	101.88
508.372	92.88
508.588	88.88
508.805	90.88
509.021	89.88
509.238	80.88
509.454	98.88
509.67	96.88
509.887	101.88
510.103	116.88
510.319	170.88
510.536	508.88
510.752	1470.88
510.968	440.88
511.184	126.88
511.401	89.88
511.617	95.88
511.833	94.88
512.049	71.88
512.265	88.88
512.481	86.88
512.698	99.88
512.914	90.88
513.13	94.88
513.346	97.88
513.562	96.88
513.778	96.88
513.994	92.88
514.21	95.88
514.426	101.88
514.642	121.88
514.858	101.88
515.074	139.88
515.29	291.88
515.506	847.88
515.721	327.88
515.937	116.88
516.153	94.88
516.369	96.88
516.585	94.88
516.801	79.88
517.016	89.88
517.232	90.88
517.448	79.88
