Data from Circ_1982_H10_HRD10591_00067.txt Node
Date: Wed Jan 03 12:30:54 EST 2024
User: Yrep
Spectrometer: HR+D1059
Trigger mode: 1
Integration Time (sec): 1.000000E-1
Scans to average: 1
Electric dark correction enabled: true
Nonlinearity correction enabled: false
Boxcar width: 0
XAxis mode: Wavelengths
Number of Pixels in Spectrum: 2048
>>>>>Begin Spectral Data<<<<<
223.165	-11.94
223.4	-11.94
223.635	-11.94
223.869	-1.94
224.104	-18.94
224.338	-7.94
224.573	-11.94
224.808	-23.94
225.042	-13.94
225.277	-5.94
225.511	-7.94
225.746	-3.94
225.98	2.06
226.215	9.06
226.449	29.06
226.683	28.06
226.918	12.06
227.152	28.06
227.387	39.06
227.621	39.06
227.856	48.06
228.09	44.06
228.324	40.06
228.559	56.06
228.793	67.06
229.027	50.06
229.262	73.06
229.496	66.06
229.73	74.06
229.964	66.06
230.199	72.06
230.433	84.06
230.667	78.06
230.901	78.06
231.136	58.06
231.37	85.06
231.604	72.06
231.838	76.06
232.072	101.06
232.306	92.06
232.541	72.06
232.775	79.06
233.009	89.06
233.243	78.06
233.477	94.06
233.711	90.06
233.945	96.06
234.179	107.06
234.413	84.06
234.647	85.06
234.881	91.06
235.115	84.06
235.349	73.06
235.583	87.06
235.817	83.06
236.051	78.06
236.285	71.06
236.519	72.06
236.753	71.06
236.987	88.06
237.221	77.06
237.455	80.06
237.689	80.06
237.922	94.06
238.156	78.06
238.39	84.06
238.624	60.06
238.858	82.06
239.091	79.06
239.325	72.06
239.559	70.06
239.793	75.06
240.027	81.06
240.26	88.06
240.494	77.06
240.728	84.06
240.961	72.06
241.195	71.06
241.429	78.06
241.662	70.06
241.896	77.06
242.13	100.06
242.363	86.06
242.597	74.06
242.83	82.06
243.064	80.06
243.298	71.06
243.531	73.06
243.765	82.06
243.998	76.06
244.232	88.06
244.465	98.06
244.699	69.06
244.932	96.06
245.166	75.06
245.399	73.06
245.633	93.06
245.866	75.06
246.099	79.06
246.333	96.06
246.566	63.06
246.8	71.06
247.033	72.06
247.266	87.06
247.5	84.06
247.733	58.06
247.966	75.06
248.2	72.06
248.433	83.06
248.666	89.06
248.899	84.06
249.133	91.06
249.366	92.06
249.599	96.06
249.832	88.06
250.066	84.06
250.299	94.06
250.532	78.06
250.765	88.06
250.998	88.06
251.231	72.06
251.465	88.06
251.698	88.06
251.931	83.06
252.164	72.06
252.397	76.06
252.63	79.06
252.863	81.06
253.096	86.06
253.329	88.06
253.562	93.06
253.795	55.06
254.028	66.06
254.261	90.06
254.494	73.06
254.727	90.06
254.96	79.06
255.193	81.06
255.426	78.06
255.659	100.06
255.892	79.06
256.124	98.06
256.357	92.06
256.59	86.06
256.823	76.06
257.056	84.06
257.289	75.06
257.521	77.06
257.754	94.06
257.987	77.06
258.22	98.06
258.452	77.06
258.685	75.06
258.918	79.06
259.151	84.06
259.383	81.06
259.616	90.06
259.849	93.06
260.081	71.06
260.314	74.06
260.547	86.06
260.779	90.06
261.012	86.06
261.244	86.06
261.477	88.06
261.71	103.06
261.942	101.06
262.175	100.06
262.407	90.06
262.64	86.06
262.872	93.06
263.105	94.06
263.337	77.06
263.57	82.06
263.802	94.06
264.035	89.06
264.267	84.06
264.499	90.06
264.732	74.06
264.964	93.06
265.197	85.06
265.429	83.06
265.661	83.06
265.894	89.06
266.126	78.06
266.358	84.06
266.591	57.06
266.823	92.06
267.055	84.06
267.287	78.06
267.52	87.06
267.752	92.06
267.984	79.06
268.216	74.06
268.448	76.06
268.681	79.06
268.913	74.06
269.145	70.06
269.377	84.06
269.609	91.06
269.841	91.06
270.073	79.06
270.306	81.06
270.538	98.06
270.77	79.06
271.002	104.06
271.234	87.06
271.466	88.06
271.698	86.06
271.93	75.06
272.162	100.06
272.394	92.06
272.626	79.06
272.858	95.06
273.09	94.06
273.322	96.06
273.553	91.06
273.785	66.06
274.017	89.06
274.249	92.06
274.481	87.06
274.713	84.06
274.945	85.06
275.176	101.06
275.408	99.06
275.64	86.06
275.872	83.06
276.104	106.06
276.335	91.06
276.567	89.06
276.799	102.06
277.031	79.06
277.262	92.06
277.494	97.06
277.726	86.06
277.957	79.06
278.189	92.06
278.421	85.06
278.652	96.06
278.884	80.06
279.115	84.06
279.347	89.06
279.579	88.06
279.81	95.06
280.042	90.06
280.273	105.06
280.505	86.06
280.736	89.06
280.968	85.06
281.199	78.06
281.431	100.06
281.662	90.06
281.894	90.06
282.125	79.06
282.356	107.06
282.588	106.06
282.819	98.06
283.051	94.06
283.282	87.06
283.513	78.06
283.745	96.06
283.976	76.06
284.207	87.06
284.439	72.06
284.67	78.06
284.901	75.06
285.132	79.06
285.364	90.06
285.595	91.06
285.826	89.06
286.057	94.06
286.288	74.06
286.52	98.06
286.751	106.06
286.982	69.06
287.213	71.06
287.444	79.06
287.675	86.06
287.906	94.06
288.138	88.06
288.369	89.06
288.6	88.06
288.831	80.06
289.062	93.06
289.293	95.06
289.524	83.06
289.755	90.06
289.986	90.06
290.217	76.06
290.448	84.06
290.679	95.06
290.91	89.06
291.141	86.06
291.371	80.06
291.602	80.06
291.833	77.06
292.064	84.06
292.295	86.06
292.526	82.06
292.757	102.06
292.987	83.06
293.218	88.06
293.449	89.06
293.68	92.06
293.91	87.06
294.141	94.06
294.372	88.06
294.603	76.06
294.833	69.06
295.064	78.06
295.295	97.06
295.525	99.06
295.756	84.06
295.987	104.06
296.217	131.06
296.448	113.06
296.679	93.06
296.909	96.06
297.14	95.06
297.37	74.06
297.601	93.06
297.831	98.06
298.062	88.06
298.292	96.06
298.523	96.06
298.753	84.06
298.984	105.06
299.214	97.06
299.445	107.06
299.675	104.06
299.905	88.06
300.136	95.06
300.366	87.06
300.597	83.06
300.827	85.06
301.057	105.06
301.288	88.06
301.518	84.06
301.748	87.06
301.979	104.06
302.209	90.06
302.439	83.06
302.669	91.06
302.9	76.06
303.13	100.06
303.36	90.06
303.59	107.06
303.82	89.06
304.051	84.06
304.281	97.06
304.511	99.06
304.741	81.06
304.971	85.06
305.201	78.06
305.431	86.06
305.661	96.06
305.891	89.06
306.121	102.06
306.352	96.06
306.582	101.06
306.812	90.06
307.042	87.06
307.272	88.06
307.502	101.06
307.731	98.06
307.961	112.06
308.191	90.06
308.421	92.06
308.651	96.06
308.881	101.06
309.111	92.06
309.341	99.06
309.571	102.06
309.8	83.06
310.03	91.06
310.26	90.06
310.49	103.06
310.72	102.06
310.949	104.06
311.179	87.06
311.409	83.06
311.639	88.06
311.868	90.06
312.098	94.06
312.328	98.06
312.557	100.06
312.787	90.06
313.017	88.06
313.246	81.06
313.476	87.06
313.706	94.06
313.935	95.06
314.165	95.06
314.394	100.06
314.624	87.06
314.853	102.06
315.083	94.06
315.312	94.06
315.542	95.06
315.771	91.06
316.001	85.06
316.23	100.06
316.46	101.06
316.689	93.06
316.919	88.06
317.148	94.06
317.377	91.06
317.607	101.06
317.836	75.06
318.065	102.06
318.295	98.06
318.524	111.06
318.753	93.06
318.983	92.06
319.212	89.06
319.441	89.06
319.67	113.06
319.9	95.06
320.129	88.06
320.358	101.06
320.587	103.06
320.816	90.06
321.046	98.06
321.275	92.06
321.504	101.06
321.733	88.06
321.962	79.06
322.191	84.06
322.42	90.06
322.649	112.06
322.878	102.06
323.108	107.06
323.337	107.06
323.566	126.06
323.795	142.06
324.024	163.06
324.253	278.06
324.482	574.06
324.71	1112.06
324.939	1446.06
325.168	559.06
325.397	180.06
325.626	130.06
325.855	135.06
326.084	123.06
326.313	131.06
326.542	114.06
326.77	204.06
326.999	317.06
327.228	642.06
327.457	1134.06
327.686	910.06
327.914	276.06
328.143	147.06
328.372	138.06
328.6	128.06
328.829	90.06
329.058	105.06
329.287	125.06
329.515	101.06
329.744	101.06
329.972	99.06
330.201	108.06
330.43	117.06
330.658	106.06
330.887	121.06
331.115	110.06
331.344	88.06
331.572	85.06
331.801	93.06
332.03	102.06
332.258	103.06
332.486	100.06
332.715	95.06
332.943	85.06
333.172	94.06
333.4	94.06
333.629	115.06
333.857	105.06
334.085	90.06
334.314	117.06
334.542	115.06
334.771	117.06
334.999	96.06
335.227	100.06
335.455	89.06
335.684	104.06
335.912	98.06
336.14	92.06
336.369	101.06
336.597	102.06
336.825	105.06
337.053	104.06
337.281	95.06
337.51	87.06
337.738	85.06
337.966	89.06
338.194	83.06
338.422	101.06
338.65	97.06
338.878	103.06
339.106	88.06
339.334	98.06
339.562	98.06
339.79	83.06
340.018	102.06
340.246	93.06
340.474	99.06
340.702	96.06
340.93	87.06
341.158	76.06
341.386	91.06
341.614	97.06
341.842	109.06
342.07	93.06
342.298	88.06
342.526	101.06
342.754	88.06
342.981	87.06
343.209	94.06
343.437	110.06
343.665	91.06
343.893	89.06
344.12	93.06
344.348	100.06
344.576	94.06
344.804	110.06
345.031	99.06
345.259	97.06
345.487	98.06
345.714	100.06
345.942	92.06
346.17	101.06
346.397	98.06
346.625	89.06
346.853	109.06
347.08	97.06
347.308	78.06
347.535	105.06
347.763	95.06
347.99	104.06
348.218	85.06
348.445	98.06
348.673	92.06
348.9	90.06
349.128	109.06
349.355	92.06
349.583	96.06
349.81	91.06
350.037	86.06
350.265	92.06
350.492	91.06
350.72	98.06
350.947	95.06
351.174	86.06
351.402	84.06
351.629	99.06
351.856	97.06
352.083	94.06
352.311	98.06
352.538	100.06
352.765	85.06
352.992	105.06
353.22	113.06
353.447	101.06
353.674	103.06
353.901	90.06
354.128	89.06
354.355	87.06
354.583	99.06
354.81	107.06
355.037	107.06
355.264	85.06
355.491	96.06
355.718	93.06
355.945	96.06
356.172	88.06
356.399	104.06
356.626	91.06
356.853	84.06
357.08	82.06
357.307	96.06
357.534	89.06
357.761	92.06
357.988	92.06
358.215	94.06
358.441	88.06
358.668	93.06
358.895	94.06
359.122	94.06
359.349	94.06
359.576	75.06
359.802	87.06
360.029	102.06
360.256	111.06
360.483	95.06
360.709	104.06
360.936	86.06
361.163	82.06
361.39	83.06
361.616	94.06
361.843	90.06
362.07	85.06
362.296	88.06
362.523	101.06
362.749	87.06
362.976	91.06
363.203	99.06
363.429	84.06
363.656	84.06
363.882	96.06
364.109	86.06
364.335	98.06
364.562	98.06
364.788	88.06
365.015	101.06
365.241	95.06
365.468	91.06
365.694	88.06
365.92	103.06
366.147	91.06
366.373	89.06
366.599	94.06
366.826	104.06
367.052	91.06
367.278	97.06
367.505	98.06
367.731	87.06
367.957	88.06
368.184	102.06
368.41	96.06
368.636	96.06
368.862	119.06
369.089	98.06
369.315	99.06
369.541	87.06
369.767	80.06
369.993	99.06
370.219	80.06
370.445	85.06
370.672	91.06
370.898	81.06
371.124	95.06
371.35	91.06
371.576	97.06
371.802	85.06
372.028	94.06
372.254	87.06
372.48	75.06
372.706	82.06
372.932	82.06
373.158	79.06
373.384	96.06
373.61	87.06
373.835	93.06
374.061	94.06
374.287	99.06
374.513	90.06
374.739	87.06
374.965	90.06
375.191	89.06
375.416	93.06
375.642	86.06
375.868	101.06
376.094	102.06
376.319	93.06
376.545	108.06
376.771	91.06
376.997	97.06
377.222	86.06
377.448	76.06
377.674	84.06
377.899	90.06
378.125	88.06
378.35	90.06
378.576	96.06
378.802	97.06
379.027	90.06
379.253	87.06
379.478	86.06
379.704	92.06
379.929	103.06
380.155	87.06
380.38	87.06
380.606	95.06
380.831	94.06
381.057	94.06
381.282	92.06
381.507	70.06
381.733	90.06
381.958	92.06
382.184	99.06
382.409	99.06
382.634	111.06
382.86	100.06
383.085	99.06
383.31	95.06
383.535	102.06
383.761	88.06
383.986	102.06
384.211	111.06
384.436	98.06
384.662	111.06
384.887	99.06
385.112	109.06
385.337	111.06
385.562	104.06
385.787	112.06
386.013	110.06
386.238	102.06
386.463	99.06
386.688	116.06
386.913	102.06
387.138	98.06
387.363	94.06
387.588	97.06
387.813	105.06
388.038	94.06
388.263	95.06
388.488	106.06
388.713	103.06
388.938	102.06
389.163	94.06
389.387	96.06
389.612	95.06
389.837	108.06
390.062	97.06
390.287	84.06
390.512	104.06
390.736	86.06
390.961	90.06
391.186	88.06
391.411	100.06
391.636	97.06
391.86	91.06
392.085	96.06
392.31	90.06
392.534	95.06
392.759	78.06
392.984	91.06
393.208	82.06
393.433	89.06
393.658	94.06
393.882	80.06
394.107	91.06
394.331	89.06
394.556	95.06
394.78	102.06
395.005	86.06
395.229	83.06
395.454	86.06
395.678	82.06
395.903	86.06
396.127	93.06
396.352	91.06
396.576	73.06
396.801	82.06
397.025	90.06
397.249	93.06
397.474	84.06
397.698	96.06
397.922	82.06
398.147	95.06
398.371	86.06
398.595	84.06
398.82	88.06
399.044	88.06
399.268	60.06
399.492	80.06
399.717	89.06
399.941	87.06
400.165	103.06
400.389	98.06
400.613	75.06
400.837	87.06
401.062	96.06
401.286	92.06
401.51	78.06
401.734	108.06
401.958	108.06
402.182	104.06
402.406	147.06
402.63	100.06
402.854	91.06
403.078	89.06
403.302	91.06
403.526	89.06
403.75	87.06
403.974	95.06
404.198	87.06
404.422	88.06
404.645	91.06
404.869	94.06
405.093	75.06
405.317	86.06
405.541	96.06
405.765	91.06
405.988	96.06
406.212	109.06
406.436	167.06
406.66	102.06
406.883	100.06
407.107	98.06
407.331	79.06
407.555	91.06
407.778	93.06
408.002	85.06
408.226	92.06
408.449	91.06
408.673	91.06
408.896	90.06
409.12	92.06
409.344	86.06
409.567	80.06
409.791	100.06
410.014	99.06
410.238	94.06
410.461	94.06
410.685	76.06
410.908	105.06
411.132	106.06
411.355	100.06
411.578	87.06
411.802	92.06
412.025	78.06
412.249	105.06
412.472	112.06
412.695	94.06
412.919	80.06
413.142	92.06
413.365	76.06
413.589	76.06
413.812	91.06
414.035	90.06
414.258	100.06
414.482	95.06
414.705	95.06
414.928	85.06
415.151	101.06
415.374	95.06
415.597	91.06
415.821	100.06
416.044	85.06
416.267	96.06
416.49	76.06
416.713	84.06
416.936	76.06
417.159	90.06
417.382	73.06
417.605	84.06
417.828	95.06
418.051	75.06
418.274	95.06
418.497	87.06
418.72	103.06
418.943	88.06
419.166	86.06
419.389	81.06
419.611	96.06
419.834	96.06
420.057	84.06
420.28	87.06
420.503	90.06
420.726	81.06
420.948	97.06
421.171	99.06
421.394	98.06
421.617	86.06
421.839	99.06
422.062	102.06
422.285	92.06
422.507	87.06
422.73	100.06
422.953	86.06
423.175	104.06
423.398	88.06
423.621	94.06
423.843	88.06
424.066	101.06
424.288	90.06
424.511	97.06
424.733	103.06
424.956	82.06
425.178	97.06
425.401	107.06
425.623	102.06
425.846	87.06
426.068	90.06
426.291	95.06
426.513	90.06
426.735	83.06
426.958	88.06
427.18	93.06
427.402	108.06
427.625	156.06
427.847	116.06
428.069	102.06
428.292	87.06
428.514	82.06
428.736	86.06
428.958	86.06
429.181	81.06
429.403	83.06
429.625	86.06
429.847	90.06
430.069	95.06
430.292	103.06
430.514	98.06
430.736	86.06
430.958	91.06
431.18	103.06
431.402	89.06
431.624	82.06
431.846	75.06
432.068	94.06
432.29	97.06
432.512	86.06
432.734	86.06
432.956	72.06
433.178	80.06
433.4	82.06
433.622	90.06
433.844	87.06
434.066	96.06
434.287	85.06
434.509	97.06
434.731	87.06
434.953	73.06
435.175	105.06
435.397	94.06
435.618	91.06
435.84	109.06
436.062	112.06
436.284	108.06
436.505	94.06
436.727	97.06
436.949	88.06
437.17	105.06
437.392	79.06
437.614	98.06
437.835	109.06
438.057	106.06
438.278	90.06
438.5	87.06
438.721	99.06
438.943	95.06
439.165	93.06
439.386	96.06
439.608	88.06
439.829	94.06
440.05	113.06
440.272	117.06
440.493	92.06
440.715	93.06
440.936	80.06
441.158	77.06
441.379	99.06
441.6	90.06
441.822	96.06
442.043	100.06
442.264	90.06
442.486	80.06
442.707	87.06
442.928	102.06
443.149	126.06
443.371	113.06
443.592	115.06
443.813	102.06
444.034	91.06
444.255	74.06
444.476	74.06
444.698	92.06
444.919	86.06
445.14	133.06
445.361	101.06
445.582	114.06
445.803	118.06
446.024	112.06
446.245	119.06
446.466	92.06
446.687	94.06
446.908	79.06
447.129	92.06
447.35	96.06
447.571	81.06
447.792	103.06
448.013	107.06
448.234	96.06
448.455	107.06
448.675	114.06
448.896	115.06
449.117	107.06
449.338	92.06
449.559	99.06
449.779	106.06
450	92.06
450.221	94.06
450.442	92.06
450.662	90.06
450.883	107.06
451.104	105.06
451.324	85.06
451.545	83.06
451.766	86.06
451.986	79.06
452.207	89.06
452.428	67.06
452.648	95.06
452.869	107.06
453.089	106.06
453.31	99.06
453.53	99.06
453.751	95.06
453.971	95.06
454.192	110.06
454.412	86.06
454.633	95.06
454.853	88.06
455.073	86.06
455.294	90.06
455.514	92.06
455.734	86.06
455.955	93.06
456.175	84.06
456.395	89.06
456.616	83.06
456.836	82.06
457.056	86.06
457.276	91.06
457.497	95.06
457.717	98.06
457.937	83.06
458.157	82.06
458.377	91.06
458.598	97.06
458.818	118.06
459.038	137.06
459.258	92.06
459.478	75.06
459.698	82.06
459.918	84.06
460.138	80.06
460.358	86.06
460.578	88.06
460.798	99.06
461.018	89.06
461.238	78.06
461.458	98.06
461.678	87.06
461.898	80.06
462.118	86.06
462.338	77.06
462.558	84.06
462.777	75.06
462.997	92.06
463.217	80.06
463.437	84.06
463.657	76.06
463.876	91.06
464.096	83.06
464.316	100.06
464.536	89.06
464.755	100.06
464.975	115.06
465.195	121.06
465.414	124.06
465.634	93.06
465.854	84.06
466.073	85.06
466.293	90.06
466.512	73.06
466.732	90.06
466.951	88.06
467.171	90.06
467.391	84.06
467.61	110.06
467.829	83.06
468.049	86.06
468.268	85.06
468.488	90.06
468.707	91.06
468.927	93.06
469.146	86.06
469.365	78.06
469.585	86.06
469.804	100.06
470.023	91.06
470.243	95.06
470.462	88.06
470.681	108.06
470.901	91.06
471.12	85.06
471.339	86.06
471.558	86.06
471.777	73.06
471.997	93.06
472.216	112.06
472.435	118.06
472.654	89.06
472.873	106.06
473.092	78.06
473.311	79.06
473.53	90.06
473.749	96.06
473.968	95.06
474.187	107.06
474.406	86.06
474.625	75.06
474.844	80.06
475.063	93.06
475.282	87.06
475.501	79.06
475.72	87.06
475.939	79.06
476.158	95.06
476.377	87.06
476.596	91.06
476.814	87.06
477.033	103.06
477.252	82.06
477.471	79.06
477.69	94.06
477.908	90.06
478.127	99.06
478.346	97.06
478.564	77.06
478.783	84.06
479.002	89.06
479.22	88.06
479.439	104.06
479.658	100.06
479.876	100.06
480.095	91.06
480.313	102.06
480.532	95.06
480.751	100.06
480.969	108.06
481.188	173.06
481.406	133.06
481.624	93.06
481.843	95.06
482.061	96.06
482.28	103.06
482.498	76.06
482.717	84.06
482.935	83.06
483.153	95.06
483.372	91.06
483.59	86.06
483.808	87.06
484.027	97.06
484.245	94.06
484.463	95.06
484.681	106.06
484.9	94.06
485.118	89.06
485.336	94.06
485.554	93.06
485.772	102.06
485.99	109.06
486.209	91.06
486.427	87.06
486.645	111.06
486.863	104.06
487.081	89.06
487.299	97.06
487.517	101.06
487.735	94.06
487.953	97.06
488.171	112.06
488.389	94.06
488.607	91.06
488.825	87.06
489.043	99.06
489.261	91.06
489.479	93.06
489.696	87.06
489.914	88.06
490.132	88.06
490.35	87.06
490.568	69.06
490.786	82.06
491.003	100.06
491.221	100.06
491.439	86.06
491.657	98.06
491.874	86.06
492.092	99.06
492.31	104.06
492.527	99.06
492.745	94.06
492.963	84.06
493.18	86.06
493.398	94.06
493.615	91.06
493.833	87.06
494.05	90.06
494.268	92.06
494.485	97.06
494.703	94.06
494.92	111.06
495.138	100.06
495.355	84.06
495.573	100.06
495.79	103.06
496.008	94.06
496.225	89.06
496.442	92.06
496.66	98.06
496.877	88.06
497.094	95.06
497.312	87.06
497.529	83.06
497.746	98.06
497.963	91.06
498.181	78.06
498.398	102.06
498.615	110.06
498.832	88.06
499.049	102.06
499.267	83.06
499.484	102.06
499.701	94.06
499.918	104.06
500.135	96.06
500.352	91.06
500.569	106.06
500.786	105.06
501.003	86.06
501.22	82.06
501.437	85.06
501.654	92.06
501.871	104.06
502.088	108.06
502.305	90.06
502.522	99.06
502.739	83.06
502.956	94.06
503.172	80.06
503.389	88.06
503.606	96.06
503.823	99.06
504.04	90.06
504.256	88.06
504.473	99.06
504.69	91.06
504.907	92.06
505.123	82.06
505.34	82.06
505.557	95.06
505.773	79.06
505.99	99.06
506.207	76.06
506.423	77.06
506.64	87.06
506.856	88.06
507.073	83.06
507.289	92.06
507.506	83.06
507.722	106.06
507.939	99.06
508.155	98.06
508.372	87.06
508.588	94.06
508.805	96.06
509.021	103.06
509.238	99.06
509.454	93.06
509.67	102.06
509.887	94.06
510.103	99.06
510.319	168.06
510.536	542.06
510.752	1593.06
510.968	478.06
511.184	145.06
511.401	109.06
511.617	92.06
511.833	93.06
512.049	94.06
512.265	97.06
512.481	113.06
512.698	96.06
512.914	109.06
513.13	96.06
513.346	90.06
513.562	92.06
513.778	99.06
513.994	88.06
514.21	107.06
514.426	107.06
514.642	123.06
514.858	110.06
515.074	133.06
515.29	320.06
515.506	956.06
515.721	348.06
515.937	125.06
