Data from Circ_1982_H10_HRD10591_00048.txt Node
Date: Wed Jan 03 12:30:50 EST 2024
User: Yrep
Spectrometer: HR+D1059
Trigger mode: 1
Integration Time (sec): 1.000000E-1
Scans to average: 1
Electric dark correction enabled: true
Nonlinearity correction enabled: false
Boxcar width: 0
XAxis mode: Wavelengths
Number of Pixels in Spectrum: 2048
>>>>>Begin Spectral Data<<<<<
223.165	-16
223.4	-16
223.635	-16
223.869	-23
224.104	-19
224.338	-16
224.573	-19
224.808	-9
225.042	5
225.277	1
225.511	-4
225.746	1
225.98	0
226.215	10
226.449	8
226.683	24
226.918	24
227.152	33
227.387	30
227.621	25
227.856	54
228.09	46
228.324	48
228.559	55
228.793	59
229.027	58
229.262	58
229.496	58
229.73	66
229.964	82
230.199	68
230.433	70
230.667	74
230.901	76
231.136	76
231.37	76
231.604	79
231.838	73
232.072	86
232.306	83
232.541	84
232.775	82
233.009	79
233.243	72
233.477	90
233.711	86
233.945	89
234.179	88
234.413	73
234.647	70
234.881	67
235.115	71
235.349	69
235.583	72
235.817	71
236.051	76
236.285	73
236.519	86
236.753	76
236.987	78
237.221	81
237.455	82
237.689	79
237.922	68
238.156	68
238.39	77
238.624	75
238.858	72
239.091	88
239.325	83
239.559	87
239.793	74
240.027	74
240.26	73
240.494	69
240.728	65
240.961	69
241.195	82
241.429	84
241.662	72
241.896	91
242.13	88
242.363	66
242.597	68
242.83	69
243.064	62
243.298	76
243.531	67
243.765	74
243.998	95
244.232	86
244.465	88
244.699	73
244.932	79
245.166	78
245.399	70
245.633	63
245.866	65
246.099	87
246.333	73
246.566	78
246.8	73
247.033	73
247.266	70
247.5	76
247.733	94
247.966	74
248.2	90
248.433	75
248.666	81
248.899	76
249.133	85
249.366	89
249.599	80
249.832	90
250.066	83
250.299	70
250.532	72
250.765	79
250.998	63
251.231	78
251.465	87
251.698	67
251.931	86
252.164	72
252.397	74
252.63	75
252.863	66
253.096	62
253.329	78
253.562	79
253.795	79
254.028	84
254.261	82
254.494	76
254.727	81
254.96	78
255.193	93
255.426	85
255.659	83
255.892	74
256.124	83
256.357	74
256.59	70
256.823	80
257.056	65
257.289	68
257.521	74
257.754	71
257.987	62
258.22	80
258.452	72
258.685	80
258.918	91
259.151	84
259.383	87
259.616	74
259.849	79
260.081	82
260.314	86
260.547	76
260.779	89
261.012	110
261.244	88
261.477	83
261.71	89
261.942	99
262.175	92
262.407	80
262.64	90
262.872	69
263.105	75
263.337	66
263.57	86
263.802	82
264.035	84
264.267	71
264.499	71
264.732	88
264.964	87
265.197	75
265.429	80
265.661	69
265.894	71
266.126	86
266.358	90
266.591	82
266.823	84
267.055	78
267.287	78
267.52	80
267.752	90
267.984	71
268.216	71
268.448	87
268.681	79
268.913	86
269.145	96
269.377	78
269.609	76
269.841	73
270.073	78
270.306	80
270.538	81
270.77	92
271.002	99
271.234	82
271.466	84
271.698	71
271.93	88
272.162	78
272.394	86
272.626	81
272.858	82
273.09	99
273.322	84
273.553	82
273.785	84
274.017	76
274.249	98
274.481	75
274.713	71
274.945	86
275.176	76
275.408	75
275.64	87
275.872	90
276.104	90
276.335	92
276.567	97
276.799	90
277.031	108
277.262	96
277.494	87
277.726	73
277.957	90
278.189	73
278.421	80
278.652	75
278.884	74
279.115	101
279.347	77
279.579	64
279.81	78
280.042	90
280.273	75
280.505	89
280.736	75
280.968	85
281.199	91
281.431	79
281.662	78
281.894	93
282.125	98
282.356	108
282.588	107
282.819	92
283.051	87
283.282	75
283.513	88
283.745	77
283.976	86
284.207	67
284.439	69
284.67	78
284.901	84
285.132	73
285.364	85
285.595	82
285.826	81
286.057	81
286.288	83
286.52	82
286.751	86
286.982	89
287.213	85
287.444	87
287.675	89
287.906	79
288.138	73
288.369	83
288.6	74
288.831	78
289.062	88
289.293	84
289.524	90
289.755	92
289.986	79
290.217	80
290.448	74
290.679	84
290.91	82
291.141	85
291.371	97
291.602	89
291.833	79
292.064	82
292.295	96
292.526	79
292.757	90
292.987	83
293.218	93
293.449	91
293.68	84
293.91	82
294.141	89
294.372	94
294.603	94
294.833	87
295.064	87
295.295	86
295.525	73
295.756	97
295.987	97
296.217	130
296.448	92
296.679	91
296.909	83
297.14	74
297.37	83
297.601	83
297.831	74
298.062	94
298.292	71
298.523	74
298.753	86
298.984	93
299.214	90
299.445	95
299.675	87
299.905	102
300.136	93
300.366	82
300.597	85
300.827	94
301.057	97
301.288	100
301.518	104
301.748	74
301.979	90
302.209	75
302.439	86
302.669	86
302.9	94
303.13	100
303.36	87
303.59	84
303.82	103
304.051	98
304.281	93
304.511	102
304.741	89
304.971	89
305.201	88
305.431	95
305.661	94
305.891	88
306.121	85
306.352	93
306.582	120
306.812	76
307.042	86
307.272	82
307.502	89
307.731	86
307.961	90
308.191	74
308.421	88
308.651	92
308.881	101
309.111	87
309.341	99
309.571	101
309.8	97
310.03	95
310.26	82
310.49	91
310.72	90
310.949	96
311.179	88
311.409	85
311.639	87
311.868	91
312.098	100
312.328	94
312.557	98
312.787	91
313.017	94
313.246	91
313.476	83
313.706	98
313.935	92
314.165	99
314.394	92
314.624	78
314.853	95
315.083	78
315.312	90
315.542	89
315.771	87
316.001	92
316.23	88
316.46	91
316.689	71
316.919	98
317.148	96
317.377	88
317.607	78
317.836	98
318.065	98
318.295	92
318.524	83
318.753	86
318.983	92
319.212	93
319.441	82
319.67	99
319.9	87
320.129	93
320.358	91
320.587	100
320.816	89
321.046	90
321.275	90
321.504	78
321.733	84
321.962	89
322.191	106
322.42	94
322.649	103
322.878	108
323.108	102
323.337	108
323.566	109
323.795	127
324.024	165
324.253	290
324.482	597
324.71	1187
324.939	1570
325.168	610
325.397	194
325.626	120
325.855	120
326.084	113
326.313	123
326.542	139
326.77	194
326.999	338
327.228	696
327.457	1215
327.686	1004
327.914	294
328.143	160
328.372	128
328.6	105
328.829	97
329.058	114
329.287	114
329.515	83
329.744	102
329.972	87
330.201	92
330.43	118
330.658	108
330.887	105
331.115	109
331.344	105
331.572	87
331.801	85
332.03	94
332.258	97
332.486	86
332.715	83
332.943	109
333.172	94
333.4	100
333.629	87
333.857	103
334.085	91
334.314	104
334.542	114
334.771	114
334.999	91
335.227	97
335.455	87
335.684	92
335.912	109
336.14	88
336.369	104
336.597	100
336.825	84
337.053	91
337.281	97
337.51	96
337.738	93
337.966	90
338.194	95
338.422	94
338.65	92
338.878	77
339.106	82
339.334	95
339.562	85
339.79	96
340.018	91
340.246	80
340.474	72
340.702	97
340.93	82
341.158	101
341.386	89
341.614	83
341.842	90
342.07	88
342.298	88
342.526	99
342.754	82
342.981	103
343.209	89
343.437	105
343.665	98
343.893	96
344.12	103
344.348	89
344.576	103
344.804	94
345.031	86
345.259	93
345.487	84
345.714	107
345.942	88
346.17	91
346.397	82
346.625	83
346.853	83
347.08	85
347.308	104
347.535	87
347.763	98
347.99	83
348.218	102
348.445	111
348.673	96
348.9	102
349.128	93
349.355	83
349.583	83
349.81	90
350.037	78
350.265	83
350.492	90
350.72	99
350.947	104
351.174	80
351.402	96
351.629	93
351.856	88
352.083	90
352.311	95
352.538	90
352.765	100
352.992	103
353.22	91
353.447	94
353.674	100
353.901	96
354.128	99
354.355	99
354.583	94
354.81	88
355.037	90
355.264	86
355.491	92
355.718	103
355.945	79
356.172	101
356.399	86
356.626	78
356.853	61
357.08	94
357.307	108
357.534	87
357.761	100
357.988	86
358.215	96
358.441	81
358.668	87
358.895	83
359.122	86
359.349	84
359.576	83
359.802	103
360.029	105
360.256	91
360.483	85
360.709	82
360.936	91
361.163	82
361.39	90
361.616	90
361.843	81
362.07	92
362.296	91
362.523	79
362.749	93
362.976	91
363.203	96
363.429	88
363.656	82
363.882	94
364.109	75
364.335	86
364.562	82
364.788	94
365.015	86
365.241	81
365.468	100
365.694	99
365.92	80
366.147	92
366.373	80
366.599	72
366.826	87
367.052	81
367.278	96
367.505	91
367.731	82
367.957	85
368.184	91
368.41	86
368.636	94
368.862	113
369.089	93
369.315	75
369.541	97
369.767	87
369.993	84
370.219	96
370.445	82
370.672	86
370.898	80
371.124	89
371.35	83
371.576	78
371.802	82
372.028	99
372.254	98
372.48	89
372.706	90
372.932	91
373.158	84
373.384	88
373.61	95
373.835	82
374.061	84
374.287	75
374.513	100
374.739	82
374.965	79
375.191	86
375.416	83
375.642	85
375.868	89
376.094	85
376.319	80
376.545	87
376.771	85
376.997	91
377.222	74
377.448	90
377.674	104
377.899	84
378.125	83
378.35	88
378.576	89
378.802	83
379.027	93
379.253	93
379.478	85
379.704	82
379.929	92
380.155	80
380.38	95
380.606	91
380.831	97
381.057	87
381.282	78
381.507	80
381.733	99
381.958	99
382.184	92
382.409	85
382.634	106
382.86	89
383.085	131
383.31	106
383.535	96
383.761	96
383.986	106
384.211	95
384.436	101
384.662	80
384.887	86
385.112	92
385.337	96
385.562	99
385.787	101
386.013	114
386.238	102
386.463	106
386.688	117
386.913	106
387.138	103
387.363	98
387.588	103
387.813	104
388.038	100
388.263	109
388.488	126
388.713	105
388.938	94
389.163	82
389.387	90
389.612	93
389.837	83
390.062	87
390.287	99
390.512	82
390.736	91
390.961	85
391.186	73
391.411	101
391.636	86
391.86	81
392.085	84
392.31	96
392.534	86
392.759	80
392.984	89
393.208	88
393.433	95
393.658	102
393.882	77
394.107	82
394.331	86
394.556	70
394.78	84
395.005	84
395.229	82
395.454	90
395.678	81
395.903	87
396.127	100
396.352	80
396.576	83
396.801	86
397.025	90
397.249	84
397.474	84
397.698	100
397.922	81
398.147	74
398.371	76
398.595	90
398.82	80
399.044	76
399.268	90
399.492	87
399.717	89
399.941	78
400.165	94
400.389	80
400.613	73
400.837	78
401.062	87
401.286	87
401.51	87
401.734	94
401.958	107
402.182	106
402.406	123
402.63	100
402.854	78
403.078	79
403.302	92
403.526	88
403.75	83
403.974	76
404.198	76
404.422	88
404.645	89
404.869	96
405.093	101
405.317	87
405.541	82
405.765	94
405.988	90
406.212	133
406.436	188
406.66	108
406.883	94
407.107	82
407.331	85
407.555	97
407.778	96
408.002	82
408.226	83
408.449	73
408.673	93
408.896	84
409.12	93
409.344	86
409.567	89
409.791	90
410.014	97
410.238	80
410.461	72
410.685	85
410.908	101
411.132	111
411.355	105
411.578	94
411.802	84
412.025	73
412.249	78
412.472	94
412.695	88
412.919	106
413.142	83
413.365	90
413.589	88
413.812	95
414.035	103
414.258	91
414.482	82
414.705	84
414.928	81
415.151	91
415.374	87
415.597	103
415.821	98
416.044	90
416.267	83
416.49	88
416.713	80
416.936	87
417.159	80
417.382	83
417.605	90
417.828	87
418.051	90
418.274	80
418.497	76
418.72	82
418.943	94
419.166	75
419.389	94
419.611	91
419.834	86
420.057	84
420.28	85
420.503	91
420.726	74
420.948	85
421.171	89
421.394	96
421.617	78
421.839	88
422.062	73
422.285	95
422.507	103
422.73	110
422.953	79
423.175	89
423.398	84
423.621	66
423.843	72
424.066	80
424.288	76
424.511	88
424.733	93
424.956	101
425.178	99
425.401	76
425.623	75
425.846	81
426.068	89
426.291	81
426.513	96
426.735	108
426.958	94
427.18	103
427.402	127
427.625	151
427.847	109
428.069	95
428.292	86
428.514	94
428.736	95
428.958	86
429.181	83
429.403	81
429.625	85
429.847	88
430.069	96
430.292	85
430.514	82
430.736	76
430.958	85
431.18	80
431.402	87
431.624	68
431.846	80
432.068	88
432.29	95
432.512	93
432.734	80
432.956	92
433.178	102
433.4	105
433.622	94
433.844	85
434.066	76
434.287	67
434.509	88
434.731	79
434.953	75
435.175	90
435.397	87
435.618	95
435.84	94
436.062	111
436.284	94
436.505	92
436.727	80
436.949	87
437.17	98
437.392	85
437.614	75
437.835	85
438.057	96
438.278	107
438.5	91
438.721	127
438.943	87
439.165	91
439.386	87
439.608	88
439.829	95
440.05	106
440.272	121
440.493	108
440.715	81
440.936	85
441.158	73
441.379	88
441.6	83
441.822	94
442.043	84
442.264	89
442.486	90
442.707	83
442.928	100
443.149	108
443.371	96
443.592	106
443.813	115
444.034	118
444.255	98
444.476	85
444.698	93
444.919	82
445.14	113
445.361	110
445.582	99
445.803	111
446.024	99
446.245	122
446.466	112
446.687	87
446.908	86
447.129	83
447.35	81
447.571	88
447.792	83
448.013	94
448.234	103
448.455	92
448.675	111
448.896	118
449.117	108
449.338	98
449.559	106
449.779	103
450	90
450.221	80
450.442	85
450.662	88
450.883	90
451.104	96
451.324	80
451.545	91
451.766	88
451.986	86
452.207	92
452.428	75
452.648	81
452.869	102
453.089	104
453.31	102
453.53	99
453.751	98
453.971	89
454.192	79
454.412	88
454.633	75
454.853	77
455.073	86
455.294	75
455.514	96
455.734	63
455.955	90
456.175	97
456.395	91
456.616	81
456.836	74
457.056	86
457.276	73
457.497	88
457.717	66
457.937	81
458.157	86
458.377	75
458.598	99
458.818	114
459.038	118
459.258	98
459.478	75
459.698	91
459.918	85
460.138	96
460.358	88
460.578	85
460.798	88
461.018	93
461.238	79
461.458	85
461.678	75
461.898	80
462.118	75
462.338	90
462.558	84
462.777	70
462.997	75
463.217	69
463.437	88
463.657	84
463.876	89
464.096	78
464.316	121
464.536	72
464.755	79
464.975	121
465.195	145
465.414	126
465.634	89
465.854	84
466.073	78
466.293	74
466.512	99
466.732	85
466.951	80
467.171	94
467.391	92
467.61	95
467.829	94
468.049	91
468.268	96
468.488	93
468.707	82
468.927	84
469.146	103
469.365	79
469.585	88
469.804	90
470.023	87
470.243	78
470.462	83
470.681	114
470.901	97
471.12	99
471.339	86
471.558	85
471.777	85
471.997	99
472.216	105
472.435	119
472.654	93
472.873	76
473.092	86
473.311	84
473.53	87
473.749	75
473.968	89
474.187	100
474.406	86
474.625	74
474.844	93
475.063	112
475.282	83
475.501	73
475.72	84
475.939	82
476.158	84
476.377	86
476.596	82
476.814	83
477.033	72
477.252	85
477.471	89
477.69	87
477.908	94
478.127	87
478.346	103
478.564	90
478.783	96
479.002	89
479.22	77
479.439	80
479.658	96
479.876	90
480.095	84
480.313	75
480.532	80
480.751	90
480.969	100
481.188	161
481.406	134
481.624	91
481.843	89
482.061	76
482.28	96
482.498	82
482.717	88
482.935	96
483.153	83
483.372	82
483.59	89
483.808	83
484.027	84
484.245	95
484.463	94
484.681	99
484.9	86
485.118	94
485.336	90
485.554	96
485.772	91
485.99	105
486.209	112
486.427	93
486.645	91
486.863	91
487.081	90
487.299	90
487.517	98
487.735	97
487.953	84
488.171	98
488.389	73
488.607	107
488.825	86
489.043	78
489.261	88
489.479	94
489.696	86
489.914	81
490.132	78
490.35	95
490.568	82
490.786	86
491.003	91
491.221	82
491.439	98
491.657	97
491.874	79
492.092	84
492.31	87
492.527	75
492.745	77
492.963	90
493.18	83
493.398	83
493.615	84
493.833	104
494.05	76
494.268	90
494.485	94
494.703	79
494.92	85
495.138	87
495.355	101
495.573	86
495.79	86
496.008	76
496.225	89
496.442	88
496.66	86
496.877	87
497.094	90
497.312	92
497.529	84
497.746	80
497.963	80
498.181	81
498.398	91
498.615	111
498.832	98
499.049	105
499.267	89
499.484	98
499.701	83
499.918	85
500.135	78
500.352	93
500.569	98
500.786	97
501.003	100
501.22	81
501.437	76
501.654	93
501.871	99
502.088	83
502.305	97
502.522	87
502.739	85
502.956	87
503.172	91
503.389	98
503.606	80
503.823	78
504.04	86
504.256	98
504.473	94
504.69	90
504.907	90
505.123	90
505.34	92
505.557	79
505.773	84
505.99	80
506.207	96
506.423	78
506.64	89
506.856	80
507.073	94
507.289	95
507.506	95
507.722	92
507.939	91
508.155	82
508.372	86
508.588	92
508.805	96
509.021	84
509.238	87
509.454	100
509.67	90
509.887	98
510.103	108
510.319	164
510.536	559
510.752	1670
510.968	473
511.184	138
511.401	101
511.617	100
511.833	90
512.049	83
512.265	88
512.481	86
512.698	92
512.914	90
513.13	90
513.346	84
513.562	96
513.778	84
513.994	84
514.21	88
514.426	109
514.642	97
514.858	119
515.074	136
515.29	325
515.506	982
515.721	372
515.937	137
516.153	100
516.369	90
516.585	98
516.801	86
517.016	91
517.232	75
517.448	96
517.664	80
517.879	95
518.095	93
518.311	83
518.527	94
518.742	96
518.958	84
519.173	104
519.389	95
519.605	91
519.82	102
520.036	105
520.251	119
520.467	97
520.682	84
520.898	112
521.113	105
521.329	114
521.544	158
521.76	398
521.975	1600
522.19	976
522.406	229
522.621	107
522.836	89
523.052	102
523.267	78
523.482	95
523.698	91
523.913	96
524.128	105
524.343	92
524.559	102
524.774	97
524.989	75
525.204	102
525.419	93
525.634	96
525.849	85
526.064	106
526.28	91
526.495	89
526.71	85
526.925	95
527.14	94
527.355	104
527.57	96
527.785	64
527.999	94
528.214	97
528.429	100
528.644	101
528.859	92
529.074	89
529.289	107
529.503	130
529.718	86
529.933	94
530.148	79
530.363	75
530.577	83
530.792	98
531.007	89
531.221	96
531.436	90
531.651	85
531.865	86
532.08	102
532.295	87
532.509	98
532.724	91
532.938	86
533.153	94
533.367	98
533.582	98
533.796	91
534.011	90
534.225	85
534.44	79
534.654	80
534.868	88
535.083	86
535.297	85
535.511	95
535.726	101
535.94	104
536.154	89
536.369	83
536.583	84
536.797	79
537.011	78
537.225	90
537.44	81
537.654	76
537.868	87
538.082	92
538.296	87
538.51	84
538.724	80
538.938	91
539.153	96
539.367	88
539.581	94
539.795	89
540.009	64
540.222	88
540.436	85
540.65	75
540.864	83
541.078	103
541.292	84
541.506	95
541.72	90
541.934	88
542.147	72
542.361	78
542.575	81
542.789	89
543.002	79
543.216	99
543.43	87
543.644	92
543.857	86
544.071	77
544.285	92
544.498	87
544.712	102
544.925	91
545.139	75
545.352	89
545.566	80
545.779	80
545.993	96
546.206	79
546.42	99
546.633	89
546.847	89
547.06	94
547.274	75
547.487	91
547.7	88
547.914	84
548.127	76
548.34	98
548.554	88
548.767	99
548.98	75
549.193	90
549.407	90
549.62	90
549.833	98
550.046	84
550.259	102
550.473	88
550.686	95
550.899	93
551.112	93
551.325	86
551.538	84
551.751	90
551.964	86
552.177	88
552.39	90
552.603	82
552.816	90
553.029	83
553.242	87
553.455	85
553.667	90
553.88	94
554.093	82
554.306	84
554.519	92
554.732	73
554.944	79
555.157	87
555.37	92
555.583	83
555.795	74
556.008	72
556.221	95
556.433	79
556.646	102
556.859	99
557.071	82
557.284	86
557.496	94
557.709	83
557.921	92
558.134	88
558.346	80
558.559	90
558.771	90
558.984	88
559.196	90
559.409	71
559.621	83
559.833	78
560.046	89
560.258	86
560.47	88
560.683	95
560.895	88
561.107	89
561.32	100
561.532	103
561.744	92
561.956	95
562.168	102
562.381	87
562.593	78
562.805	91
563.017	97
563.229	83
563.441	91
563.653	93
563.865	87
564.077	71
564.289	84
564.501	81
564.713	88
564.925	92
565.137	87
565.349	106
565.561	90
565.773	91
565.985	85
566.197	83
566.408	83
566.62	82
566.832	76
567.044	88
567.255	78
567.467	91
567.679	75
567.891	86
568.102	88
568.314	86
568.526	72
568.737	89
568.949	70
569.161	80
569.372	84
569.584	95
569.795	91
570.007	101
570.218	183
570.43	112
570.641	90
570.853	87
571.064	95
571.276	73
571.487	92
571.698	74
571.91	93
572.121	82
572.333	83
572.544	72
572.755	85
572.966	80
573.178	74
573.389	74
573.6	77
573.811	84
574.023	81
574.234	94
574.445	84
574.656	86
574.867	86
575.078	81
575.289	81
575.501	71
575.712	79
575.923	83
576.134	75
576.345	78
576.556	84
576.767	86
576.978	96
577.188	100
577.399	76
577.61	87
577.821	89
578.032	94
578.243	215
578.454	513
578.665	164
578.875	88
579.086	85
579.297	85
579.508	94
579.718	82
579.929	78
580.14	75
580.35	89
580.561	98
580.772	83
580.982	88
581.193	82
581.403	94
581.614	70
581.825	86
582.035	87
582.246	82
582.456	99
582.667	80
582.877	83
583.087	81
583.298	75
583.508	89
583.719	78
583.929	84
584.139	65
584.35	80
584.56	86
584.77	84
584.981	92
585.191	89
585.401	84
585.611	86
585.821	92
586.032	85
586.242	82
586.452	73
586.662	78
