Data from Circ_1982_H10_HRD10591_00038.txt Node
Date: Wed Jan 03 12:30:48 EST 2024
User: Yrep
Spectrometer: HR+D1059
Trigger mode: 1
Integration Time (sec): 1.000000E-1
Scans to average: 1
Electric dark correction enabled: true
Nonlinearity correction enabled: false
Boxcar width: 0
XAxis mode: Wavelengths
Number of Pixels in Spectrum: 2048
>>>>>Begin Spectral Data<<<<<
223.165	-14.94
223.4	-14.94
223.635	-14.94
223.869	-9.94
224.104	-10.94
224.338	-16.94
224.573	-8.94
224.808	-15.94
225.042	-16.94
225.277	-11.94
225.511	6.06
225.746	14.06
225.98	13.06
226.215	8.06
226.449	18.06
226.683	11.06
226.918	12.06
227.152	24.06
227.387	37.06
227.621	39.06
227.856	42.06
228.09	57.06
228.324	57.06
228.559	63.06
228.793	61.06
229.027	54.06
229.262	58.06
229.496	69.06
229.73	62.06
229.964	69.06
230.199	71.06
230.433	74.06
230.667	74.06
230.901	67.06
231.136	63.06
231.37	90.06
231.604	83.06
231.838	81.06
232.072	74.06
232.306	72.06
232.541	82.06
232.775	81.06
233.009	79.06
233.243	63.06
233.477	85.06
233.711	83.06
233.945	87.06
234.179	79.06
234.413	80.06
234.647	91.06
234.881	74.06
235.115	64.06
235.349	83.06
235.583	75.06
235.817	80.06
236.051	69.06
236.285	76.06
236.519	87.06
236.753	73.06
236.987	87.06
237.221	83.06
237.455	76.06
237.689	82.06
237.922	74.06
238.156	79.06
238.39	79.06
238.624	74.06
238.858	84.06
239.091	71.06
239.325	96.06
239.559	82.06
239.793	67.06
240.027	91.06
240.26	71.06
240.494	80.06
240.728	72.06
240.961	66.06
241.195	65.06
241.429	68.06
241.662	80.06
241.896	76.06
242.13	68.06
242.363	73.06
242.597	76.06
242.83	74.06
243.064	79.06
243.298	73.06
243.531	73.06
243.765	82.06
243.998	79.06
244.232	76.06
244.465	75.06
244.699	70.06
244.932	79.06
245.166	70.06
245.399	76.06
245.633	87.06
245.866	71.06
246.099	71.06
246.333	82.06
246.566	83.06
246.8	87.06
247.033	91.06
247.266	80.06
247.5	69.06
247.733	83.06
247.966	72.06
248.2	79.06
248.433	73.06
248.666	91.06
248.899	75.06
249.133	73.06
249.366	91.06
249.599	87.06
249.832	98.06
250.066	75.06
250.299	85.06
250.532	90.06
250.765	82.06
250.998	75.06
251.231	85.06
251.465	81.06
251.698	84.06
251.931	84.06
252.164	76.06
252.397	64.06
252.63	82.06
252.863	81.06
253.096	73.06
253.329	80.06
253.562	78.06
253.795	76.06
254.028	91.06
254.261	70.06
254.494	66.06
254.727	82.06
254.96	81.06
255.193	76.06
255.426	79.06
255.659	87.06
255.892	91.06
256.124	92.06
256.357	67.06
256.59	84.06
256.823	84.06
257.056	85.06
257.289	69.06
257.521	85.06
257.754	95.06
257.987	80.06
258.22	80.06
258.452	86.06
258.685	91.06
258.918	69.06
259.151	67.06
259.383	73.06
259.616	80.06
259.849	80.06
260.081	83.06
260.314	67.06
260.547	84.06
260.779	77.06
261.012	84.06
261.244	77.06
261.477	72.06
261.71	67.06
261.942	103.06
262.175	95.06
262.407	68.06
262.64	65.06
262.872	79.06
263.105	86.06
263.337	83.06
263.57	87.06
263.802	75.06
264.035	87.06
264.267	73.06
264.499	88.06
264.732	71.06
264.964	85.06
265.197	59.06
265.429	86.06
265.661	67.06
265.894	73.06
266.126	90.06
266.358	83.06
266.591	88.06
266.823	80.06
267.055	69.06
267.287	95.06
267.52	77.06
267.752	84.06
267.984	68.06
268.216	95.06
268.448	76.06
268.681	86.06
268.913	90.06
269.145	96.06
269.377	103.06
269.609	86.06
269.841	85.06
270.073	79.06
270.306	98.06
270.538	94.06
270.77	81.06
271.002	81.06
271.234	81.06
271.466	87.06
271.698	87.06
271.93	81.06
272.162	85.06
272.394	92.06
272.626	83.06
272.858	72.06
273.09	81.06
273.322	79.06
273.553	77.06
273.785	88.06
274.017	88.06
274.249	95.06
274.481	81.06
274.713	87.06
274.945	77.06
275.176	87.06
275.408	89.06
275.64	95.06
275.872	74.06
276.104	91.06
276.335	90.06
276.567	93.06
276.799	93.06
277.031	104.06
277.262	95.06
277.494	84.06
277.726	87.06
277.957	91.06
278.189	77.06
278.421	83.06
278.652	80.06
278.884	92.06
279.115	74.06
279.347	102.06
279.579	72.06
279.81	85.06
280.042	95.06
280.273	91.06
280.505	100.06
280.736	80.06
280.968	79.06
281.199	87.06
281.431	77.06
281.662	90.06
281.894	91.06
282.125	104.06
282.356	105.06
282.588	104.06
282.819	102.06
283.051	96.06
283.282	86.06
283.513	96.06
283.745	90.06
283.976	91.06
284.207	70.06
284.439	91.06
284.67	93.06
284.901	85.06
285.132	86.06
285.364	96.06
285.595	88.06
285.826	91.06
286.057	95.06
286.288	89.06
286.52	99.06
286.751	75.06
286.982	76.06
287.213	72.06
287.444	71.06
287.675	93.06
287.906	87.06
288.138	84.06
288.369	85.06
288.6	84.06
288.831	90.06
289.062	72.06
289.293	91.06
289.524	89.06
289.755	76.06
289.986	82.06
290.217	90.06
290.448	81.06
290.679	102.06
290.91	76.06
291.141	102.06
291.371	108.06
291.602	87.06
291.833	84.06
292.064	105.06
292.295	85.06
292.526	79.06
292.757	92.06
292.987	91.06
293.218	74.06
293.449	97.06
293.68	92.06
293.91	96.06
294.141	88.06
294.372	94.06
294.603	95.06
294.833	85.06
295.064	73.06
295.295	89.06
295.525	86.06
295.756	98.06
295.987	102.06
296.217	127.06
296.448	124.06
296.679	91.06
296.909	103.06
297.14	91.06
297.37	71.06
297.601	85.06
297.831	67.06
298.062	85.06
298.292	83.06
298.523	80.06
298.753	72.06
298.984	89.06
299.214	81.06
299.445	89.06
299.675	88.06
299.905	89.06
300.136	100.06
300.366	89.06
300.597	91.06
300.827	86.06
301.057	91.06
301.288	96.06
301.518	90.06
301.748	94.06
301.979	101.06
302.209	99.06
302.439	84.06
302.669	89.06
302.9	89.06
303.13	91.06
303.36	88.06
303.59	99.06
303.82	104.06
304.051	84.06
304.281	83.06
304.511	81.06
304.741	82.06
304.971	84.06
305.201	99.06
305.431	74.06
305.661	75.06
305.891	91.06
306.121	88.06
306.352	91.06
306.582	95.06
306.812	89.06
307.042	85.06
307.272	96.06
307.502	100.06
307.731	85.06
307.961	89.06
308.191	98.06
308.421	85.06
308.651	85.06
308.881	80.06
309.111	90.06
309.341	97.06
309.571	102.06
309.8	80.06
310.03	107.06
310.26	99.06
310.49	79.06
310.72	98.06
310.949	92.06
311.179	83.06
311.409	95.06
311.639	86.06
311.868	105.06
312.098	98.06
312.328	89.06
312.557	105.06
312.787	94.06
313.017	93.06
313.246	95.06
313.476	113.06
313.706	81.06
313.935	92.06
314.165	102.06
314.394	92.06
314.624	84.06
314.853	91.06
315.083	103.06
315.312	96.06
315.542	88.06
315.771	86.06
316.001	104.06
316.23	75.06
316.46	83.06
316.689	80.06
316.919	84.06
317.148	91.06
317.377	98.06
317.607	95.06
317.836	94.06
318.065	100.06
318.295	95.06
318.524	82.06
318.753	102.06
318.983	97.06
319.212	102.06
319.441	102.06
319.67	97.06
319.9	109.06
320.129	83.06
320.358	91.06
320.587	93.06
320.816	89.06
321.046	87.06
321.275	95.06
321.504	89.06
321.733	85.06
321.962	82.06
322.191	109.06
322.42	88.06
322.649	96.06
322.878	93.06
323.108	97.06
323.337	108.06
323.566	96.06
323.795	119.06
324.024	165.06
324.253	293.06
324.482	564.06
324.71	1132.06
324.939	1502.06
325.168	563.06
325.397	174.06
325.626	132.06
325.855	113.06
326.084	121.06
326.313	114.06
326.542	129.06
326.77	182.06
326.999	327.06
327.228	663.06
327.457	1185.06
327.686	951.06
327.914	267.06
328.143	167.06
328.372	125.06
328.6	109.06
328.829	103.06
329.058	136.06
329.287	116.06
329.515	109.06
329.744	101.06
329.972	98.06
330.201	90.06
330.43	122.06
330.658	108.06
330.887	129.06
331.115	101.06
331.344	85.06
331.572	103.06
331.801	100.06
332.03	98.06
332.258	88.06
332.486	92.06
332.715	90.06
332.943	87.06
333.172	96.06
333.4	88.06
333.629	105.06
333.857	104.06
334.085	104.06
334.314	107.06
334.542	113.06
334.771	123.06
334.999	91.06
335.227	103.06
335.455	91.06
335.684	87.06
335.912	100.06
336.14	87.06
336.369	100.06
336.597	84.06
336.825	109.06
337.053	82.06
337.281	83.06
337.51	83.06
337.738	95.06
337.966	82.06
338.194	95.06
338.422	91.06
338.65	89.06
338.878	85.06
339.106	91.06
339.334	91.06
339.562	85.06
339.79	98.06
340.018	92.06
340.246	84.06
340.474	84.06
340.702	93.06
340.93	93.06
341.158	83.06
341.386	90.06
341.614	99.06
341.842	87.06
342.07	90.06
342.298	89.06
342.526	95.06
342.754	78.06
342.981	81.06
343.209	87.06
343.437	98.06
343.665	99.06
343.893	87.06
344.12	93.06
344.348	82.06
344.576	87.06
344.804	99.06
345.031	84.06
345.259	90.06
345.487	85.06
345.714	91.06
345.942	80.06
346.17	91.06
346.397	101.06
346.625	102.06
346.853	83.06
347.08	86.06
347.308	92.06
347.535	93.06
347.763	95.06
347.99	94.06
348.218	87.06
348.445	95.06
348.673	81.06
348.9	102.06
349.128	83.06
349.355	93.06
349.583	87.06
349.81	86.06
350.037	104.06
350.265	80.06
350.492	111.06
350.72	96.06
350.947	102.06
351.174	112.06
351.402	114.06
351.629	113.06
351.856	103.06
352.083	89.06
352.311	99.06
352.538	104.06
352.765	85.06
352.992	115.06
353.22	108.06
353.447	91.06
353.674	107.06
353.901	93.06
354.128	89.06
354.355	88.06
354.583	89.06
354.81	100.06
355.037	84.06
355.264	92.06
355.491	93.06
355.718	91.06
355.945	98.06
356.172	89.06
356.399	93.06
356.626	98.06
356.853	81.06
357.08	88.06
357.307	107.06
357.534	95.06
357.761	104.06
357.988	87.06
358.215	105.06
358.441	96.06
358.668	99.06
358.895	75.06
359.122	93.06
359.349	79.06
359.576	80.06
359.802	94.06
360.029	96.06
360.256	94.06
360.483	85.06
360.709	64.06
360.936	84.06
361.163	64.06
361.39	95.06
361.616	98.06
361.843	92.06
362.07	78.06
362.296	75.06
362.523	94.06
362.749	83.06
362.976	89.06
363.203	71.06
363.429	94.06
363.656	90.06
363.882	85.06
364.109	101.06
364.335	89.06
364.562	84.06
364.788	95.06
365.015	92.06
365.241	91.06
365.468	100.06
365.694	95.06
365.92	87.06
366.147	105.06
366.373	91.06
366.599	85.06
366.826	91.06
367.052	80.06
367.278	98.06
367.505	79.06
367.731	83.06
367.957	76.06
368.184	89.06
368.41	87.06
368.636	90.06
368.862	104.06
369.089	103.06
369.315	82.06
369.541	79.06
369.767	95.06
369.993	90.06
370.219	99.06
370.445	85.06
370.672	98.06
370.898	92.06
371.124	87.06
371.35	96.06
371.576	89.06
371.802	81.06
372.028	77.06
372.254	89.06
372.48	89.06
372.706	86.06
372.932	84.06
373.158	88.06
373.384	88.06
373.61	90.06
373.835	95.06
374.061	90.06
374.287	94.06
374.513	83.06
374.739	72.06
374.965	91.06
375.191	92.06
375.416	94.06
375.642	97.06
375.868	89.06
376.094	95.06
376.319	104.06
376.545	75.06
376.771	96.06
376.997	79.06
377.222	87.06
377.448	91.06
377.674	84.06
377.899	85.06
378.125	86.06
378.35	99.06
378.576	104.06
378.802	80.06
379.027	94.06
379.253	114.06
379.478	92.06
379.704	95.06
379.929	95.06
380.155	92.06
380.38	89.06
380.606	93.06
380.831	89.06
381.057	99.06
381.282	103.06
381.507	98.06
381.733	99.06
381.958	102.06
382.184	91.06
382.409	106.06
382.634	104.06
382.86	99.06
383.085	88.06
383.31	111.06
383.535	108.06
383.761	111.06
383.986	96.06
384.211	93.06
384.436	111.06
384.662	99.06
384.887	115.06
385.112	105.06
385.337	115.06
385.562	111.06
385.787	98.06
386.013	106.06
386.238	118.06
386.463	112.06
386.688	106.06
386.913	109.06
387.138	101.06
387.363	101.06
387.588	94.06
387.813	88.06
388.038	118.06
388.263	116.06
388.488	121.06
388.713	109.06
388.938	93.06
389.163	92.06
389.387	96.06
389.612	107.06
389.837	79.06
390.062	101.06
390.287	86.06
390.512	91.06
390.736	100.06
390.961	92.06
391.186	88.06
391.411	87.06
391.636	85.06
391.86	83.06
392.085	91.06
392.31	86.06
392.534	105.06
392.759	93.06
392.984	95.06
393.208	93.06
393.433	111.06
393.658	91.06
393.882	93.06
394.107	100.06
394.331	87.06
394.556	77.06
394.78	75.06
395.005	75.06
395.229	88.06
395.454	92.06
395.678	89.06
395.903	88.06
396.127	82.06
396.352	85.06
396.576	79.06
396.801	85.06
397.025	79.06
397.249	75.06
397.474	89.06
397.698	94.06
397.922	72.06
398.147	86.06
398.371	84.06
398.595	90.06
398.82	87.06
399.044	79.06
399.268	93.06
399.492	95.06
399.717	101.06
399.941	88.06
400.165	102.06
400.389	86.06
400.613	71.06
400.837	74.06
401.062	99.06
401.286	94.06
401.51	95.06
401.734	89.06
401.958	81.06
402.182	96.06
402.406	133.06
402.63	97.06
402.854	95.06
403.078	105.06
403.302	78.06
403.526	73.06
403.75	83.06
403.974	94.06
404.198	84.06
404.422	89.06
404.645	85.06
404.869	87.06
405.093	93.06
405.317	88.06
405.541	95.06
405.765	87.06
405.988	107.06
406.212	161.06
406.436	167.06
406.66	100.06
406.883	88.06
407.107	91.06
407.331	88.06
407.555	89.06
407.778	93.06
408.002	88.06
408.226	92.06
408.449	98.06
408.673	88.06
408.896	97.06
409.12	95.06
409.344	87.06
409.567	93.06
409.791	95.06
410.014	105.06
410.238	95.06
410.461	75.06
410.685	92.06
410.908	104.06
411.132	103.06
411.355	93.06
411.578	107.06
411.802	87.06
412.025	87.06
412.249	89.06
412.472	79.06
412.695	101.06
412.919	91.06
413.142	95.06
413.365	86.06
413.589	83.06
413.812	92.06
414.035	89.06
414.258	92.06
414.482	98.06
414.705	91.06
414.928	71.06
415.151	86.06
415.374	101.06
415.597	100.06
415.821	95.06
416.044	96.06
416.267	88.06
416.49	95.06
416.713	101.06
416.936	96.06
417.159	83.06
417.382	81.06
417.605	90.06
417.828	94.06
418.051	83.06
418.274	71.06
418.497	91.06
418.72	79.06
418.943	88.06
419.166	84.06
419.389	73.06
419.611	99.06
419.834	79.06
420.057	80.06
420.28	86.06
420.503	85.06
420.726	79.06
420.948	88.06
421.171	99.06
421.394	99.06
421.617	75.06
421.839	96.06
422.062	93.06
422.285	100.06
422.507	93.06
422.73	102.06
422.953	86.06
423.175	77.06
423.398	85.06
423.621	100.06
423.843	92.06
424.066	76.06
424.288	88.06
424.511	83.06
424.733	93.06
424.956	90.06
425.178	91.06
425.401	92.06
425.623	106.06
425.846	102.06
426.068	83.06
426.291	85.06
426.513	90.06
426.735	99.06
426.958	90.06
427.18	102.06
427.402	100.06
427.625	125.06
427.847	126.06
428.069	108.06
428.292	97.06
428.514	98.06
428.736	94.06
428.958	76.06
429.181	93.06
429.403	89.06
429.625	77.06
429.847	99.06
430.069	95.06
430.292	89.06
430.514	79.06
430.736	87.06
430.958	83.06
431.18	80.06
431.402	82.06
431.624	76.06
431.846	91.06
432.068	96.06
432.29	85.06
432.512	82.06
432.734	75.06
432.956	96.06
433.178	98.06
433.4	87.06
433.622	83.06
433.844	84.06
434.066	82.06
434.287	74.06
434.509	86.06
434.731	93.06
434.953	75.06
435.175	87.06
435.397	91.06
435.618	88.06
435.84	103.06
436.062	113.06
436.284	95.06
436.505	89.06
436.727	95.06
436.949	101.06
437.17	85.06
437.392	87.06
437.614	81.06
437.835	87.06
438.057	107.06
438.278	103.06
438.5	100.06
438.721	118.06
438.943	95.06
439.165	82.06
439.386	84.06
439.608	81.06
439.829	99.06
440.05	115.06
440.272	130.06
440.493	97.06
440.715	82.06
440.936	84.06
441.158	82.06
441.379	82.06
441.6	88.06
441.822	88.06
442.043	97.06
442.264	90.06
442.486	87.06
442.707	93.06
442.928	95.06
443.149	103.06
443.371	121.06
443.592	99.06
443.813	97.06
444.034	103.06
444.255	89.06
444.476	75.06
444.698	87.06
444.919	87.06
445.14	114.06
445.361	120.06
445.582	106.06
445.803	124.06
446.024	105.06
446.245	108.06
446.466	94.06
446.687	94.06
446.908	86.06
447.129	96.06
447.35	87.06
447.571	85.06
447.792	83.06
448.013	91.06
448.234	100.06
448.455	80.06
448.675	104.06
448.896	105.06
449.117	101.06
449.338	99.06
449.559	116.06
449.779	118.06
450	97.06
450.221	81.06
450.442	76.06
450.662	97.06
450.883	92.06
451.104	105.06
451.324	102.06
451.545	87.06
451.766	77.06
451.986	73.06
452.207	97.06
452.428	91.06
452.648	104.06
452.869	102.06
453.089	99.06
453.31	105.06
453.53	93.06
453.751	100.06
453.971	82.06
454.192	95.06
454.412	91.06
454.633	83.06
454.853	95.06
455.073	80.06
455.294	89.06
455.514	95.06
455.734	85.06
455.955	79.06
456.175	82.06
456.395	102.06
456.616	80.06
456.836	88.06
457.056	84.06
457.276	74.06
457.497	79.06
457.717	85.06
457.937	84.06
458.157	83.06
458.377	76.06
458.598	95.06
458.818	120.06
459.038	132.06
459.258	82.06
459.478	83.06
459.698	92.06
459.918	93.06
460.138	90.06
460.358	90.06
460.578	81.06
460.798	95.06
461.018	90.06
461.238	82.06
461.458	85.06
461.678	80.06
461.898	79.06
462.118	80.06
462.338	94.06
462.558	83.06
462.777	79.06
462.997	80.06
463.217	81.06
463.437	82.06
463.657	76.06
463.876	89.06
464.096	91.06
464.316	88.06
464.536	90.06
464.755	97.06
464.975	101.06
465.195	144.06
465.414	119.06
465.634	93.06
465.854	89.06
466.073	79.06
466.293	90.06
466.512	86.06
466.732	83.06
466.951	91.06
467.171	99.06
467.391	104.06
467.61	108.06
467.829	81.06
468.049	104.06
468.268	95.06
468.488	91.06
468.707	85.06
468.927	99.06
469.146	94.06
469.365	93.06
469.585	95.06
469.804	85.06
470.023	83.06
470.243	100.06
470.462	85.06
470.681	115.06
470.901	82.06
471.12	95.06
471.339	88.06
471.558	92.06
471.777	106.06
471.997	95.06
472.216	107.06
472.435	114.06
472.654	100.06
472.873	89.06
473.092	87.06
473.311	80.06
473.53	86.06
473.749	81.06
473.968	91.06
474.187	89.06
474.406	85.06
474.625	79.06
474.844	90.06
475.063	87.06
475.282	89.06
475.501	92.06
475.72	71.06
475.939	77.06
476.158	75.06
476.377	80.06
476.596	70.06
476.814	88.06
477.033	95.06
477.252	86.06
477.471	90.06
477.69	70.06
477.908	82.06
478.127	79.06
478.346	100.06
478.564	91.06
478.783	90.06
479.002	92.06
479.22	99.06
479.439	85.06
479.658	103.06
479.876	90.06
480.095	72.06
480.313	98.06
480.532	86.06
480.751	99.06
480.969	99.06
481.188	161.06
481.406	127.06
481.624	84.06
481.843	83.06
482.061	91.06
482.28	105.06
482.498	80.06
482.717	102.06
482.935	90.06
483.153	108.06
483.372	96.06
483.59	73.06
483.808	90.06
484.027	85.06
484.245	84.06
484.463	93.06
484.681	88.06
484.9	85.06
485.118	101.06
485.336	92.06
485.554	111.06
485.772	105.06
485.99	98.06
486.209	98.06
486.427	107.06
486.645	125.06
486.863	105.06
487.081	102.06
487.299	109.06
487.517	87.06
487.735	68.06
487.953	108.06
488.171	104.06
488.389	98.06
488.607	88.06
488.825	91.06
489.043	92.06
489.261	84.06
489.479	90.06
489.696	93.06
489.914	77.06
490.132	88.06
490.35	80.06
490.568	74.06
490.786	90.06
491.003	79.06
491.221	85.06
491.439	88.06
491.657	80.06
491.874	84.06
492.092	86.06
492.31	91.06
492.527	86.06
492.745	88.06
492.963	90.06
493.18	87.06
493.398	82.06
493.615	92.06
493.833	81.06
494.05	93.06
494.268	111.06
494.485	86.06
494.703	95.06
494.92	92.06
495.138	85.06
495.355	84.06
495.573	68.06
495.79	88.06
496.008	79.06
496.225	77.06
496.442	79.06
496.66	106.06
496.877	85.06
497.094	83.06
497.312	81.06
497.529	97.06
497.746	83.06
497.963	98.06
498.181	80.06
498.398	110.06
498.615	116.06
498.832	102.06
499.049	92.06
499.267	102.06
499.484	88.06
499.701	89.06
499.918	92.06
500.135	87.06
500.352	91.06
500.569	83.06
500.786	107.06
501.003	92.06
501.22	84.06
501.437	90.06
501.654	83.06
501.871	85.06
502.088	81.06
502.305	88.06
502.522	83.06
502.739	87.06
502.956	88.06
503.172	82.06
503.389	86.06
503.606	95.06
503.823	97.06
504.04	88.06
504.256	95.06
504.473	89.06
504.69	76.06
504.907	102.06
505.123	91.06
505.34	87.06
505.557	84.06
505.773	112.06
505.99	87.06
506.207	81.06
506.423	85.06
506.64	97.06
506.856	85.06
507.073	93.06
507.289	90.06
507.506	97.06
507.722	95.06
507.939	98.06
508.155	86.06
508.372	114.06
508.588	93.06
508.805	87.06
509.021	90.06
509.238	98.06
509.454	101.06
509.67	90.06
509.887	115.06
510.103	112.06
510.319	173.06
510.536	557.06
510.752	1643.06
510.968	454.06
511.184	130.06
511.401	103.06
511.617	104.06
511.833	88.06
512.049	74.06
512.265	104.06
512.481	104.06
512.698	84.06
512.914	84.06
513.13	100.06
513.346	102.06
513.562	92.06
513.778	89.06
513.994	83.06
514.21	87.06
514.426	103.06
514.642	106.06
514.858	111.06
515.074	145.06
515.29	315.06
515.506	947.06
515.721	366.06
515.937	124.06
516.153	109.06
516.369	104.06
