Data from Circ_1982_H10_HRD10591_00060.txt Node
Date: Wed Jan 03 12:30:53 EST 2024
User: Yrep
Spectrometer: HR+D1059
Trigger mode: 1
Integration Time (sec): 1.000000E-1
Scans to average: 1
Electric dark correction enabled: true
Nonlinearity correction enabled: false
Boxcar width: 0
XAxis mode: Wavelengths
Number of Pixels in Spectrum: 2048
>>>>>Begin Spectral Data<<<<<
223.165	-9.88
223.4	-9.88
223.635	-9.88
223.869	-20.88
224.104	-10.88
224.338	-22.88
224.573	-20.88
224.808	-20.88
225.042	-7.88
225.277	-10.88
225.511	10.12
225.746	11.12
225.98	5.12
226.215	8.12
226.449	17.12
226.683	29.12
226.918	24.12
227.152	20.12
227.387	29.12
227.621	20.12
227.856	50.12
228.09	36.12
228.324	64.12
228.559	64.12
228.793	45.12
229.027	68.12
229.262	67.12
229.496	69.12
229.73	74.12
229.964	71.12
230.199	79.12
230.433	76.12
230.667	82.12
230.901	71.12
231.136	72.12
231.37	86.12
231.604	76.12
231.838	72.12
232.072	82.12
232.306	77.12
232.541	86.12
232.775	91.12
233.009	78.12
233.243	72.12
233.477	71.12
233.711	74.12
233.945	81.12
234.179	82.12
234.413	85.12
234.647	73.12
234.881	89.12
235.115	65.12
235.349	77.12
235.583	87.12
235.817	80.12
236.051	89.12
236.285	89.12
236.519	84.12
236.753	89.12
236.987	71.12
237.221	77.12
237.455	80.12
237.689	84.12
237.922	67.12
238.156	88.12
238.39	84.12
238.624	96.12
238.858	81.12
239.091	71.12
239.325	77.12
239.559	72.12
239.793	92.12
240.027	92.12
240.26	85.12
240.494	89.12
240.728	84.12
240.961	70.12
241.195	88.12
241.429	64.12
241.662	62.12
241.896	71.12
242.13	81.12
242.363	74.12
242.597	70.12
242.83	70.12
243.064	83.12
243.298	82.12
243.531	92.12
243.765	80.12
243.998	74.12
244.232	80.12
244.465	77.12
244.699	67.12
244.932	73.12
245.166	94.12
245.399	74.12
245.633	76.12
245.866	75.12
246.099	85.12
246.333	68.12
246.566	85.12
246.8	77.12
247.033	80.12
247.266	86.12
247.5	75.12
247.733	69.12
247.966	78.12
248.2	83.12
248.433	90.12
248.666	78.12
248.899	83.12
249.133	91.12
249.366	88.12
249.599	91.12
249.832	93.12
250.066	93.12
250.299	89.12
250.532	91.12
250.765	86.12
250.998	84.12
251.231	74.12
251.465	78.12
251.698	78.12
251.931	96.12
252.164	77.12
252.397	73.12
252.63	88.12
252.863	75.12
253.096	92.12
253.329	69.12
253.562	80.12
253.795	81.12
254.028	66.12
254.261	71.12
254.494	74.12
254.727	77.12
254.96	76.12
255.193	88.12
255.426	78.12
255.659	75.12
255.892	79.12
256.124	75.12
256.357	75.12
256.59	72.12
256.823	81.12
257.056	93.12
257.289	83.12
257.521	86.12
257.754	85.12
257.987	78.12
258.22	89.12
258.452	85.12
258.685	92.12
258.918	93.12
259.151	78.12
259.383	91.12
259.616	91.12
259.849	83.12
260.081	87.12
260.314	88.12
260.547	78.12
260.779	85.12
261.012	82.12
261.244	83.12
261.477	90.12
261.71	92.12
261.942	85.12
262.175	105.12
262.407	95.12
262.64	88.12
262.872	63.12
263.105	86.12
263.337	101.12
263.57	74.12
263.802	61.12
264.035	87.12
264.267	74.12
264.499	85.12
264.732	89.12
264.964	94.12
265.197	103.12
265.429	87.12
265.661	80.12
265.894	69.12
266.126	69.12
266.358	72.12
266.591	69.12
266.823	96.12
267.055	81.12
267.287	82.12
267.52	90.12
267.752	82.12
267.984	95.12
268.216	73.12
268.448	82.12
268.681	85.12
268.913	75.12
269.145	86.12
269.377	95.12
269.609	84.12
269.841	75.12
270.073	82.12
270.306	75.12
270.538	93.12
270.77	94.12
271.002	78.12
271.234	76.12
271.466	75.12
271.698	83.12
271.93	92.12
272.162	86.12
272.394	99.12
272.626	83.12
272.858	83.12
273.09	97.12
273.322	84.12
273.553	73.12
273.785	87.12
274.017	84.12
274.249	93.12
274.481	87.12
274.713	82.12
274.945	91.12
275.176	84.12
275.408	94.12
275.64	85.12
275.872	83.12
276.104	98.12
276.335	89.12
276.567	89.12
276.799	96.12
277.031	95.12
277.262	80.12
277.494	87.12
277.726	93.12
277.957	86.12
278.189	104.12
278.421	75.12
278.652	92.12
278.884	84.12
279.115	87.12
279.347	76.12
279.579	75.12
279.81	81.12
280.042	96.12
280.273	79.12
280.505	82.12
280.736	76.12
280.968	87.12
281.199	80.12
281.431	85.12
281.662	75.12
281.894	88.12
282.125	88.12
282.356	103.12
282.588	115.12
282.819	100.12
283.051	91.12
283.282	83.12
283.513	82.12
283.745	92.12
283.976	84.12
284.207	82.12
284.439	85.12
284.67	73.12
284.901	89.12
285.132	85.12
285.364	84.12
285.595	104.12
285.826	77.12
286.057	92.12
286.288	83.12
286.52	87.12
286.751	80.12
286.982	93.12
287.213	90.12
287.444	82.12
287.675	76.12
287.906	86.12
288.138	96.12
288.369	91.12
288.6	86.12
288.831	87.12
289.062	81.12
289.293	84.12
289.524	93.12
289.755	80.12
289.986	93.12
290.217	98.12
290.448	83.12
290.679	87.12
290.91	84.12
291.141	84.12
291.371	89.12
291.602	95.12
291.833	101.12
292.064	82.12
292.295	92.12
292.526	92.12
292.757	91.12
292.987	92.12
293.218	82.12
293.449	65.12
293.68	81.12
293.91	84.12
294.141	103.12
294.372	91.12
294.603	77.12
294.833	88.12
295.064	90.12
295.295	86.12
295.525	87.12
295.756	91.12
295.987	91.12
296.217	126.12
296.448	107.12
296.679	97.12
296.909	77.12
297.14	78.12
297.37	84.12
297.601	100.12
297.831	77.12
298.062	93.12
298.292	108.12
298.523	97.12
298.753	86.12
298.984	88.12
299.214	88.12
299.445	94.12
299.675	94.12
299.905	86.12
300.136	90.12
300.366	76.12
300.597	89.12
300.827	93.12
301.057	91.12
301.288	91.12
301.518	72.12
301.748	89.12
301.979	104.12
302.209	98.12
302.439	86.12
302.669	87.12
302.9	90.12
303.13	98.12
303.36	82.12
303.59	97.12
303.82	97.12
304.051	105.12
304.281	103.12
304.511	96.12
304.741	84.12
304.971	96.12
305.201	98.12
305.431	79.12
305.661	93.12
305.891	94.12
306.121	83.12
306.352	89.12
306.582	82.12
306.812	82.12
307.042	74.12
307.272	98.12
307.502	98.12
307.731	80.12
307.961	83.12
308.191	80.12
308.421	89.12
308.651	92.12
308.881	99.12
309.111	83.12
309.341	92.12
309.571	91.12
309.8	90.12
310.03	90.12
310.26	91.12
310.49	96.12
310.72	99.12
310.949	84.12
311.179	105.12
311.409	101.12
311.639	97.12
311.868	94.12
312.098	101.12
312.328	86.12
312.557	98.12
312.787	101.12
313.017	97.12
313.246	80.12
313.476	93.12
313.706	77.12
313.935	88.12
314.165	100.12
314.394	103.12
314.624	89.12
314.853	85.12
315.083	92.12
315.312	76.12
315.542	80.12
315.771	96.12
316.001	92.12
316.23	97.12
316.46	88.12
316.689	101.12
316.919	89.12
317.148	92.12
317.377	106.12
317.607	94.12
317.836	80.12
318.065	87.12
318.295	94.12
318.524	88.12
318.753	90.12
318.983	97.12
319.212	101.12
319.441	86.12
319.67	109.12
319.9	83.12
320.129	103.12
320.358	93.12
320.587	81.12
320.816	88.12
321.046	83.12
321.275	98.12
321.504	91.12
321.733	73.12
321.962	96.12
322.191	97.12
322.42	100.12
322.649	117.12
322.878	88.12
323.108	109.12
323.337	115.12
323.566	119.12
323.795	128.12
324.024	167.12
324.253	284.12
324.482	538.12
324.71	1062.12
324.939	1365.12
325.168	528.12
325.397	178.12
325.626	129.12
325.855	111.12
326.084	94.12
326.313	118.12
326.542	144.12
326.77	173.12
326.999	311.12
327.228	616.12
327.457	1113.12
327.686	898.12
327.914	265.12
328.143	152.12
328.372	124.12
328.6	105.12
328.829	100.12
329.058	94.12
329.287	108.12
329.515	103.12
329.744	98.12
329.972	86.12
330.201	117.12
330.43	115.12
330.658	107.12
330.887	128.12
331.115	101.12
331.344	87.12
331.572	82.12
331.801	97.12
332.03	93.12
332.258	76.12
332.486	90.12
332.715	97.12
332.943	87.12
333.172	95.12
333.4	101.12
333.629	89.12
333.857	95.12
334.085	98.12
334.314	99.12
334.542	117.12
334.771	117.12
334.999	99.12
335.227	84.12
335.455	96.12
335.684	100.12
335.912	94.12
336.14	94.12
336.369	91.12
336.597	96.12
336.825	92.12
337.053	103.12
337.281	99.12
337.51	99.12
337.738	94.12
337.966	92.12
338.194	87.12
338.422	96.12
338.65	84.12
338.878	87.12
339.106	84.12
339.334	86.12
339.562	84.12
339.79	88.12
340.018	94.12
340.246	77.12
340.474	87.12
340.702	87.12
340.93	93.12
341.158	90.12
341.386	100.12
341.614	97.12
341.842	80.12
342.07	93.12
342.298	86.12
342.526	69.12
342.754	67.12
342.981	82.12
343.209	95.12
343.437	102.12
343.665	75.12
343.893	88.12
344.12	96.12
344.348	94.12
344.576	88.12
344.804	84.12
345.031	97.12
345.259	86.12
345.487	104.12
345.714	102.12
345.942	100.12
346.17	90.12
346.397	96.12
346.625	85.12
346.853	94.12
347.08	90.12
347.308	90.12
347.535	91.12
347.763	89.12
347.99	94.12
348.218	106.12
348.445	109.12
348.673	98.12
348.9	102.12
349.128	89.12
349.355	91.12
349.583	90.12
349.81	96.12
350.037	90.12
350.265	94.12
350.492	97.12
350.72	96.12
350.947	103.12
351.174	100.12
351.402	109.12
351.629	97.12
351.856	100.12
352.083	90.12
352.311	100.12
352.538	94.12
352.765	93.12
352.992	110.12
353.22	103.12
353.447	99.12
353.674	97.12
353.901	86.12
354.128	101.12
354.355	85.12
354.583	96.12
354.81	106.12
355.037	82.12
355.264	103.12
355.491	88.12
355.718	96.12
355.945	81.12
356.172	91.12
356.399	104.12
356.626	103.12
356.853	96.12
357.08	96.12
357.307	107.12
357.534	88.12
357.761	96.12
357.988	88.12
358.215	95.12
358.441	86.12
358.668	100.12
358.895	89.12
359.122	81.12
359.349	97.12
359.576	87.12
359.802	99.12
360.029	91.12
360.256	98.12
360.483	91.12
360.709	89.12
360.936	92.12
361.163	98.12
361.39	91.12
361.616	86.12
361.843	89.12
362.07	92.12
362.296	85.12
362.523	108.12
362.749	85.12
362.976	87.12
363.203	101.12
363.429	93.12
363.656	81.12
363.882	89.12
364.109	102.12
364.335	86.12
364.562	91.12
364.788	96.12
365.015	80.12
365.241	89.12
365.468	99.12
365.694	82.12
365.92	105.12
366.147	94.12
366.373	91.12
366.599	75.12
366.826	88.12
367.052	96.12
367.278	80.12
367.505	94.12
367.731	89.12
367.957	95.12
368.184	81.12
368.41	83.12
368.636	96.12
368.862	106.12
369.089	99.12
369.315	101.12
369.541	96.12
369.767	96.12
369.993	81.12
370.219	93.12
370.445	87.12
370.672	94.12
370.898	77.12
371.124	80.12
371.35	88.12
371.576	86.12
371.802	76.12
372.028	80.12
372.254	96.12
372.48	90.12
372.706	85.12
372.932	85.12
373.158	73.12
373.384	76.12
373.61	92.12
373.835	100.12
374.061	93.12
374.287	99.12
374.513	98.12
374.739	95.12
374.965	83.12
375.191	85.12
375.416	92.12
375.642	102.12
375.868	94.12
376.094	97.12
376.319	88.12
376.545	104.12
376.771	92.12
376.997	88.12
377.222	100.12
377.448	94.12
377.674	95.12
377.899	89.12
378.125	80.12
378.35	78.12
378.576	88.12
378.802	96.12
379.027	86.12
379.253	92.12
379.478	86.12
379.704	103.12
379.929	78.12
380.155	100.12
380.38	102.12
380.606	84.12
380.831	98.12
381.057	101.12
381.282	84.12
381.507	101.12
381.733	96.12
381.958	90.12
382.184	98.12
382.409	95.12
382.634	105.12
382.86	97.12
383.085	105.12
383.31	84.12
383.535	91.12
383.761	95.12
383.986	93.12
384.211	110.12
384.436	88.12
384.662	109.12
384.887	90.12
385.112	96.12
385.337	112.12
385.562	89.12
385.787	112.12
386.013	114.12
386.238	104.12
386.463	106.12
386.688	118.12
386.913	114.12
387.138	101.12
387.363	98.12
387.588	88.12
387.813	99.12
388.038	92.12
388.263	102.12
388.488	111.12
388.713	98.12
388.938	90.12
389.163	97.12
389.387	88.12
389.612	105.12
389.837	96.12
390.062	99.12
390.287	108.12
390.512	96.12
390.736	95.12
390.961	100.12
391.186	91.12
391.411	99.12
391.636	86.12
391.86	86.12
392.085	93.12
392.31	75.12
392.534	92.12
392.759	84.12
392.984	88.12
393.208	88.12
393.433	92.12
393.658	91.12
393.882	94.12
394.107	81.12
394.331	67.12
394.556	82.12
394.78	87.12
395.005	97.12
395.229	88.12
395.454	90.12
395.678	89.12
395.903	88.12
396.127	82.12
396.352	100.12
396.576	76.12
396.801	83.12
397.025	84.12
397.249	81.12
397.474	96.12
397.698	92.12
397.922	94.12
398.147	86.12
398.371	88.12
398.595	90.12
398.82	77.12
399.044	90.12
399.268	90.12
399.492	85.12
399.717	92.12
399.941	88.12
400.165	90.12
400.389	79.12
400.613	84.12
400.837	96.12
401.062	86.12
401.286	92.12
401.51	82.12
401.734	84.12
401.958	81.12
402.182	110.12
402.406	128.12
402.63	109.12
402.854	89.12
403.078	103.12
403.302	84.12
403.526	91.12
403.75	87.12
403.974	80.12
404.198	85.12
404.422	92.12
404.645	80.12
404.869	85.12
405.093	96.12
405.317	87.12
405.541	93.12
405.765	82.12
405.988	116.12
406.212	132.12
406.436	147.12
406.66	110.12
406.883	88.12
407.107	102.12
407.331	93.12
407.555	96.12
407.778	84.12
408.002	83.12
408.226	107.12
408.449	90.12
408.673	94.12
408.896	99.12
409.12	85.12
409.344	81.12
409.567	87.12
409.791	76.12
410.014	107.12
410.238	106.12
410.461	107.12
410.685	98.12
410.908	100.12
411.132	92.12
411.355	99.12
411.578	118.12
411.802	98.12
412.025	84.12
412.249	103.12
412.472	75.12
412.695	112.12
412.919	87.12
413.142	97.12
413.365	90.12
413.589	89.12
413.812	83.12
414.035	97.12
414.258	98.12
414.482	94.12
414.705	93.12
414.928	88.12
415.151	98.12
415.374	97.12
415.597	95.12
415.821	102.12
416.044	85.12
416.267	89.12
416.49	90.12
416.713	86.12
416.936	86.12
417.159	84.12
417.382	74.12
417.605	87.12
417.828	102.12
418.051	80.12
418.274	67.12
418.497	93.12
418.72	100.12
418.943	90.12
419.166	95.12
419.389	93.12
419.611	86.12
419.834	89.12
420.057	83.12
420.28	95.12
420.503	103.12
420.726	94.12
420.948	93.12
421.171	90.12
421.394	92.12
421.617	82.12
421.839	81.12
422.062	72.12
422.285	99.12
422.507	101.12
422.73	90.12
422.953	78.12
423.175	100.12
423.398	73.12
423.621	87.12
423.843	97.12
424.066	96.12
424.288	99.12
424.511	88.12
424.733	84.12
424.956	100.12
425.178	103.12
425.401	89.12
425.623	84.12
425.846	96.12
426.068	90.12
426.291	95.12
426.513	97.12
426.735	91.12
426.958	72.12
427.18	100.12
427.402	131.12
427.625	129.12
427.847	108.12
428.069	103.12
428.292	86.12
428.514	89.12
428.736	91.12
428.958	82.12
429.181	101.12
429.403	78.12
429.625	90.12
429.847	98.12
430.069	91.12
430.292	84.12
430.514	97.12
430.736	86.12
430.958	98.12
431.18	84.12
431.402	78.12
431.624	80.12
431.846	91.12
432.068	96.12
432.29	77.12
432.512	105.12
432.734	80.12
432.956	62.12
433.178	97.12
433.4	93.12
433.622	85.12
433.844	88.12
434.066	90.12
434.287	87.12
434.509	97.12
434.731	75.12
434.953	88.12
435.175	85.12
435.397	94.12
435.618	85.12
435.84	97.12
436.062	106.12
436.284	117.12
436.505	90.12
436.727	101.12
436.949	83.12
437.17	95.12
437.392	78.12
437.614	108.12
437.835	99.12
438.057	90.12
438.278	101.12
438.5	98.12
438.721	97.12
438.943	96.12
439.165	93.12
439.386	88.12
439.608	93.12
439.829	91.12
440.05	108.12
440.272	128.12
440.493	81.12
440.715	99.12
440.936	71.12
441.158	72.12
441.379	85.12
441.6	88.12
441.822	88.12
442.043	103.12
442.264	91.12
442.486	78.12
442.707	103.12
442.928	96.12
443.149	109.12
443.371	95.12
443.592	96.12
443.813	107.12
444.034	101.12
444.255	87.12
444.476	88.12
444.698	93.12
444.919	84.12
445.14	125.12
445.361	115.12
445.582	104.12
445.803	110.12
446.024	112.12
446.245	110.12
446.466	95.12
446.687	84.12
446.908	92.12
447.129	82.12
447.35	74.12
447.571	84.12
447.792	88.12
448.013	105.12
448.234	94.12
448.455	76.12
448.675	110.12
448.896	111.12
449.117	90.12
449.338	92.12
449.559	125.12
449.779	109.12
450	101.12
450.221	84.12
450.442	82.12
450.662	91.12
450.883	93.12
451.104	84.12
451.324	93.12
451.545	83.12
451.766	82.12
451.986	84.12
452.207	83.12
452.428	97.12
452.648	88.12
452.869	89.12
453.089	88.12
453.31	114.12
453.53	99.12
453.751	91.12
453.971	103.12
454.192	106.12
454.412	94.12
454.633	92.12
454.853	84.12
455.073	76.12
455.294	85.12
455.514	95.12
455.734	89.12
455.955	86.12
456.175	76.12
456.395	80.12
456.616	94.12
456.836	90.12
457.056	87.12
457.276	77.12
457.497	84.12
457.717	78.12
457.937	90.12
458.157	100.12
458.377	98.12
458.598	104.12
458.818	127.12
459.038	125.12
459.258	103.12
459.478	82.12
459.698	88.12
459.918	88.12
460.138	87.12
460.358	69.12
460.578	96.12
460.798	75.12
461.018	87.12
461.238	93.12
461.458	88.12
461.678	85.12
461.898	89.12
462.118	72.12
462.338	90.12
462.558	90.12
462.777	95.12
462.997	88.12
463.217	79.12
463.437	82.12
463.657	96.12
463.876	92.12
464.096	92.12
464.316	96.12
464.536	77.12
464.755	89.12
464.975	93.12
465.195	131.12
465.414	120.12
465.634	98.12
465.854	89.12
466.073	89.12
466.293	80.12
466.512	80.12
466.732	99.12
466.951	90.12
467.171	80.12
467.391	98.12
467.61	109.12
467.829	91.12
468.049	86.12
468.268	89.12
468.488	94.12
468.707	83.12
468.927	72.12
469.146	72.12
469.365	84.12
469.585	76.12
469.804	80.12
470.023	80.12
470.243	98.12
470.462	98.12
470.681	112.12
470.901	75.12
471.12	84.12
471.339	98.12
471.558	92.12
471.777	81.12
471.997	67.12
472.216	98.12
472.435	113.12
472.654	85.12
472.873	105.12
473.092	89.12
473.311	92.12
473.53	86.12
473.749	86.12
473.968	98.12
474.187	86.12
474.406	84.12
474.625	81.12
474.844	89.12
475.063	80.12
475.282	93.12
475.501	106.12
475.72	100.12
475.939	75.12
476.158	89.12
476.377	90.12
476.596	82.12
476.814	108.12
477.033	94.12
477.252	87.12
477.471	80.12
477.69	88.12
477.908	93.12
478.127	94.12
478.346	89.12
478.564	100.12
478.783	80.12
479.002	84.12
479.22	75.12
479.439	81.12
479.658	90.12
479.876	81.12
480.095	86.12
480.313	93.12
480.532	98.12
480.751	84.12
480.969	105.12
481.188	145.12
481.406	123.12
481.624	80.12
481.843	96.12
482.061	90.12
482.28	91.12
482.498	84.12
482.717	82.12
482.935	94.12
483.153	96.12
483.372	84.12
483.59	89.12
483.808	88.12
484.027	95.12
484.245	98.12
484.463	79.12
484.681	107.12
484.9	111.12
485.118	91.12
485.336	85.12
485.554	82.12
485.772	114.12
485.99	110.12
486.209	97.12
486.427	110.12
486.645	88.12
486.863	105.12
487.081	98.12
487.299	108.12
487.517	83.12
487.735	101.12
487.953	98.12
488.171	98.12
488.389	90.12
488.607	102.12
488.825	104.12
489.043	83.12
489.261	99.12
489.479	94.12
489.696	93.12
489.914	81.12
490.132	96.12
490.35	91.12
490.568	88.12
490.786	84.12
491.003	94.12
491.221	91.12
491.439	85.12
491.657	104.12
491.874	89.12
492.092	78.12
492.31	89.12
492.527	92.12
492.745	89.12
492.963	94.12
493.18	109.12
493.398	98.12
493.615	88.12
493.833	89.12
494.05	88.12
494.268	91.12
494.485	92.12
494.703	84.12
494.92	74.12
495.138	96.12
495.355	83.12
495.573	84.12
495.79	103.12
496.008	89.12
496.225	82.12
496.442	84.12
496.66	91.12
496.877	98.12
497.094	74.12
497.312	108.12
497.529	104.12
497.746	100.12
497.963	76.12
498.181	95.12
498.398	94.12
498.615	102.12
498.832	106.12
499.049	89.12
499.267	88.12
499.484	89.12
499.701	94.12
499.918	95.12
500.135	76.12
500.352	94.12
500.569	93.12
500.786	91.12
501.003	96.12
501.22	86.12
501.437	85.12
501.654	86.12
501.871	89.12
502.088	104.12
502.305	95.12
502.522	92.12
502.739	78.12
502.956	99.12
503.172	76.12
503.389	98.12
503.606	84.12
503.823	102.12
504.04	92.12
504.256	104.12
504.473	91.12
504.69	86.12
504.907	98.12
505.123	92.12
505.34	74.12
505.557	82.12
505.773	91.12
505.99	84.12
506.207	94.12
506.423	83.12
506.64	68.12
506.856	86.12
507.073	85.12
507.289	81.12
507.506	92.12
507.722	93.12
507.939	97.12
508.155	97.12
508.372	84.12
508.588	92.12
508.805	101.12
509.021	93.12
509.238	93.12
509.454	88.12
509.67	116.12
509.887	106.12
510.103	106.12
510.319	166.12
510.536	530.12
510.752	1424.12
510.968	408.12
511.184	129.12
511.401	90.12
511.617	93.12
511.833	93.12
512.049	85.12
512.265	80.12
512.481	64.12
512.698	88.12
512.914	82.12
513.13	83.12
513.346	90.12
513.562	82.12
513.778	106.12
513.994	89.12
514.21	87.12
514.426	93.12
514.642	120.12
514.858	105.12
515.074	131.12
515.29	285.12
515.506	828.12
515.721	336.12
515.937	129.12
516.153	104.12
516.369	93.12
516.585	96.12
516.801	94.12
