Data from Circ_1982_H10_HRD10591_00024.txt Node
Date: Wed Jan 03 12:30:46 EST 2024
User: Yrep
Spectrometer: HR+D1059
Trigger mode: 1
Integration Time (sec): 1.000000E-1
Scans to average: 1
Electric dark correction enabled: true
Nonlinearity correction enabled: false
Boxcar width: 0
XAxis mode: Wavelengths
Number of Pixels in Spectrum: 2048
>>>>>Begin Spectral Data<<<<<
223.165	-29.44
223.4	-29.44
223.635	-29.44
223.869	-27.44
224.104	-25.44
224.338	-8.44
224.573	-6.44
224.808	-15.44
225.042	-2.44
225.277	-7.44
225.511	-5.44
225.746	17.56
225.98	16.56
226.215	18.56
226.449	12.56
226.683	14.56
226.918	22.56
227.152	25.56
227.387	33.56
227.621	36.56
227.856	45.56
228.09	41.56
228.324	48.56
228.559	41.56
228.793	54.56
229.027	62.56
229.262	69.56
229.496	53.56
229.73	69.56
229.964	71.56
230.199	88.56
230.433	68.56
230.667	81.56
230.901	76.56
231.136	91.56
231.37	89.56
231.604	77.56
231.838	88.56
232.072	85.56
232.306	80.56
232.541	69.56
232.775	75.56
233.009	73.56
233.243	76.56
233.477	84.56
233.711	66.56
233.945	71.56
234.179	78.56
234.413	86.56
234.647	68.56
234.881	73.56
235.115	87.56
235.349	70.56
235.583	66.56
235.817	83.56
236.051	82.56
236.285	70.56
236.519	71.56
236.753	82.56
236.987	80.56
237.221	80.56
237.455	71.56
237.689	76.56
237.922	69.56
238.156	81.56
238.39	62.56
238.624	65.56
238.858	72.56
239.091	72.56
239.325	70.56
239.559	80.56
239.793	82.56
240.027	82.56
240.26	79.56
240.494	79.56
240.728	76.56
240.961	65.56
241.195	61.56
241.429	81.56
241.662	67.56
241.896	78.56
242.13	77.56
242.363	80.56
242.597	86.56
242.83	78.56
243.064	71.56
243.298	78.56
243.531	92.56
243.765	73.56
243.998	83.56
244.232	86.56
244.465	82.56
244.699	84.56
244.932	80.56
245.166	74.56
245.399	70.56
245.633	83.56
245.866	74.56
246.099	80.56
246.333	81.56
246.566	88.56
246.8	80.56
247.033	74.56
247.266	62.56
247.5	67.56
247.733	69.56
247.966	94.56
248.2	76.56
248.433	84.56
248.666	92.56
248.899	78.56
249.133	78.56
249.366	104.56
249.599	63.56
249.832	94.56
250.066	83.56
250.299	86.56
250.532	92.56
250.765	76.56
250.998	86.56
251.231	85.56
251.465	87.56
251.698	81.56
251.931	83.56
252.164	89.56
252.397	80.56
252.63	57.56
252.863	82.56
253.096	73.56
253.329	74.56
253.562	79.56
253.795	80.56
254.028	71.56
254.261	82.56
254.494	74.56
254.727	85.56
254.96	98.56
255.193	74.56
255.426	91.56
255.659	80.56
255.892	95.56
256.124	95.56
256.357	64.56
256.59	79.56
256.823	74.56
257.056	70.56
257.289	79.56
257.521	68.56
257.754	73.56
257.987	68.56
258.22	80.56
258.452	77.56
258.685	71.56
258.918	82.56
259.151	83.56
259.383	78.56
259.616	75.56
259.849	71.56
260.081	90.56
260.314	68.56
260.547	82.56
260.779	72.56
261.012	85.56
261.244	82.56
261.477	80.56
261.71	78.56
261.942	102.56
262.175	95.56
262.407	87.56
262.64	66.56
262.872	86.56
263.105	93.56
263.337	82.56
263.57	85.56
263.802	85.56
264.035	87.56
264.267	74.56
264.499	82.56
264.732	87.56
264.964	81.56
265.197	80.56
265.429	80.56
265.661	82.56
265.894	82.56
266.126	84.56
266.358	94.56
266.591	70.56
266.823	81.56
267.055	89.56
267.287	77.56
267.52	90.56
267.752	93.56
267.984	78.56
268.216	89.56
268.448	89.56
268.681	82.56
268.913	80.56
269.145	88.56
269.377	71.56
269.609	94.56
269.841	82.56
270.073	74.56
270.306	81.56
270.538	89.56
270.77	79.56
271.002	86.56
271.234	75.56
271.466	65.56
271.698	85.56
271.93	94.56
272.162	65.56
272.394	82.56
272.626	76.56
272.858	76.56
273.09	87.56
273.322	91.56
273.553	91.56
273.785	84.56
274.017	84.56
274.249	79.56
274.481	70.56
274.713	62.56
274.945	80.56
275.176	79.56
275.408	85.56
275.64	78.56
275.872	86.56
276.104	87.56
276.335	91.56
276.567	100.56
276.799	81.56
277.031	91.56
277.262	93.56
277.494	88.56
277.726	90.56
277.957	82.56
278.189	87.56
278.421	79.56
278.652	91.56
278.884	80.56
279.115	85.56
279.347	90.56
279.579	87.56
279.81	67.56
280.042	73.56
280.273	77.56
280.505	75.56
280.736	83.56
280.968	75.56
281.199	90.56
281.431	75.56
281.662	88.56
281.894	95.56
282.125	92.56
282.356	100.56
282.588	104.56
282.819	107.56
283.051	78.56
283.282	89.56
283.513	88.56
283.745	88.56
283.976	88.56
284.207	85.56
284.439	94.56
284.67	86.56
284.901	80.56
285.132	87.56
285.364	81.56
285.595	85.56
285.826	85.56
286.057	94.56
286.288	92.56
286.52	80.56
286.751	97.56
286.982	88.56
287.213	96.56
287.444	82.56
287.675	96.56
287.906	88.56
288.138	91.56
288.369	78.56
288.6	83.56
288.831	79.56
289.062	82.56
289.293	68.56
289.524	90.56
289.755	88.56
289.986	103.56
290.217	89.56
290.448	75.56
290.679	77.56
290.91	72.56
291.141	74.56
291.371	78.56
291.602	87.56
291.833	106.56
292.064	84.56
292.295	88.56
292.526	92.56
292.757	78.56
292.987	88.56
293.218	81.56
293.449	100.56
293.68	82.56
293.91	79.56
294.141	100.56
294.372	70.56
294.603	78.56
294.833	85.56
295.064	82.56
295.295	89.56
295.525	76.56
295.756	108.56
295.987	112.56
296.217	105.56
296.448	94.56
296.679	91.56
296.909	91.56
297.14	93.56
297.37	71.56
297.601	86.56
297.831	90.56
298.062	90.56
298.292	103.56
298.523	91.56
298.753	74.56
298.984	87.56
299.214	86.56
299.445	85.56
299.675	95.56
299.905	87.56
300.136	80.56
300.366	82.56
300.597	88.56
300.827	72.56
301.057	84.56
301.288	90.56
301.518	79.56
301.748	88.56
301.979	82.56
302.209	86.56
302.439	91.56
302.669	73.56
302.9	87.56
303.13	84.56
303.36	108.56
303.59	91.56
303.82	100.56
304.051	91.56
304.281	91.56
304.511	92.56
304.741	89.56
304.971	84.56
305.201	82.56
305.431	95.56
305.661	84.56
305.891	82.56
306.121	98.56
306.352	97.56
306.582	104.56
306.812	93.56
307.042	94.56
307.272	85.56
307.502	98.56
307.731	94.56
307.961	98.56
308.191	83.56
308.421	101.56
308.651	80.56
308.881	84.56
309.111	80.56
309.341	86.56
309.571	96.56
309.8	86.56
310.03	95.56
310.26	98.56
310.49	95.56
310.72	87.56
310.949	92.56
311.179	70.56
311.409	83.56
311.639	83.56
311.868	90.56
312.098	88.56
312.328	98.56
312.557	96.56
312.787	92.56
313.017	82.56
313.246	90.56
313.476	82.56
313.706	88.56
313.935	88.56
314.165	100.56
314.394	104.56
314.624	102.56
314.853	89.56
315.083	96.56
315.312	78.56
315.542	70.56
315.771	94.56
316.001	86.56
316.23	75.56
316.46	84.56
316.689	103.56
316.919	96.56
317.148	88.56
317.377	91.56
317.607	90.56
317.836	78.56
318.065	104.56
318.295	85.56
318.524	89.56
318.753	83.56
318.983	86.56
319.212	96.56
319.441	101.56
319.67	110.56
319.9	89.56
320.129	87.56
320.358	91.56
320.587	81.56
320.816	108.56
321.046	74.56
321.275	98.56
321.504	90.56
321.733	112.56
321.962	94.56
322.191	92.56
322.42	95.56
322.649	115.56
322.878	100.56
323.108	99.56
323.337	94.56
323.566	116.56
323.795	123.56
324.024	150.56
324.253	274.56
324.482	542.56
324.71	1069.56
324.939	1421.56
325.168	534.56
325.397	185.56
325.626	118.56
325.855	116.56
326.084	106.56
326.313	119.56
326.542	124.56
326.77	172.56
326.999	314.56
327.228	634.56
327.457	1129.56
327.686	907.56
327.914	261.56
328.143	135.56
328.372	101.56
328.6	105.56
328.829	114.56
329.058	113.56
329.287	119.56
329.515	92.56
329.744	97.56
329.972	101.56
330.201	104.56
330.43	113.56
330.658	102.56
330.887	98.56
331.115	102.56
331.344	97.56
331.572	98.56
331.801	89.56
332.03	91.56
332.258	92.56
332.486	95.56
332.715	85.56
332.943	89.56
333.172	88.56
333.4	82.56
333.629	87.56
333.857	91.56
334.085	82.56
334.314	103.56
334.542	119.56
334.771	114.56
334.999	90.56
335.227	94.56
335.455	83.56
335.684	104.56
335.912	99.56
336.14	104.56
336.369	86.56
336.597	96.56
336.825	98.56
337.053	94.56
337.281	88.56
337.51	99.56
337.738	81.56
337.966	100.56
338.194	88.56
338.422	87.56
338.65	98.56
338.878	101.56
339.106	101.56
339.334	105.56
339.562	87.56
339.79	82.56
340.018	91.56
340.246	87.56
340.474	79.56
340.702	86.56
340.93	80.56
341.158	97.56
341.386	80.56
341.614	86.56
341.842	79.56
342.07	64.56
342.298	101.56
342.526	74.56
342.754	85.56
342.981	88.56
343.209	76.56
343.437	102.56
343.665	87.56
343.893	90.56
344.12	95.56
344.348	107.56
344.576	94.56
344.804	86.56
345.031	92.56
345.259	94.56
345.487	83.56
345.714	85.56
345.942	90.56
346.17	96.56
346.397	99.56
346.625	79.56
346.853	96.56
347.08	82.56
347.308	75.56
347.535	99.56
347.763	98.56
347.99	83.56
348.218	100.56
348.445	94.56
348.673	103.56
348.9	92.56
349.128	90.56
349.355	93.56
349.583	96.56
349.81	78.56
350.037	93.56
350.265	87.56
350.492	92.56
350.72	91.56
350.947	94.56
351.174	105.56
351.402	94.56
351.629	92.56
351.856	85.56
352.083	104.56
352.311	107.56
352.538	105.56
352.765	94.56
352.992	98.56
353.22	91.56
353.447	87.56
353.674	94.56
353.901	82.56
354.128	85.56
354.355	83.56
354.583	77.56
354.81	92.56
355.037	95.56
355.264	82.56
355.491	81.56
355.718	88.56
355.945	87.56
356.172	92.56
356.399	92.56
356.626	80.56
356.853	101.56
357.08	83.56
357.307	92.56
357.534	93.56
357.761	97.56
357.988	99.56
358.215	98.56
358.441	86.56
358.668	96.56
358.895	88.56
359.122	83.56
359.349	94.56
359.576	90.56
359.802	82.56
360.029	92.56
360.256	99.56
360.483	108.56
360.709	87.56
360.936	86.56
361.163	84.56
361.39	100.56
361.616	86.56
361.843	89.56
362.07	87.56
362.296	99.56
362.523	80.56
362.749	93.56
362.976	96.56
363.203	88.56
363.429	89.56
363.656	92.56
363.882	89.56
364.109	84.56
364.335	94.56
364.562	98.56
364.788	80.56
365.015	84.56
365.241	99.56
365.468	90.56
365.694	98.56
365.92	98.56
366.147	100.56
366.373	87.56
366.599	84.56
366.826	84.56
367.052	87.56
367.278	97.56
367.505	73.56
367.731	92.56
367.957	99.56
368.184	92.56
368.41	103.56
368.636	91.56
368.862	112.56
369.089	91.56
369.315	82.56
369.541	90.56
369.767	96.56
369.993	79.56
370.219	90.56
370.445	78.56
370.672	80.56
370.898	81.56
371.124	96.56
371.35	72.56
371.576	81.56
371.802	100.56
372.028	76.56
372.254	81.56
372.48	88.56
372.706	91.56
372.932	74.56
373.158	82.56
373.384	83.56
373.61	83.56
373.835	82.56
374.061	90.56
374.287	82.56
374.513	86.56
374.739	90.56
374.965	88.56
375.191	100.56
375.416	82.56
375.642	75.56
375.868	99.56
376.094	92.56
376.319	81.56
376.545	75.56
376.771	94.56
376.997	80.56
377.222	76.56
377.448	97.56
377.674	82.56
377.899	94.56
378.125	96.56
378.35	80.56
378.576	87.56
378.802	90.56
379.027	90.56
379.253	87.56
379.478	76.56
379.704	85.56
379.929	97.56
380.155	84.56
380.38	76.56
380.606	91.56
380.831	87.56
381.057	97.56
381.282	113.56
381.507	100.56
381.733	87.56
381.958	100.56
382.184	97.56
382.409	98.56
382.634	99.56
382.86	106.56
383.085	95.56
383.31	99.56
383.535	83.56
383.761	103.56
383.986	108.56
384.211	99.56
384.436	92.56
384.662	112.56
384.887	95.56
385.112	90.56
385.337	92.56
385.562	90.56
385.787	87.56
386.013	116.56
386.238	102.56
386.463	90.56
386.688	104.56
386.913	106.56
387.138	92.56
387.363	102.56
387.588	102.56
387.813	94.56
388.038	107.56
388.263	111.56
388.488	107.56
388.713	94.56
388.938	86.56
389.163	85.56
389.387	109.56
389.612	97.56
389.837	93.56
390.062	84.56
390.287	93.56
390.512	96.56
390.736	86.56
390.961	83.56
391.186	72.56
391.411	87.56
391.636	92.56
391.86	84.56
392.085	91.56
392.31	74.56
392.534	92.56
392.759	85.56
392.984	79.56
393.208	84.56
393.433	93.56
393.658	97.56
393.882	96.56
394.107	86.56
394.331	68.56
394.556	67.56
394.78	82.56
395.005	97.56
395.229	81.56
395.454	94.56
395.678	85.56
395.903	76.56
396.127	78.56
396.352	105.56
396.576	78.56
396.801	88.56
397.025	90.56
397.249	88.56
397.474	102.56
397.698	78.56
397.922	75.56
398.147	88.56
398.371	59.56
398.595	86.56
398.82	82.56
399.044	94.56
399.268	92.56
399.492	88.56
399.717	82.56
399.941	76.56
400.165	102.56
400.389	95.56
400.613	94.56
400.837	66.56
401.062	80.56
401.286	78.56
401.51	84.56
401.734	84.56
401.958	101.56
402.182	103.56
402.406	119.56
402.63	109.56
402.854	78.56
403.078	85.56
403.302	90.56
403.526	80.56
403.75	78.56
403.974	85.56
404.198	73.56
404.422	76.56
404.645	81.56
404.869	101.56
405.093	92.56
405.317	102.56
405.541	100.56
405.765	108.56
405.988	86.56
406.212	139.56
406.436	180.56
406.66	126.56
406.883	92.56
407.107	88.56
407.331	88.56
407.555	79.56
407.778	96.56
408.002	93.56
408.226	81.56
408.449	85.56
408.673	76.56
408.896	82.56
409.12	86.56
409.344	82.56
409.567	96.56
409.791	91.56
410.014	98.56
410.238	94.56
410.461	111.56
410.685	100.56
410.908	95.56
411.132	99.56
411.355	86.56
411.578	96.56
411.802	84.56
412.025	79.56
412.249	82.56
412.472	83.56
412.695	97.56
412.919	77.56
413.142	80.56
413.365	74.56
413.589	73.56
413.812	89.56
414.035	94.56
414.258	89.56
414.482	86.56
414.705	85.56
414.928	84.56
415.151	90.56
415.374	108.56
415.597	89.56
415.821	90.56
416.044	89.56
416.267	89.56
416.49	95.56
416.713	81.56
416.936	83.56
417.159	84.56
417.382	84.56
417.605	84.56
417.828	82.56
418.051	74.56
418.274	68.56
418.497	85.56
418.72	78.56
418.943	80.56
419.166	73.56
419.389	83.56
419.611	91.56
419.834	93.56
420.057	88.56
420.28	95.56
420.503	88.56
420.726	84.56
420.948	83.56
421.171	82.56
421.394	83.56
421.617	95.56
421.839	90.56
422.062	81.56
422.285	86.56
422.507	91.56
422.73	94.56
422.953	92.56
423.175	82.56
423.398	85.56
423.621	84.56
423.843	94.56
424.066	90.56
424.288	94.56
424.511	91.56
424.733	91.56
424.956	93.56
425.178	99.56
425.401	90.56
425.623	99.56
425.846	78.56
426.068	89.56
426.291	90.56
426.513	79.56
426.735	90.56
426.958	88.56
427.18	90.56
427.402	116.56
427.625	127.56
427.847	104.56
428.069	94.56
428.292	98.56
428.514	76.56
428.736	81.56
428.958	92.56
429.181	82.56
429.403	87.56
429.625	94.56
429.847	93.56
430.069	103.56
430.292	81.56
430.514	71.56
430.736	84.56
430.958	84.56
431.18	83.56
431.402	86.56
431.624	83.56
431.846	91.56
432.068	83.56
432.29	87.56
432.512	87.56
432.734	84.56
432.956	86.56
433.178	91.56
433.4	87.56
433.622	91.56
433.844	77.56
434.066	95.56
434.287	87.56
434.509	79.56
434.731	83.56
434.953	56.56
435.175	82.56
435.397	82.56
435.618	102.56
435.84	110.56
436.062	105.56
436.284	108.56
436.505	88.56
436.727	88.56
436.949	104.56
437.17	95.56
437.392	91.56
437.614	95.56
437.835	93.56
438.057	99.56
438.278	107.56
438.5	90.56
438.721	103.56
438.943	99.56
439.165	86.56
439.386	67.56
439.608	95.56
439.829	99.56
440.05	99.56
440.272	114.56
440.493	94.56
440.715	88.56
440.936	92.56
441.158	75.56
441.379	82.56
441.6	90.56
441.822	105.56
442.043	84.56
442.264	101.56
442.486	88.56
442.707	90.56
442.928	92.56
443.149	105.56
443.371	107.56
443.592	81.56
443.813	84.56
444.034	90.56
444.255	101.56
444.476	89.56
444.698	81.56
444.919	90.56
445.14	134.56
445.361	120.56
445.582	122.56
445.803	117.56
446.024	104.56
446.245	114.56
446.466	104.56
446.687	77.56
446.908	90.56
447.129	88.56
447.35	86.56
447.571	79.56
447.792	92.56
448.013	91.56
448.234	100.56
448.455	89.56
448.675	90.56
448.896	102.56
449.117	91.56
449.338	88.56
449.559	108.56
449.779	114.56
450	75.56
450.221	87.56
450.442	86.56
450.662	80.56
450.883	86.56
451.104	91.56
451.324	100.56
451.545	80.56
451.766	72.56
451.986	72.56
452.207	83.56
452.428	71.56
452.648	96.56
452.869	86.56
453.089	89.56
453.31	93.56
453.53	91.56
453.751	80.56
453.971	90.56
454.192	103.56
454.412	83.56
454.633	81.56
454.853	80.56
455.073	98.56
455.294	95.56
455.514	88.56
455.734	68.56
455.955	67.56
456.175	66.56
456.395	75.56
456.616	72.56
456.836	82.56
457.056	83.56
457.276	79.56
457.497	95.56
457.717	69.56
457.937	72.56
458.157	94.56
458.377	92.56
458.598	102.56
458.818	121.56
459.038	137.56
459.258	97.56
459.478	94.56
459.698	91.56
459.918	80.56
460.138	87.56
460.358	66.56
460.578	82.56
460.798	97.56
461.018	107.56
461.238	89.56
461.458	82.56
461.678	81.56
461.898	84.56
462.118	84.56
462.338	84.56
462.558	87.56
462.777	89.56
462.997	88.56
463.217	79.56
463.437	77.56
463.657	87.56
463.876	83.56
464.096	90.56
464.316	86.56
464.536	89.56
464.755	84.56
464.975	96.56
465.195	124.56
465.414	110.56
465.634	108.56
465.854	86.56
466.073	83.56
466.293	88.56
466.512	73.56
466.732	76.56
466.951	79.56
467.171	87.56
467.391	88.56
467.61	87.56
467.829	75.56
468.049	81.56
468.268	87.56
468.488	81.56
468.707	83.56
468.927	70.56
469.146	88.56
469.365	92.56
469.585	92.56
469.804	79.56
470.023	85.56
470.243	91.56
470.462	88.56
470.681	107.56
470.901	89.56
471.12	91.56
471.339	86.56
471.558	87.56
471.777	83.56
471.997	82.56
472.216	99.56
472.435	130.56
472.654	89.56
472.873	74.56
473.092	90.56
473.311	69.56
473.53	87.56
473.749	88.56
473.968	90.56
474.187	98.56
474.406	75.56
474.625	84.56
474.844	92.56
475.063	79.56
475.282	85.56
475.501	89.56
475.72	94.56
475.939	86.56
476.158	84.56
476.377	92.56
476.596	83.56
476.814	86.56
477.033	96.56
477.252	72.56
477.471	95.56
477.69	74.56
477.908	85.56
478.127	89.56
478.346	95.56
478.564	86.56
478.783	84.56
479.002	80.56
479.22	89.56
479.439	87.56
479.658	101.56
479.876	88.56
480.095	97.56
480.313	89.56
480.532	92.56
480.751	90.56
480.969	118.56
481.188	158.56
481.406	122.56
481.624	80.56
481.843	86.56
482.061	88.56
482.28	94.56
482.498	74.56
482.717	81.56
482.935	81.56
483.153	69.56
483.372	89.56
483.59	102.56
483.808	86.56
484.027	79.56
484.245	90.56
484.463	91.56
484.681	95.56
484.9	101.56
485.118	95.56
485.336	78.56
485.554	99.56
485.772	98.56
485.99	95.56
486.209	94.56
486.427	107.56
486.645	111.56
486.863	105.56
487.081	100.56
487.299	85.56
487.517	89.56
487.735	106.56
487.953	88.56
488.171	93.56
488.389	94.56
488.607	94.56
488.825	84.56
489.043	94.56
489.261	88.56
489.479	84.56
489.696	80.56
489.914	87.56
490.132	95.56
490.35	85.56
490.568	80.56
490.786	85.56
491.003	90.56
491.221	83.56
491.439	90.56
491.657	73.56
491.874	90.56
492.092	85.56
492.31	89.56
492.527	88.56
492.745	86.56
492.963	86.56
493.18	81.56
493.398	86.56
493.615	96.56
493.833	87.56
494.05	98.56
494.268	88.56
494.485	75.56
494.703	88.56
494.92	84.56
495.138	92.56
495.355	86.56
495.573	94.56
495.79	88.56
496.008	92.56
496.225	78.56
496.442	98.56
496.66	84.56
496.877	83.56
497.094	96.56
497.312	91.56
497.529	86.56
497.746	85.56
497.963	90.56
498.181	87.56
498.398	80.56
498.615	95.56
498.832	101.56
499.049	87.56
499.267	80.56
499.484	78.56
499.701	87.56
499.918	103.56
500.135	86.56
500.352	90.56
500.569	74.56
500.786	92.56
501.003	98.56
501.22	84.56
501.437	96.56
501.654	89.56
501.871	91.56
502.088	89.56
502.305	81.56
502.522	86.56
502.739	76.56
502.956	80.56
503.172	94.56
503.389	96.56
503.606	83.56
503.823	82.56
504.04	92.56
504.256	80.56
504.473	97.56
504.69	80.56
504.907	96.56
505.123	86.56
505.34	84.56
505.557	68.56
505.773	86.56
505.99	77.56
506.207	91.56
506.423	90.56
506.64	86.56
506.856	79.56
507.073	104.56
507.289	93.56
507.506	86.56
507.722	89.56
507.939	100.56
508.155	96.56
508.372	89.56
508.588	87.56
508.805	96.56
509.021	103.56
509.238	98.56
509.454	92.56
509.67	104.56
509.887	97.56
510.103	109.56
510.319	156.56
510.536	529.56
510.752	1502.56
510.968	444.56
511.184	142.56
511.401	89.56
511.617	87.56
511.833	86.56
512.049	96.56
512.265	97.56
512.481	85.56
512.698	75.56
512.914	94.56
513.13	100.56
513.346	76.56
513.562	84.56
513.778	89.56
513.994	95.56
514.21	90.56
514.426	99.56
514.642	108.56
514.858	97.56
515.074	123.56
515.29	275.56
515.506	871.56
515.721	331.56
515.937	129.56
516.153	100.56
516.369	89.56
516.585	74.56
516.801	78.56
517.016	80.56
517.232	82.56
517.448	82.56
