Data from Circ_1982_H10_HRD10591_00066.txt Node
Date: Wed Jan 03 12:30:54 EST 2024
User: Yrep
Spectrometer: HR+D1059
Trigger mode: 1
Integration Time (sec): 1.000000E-1
Scans to average: 1
Electric dark correction enabled: true
Nonlinearity correction enabled: false
Boxcar width: 0
XAxis mode: Wavelengths
Number of Pixels in Spectrum: 2048
>>>>>Begin Spectral Data<<<<<
223.165	-21.56
223.4	-21.56
223.635	-21.56
223.869	-16.56
224.104	-22.56
224.338	-20.56
224.573	-10.56
224.808	-14.56
225.042	2.44
225.277	-11.56
225.511	-8.56
225.746	0.44
225.98	9.44
226.215	10.44
226.449	17.44
226.683	23.44
226.918	33.44
227.152	29.44
227.387	29.44
227.621	33.44
227.856	51.44
228.09	51.44
228.324	53.44
228.559	51.44
228.793	61.44
229.027	67.44
229.262	61.44
229.496	70.44
229.73	74.44
229.964	62.44
230.199	55.44
230.433	75.44
230.667	102.44
230.901	86.44
231.136	74.44
231.37	80.44
231.604	75.44
231.838	93.44
232.072	76.44
232.306	101.44
232.541	69.44
232.775	78.44
233.009	93.44
233.243	81.44
233.477	85.44
233.711	68.44
233.945	71.44
234.179	77.44
234.413	74.44
234.647	75.44
234.881	81.44
235.115	78.44
235.349	90.44
235.583	95.44
235.817	74.44
236.051	85.44
236.285	74.44
236.519	81.44
236.753	79.44
236.987	94.44
237.221	75.44
237.455	79.44
237.689	77.44
237.922	73.44
238.156	76.44
238.39	94.44
238.624	78.44
238.858	69.44
239.091	66.44
239.325	81.44
239.559	74.44
239.793	75.44
240.027	65.44
240.26	77.44
240.494	69.44
240.728	69.44
240.961	84.44
241.195	81.44
241.429	94.44
241.662	68.44
241.896	77.44
242.13	94.44
242.363	81.44
242.597	67.44
242.83	76.44
243.064	69.44
243.298	86.44
243.531	86.44
243.765	82.44
243.998	76.44
244.232	87.44
244.465	88.44
244.699	59.44
244.932	81.44
245.166	83.44
245.399	77.44
245.633	84.44
245.866	91.44
246.099	83.44
246.333	73.44
246.566	85.44
246.8	85.44
247.033	77.44
247.266	74.44
247.5	81.44
247.733	94.44
247.966	78.44
248.2	74.44
248.433	68.44
248.666	91.44
248.899	73.44
249.133	85.44
249.366	84.44
249.599	87.44
249.832	74.44
250.066	81.44
250.299	62.44
250.532	95.44
250.765	74.44
250.998	60.44
251.231	83.44
251.465	80.44
251.698	68.44
251.931	89.44
252.164	84.44
252.397	92.44
252.63	77.44
252.863	86.44
253.096	65.44
253.329	74.44
253.562	87.44
253.795	79.44
254.028	99.44
254.261	78.44
254.494	94.44
254.727	80.44
254.96	90.44
255.193	89.44
255.426	73.44
255.659	74.44
255.892	106.44
256.124	87.44
256.357	93.44
256.59	81.44
256.823	65.44
257.056	78.44
257.289	93.44
257.521	100.44
257.754	74.44
257.987	89.44
258.22	93.44
258.452	88.44
258.685	86.44
258.918	75.44
259.151	74.44
259.383	90.44
259.616	88.44
259.849	81.44
260.081	86.44
260.314	91.44
260.547	87.44
260.779	79.44
261.012	72.44
261.244	92.44
261.477	85.44
261.71	98.44
261.942	104.44
262.175	111.44
262.407	83.44
262.64	83.44
262.872	83.44
263.105	83.44
263.337	89.44
263.57	78.44
263.802	78.44
264.035	82.44
264.267	76.44
264.499	91.44
264.732	75.44
264.964	68.44
265.197	78.44
265.429	93.44
265.661	87.44
265.894	81.44
266.126	94.44
266.358	89.44
266.591	91.44
266.823	88.44
267.055	70.44
267.287	75.44
267.52	80.44
267.752	82.44
267.984	84.44
268.216	78.44
268.448	83.44
268.681	78.44
268.913	81.44
269.145	93.44
269.377	87.44
269.609	88.44
269.841	92.44
270.073	70.44
270.306	89.44
270.538	97.44
270.77	76.44
271.002	83.44
271.234	92.44
271.466	96.44
271.698	83.44
271.93	88.44
272.162	78.44
272.394	93.44
272.626	83.44
272.858	69.44
273.09	88.44
273.322	81.44
273.553	85.44
273.785	94.44
274.017	101.44
274.249	83.44
274.481	82.44
274.713	77.44
274.945	97.44
275.176	93.44
275.408	104.44
275.64	90.44
275.872	77.44
276.104	77.44
276.335	82.44
276.567	104.44
276.799	94.44
277.031	90.44
277.262	81.44
277.494	88.44
277.726	86.44
277.957	82.44
278.189	95.44
278.421	95.44
278.652	89.44
278.884	89.44
279.115	76.44
279.347	85.44
279.579	89.44
279.81	77.44
280.042	94.44
280.273	81.44
280.505	84.44
280.736	92.44
280.968	81.44
281.199	79.44
281.431	91.44
281.662	88.44
281.894	91.44
282.125	94.44
282.356	105.44
282.588	117.44
282.819	111.44
283.051	99.44
283.282	94.44
283.513	85.44
283.745	85.44
283.976	77.44
284.207	91.44
284.439	88.44
284.67	98.44
284.901	95.44
285.132	85.44
285.364	75.44
285.595	85.44
285.826	98.44
286.057	92.44
286.288	78.44
286.52	95.44
286.751	97.44
286.982	92.44
287.213	88.44
287.444	92.44
287.675	87.44
287.906	97.44
288.138	87.44
288.369	93.44
288.6	95.44
288.831	80.44
289.062	78.44
289.293	95.44
289.524	77.44
289.755	92.44
289.986	97.44
290.217	85.44
290.448	92.44
290.679	103.44
290.91	81.44
291.141	93.44
291.371	76.44
291.602	91.44
291.833	91.44
292.064	89.44
292.295	81.44
292.526	94.44
292.757	86.44
292.987	105.44
293.218	91.44
293.449	94.44
293.68	93.44
293.91	85.44
294.141	95.44
294.372	96.44
294.603	89.44
294.833	101.44
295.064	98.44
295.295	97.44
295.525	104.44
295.756	97.44
295.987	112.44
296.217	116.44
296.448	115.44
296.679	95.44
296.909	101.44
297.14	93.44
297.37	79.44
297.601	82.44
297.831	86.44
298.062	81.44
298.292	101.44
298.523	95.44
298.753	93.44
298.984	76.44
299.214	90.44
299.445	105.44
299.675	101.44
299.905	86.44
300.136	83.44
300.366	105.44
300.597	111.44
300.827	86.44
301.057	94.44
301.288	95.44
301.518	93.44
301.748	90.44
301.979	103.44
302.209	93.44
302.439	87.44
302.669	86.44
302.9	84.44
303.13	81.44
303.36	92.44
303.59	91.44
303.82	91.44
304.051	97.44
304.281	86.44
304.511	92.44
304.741	86.44
304.971	82.44
305.201	90.44
305.431	76.44
305.661	71.44
305.891	92.44
306.121	90.44
306.352	101.44
306.582	99.44
306.812	100.44
307.042	92.44
307.272	91.44
307.502	98.44
307.731	93.44
307.961	85.44
308.191	105.44
308.421	98.44
308.651	93.44
308.881	82.44
309.111	105.44
309.341	91.44
309.571	89.44
309.8	90.44
310.03	86.44
310.26	89.44
310.49	97.44
310.72	95.44
310.949	94.44
311.179	102.44
311.409	85.44
311.639	95.44
311.868	93.44
312.098	85.44
312.328	96.44
312.557	103.44
312.787	98.44
313.017	84.44
313.246	104.44
313.476	99.44
313.706	91.44
313.935	95.44
314.165	88.44
314.394	106.44
314.624	113.44
314.853	91.44
315.083	99.44
315.312	97.44
315.542	83.44
315.771	90.44
316.001	95.44
316.23	98.44
316.46	81.44
316.689	100.44
316.919	94.44
317.148	88.44
317.377	97.44
317.607	84.44
317.836	91.44
318.065	81.44
318.295	86.44
318.524	99.44
318.753	97.44
318.983	93.44
319.212	88.44
319.441	96.44
319.67	86.44
319.9	88.44
320.129	93.44
320.358	91.44
320.587	94.44
320.816	85.44
321.046	97.44
321.275	109.44
321.504	84.44
321.733	95.44
321.962	90.44
322.191	93.44
322.42	102.44
322.649	96.44
322.878	105.44
323.108	105.44
323.337	121.44
323.566	110.44
323.795	128.44
324.024	159.44
324.253	294.44
324.482	577.44
324.71	1125.44
324.939	1401.44
325.168	563.44
325.397	183.44
325.626	131.44
325.855	121.44
326.084	108.44
326.313	120.44
326.542	124.44
326.77	186.44
326.999	350.44
327.228	679.44
327.457	1178.44
327.686	916.44
327.914	285.44
328.143	162.44
328.372	129.44
328.6	118.44
328.829	110.44
329.058	103.44
329.287	113.44
329.515	106.44
329.744	94.44
329.972	91.44
330.201	108.44
330.43	107.44
330.658	118.44
330.887	131.44
331.115	100.44
331.344	100.44
331.572	90.44
331.801	83.44
332.03	103.44
332.258	92.44
332.486	87.44
332.715	76.44
332.943	91.44
333.172	97.44
333.4	100.44
333.629	102.44
333.857	111.44
334.085	107.44
334.314	93.44
334.542	125.44
334.771	114.44
334.999	108.44
335.227	92.44
335.455	94.44
335.684	104.44
335.912	113.44
336.14	98.44
336.369	90.44
336.597	101.44
336.825	101.44
337.053	94.44
337.281	83.44
337.51	98.44
337.738	102.44
337.966	82.44
338.194	83.44
338.422	78.44
338.65	105.44
338.878	79.44
339.106	99.44
339.334	99.44
339.562	86.44
339.79	92.44
340.018	84.44
340.246	103.44
340.474	98.44
340.702	85.44
340.93	97.44
341.158	109.44
341.386	87.44
341.614	87.44
341.842	92.44
342.07	101.44
342.298	79.44
342.526	98.44
342.754	89.44
342.981	101.44
343.209	95.44
343.437	116.44
343.665	83.44
343.893	90.44
344.12	84.44
344.348	100.44
344.576	86.44
344.804	92.44
345.031	87.44
345.259	78.44
345.487	94.44
345.714	98.44
345.942	94.44
346.17	94.44
346.397	74.44
346.625	102.44
346.853	83.44
347.08	83.44
347.308	89.44
347.535	90.44
347.763	100.44
347.99	105.44
348.218	110.44
348.445	97.44
348.673	95.44
348.9	93.44
349.128	104.44
349.355	91.44
349.583	102.44
349.81	98.44
350.037	97.44
350.265	109.44
350.492	98.44
350.72	101.44
350.947	111.44
351.174	87.44
351.402	95.44
351.629	85.44
351.856	96.44
352.083	91.44
352.311	109.44
352.538	97.44
352.765	103.44
352.992	116.44
353.22	106.44
353.447	92.44
353.674	78.44
353.901	95.44
354.128	105.44
354.355	88.44
354.583	101.44
354.81	108.44
355.037	101.44
355.264	92.44
355.491	109.44
355.718	98.44
355.945	98.44
356.172	97.44
356.399	104.44
356.626	103.44
356.853	98.44
357.08	93.44
357.307	102.44
357.534	86.44
357.761	96.44
357.988	90.44
358.215	94.44
358.441	103.44
358.668	97.44
358.895	95.44
359.122	85.44
359.349	89.44
359.576	98.44
359.802	101.44
360.029	107.44
360.256	104.44
360.483	102.44
360.709	82.44
360.936	105.44
361.163	83.44
361.39	81.44
361.616	96.44
361.843	90.44
362.07	99.44
362.296	101.44
362.523	94.44
362.749	92.44
362.976	97.44
363.203	99.44
363.429	75.44
363.656	100.44
363.882	85.44
364.109	86.44
364.335	82.44
364.562	83.44
364.788	86.44
365.015	103.44
365.241	109.44
365.468	106.44
365.694	102.44
365.92	102.44
366.147	85.44
366.373	84.44
366.599	84.44
366.826	70.44
367.052	90.44
367.278	89.44
367.505	97.44
367.731	81.44
367.957	76.44
368.184	85.44
368.41	108.44
368.636	92.44
368.862	107.44
369.089	108.44
369.315	96.44
369.541	96.44
369.767	101.44
369.993	82.44
370.219	90.44
370.445	84.44
370.672	79.44
370.898	95.44
371.124	93.44
371.35	93.44
371.576	102.44
371.802	87.44
372.028	89.44
372.254	87.44
372.48	78.44
372.706	97.44
372.932	79.44
373.158	89.44
373.384	86.44
373.61	88.44
373.835	100.44
374.061	84.44
374.287	78.44
374.513	87.44
374.739	87.44
374.965	93.44
375.191	76.44
375.416	84.44
375.642	99.44
375.868	86.44
376.094	89.44
376.319	75.44
376.545	89.44
376.771	73.44
376.997	87.44
377.222	85.44
377.448	94.44
377.674	86.44
377.899	101.44
378.125	99.44
378.35	87.44
378.576	92.44
378.802	97.44
379.027	98.44
379.253	97.44
379.478	85.44
379.704	103.44
379.929	88.44
380.155	104.44
380.38	102.44
380.606	99.44
380.831	88.44
381.057	102.44
381.282	111.44
381.507	104.44
381.733	109.44
381.958	90.44
382.184	97.44
382.409	98.44
382.634	95.44
382.86	112.44
383.085	97.44
383.31	98.44
383.535	101.44
383.761	94.44
383.986	99.44
384.211	92.44
384.436	92.44
384.662	93.44
384.887	104.44
385.112	95.44
385.337	117.44
385.562	102.44
385.787	108.44
386.013	106.44
386.238	103.44
386.463	89.44
386.688	108.44
386.913	103.44
387.138	109.44
387.363	99.44
387.588	115.44
387.813	110.44
388.038	103.44
388.263	114.44
388.488	119.44
388.713	85.44
388.938	97.44
389.163	98.44
389.387	99.44
389.612	100.44
389.837	85.44
390.062	94.44
390.287	94.44
390.512	75.44
390.736	103.44
390.961	89.44
391.186	83.44
391.411	82.44
391.636	88.44
391.86	84.44
392.085	91.44
392.31	72.44
392.534	88.44
392.759	90.44
392.984	89.44
393.208	83.44
393.433	75.44
393.658	93.44
393.882	84.44
394.107	81.44
394.331	97.44
394.556	81.44
394.78	82.44
395.005	91.44
395.229	98.44
395.454	77.44
395.678	90.44
395.903	85.44
396.127	77.44
396.352	77.44
396.576	75.44
396.801	79.44
397.025	95.44
397.249	83.44
397.474	98.44
397.698	100.44
397.922	66.44
398.147	75.44
398.371	86.44
398.595	91.44
398.82	76.44
399.044	102.44
399.268	96.44
399.492	85.44
399.717	98.44
399.941	104.44
400.165	97.44
400.389	98.44
400.613	96.44
400.837	89.44
401.062	92.44
401.286	86.44
401.51	99.44
401.734	107.44
401.958	87.44
402.182	112.44
402.406	109.44
402.63	105.44
402.854	95.44
403.078	106.44
403.302	93.44
403.526	76.44
403.75	88.44
403.974	99.44
404.198	81.44
404.422	97.44
404.645	88.44
404.869	85.44
405.093	85.44
405.317	103.44
405.541	86.44
405.765	82.44
405.988	98.44
406.212	135.44
406.436	173.44
406.66	124.44
406.883	90.44
407.107	85.44
407.331	83.44
407.555	97.44
407.778	105.44
408.002	81.44
408.226	87.44
408.449	87.44
408.673	98.44
408.896	100.44
409.12	97.44
409.344	105.44
409.567	94.44
409.791	86.44
410.014	85.44
410.238	83.44
410.461	92.44
410.685	84.44
410.908	106.44
411.132	97.44
411.355	99.44
411.578	86.44
411.802	88.44
412.025	87.44
412.249	95.44
412.472	99.44
412.695	82.44
412.919	82.44
413.142	100.44
413.365	97.44
413.589	88.44
413.812	85.44
414.035	91.44
414.258	73.44
414.482	81.44
414.705	82.44
414.928	91.44
415.151	93.44
415.374	97.44
415.597	81.44
415.821	92.44
416.044	91.44
416.267	92.44
416.49	74.44
416.713	91.44
416.936	94.44
417.159	73.44
417.382	85.44
417.605	95.44
417.828	91.44
418.051	89.44
418.274	88.44
418.497	87.44
418.72	101.44
418.943	103.44
419.166	94.44
419.389	100.44
419.611	91.44
419.834	88.44
420.057	90.44
420.28	95.44
420.503	85.44
420.726	97.44
420.948	88.44
421.171	90.44
421.394	100.44
421.617	92.44
421.839	87.44
422.062	90.44
422.285	89.44
422.507	101.44
422.73	100.44
422.953	84.44
423.175	86.44
423.398	89.44
423.621	88.44
423.843	97.44
424.066	75.44
424.288	98.44
424.511	85.44
424.733	92.44
424.956	99.44
425.178	97.44
425.401	111.44
425.623	111.44
425.846	92.44
426.068	82.44
426.291	86.44
426.513	83.44
426.735	92.44
426.958	100.44
427.18	97.44
427.402	112.44
427.625	138.44
427.847	101.44
428.069	99.44
428.292	91.44
428.514	83.44
428.736	93.44
428.958	94.44
429.181	76.44
429.403	92.44
429.625	88.44
429.847	98.44
430.069	93.44
430.292	90.44
430.514	83.44
430.736	83.44
430.958	87.44
431.18	73.44
431.402	88.44
431.624	90.44
431.846	76.44
432.068	98.44
432.29	90.44
432.512	88.44
432.734	82.44
432.956	86.44
433.178	95.44
433.4	82.44
433.622	98.44
433.844	83.44
434.066	92.44
434.287	89.44
434.509	100.44
434.731	99.44
434.953	89.44
435.175	91.44
435.397	99.44
435.618	91.44
435.84	99.44
436.062	109.44
436.284	89.44
436.505	93.44
436.727	105.44
436.949	92.44
437.17	84.44
437.392	78.44
437.614	92.44
437.835	86.44
438.057	99.44
438.278	115.44
438.5	78.44
438.721	102.44
438.943	98.44
439.165	85.44
439.386	82.44
439.608	87.44
439.829	102.44
440.05	110.44
440.272	120.44
440.493	91.44
440.715	99.44
440.936	87.44
441.158	88.44
441.379	74.44
441.6	97.44
441.822	74.44
442.043	99.44
442.264	108.44
442.486	95.44
442.707	85.44
442.928	111.44
443.149	100.44
443.371	115.44
443.592	99.44
443.813	91.44
444.034	96.44
444.255	85.44
444.476	90.44
444.698	89.44
444.919	89.44
445.14	135.44
445.361	121.44
445.582	94.44
445.803	98.44
446.024	101.44
446.245	122.44
446.466	101.44
446.687	78.44
446.908	85.44
447.129	88.44
447.35	90.44
447.571	93.44
447.792	100.44
448.013	96.44
448.234	99.44
448.455	90.44
448.675	104.44
448.896	103.44
449.117	82.44
449.338	80.44
449.559	107.44
449.779	108.44
450	74.44
450.221	93.44
450.442	102.44
450.662	90.44
450.883	97.44
451.104	101.44
451.324	97.44
451.545	91.44
451.766	101.44
451.986	84.44
452.207	89.44
452.428	90.44
452.648	109.44
452.869	95.44
453.089	115.44
453.31	98.44
453.53	88.44
453.751	73.44
453.971	97.44
454.192	92.44
454.412	103.44
454.633	65.44
454.853	91.44
455.073	91.44
455.294	91.44
455.514	97.44
455.734	94.44
455.955	81.44
456.175	88.44
456.395	102.44
456.616	83.44
456.836	93.44
457.056	99.44
457.276	105.44
457.497	81.44
457.717	95.44
457.937	85.44
458.157	99.44
458.377	92.44
458.598	97.44
458.818	99.44
459.038	136.44
459.258	97.44
459.478	73.44
459.698	97.44
459.918	83.44
460.138	78.44
460.358	93.44
460.578	92.44
460.798	75.44
461.018	83.44
461.238	89.44
461.458	83.44
461.678	91.44
461.898	100.44
462.118	89.44
462.338	91.44
462.558	85.44
462.777	75.44
462.997	79.44
463.217	86.44
463.437	89.44
463.657	77.44
463.876	90.44
464.096	84.44
464.316	94.44
464.536	85.44
464.755	86.44
464.975	97.44
465.195	136.44
465.414	128.44
465.634	107.44
465.854	82.44
466.073	96.44
466.293	99.44
466.512	99.44
466.732	84.44
466.951	91.44
467.171	96.44
467.391	95.44
467.61	89.44
467.829	80.44
468.049	107.44
468.268	101.44
468.488	74.44
468.707	75.44
468.927	81.44
469.146	88.44
469.365	87.44
469.585	87.44
469.804	95.44
470.023	89.44
470.243	94.44
470.462	89.44
470.681	83.44
470.901	97.44
471.12	90.44
471.339	100.44
471.558	83.44
471.777	76.44
471.997	85.44
472.216	106.44
472.435	121.44
472.654	100.44
472.873	89.44
473.092	92.44
473.311	82.44
473.53	83.44
473.749	91.44
473.968	98.44
474.187	110.44
474.406	89.44
474.625	90.44
474.844	80.44
475.063	90.44
475.282	89.44
475.501	89.44
475.72	85.44
475.939	83.44
476.158	79.44
476.377	77.44
476.596	78.44
476.814	86.44
477.033	86.44
477.252	92.44
477.471	100.44
477.69	79.44
477.908	91.44
478.127	95.44
478.346	83.44
478.564	88.44
478.783	88.44
479.002	101.44
479.22	93.44
479.439	97.44
479.658	111.44
479.876	81.44
480.095	84.44
480.313	105.44
480.532	93.44
480.751	110.44
480.969	113.44
481.188	166.44
481.406	118.44
481.624	95.44
481.843	94.44
482.061	84.44
482.28	86.44
482.498	93.44
482.717	84.44
482.935	93.44
483.153	97.44
483.372	91.44
483.59	79.44
483.808	86.44
484.027	83.44
484.245	107.44
484.463	96.44
484.681	106.44
484.9	108.44
485.118	93.44
485.336	86.44
485.554	87.44
485.772	103.44
485.99	99.44
486.209	106.44
486.427	97.44
486.645	95.44
486.863	114.44
487.081	93.44
487.299	102.44
487.517	113.44
487.735	105.44
487.953	95.44
488.171	97.44
488.389	82.44
488.607	106.44
488.825	101.44
489.043	99.44
489.261	89.44
489.479	85.44
489.696	99.44
489.914	85.44
490.132	112.44
490.35	107.44
490.568	91.44
490.786	82.44
491.003	92.44
491.221	89.44
491.439	97.44
491.657	111.44
491.874	94.44
492.092	93.44
492.31	97.44
492.527	106.44
492.745	98.44
492.963	92.44
493.18	87.44
493.398	90.44
493.615	91.44
493.833	103.44
494.05	94.44
494.268	87.44
494.485	78.44
494.703	103.44
494.92	88.44
495.138	83.44
495.355	92.44
495.573	90.44
495.79	80.44
496.008	83.44
496.225	91.44
496.442	84.44
496.66	109.44
496.877	84.44
497.094	87.44
497.312	79.44
497.529	92.44
497.746	94.44
497.963	78.44
498.181	103.44
498.398	102.44
498.615	95.44
498.832	103.44
499.049	88.44
499.267	105.44
499.484	99.44
499.701	83.44
499.918	89.44
500.135	92.44
500.352	98.44
500.569	98.44
500.786	93.44
501.003	84.44
501.22	88.44
501.437	85.44
501.654	91.44
501.871	109.44
502.088	97.44
502.305	86.44
502.522	85.44
502.739	91.44
502.956	75.44
503.172	80.44
503.389	94.44
503.606	98.44
503.823	105.44
504.04	97.44
504.256	81.44
504.473	90.44
504.69	96.44
504.907	95.44
505.123	103.44
505.34	85.44
505.557	93.44
505.773	94.44
505.99	103.44
506.207	89.44
506.423	97.44
506.64	98.44
506.856	94.44
507.073	101.44
507.289	102.44
507.506	89.44
507.722	97.44
507.939	107.44
508.155	93.44
508.372	95.44
508.588	88.44
508.805	83.44
509.021	95.44
509.238	89.44
509.454	105.44
509.67	102.44
509.887	110.44
510.103	106.44
510.319	178.44
510.536	549.44
510.752	1567.44
510.968	454.44
511.184	137.44
511.401	97.44
511.617	102.44
511.833	87.44
512.049	92.44
512.265	104.44
512.481	99.44
512.698	83.44
512.914	80.44
513.13	83.44
513.346	103.44
513.562	91.44
513.778	111.44
513.994	101.44
514.21	93.44
514.426	106.44
514.642	116.44
514.858	99.44
515.074	137.44
515.29	323.44
515.506	959.44
515.721	345.44
515.937	111.44
