Data from Circ_1982_H10_HRD10591_00073.txt Node
Date: Wed Jan 03 12:30:55 EST 2024
User: Yrep
Spectrometer: HR+D1059
Trigger mode: 1
Integration Time (sec): 1.000000E-1
Scans to average: 1
Electric dark correction enabled: true
Nonlinearity correction enabled: false
Boxcar width: 0
XAxis mode: Wavelengths
Number of Pixels in Spectrum: 2048
>>>>>Begin Spectral Data<<<<<
223.165	-17.31
223.4	-17.31
223.635	-17.31
223.869	-9.31
224.104	-11.31
224.338	-14.31
224.573	-13.31
224.808	-6.31
225.042	-18.31
225.277	-5.31
225.511	-5.31
225.746	-12.31
225.98	-5.31
226.215	21.69
226.449	15.69
226.683	21.69
226.918	23.69
227.152	35.69
227.387	42.69
227.621	39.69
227.856	51.69
228.09	33.69
228.324	43.69
228.559	54.69
228.793	44.69
229.027	63.69
229.262	66.69
229.496	78.69
229.73	85.69
229.964	87.69
230.199	80.69
230.433	69.69
230.667	83.69
230.901	79.69
231.136	79.69
231.37	80.69
231.604	84.69
231.838	73.69
232.072	65.69
232.306	60.69
232.541	70.69
232.775	71.69
233.009	89.69
233.243	91.69
233.477	91.69
233.711	74.69
233.945	73.69
234.179	87.69
234.413	72.69
234.647	83.69
234.881	99.69
235.115	73.69
235.349	77.69
235.583	83.69
235.817	90.69
236.051	80.69
236.285	82.69
236.519	71.69
236.753	76.69
236.987	75.69
237.221	81.69
237.455	79.69
237.689	89.69
237.922	77.69
238.156	80.69
238.39	65.69
238.624	61.69
238.858	86.69
239.091	71.69
239.325	80.69
239.559	69.69
239.793	82.69
240.027	75.69
240.26	68.69
240.494	67.69
240.728	70.69
240.961	88.69
241.195	76.69
241.429	82.69
241.662	75.69
241.896	67.69
242.13	69.69
242.363	64.69
242.597	68.69
242.83	65.69
243.064	82.69
243.298	83.69
243.531	70.69
243.765	79.69
243.998	92.69
244.232	92.69
244.465	81.69
244.699	79.69
244.932	70.69
245.166	75.69
245.399	62.69
245.633	73.69
245.866	77.69
246.099	83.69
246.333	83.69
246.566	72.69
246.8	76.69
247.033	75.69
247.266	67.69
247.5	70.69
247.733	69.69
247.966	85.69
248.2	74.69
248.433	85.69
248.666	73.69
248.899	88.69
249.133	84.69
249.366	99.69
249.599	100.69
249.832	96.69
250.066	95.69
250.299	72.69
250.532	76.69
250.765	72.69
250.998	71.69
251.231	79.69
251.465	75.69
251.698	78.69
251.931	81.69
252.164	81.69
252.397	86.69
252.63	87.69
252.863	68.69
253.096	86.69
253.329	83.69
253.562	74.69
253.795	84.69
254.028	82.69
254.261	83.69
254.494	98.69
254.727	80.69
254.96	77.69
255.193	64.69
255.426	82.69
255.659	80.69
255.892	70.69
256.124	83.69
256.357	69.69
256.59	83.69
256.823	80.69
257.056	78.69
257.289	81.69
257.521	88.69
257.754	73.69
257.987	63.69
258.22	89.69
258.452	94.69
258.685	81.69
258.918	74.69
259.151	83.69
259.383	76.69
259.616	69.69
259.849	87.69
260.081	72.69
260.314	85.69
260.547	81.69
260.779	82.69
261.012	92.69
261.244	90.69
261.477	79.69
261.71	91.69
261.942	99.69
262.175	86.69
262.407	76.69
262.64	73.69
262.872	82.69
263.105	85.69
263.337	87.69
263.57	87.69
263.802	73.69
264.035	87.69
264.267	86.69
264.499	80.69
264.732	83.69
264.964	81.69
265.197	84.69
265.429	79.69
265.661	86.69
265.894	87.69
266.126	94.69
266.358	88.69
266.591	103.69
266.823	77.69
267.055	92.69
267.287	73.69
267.52	85.69
267.752	88.69
267.984	85.69
268.216	80.69
268.448	101.69
268.681	91.69
268.913	83.69
269.145	76.69
269.377	71.69
269.609	69.69
269.841	92.69
270.073	96.69
270.306	79.69
270.538	73.69
270.77	64.69
271.002	67.69
271.234	82.69
271.466	85.69
271.698	83.69
271.93	79.69
272.162	74.69
272.394	91.69
272.626	91.69
272.858	93.69
273.09	83.69
273.322	59.69
273.553	74.69
273.785	70.69
274.017	85.69
274.249	93.69
274.481	85.69
274.713	78.69
274.945	90.69
275.176	91.69
275.408	86.69
275.64	87.69
275.872	96.69
276.104	83.69
276.335	108.69
276.567	86.69
276.799	97.69
277.031	97.69
277.262	82.69
277.494	95.69
277.726	92.69
277.957	83.69
278.189	72.69
278.421	85.69
278.652	85.69
278.884	86.69
279.115	91.69
279.347	75.69
279.579	87.69
279.81	83.69
280.042	73.69
280.273	91.69
280.505	89.69
280.736	86.69
280.968	93.69
281.199	74.69
281.431	76.69
281.662	81.69
281.894	97.69
282.125	99.69
282.356	110.69
282.588	115.69
282.819	106.69
283.051	90.69
283.282	81.69
283.513	87.69
283.745	84.69
283.976	85.69
284.207	91.69
284.439	88.69
284.67	74.69
284.901	72.69
285.132	91.69
285.364	99.69
285.595	84.69
285.826	72.69
286.057	83.69
286.288	78.69
286.52	89.69
286.751	90.69
286.982	84.69
287.213	90.69
287.444	85.69
287.675	91.69
287.906	95.69
288.138	93.69
288.369	98.69
288.6	95.69
288.831	100.69
289.062	101.69
289.293	95.69
289.524	84.69
289.755	92.69
289.986	87.69
290.217	79.69
290.448	80.69
290.679	83.69
290.91	96.69
291.141	109.69
291.371	86.69
291.602	83.69
291.833	76.69
292.064	91.69
292.295	85.69
292.526	86.69
292.757	87.69
292.987	89.69
293.218	87.69
293.449	86.69
293.68	90.69
293.91	87.69
294.141	72.69
294.372	79.69
294.603	87.69
294.833	95.69
295.064	100.69
295.295	91.69
295.525	81.69
295.756	87.69
295.987	101.69
296.217	125.69
296.448	105.69
296.679	87.69
296.909	90.69
297.14	87.69
297.37	97.69
297.601	91.69
297.831	93.69
298.062	86.69
298.292	88.69
298.523	83.69
298.753	95.69
298.984	87.69
299.214	92.69
299.445	103.69
299.675	83.69
299.905	105.69
300.136	85.69
300.366	90.69
300.597	101.69
300.827	85.69
301.057	87.69
301.288	95.69
301.518	95.69
301.748	80.69
301.979	98.69
302.209	75.69
302.439	94.69
302.669	89.69
302.9	75.69
303.13	91.69
303.36	99.69
303.59	97.69
303.82	101.69
304.051	91.69
304.281	95.69
304.511	91.69
304.741	90.69
304.971	90.69
305.201	87.69
305.431	101.69
305.661	87.69
305.891	79.69
306.121	98.69
306.352	86.69
306.582	103.69
306.812	95.69
307.042	83.69
307.272	99.69
307.502	96.69
307.731	95.69
307.961	90.69
308.191	82.69
308.421	84.69
308.651	88.69
308.881	114.69
309.111	89.69
309.341	90.69
309.571	92.69
309.8	100.69
310.03	113.69
310.26	98.69
310.49	97.69
310.72	90.69
310.949	87.69
311.179	92.69
311.409	96.69
311.639	100.69
311.868	89.69
312.098	93.69
312.328	91.69
312.557	106.69
312.787	91.69
313.017	108.69
313.246	101.69
313.476	104.69
313.706	97.69
313.935	101.69
314.165	105.69
314.394	109.69
314.624	100.69
314.853	96.69
315.083	89.69
315.312	93.69
315.542	93.69
315.771	93.69
316.001	95.69
316.23	89.69
316.46	86.69
316.689	93.69
316.919	85.69
317.148	97.69
317.377	99.69
317.607	82.69
317.836	75.69
318.065	85.69
318.295	102.69
318.524	81.69
318.753	90.69
318.983	96.69
319.212	100.69
319.441	92.69
319.67	92.69
319.9	96.69
320.129	92.69
320.358	81.69
320.587	95.69
320.816	91.69
321.046	96.69
321.275	90.69
321.504	80.69
321.733	105.69
321.962	93.69
322.191	97.69
322.42	88.69
322.649	95.69
322.878	123.69
323.108	99.69
323.337	103.69
323.566	118.69
323.795	138.69
324.024	189.69
324.253	300.69
324.482	603.69
324.71	1257.69
324.939	1573.69
325.168	577.69
325.397	197.69
325.626	128.69
325.855	122.69
326.084	120.69
326.313	121.69
326.542	137.69
326.77	174.69
326.999	369.69
327.228	709.69
327.457	1247.69
327.686	967.69
327.914	279.69
328.143	165.69
328.372	136.69
328.6	105.69
328.829	105.69
329.058	113.69
329.287	120.69
329.515	100.69
329.744	86.69
329.972	112.69
330.201	87.69
330.43	106.69
330.658	113.69
330.887	137.69
331.115	108.69
331.344	93.69
331.572	98.69
331.801	85.69
332.03	106.69
332.258	100.69
332.486	87.69
332.715	73.69
332.943	103.69
333.172	100.69
333.4	96.69
333.629	102.69
333.857	115.69
334.085	95.69
334.314	104.69
334.542	122.69
334.771	115.69
334.999	95.69
335.227	87.69
335.455	85.69
335.684	82.69
335.912	91.69
336.14	93.69
336.369	90.69
336.597	92.69
336.825	103.69
337.053	99.69
337.281	92.69
337.51	95.69
337.738	91.69
337.966	97.69
338.194	85.69
338.422	93.69
338.65	112.69
338.878	93.69
339.106	86.69
339.334	93.69
339.562	89.69
339.79	83.69
340.018	91.69
340.246	99.69
340.474	87.69
340.702	69.69
340.93	97.69
341.158	86.69
341.386	92.69
341.614	98.69
341.842	90.69
342.07	89.69
342.298	85.69
342.526	96.69
342.754	79.69
342.981	97.69
343.209	98.69
343.437	98.69
343.665	90.69
343.893	95.69
344.12	105.69
344.348	91.69
344.576	97.69
344.804	91.69
345.031	87.69
345.259	104.69
345.487	95.69
345.714	93.69
345.942	100.69
346.17	91.69
346.397	80.69
346.625	85.69
346.853	77.69
347.08	100.69
347.308	99.69
347.535	97.69
347.763	93.69
347.99	101.69
348.218	99.69
348.445	108.69
348.673	89.69
348.9	101.69
349.128	101.69
349.355	100.69
349.583	84.69
349.81	95.69
350.037	92.69
350.265	93.69
350.492	99.69
350.72	87.69
350.947	109.69
351.174	105.69
351.402	100.69
351.629	97.69
351.856	97.69
352.083	99.69
352.311	94.69
352.538	103.69
352.765	104.69
352.992	95.69
353.22	101.69
353.447	91.69
353.674	102.69
353.901	87.69
354.128	90.69
354.355	102.69
354.583	95.69
354.81	82.69
355.037	91.69
355.264	90.69
355.491	95.69
355.718	91.69
355.945	88.69
356.172	94.69
356.399	98.69
356.626	98.69
356.853	91.69
357.08	99.69
357.307	91.69
357.534	84.69
357.761	89.69
357.988	109.69
358.215	108.69
358.441	93.69
358.668	91.69
358.895	99.69
359.122	68.69
359.349	96.69
359.576	90.69
359.802	95.69
360.029	111.69
360.256	95.69
360.483	93.69
360.709	83.69
360.936	79.69
361.163	95.69
361.39	93.69
361.616	88.69
361.843	97.69
362.07	78.69
362.296	84.69
362.523	103.69
362.749	98.69
362.976	96.69
363.203	91.69
363.429	107.69
363.656	88.69
363.882	85.69
364.109	81.69
364.335	83.69
364.562	87.69
364.788	91.69
365.015	77.69
365.241	100.69
365.468	98.69
365.694	109.69
365.92	89.69
366.147	103.69
366.373	91.69
366.599	90.69
366.826	90.69
367.052	99.69
367.278	82.69
367.505	95.69
367.731	92.69
367.957	93.69
368.184	87.69
368.41	88.69
368.636	112.69
368.862	112.69
369.089	91.69
369.315	91.69
369.541	89.69
369.767	92.69
369.993	88.69
370.219	92.69
370.445	74.69
370.672	71.69
370.898	89.69
371.124	94.69
371.35	95.69
371.576	89.69
371.802	95.69
372.028	75.69
372.254	82.69
372.48	87.69
372.706	92.69
372.932	88.69
373.158	106.69
373.384	85.69
373.61	93.69
373.835	91.69
374.061	98.69
374.287	97.69
374.513	80.69
374.739	99.69
374.965	70.69
375.191	94.69
375.416	90.69
375.642	106.69
375.868	88.69
376.094	92.69
376.319	100.69
376.545	99.69
376.771	85.69
376.997	92.69
377.222	98.69
377.448	96.69
377.674	92.69
377.899	103.69
378.125	87.69
378.35	82.69
378.576	88.69
378.802	96.69
379.027	98.69
379.253	89.69
379.478	88.69
379.704	92.69
379.929	95.69
380.155	99.69
380.38	95.69
380.606	81.69
380.831	93.69
381.057	83.69
381.282	73.69
381.507	93.69
381.733	90.69
381.958	94.69
382.184	95.69
382.409	96.69
382.634	93.69
382.86	108.69
383.085	90.69
383.31	102.69
383.535	110.69
383.761	97.69
383.986	104.69
384.211	91.69
384.436	81.69
384.662	98.69
384.887	99.69
385.112	114.69
385.337	97.69
385.562	97.69
385.787	107.69
386.013	106.69
386.238	109.69
386.463	111.69
386.688	100.69
386.913	105.69
387.138	107.69
387.363	104.69
387.588	117.69
387.813	102.69
388.038	113.69
388.263	97.69
388.488	102.69
388.713	95.69
388.938	107.69
389.163	100.69
389.387	99.69
389.612	83.69
389.837	104.69
390.062	95.69
390.287	83.69
390.512	99.69
390.736	92.69
390.961	71.69
391.186	87.69
391.411	108.69
391.636	113.69
391.86	90.69
392.085	93.69
392.31	75.69
392.534	79.69
392.759	95.69
392.984	82.69
393.208	96.69
393.433	88.69
393.658	88.69
393.882	93.69
394.107	77.69
394.331	87.69
394.556	81.69
394.78	78.69
395.005	77.69
395.229	85.69
395.454	77.69
395.678	89.69
395.903	95.69
396.127	86.69
396.352	81.69
396.576	67.69
396.801	77.69
397.025	95.69
397.249	83.69
397.474	88.69
397.698	85.69
397.922	95.69
398.147	97.69
398.371	82.69
398.595	97.69
398.82	89.69
399.044	86.69
399.268	93.69
399.492	86.69
399.717	87.69
399.941	84.69
400.165	97.69
400.389	85.69
400.613	99.69
400.837	91.69
401.062	82.69
401.286	85.69
401.51	87.69
401.734	101.69
401.958	92.69
402.182	113.69
402.406	119.69
402.63	93.69
402.854	88.69
403.078	80.69
403.302	89.69
403.526	91.69
403.75	84.69
403.974	82.69
404.198	87.69
404.422	69.69
404.645	88.69
404.869	92.69
405.093	90.69
405.317	92.69
405.541	107.69
405.765	95.69
405.988	103.69
406.212	146.69
406.436	175.69
406.66	115.69
406.883	101.69
407.107	82.69
407.331	84.69
407.555	102.69
407.778	95.69
408.002	84.69
408.226	100.69
408.449	82.69
408.673	84.69
408.896	103.69
409.12	91.69
409.344	88.69
409.567	89.69
409.791	100.69
410.014	89.69
410.238	101.69
410.461	92.69
410.685	96.69
410.908	107.69
411.132	95.69
411.355	94.69
411.578	96.69
411.802	79.69
412.025	77.69
412.249	90.69
412.472	103.69
412.695	100.69
412.919	82.69
413.142	88.69
413.365	93.69
413.589	78.69
413.812	98.69
414.035	91.69
414.258	94.69
414.482	75.69
414.705	95.69
414.928	85.69
415.151	105.69
415.374	96.69
415.597	87.69
415.821	84.69
416.044	97.69
416.267	103.69
416.49	87.69
416.713	83.69
416.936	81.69
417.159	99.69
417.382	99.69
417.605	90.69
417.828	96.69
418.051	107.69
418.274	98.69
418.497	82.69
418.72	99.69
418.943	88.69
419.166	87.69
419.389	95.69
419.611	92.69
419.834	86.69
420.057	79.69
420.28	90.69
420.503	97.69
420.726	83.69
420.948	95.69
421.171	96.69
421.394	90.69
421.617	99.69
421.839	91.69
422.062	96.69
422.285	97.69
422.507	87.69
422.73	88.69
422.953	108.69
423.175	93.69
423.398	83.69
423.621	96.69
423.843	93.69
424.066	91.69
424.288	91.69
424.511	94.69
424.733	96.69
424.956	116.69
425.178	100.69
425.401	90.69
425.623	94.69
425.846	81.69
426.068	92.69
426.291	98.69
426.513	77.69
426.735	93.69
426.958	85.69
427.18	94.69
427.402	127.69
427.625	119.69
427.847	129.69
428.069	93.69
428.292	89.69
428.514	91.69
428.736	84.69
428.958	81.69
429.181	90.69
429.403	87.69
429.625	79.69
429.847	94.69
430.069	67.69
430.292	77.69
430.514	95.69
430.736	91.69
430.958	97.69
431.18	83.69
431.402	82.69
431.624	87.69
431.846	87.69
432.068	76.69
432.29	79.69
432.512	101.69
432.734	79.69
432.956	79.69
433.178	87.69
433.4	101.69
433.622	95.69
433.844	95.69
434.066	97.69
434.287	66.69
434.509	81.69
434.731	93.69
434.953	93.69
435.175	80.69
435.397	91.69
435.618	96.69
435.84	95.69
436.062	104.69
436.284	115.69
436.505	98.69
436.727	92.69
436.949	87.69
437.17	82.69
437.392	101.69
437.614	70.69
437.835	99.69
438.057	121.69
438.278	87.69
438.5	77.69
438.721	112.69
438.943	114.69
439.165	80.69
439.386	85.69
439.608	80.69
439.829	80.69
440.05	108.69
440.272	125.69
440.493	95.69
440.715	81.69
440.936	83.69
441.158	89.69
441.379	81.69
441.6	99.69
441.822	97.69
442.043	83.69
442.264	97.69
442.486	96.69
442.707	105.69
442.928	103.69
443.149	118.69
443.371	125.69
443.592	103.69
443.813	113.69
444.034	101.69
444.255	93.69
444.476	90.69
444.698	80.69
444.919	83.69
445.14	129.69
445.361	123.69
445.582	110.69
445.803	112.69
446.024	107.69
446.245	115.69
446.466	107.69
446.687	91.69
446.908	100.69
447.129	89.69
447.35	98.69
447.571	79.69
447.792	85.69
448.013	99.69
448.234	96.69
448.455	86.69
448.675	108.69
448.896	110.69
449.117	104.69
449.338	91.69
449.559	112.69
449.779	136.69
450	80.69
450.221	77.69
450.442	87.69
450.662	96.69
450.883	99.69
451.104	101.69
451.324	89.69
451.545	99.69
451.766	91.69
451.986	92.69
452.207	96.69
452.428	89.69
452.648	101.69
452.869	94.69
453.089	101.69
453.31	102.69
453.53	79.69
453.751	108.69
453.971	108.69
454.192	95.69
454.412	85.69
454.633	93.69
454.853	80.69
455.073	106.69
455.294	99.69
455.514	90.69
455.734	68.69
455.955	75.69
456.175	88.69
456.395	95.69
456.616	85.69
456.836	89.69
457.056	95.69
457.276	93.69
457.497	97.69
457.717	91.69
457.937	76.69
458.157	81.69
458.377	80.69
458.598	100.69
458.818	121.69
459.038	125.69
459.258	105.69
459.478	98.69
459.698	91.69
459.918	90.69
460.138	70.69
460.358	93.69
460.578	89.69
460.798	94.69
461.018	81.69
461.238	88.69
461.458	103.69
461.678	81.69
461.898	84.69
462.118	88.69
462.338	80.69
462.558	92.69
462.777	76.69
462.997	90.69
463.217	75.69
463.437	101.69
463.657	81.69
463.876	87.69
464.096	81.69
464.316	100.69
464.536	100.69
464.755	93.69
464.975	109.69
465.195	123.69
465.414	127.69
465.634	98.69
465.854	88.69
466.073	92.69
466.293	69.69
466.512	91.69
466.732	79.69
466.951	92.69
467.171	99.69
467.391	97.69
467.61	86.69
467.829	108.69
468.049	86.69
468.268	100.69
468.488	85.69
468.707	93.69
468.927	73.69
469.146	88.69
469.365	97.69
469.585	103.69
469.804	89.69
470.023	102.69
470.243	91.69
470.462	95.69
470.681	93.69
470.901	94.69
471.12	82.69
471.339	97.69
471.558	77.69
471.777	81.69
471.997	87.69
472.216	109.69
472.435	130.69
472.654	91.69
472.873	86.69
473.092	84.69
473.311	95.69
473.53	87.69
473.749	102.69
473.968	96.69
474.187	90.69
474.406	91.69
474.625	89.69
474.844	77.69
475.063	72.69
475.282	106.69
475.501	87.69
475.72	90.69
475.939	80.69
476.158	91.69
476.377	87.69
476.596	73.69
476.814	68.69
477.033	84.69
477.252	79.69
477.471	87.69
477.69	91.69
477.908	81.69
478.127	69.69
478.346	85.69
478.564	87.69
478.783	88.69
479.002	96.69
479.22	87.69
479.439	92.69
479.658	97.69
479.876	99.69
480.095	91.69
480.313	96.69
480.532	84.69
480.751	95.69
480.969	99.69
481.188	170.69
481.406	114.69
481.624	91.69
481.843	93.69
482.061	94.69
482.28	94.69
482.498	88.69
482.717	95.69
482.935	97.69
483.153	81.69
483.372	104.69
483.59	82.69
483.808	84.69
484.027	105.69
484.245	90.69
484.463	91.69
484.681	92.69
484.9	100.69
485.118	91.69
485.336	95.69
485.554	103.69
485.772	103.69
485.99	97.69
486.209	108.69
486.427	97.69
486.645	111.69
486.863	108.69
487.081	103.69
487.299	84.69
487.517	103.69
487.735	97.69
487.953	85.69
488.171	89.69
488.389	97.69
488.607	90.69
488.825	93.69
489.043	103.69
489.261	91.69
489.479	76.69
489.696	96.69
489.914	86.69
490.132	90.69
490.35	92.69
490.568	90.69
490.786	94.69
491.003	89.69
491.221	93.69
491.439	83.69
491.657	101.69
491.874	90.69
492.092	91.69
492.31	97.69
492.527	90.69
492.745	86.69
492.963	93.69
493.18	95.69
493.398	74.69
493.615	101.69
493.833	99.69
494.05	94.69
494.268	79.69
494.485	89.69
494.703	85.69
494.92	106.69
495.138	80.69
495.355	93.69
495.573	105.69
495.79	91.69
496.008	93.69
496.225	84.69
496.442	79.69
496.66	91.69
496.877	92.69
497.094	93.69
497.312	89.69
497.529	94.69
497.746	83.69
497.963	81.69
498.181	95.69
498.398	87.69
498.615	103.69
498.832	101.69
499.049	86.69
499.267	85.69
499.484	75.69
499.701	91.69
499.918	91.69
500.135	88.69
500.352	91.69
500.569	89.69
500.786	88.69
501.003	88.69
501.22	89.69
501.437	96.69
501.654	85.69
501.871	93.69
502.088	80.69
502.305	102.69
502.522	79.69
502.739	94.69
502.956	93.69
503.172	88.69
503.389	95.69
503.606	94.69
503.823	72.69
504.04	87.69
504.256	90.69
504.473	98.69
504.69	105.69
504.907	89.69
505.123	81.69
505.34	70.69
505.557	91.69
505.773	93.69
505.99	92.69
506.207	100.69
506.423	97.69
506.64	92.69
506.856	99.69
507.073	85.69
507.289	82.69
507.506	92.69
507.722	96.69
507.939	105.69
508.155	91.69
508.372	85.69
508.588	97.69
508.805	103.69
509.021	86.69
509.238	81.69
509.454	98.69
509.67	96.69
509.887	100.69
510.103	130.69
510.319	162.69
510.536	575.69
510.752	1657.69
510.968	466.69
511.184	137.69
511.401	89.69
511.617	103.69
511.833	95.69
512.049	91.69
512.265	77.69
512.481	93.69
512.698	83.69
512.914	95.69
513.13	103.69
513.346	97.69
513.562	103.69
513.778	96.69
513.994	92.69
514.21	97.69
514.426	117.69
514.642	121.69
514.858	95.69
515.074	119.69
515.29	336.69
515.506	975.69
515.721	373.69
515.937	138.69
516.153	103.69
516.369	91.69
