Data from Circ_1982_H10_HRD10591_00034.txt Node
Date: Wed Jan 03 12:30:48 EST 2024
User: Yrep
Spectrometer: HR+D1059
Trigger mode: 1
Integration Time (sec): 1.000000E-1
Scans to average: 1
Electric dark correction enabled: true
Nonlinearity correction enabled: false
Boxcar width: 0
XAxis mode: Wavelengths
Number of Pixels in Spectrum: 2048
>>>>>Begin Spectral Data<<<<<
223.165	-7.88
223.4	-7.88
223.635	-7.88
223.869	-12.88
224.104	-21.88
224.338	-11.88
224.573	-16.88
224.808	-17.88
225.042	-10.88
225.277	-10.88
225.511	-1.88
225.746	6.12
225.98	0.12
226.215	0.12
226.449	11.12
226.683	15.12
226.918	46.12
227.152	34.12
227.387	28.12
227.621	41.12
227.856	38.12
228.09	51.12
228.324	46.12
228.559	58.12
228.793	73.12
229.027	70.12
229.262	74.12
229.496	86.12
229.73	73.12
229.964	64.12
230.199	73.12
230.433	72.12
230.667	70.12
230.901	82.12
231.136	72.12
231.37	64.12
231.604	68.12
231.838	70.12
232.072	93.12
232.306	80.12
232.541	81.12
232.775	81.12
233.009	76.12
233.243	67.12
233.477	76.12
233.711	87.12
233.945	84.12
234.179	78.12
234.413	85.12
234.647	86.12
234.881	80.12
235.115	91.12
235.349	84.12
235.583	100.12
235.817	74.12
236.051	84.12
236.285	74.12
236.519	75.12
236.753	86.12
236.987	80.12
237.221	81.12
237.455	85.12
237.689	86.12
237.922	75.12
238.156	85.12
238.39	82.12
238.624	74.12
238.858	80.12
239.091	73.12
239.325	81.12
239.559	79.12
239.793	79.12
240.027	76.12
240.26	76.12
240.494	83.12
240.728	76.12
240.961	75.12
241.195	71.12
241.429	87.12
241.662	80.12
241.896	68.12
242.13	86.12
242.363	73.12
242.597	71.12
242.83	79.12
243.064	95.12
243.298	65.12
243.531	69.12
243.765	75.12
243.998	75.12
244.232	82.12
244.465	86.12
244.699	77.12
244.932	86.12
245.166	75.12
245.399	81.12
245.633	83.12
245.866	80.12
246.099	62.12
246.333	79.12
246.566	70.12
246.8	84.12
247.033	82.12
247.266	89.12
247.5	74.12
247.733	76.12
247.966	72.12
248.2	76.12
248.433	86.12
248.666	70.12
248.899	81.12
249.133	83.12
249.366	91.12
249.599	75.12
249.832	76.12
250.066	84.12
250.299	70.12
250.532	80.12
250.765	61.12
250.998	77.12
251.231	86.12
251.465	82.12
251.698	75.12
251.931	85.12
252.164	86.12
252.397	80.12
252.63	75.12
252.863	84.12
253.096	90.12
253.329	77.12
253.562	68.12
253.795	84.12
254.028	83.12
254.261	85.12
254.494	83.12
254.727	83.12
254.96	82.12
255.193	77.12
255.426	75.12
255.659	74.12
255.892	83.12
256.124	93.12
256.357	86.12
256.59	88.12
256.823	80.12
257.056	87.12
257.289	76.12
257.521	79.12
257.754	92.12
257.987	78.12
258.22	89.12
258.452	76.12
258.685	80.12
258.918	92.12
259.151	76.12
259.383	77.12
259.616	86.12
259.849	84.12
260.081	80.12
260.314	81.12
260.547	69.12
260.779	80.12
261.012	78.12
261.244	84.12
261.477	88.12
261.71	88.12
261.942	101.12
262.175	107.12
262.407	85.12
262.64	71.12
262.872	92.12
263.105	91.12
263.337	82.12
263.57	77.12
263.802	94.12
264.035	86.12
264.267	70.12
264.499	70.12
264.732	83.12
264.964	98.12
265.197	97.12
265.429	73.12
265.661	94.12
265.894	96.12
266.126	82.12
266.358	81.12
266.591	82.12
266.823	78.12
267.055	84.12
267.287	85.12
267.52	87.12
267.752	97.12
267.984	87.12
268.216	100.12
268.448	88.12
268.681	90.12
268.913	83.12
269.145	89.12
269.377	80.12
269.609	77.12
269.841	80.12
270.073	86.12
270.306	100.12
270.538	82.12
270.77	85.12
271.002	86.12
271.234	96.12
271.466	81.12
271.698	92.12
271.93	82.12
272.162	97.12
272.394	92.12
272.626	78.12
272.858	102.12
273.09	76.12
273.322	79.12
273.553	90.12
273.785	93.12
274.017	96.12
274.249	87.12
274.481	87.12
274.713	85.12
274.945	83.12
275.176	77.12
275.408	86.12
275.64	84.12
275.872	106.12
276.104	88.12
276.335	89.12
276.567	82.12
276.799	96.12
277.031	90.12
277.262	91.12
277.494	90.12
277.726	89.12
277.957	97.12
278.189	82.12
278.421	97.12
278.652	80.12
278.884	89.12
279.115	85.12
279.347	96.12
279.579	99.12
279.81	73.12
280.042	90.12
280.273	85.12
280.505	86.12
280.736	73.12
280.968	87.12
281.199	81.12
281.431	86.12
281.662	103.12
281.894	94.12
282.125	103.12
282.356	93.12
282.588	114.12
282.819	103.12
283.051	89.12
283.282	81.12
283.513	93.12
283.745	97.12
283.976	90.12
284.207	91.12
284.439	75.12
284.67	92.12
284.901	77.12
285.132	82.12
285.364	84.12
285.595	100.12
285.826	77.12
286.057	91.12
286.288	69.12
286.52	86.12
286.751	93.12
286.982	114.12
287.213	75.12
287.444	89.12
287.675	95.12
287.906	88.12
288.138	93.12
288.369	91.12
288.6	98.12
288.831	88.12
289.062	91.12
289.293	66.12
289.524	84.12
289.755	102.12
289.986	92.12
290.217	94.12
290.448	94.12
290.679	100.12
290.91	92.12
291.141	93.12
291.371	83.12
291.602	87.12
291.833	83.12
292.064	74.12
292.295	92.12
292.526	97.12
292.757	95.12
292.987	100.12
293.218	77.12
293.449	77.12
293.68	99.12
293.91	81.12
294.141	89.12
294.372	84.12
294.603	83.12
294.833	78.12
295.064	82.12
295.295	89.12
295.525	82.12
295.756	94.12
295.987	96.12
296.217	117.12
296.448	110.12
296.679	93.12
296.909	83.12
297.14	89.12
297.37	90.12
297.601	74.12
297.831	95.12
298.062	89.12
298.292	78.12
298.523	89.12
298.753	82.12
298.984	95.12
299.214	86.12
299.445	93.12
299.675	89.12
299.905	90.12
300.136	77.12
300.366	83.12
300.597	85.12
300.827	98.12
301.057	90.12
301.288	107.12
301.518	94.12
301.748	93.12
301.979	102.12
302.209	99.12
302.439	89.12
302.669	83.12
302.9	81.12
303.13	85.12
303.36	81.12
303.59	86.12
303.82	104.12
304.051	88.12
304.281	90.12
304.511	81.12
304.741	84.12
304.971	97.12
305.201	97.12
305.431	97.12
305.661	108.12
305.891	87.12
306.121	92.12
306.352	86.12
306.582	106.12
306.812	74.12
307.042	94.12
307.272	92.12
307.502	85.12
307.731	90.12
307.961	97.12
308.191	91.12
308.421	100.12
308.651	89.12
308.881	101.12
309.111	87.12
309.341	93.12
309.571	78.12
309.8	100.12
310.03	80.12
310.26	97.12
310.49	89.12
310.72	107.12
310.949	105.12
311.179	97.12
311.409	98.12
311.639	104.12
311.868	84.12
312.098	108.12
312.328	89.12
312.557	100.12
312.787	94.12
313.017	101.12
313.246	84.12
313.476	91.12
313.706	85.12
313.935	99.12
314.165	84.12
314.394	86.12
314.624	106.12
314.853	83.12
315.083	98.12
315.312	99.12
315.542	98.12
315.771	91.12
316.001	91.12
316.23	83.12
316.46	93.12
316.689	89.12
316.919	84.12
317.148	97.12
317.377	94.12
317.607	88.12
317.836	86.12
318.065	91.12
318.295	99.12
318.524	77.12
318.753	85.12
318.983	84.12
319.212	105.12
319.441	98.12
319.67	116.12
319.9	88.12
320.129	119.12
320.358	94.12
320.587	87.12
320.816	101.12
321.046	93.12
321.275	93.12
321.504	73.12
321.733	99.12
321.962	97.12
322.191	96.12
322.42	110.12
322.649	115.12
322.878	110.12
323.108	114.12
323.337	100.12
323.566	129.12
323.795	130.12
324.024	159.12
324.253	274.12
324.482	560.12
324.71	1127.12
324.939	1457.12
325.168	580.12
325.397	180.12
325.626	138.12
325.855	105.12
326.084	109.12
326.313	134.12
326.542	119.12
326.77	164.12
326.999	334.12
327.228	656.12
327.457	1127.12
327.686	932.12
327.914	264.12
328.143	149.12
328.372	119.12
328.6	109.12
328.829	110.12
329.058	114.12
329.287	116.12
329.515	99.12
329.744	98.12
329.972	94.12
330.201	99.12
330.43	116.12
330.658	107.12
330.887	104.12
331.115	104.12
331.344	97.12
331.572	90.12
331.801	87.12
332.03	90.12
332.258	89.12
332.486	82.12
332.715	92.12
332.943	97.12
333.172	111.12
333.4	83.12
333.629	97.12
333.857	95.12
334.085	112.12
334.314	99.12
334.542	122.12
334.771	120.12
334.999	98.12
335.227	82.12
335.455	105.12
335.684	102.12
335.912	82.12
336.14	101.12
336.369	92.12
336.597	94.12
336.825	87.12
337.053	100.12
337.281	92.12
337.51	82.12
337.738	84.12
337.966	91.12
338.194	85.12
338.422	93.12
338.65	97.12
338.878	93.12
339.106	94.12
339.334	90.12
339.562	92.12
339.79	85.12
340.018	84.12
340.246	91.12
340.474	96.12
340.702	88.12
340.93	86.12
341.158	83.12
341.386	92.12
341.614	98.12
341.842	75.12
342.07	90.12
342.298	94.12
342.526	104.12
342.754	86.12
342.981	90.12
343.209	59.12
343.437	106.12
343.665	100.12
343.893	83.12
344.12	100.12
344.348	94.12
344.576	100.12
344.804	87.12
345.031	88.12
345.259	98.12
345.487	92.12
345.714	100.12
345.942	88.12
346.17	80.12
346.397	70.12
346.625	88.12
346.853	96.12
347.08	84.12
347.308	101.12
347.535	74.12
347.763	93.12
347.99	100.12
348.218	100.12
348.445	87.12
348.673	104.12
348.9	103.12
349.128	105.12
349.355	100.12
349.583	88.12
349.81	90.12
350.037	89.12
350.265	90.12
350.492	96.12
350.72	100.12
350.947	98.12
351.174	96.12
351.402	110.12
351.629	88.12
351.856	103.12
352.083	104.12
352.311	115.12
352.538	104.12
352.765	102.12
352.992	124.12
353.22	113.12
353.447	83.12
353.674	104.12
353.901	86.12
354.128	109.12
354.355	101.12
354.583	109.12
354.81	96.12
355.037	91.12
355.264	96.12
355.491	109.12
355.718	81.12
355.945	83.12
356.172	103.12
356.399	99.12
356.626	96.12
356.853	85.12
357.08	106.12
357.307	96.12
357.534	91.12
357.761	113.12
357.988	90.12
358.215	89.12
358.441	94.12
358.668	96.12
358.895	96.12
359.122	101.12
359.349	86.12
359.576	89.12
359.802	83.12
360.029	97.12
360.256	101.12
360.483	96.12
360.709	84.12
360.936	101.12
361.163	88.12
361.39	88.12
361.616	96.12
361.843	97.12
362.07	100.12
362.296	92.12
362.523	90.12
362.749	89.12
362.976	94.12
363.203	89.12
363.429	85.12
363.656	85.12
363.882	99.12
364.109	95.12
364.335	92.12
364.562	108.12
364.788	88.12
365.015	101.12
365.241	97.12
365.468	79.12
365.694	100.12
365.92	88.12
366.147	84.12
366.373	90.12
366.599	82.12
366.826	100.12
367.052	82.12
367.278	108.12
367.505	85.12
367.731	102.12
367.957	97.12
368.184	97.12
368.41	105.12
368.636	100.12
368.862	112.12
369.089	89.12
369.315	72.12
369.541	74.12
369.767	90.12
369.993	61.12
370.219	90.12
370.445	97.12
370.672	75.12
370.898	80.12
371.124	92.12
371.35	99.12
371.576	92.12
371.802	88.12
372.028	89.12
372.254	81.12
372.48	91.12
372.706	83.12
372.932	77.12
373.158	86.12
373.384	94.12
373.61	82.12
373.835	91.12
374.061	92.12
374.287	68.12
374.513	81.12
374.739	88.12
374.965	90.12
375.191	97.12
375.416	93.12
375.642	100.12
375.868	81.12
376.094	92.12
376.319	85.12
376.545	91.12
376.771	105.12
376.997	89.12
377.222	98.12
377.448	88.12
377.674	83.12
377.899	99.12
378.125	96.12
378.35	93.12
378.576	87.12
378.802	106.12
379.027	101.12
379.253	100.12
379.478	93.12
379.704	93.12
379.929	89.12
380.155	100.12
380.38	86.12
380.606	91.12
380.831	114.12
381.057	96.12
381.282	90.12
381.507	91.12
381.733	100.12
381.958	90.12
382.184	90.12
382.409	94.12
382.634	92.12
382.86	107.12
383.085	100.12
383.31	99.12
383.535	105.12
383.761	92.12
383.986	101.12
384.211	100.12
384.436	106.12
384.662	99.12
384.887	114.12
385.112	106.12
385.337	114.12
385.562	100.12
385.787	100.12
386.013	105.12
386.238	118.12
386.463	104.12
386.688	109.12
386.913	101.12
387.138	105.12
387.363	108.12
387.588	106.12
387.813	108.12
388.038	95.12
388.263	115.12
388.488	96.12
388.713	105.12
388.938	98.12
389.163	95.12
389.387	106.12
389.612	113.12
389.837	95.12
390.062	93.12
390.287	92.12
390.512	107.12
390.736	74.12
390.961	94.12
391.186	103.12
391.411	100.12
391.636	94.12
391.86	95.12
392.085	80.12
392.31	97.12
392.534	81.12
392.759	88.12
392.984	88.12
393.208	92.12
393.433	96.12
393.658	92.12
393.882	80.12
394.107	72.12
394.331	76.12
394.556	84.12
394.78	100.12
395.005	82.12
395.229	88.12
395.454	78.12
395.678	84.12
395.903	81.12
396.127	92.12
396.352	75.12
396.576	96.12
396.801	84.12
397.025	88.12
397.249	92.12
397.474	89.12
397.698	85.12
397.922	81.12
398.147	80.12
398.371	90.12
398.595	82.12
398.82	83.12
399.044	83.12
399.268	82.12
399.492	88.12
399.717	84.12
399.941	81.12
400.165	86.12
400.389	94.12
400.613	91.12
400.837	88.12
401.062	85.12
401.286	80.12
401.51	70.12
401.734	80.12
401.958	94.12
402.182	106.12
402.406	110.12
402.63	102.12
402.854	83.12
403.078	87.12
403.302	93.12
403.526	76.12
403.75	89.12
403.974	86.12
404.198	98.12
404.422	92.12
404.645	80.12
404.869	93.12
405.093	98.12
405.317	86.12
405.541	102.12
405.765	106.12
405.988	98.12
406.212	125.12
406.436	164.12
406.66	118.12
406.883	75.12
407.107	89.12
407.331	104.12
407.555	95.12
407.778	96.12
408.002	90.12
408.226	93.12
408.449	83.12
408.673	90.12
408.896	85.12
409.12	85.12
409.344	85.12
409.567	85.12
409.791	97.12
410.014	94.12
410.238	80.12
410.461	93.12
410.685	95.12
410.908	107.12
411.132	92.12
411.355	99.12
411.578	89.12
411.802	75.12
412.025	93.12
412.249	79.12
412.472	101.12
412.695	89.12
412.919	94.12
413.142	97.12
413.365	76.12
413.589	74.12
413.812	88.12
414.035	94.12
414.258	91.12
414.482	88.12
414.705	87.12
414.928	93.12
415.151	88.12
415.374	97.12
415.597	94.12
415.821	86.12
416.044	92.12
416.267	96.12
416.49	84.12
416.713	78.12
416.936	82.12
417.159	91.12
417.382	83.12
417.605	80.12
417.828	90.12
418.051	104.12
418.274	86.12
418.497	75.12
418.72	88.12
418.943	85.12
419.166	93.12
419.389	71.12
419.611	88.12
419.834	78.12
420.057	89.12
420.28	95.12
420.503	75.12
420.726	81.12
420.948	88.12
421.171	90.12
421.394	97.12
421.617	96.12
421.839	99.12
422.062	92.12
422.285	88.12
422.507	100.12
422.73	106.12
422.953	97.12
423.175	87.12
423.398	95.12
423.621	97.12
423.843	89.12
424.066	101.12
424.288	93.12
424.511	89.12
424.733	85.12
424.956	114.12
425.178	99.12
425.401	77.12
425.623	82.12
425.846	81.12
426.068	81.12
426.291	98.12
426.513	87.12
426.735	88.12
426.958	104.12
427.18	90.12
427.402	104.12
427.625	125.12
427.847	111.12
428.069	92.12
428.292	85.12
428.514	74.12
428.736	84.12
428.958	81.12
429.181	83.12
429.403	88.12
429.625	100.12
429.847	102.12
430.069	108.12
430.292	84.12
430.514	72.12
430.736	82.12
430.958	84.12
431.18	88.12
431.402	101.12
431.624	71.12
431.846	95.12
432.068	82.12
432.29	90.12
432.512	87.12
432.734	86.12
432.956	92.12
433.178	104.12
433.4	97.12
433.622	85.12
433.844	92.12
434.066	84.12
434.287	85.12
434.509	100.12
434.731	89.12
434.953	92.12
435.175	82.12
435.397	88.12
435.618	86.12
435.84	105.12
436.062	112.12
436.284	96.12
436.505	100.12
436.727	108.12
436.949	95.12
437.17	91.12
437.392	88.12
437.614	96.12
437.835	85.12
438.057	97.12
438.278	99.12
438.5	98.12
438.721	100.12
438.943	101.12
439.165	90.12
439.386	87.12
439.608	95.12
439.829	93.12
440.05	102.12
440.272	114.12
440.493	95.12
440.715	81.12
440.936	95.12
441.158	87.12
441.379	91.12
441.6	93.12
441.822	84.12
442.043	102.12
442.264	84.12
442.486	104.12
442.707	68.12
442.928	102.12
443.149	113.12
443.371	104.12
443.592	100.12
443.813	101.12
444.034	101.12
444.255	98.12
444.476	82.12
444.698	94.12
444.919	78.12
445.14	129.12
445.361	112.12
445.582	113.12
445.803	106.12
446.024	113.12
446.245	124.12
446.466	98.12
446.687	84.12
446.908	82.12
447.129	89.12
447.35	83.12
447.571	76.12
447.792	82.12
448.013	106.12
448.234	93.12
448.455	94.12
448.675	84.12
448.896	110.12
449.117	98.12
449.338	86.12
449.559	114.12
449.779	125.12
450	77.12
450.221	86.12
450.442	75.12
450.662	91.12
450.883	97.12
451.104	93.12
451.324	89.12
451.545	83.12
451.766	85.12
451.986	94.12
452.207	89.12
452.428	80.12
452.648	86.12
452.869	97.12
453.089	95.12
453.31	105.12
453.53	80.12
453.751	80.12
453.971	107.12
454.192	102.12
454.412	76.12
454.633	88.12
454.853	80.12
455.073	85.12
455.294	101.12
455.514	104.12
455.734	90.12
455.955	101.12
456.175	90.12
456.395	75.12
456.616	75.12
456.836	85.12
457.056	82.12
457.276	90.12
457.497	86.12
457.717	92.12
457.937	85.12
458.157	83.12
458.377	92.12
458.598	92.12
458.818	118.12
459.038	133.12
459.258	101.12
459.478	82.12
459.698	90.12
459.918	92.12
460.138	86.12
460.358	82.12
460.578	77.12
460.798	74.12
461.018	77.12
461.238	84.12
461.458	84.12
461.678	90.12
461.898	88.12
462.118	96.12
462.338	92.12
462.558	85.12
462.777	76.12
462.997	91.12
463.217	81.12
463.437	86.12
463.657	96.12
463.876	76.12
464.096	83.12
464.316	73.12
464.536	97.12
464.755	89.12
464.975	113.12
465.195	130.12
465.414	106.12
465.634	79.12
465.854	95.12
466.073	94.12
466.293	86.12
466.512	84.12
466.732	89.12
466.951	74.12
467.171	91.12
467.391	93.12
467.61	81.12
467.829	92.12
468.049	88.12
468.268	100.12
468.488	89.12
468.707	74.12
468.927	88.12
469.146	76.12
469.365	89.12
469.585	80.12
469.804	88.12
470.023	77.12
470.243	96.12
470.462	94.12
470.681	93.12
470.901	102.12
471.12	97.12
471.339	84.12
471.558	77.12
471.777	93.12
471.997	86.12
472.216	118.12
472.435	121.12
472.654	98.12
472.873	94.12
473.092	92.12
473.311	76.12
473.53	93.12
473.749	93.12
473.968	102.12
474.187	99.12
474.406	91.12
474.625	86.12
474.844	73.12
475.063	82.12
475.282	93.12
475.501	65.12
475.72	82.12
475.939	84.12
476.158	69.12
476.377	89.12
476.596	89.12
476.814	94.12
477.033	105.12
477.252	77.12
477.471	67.12
477.69	100.12
477.908	94.12
478.127	100.12
478.346	85.12
478.564	86.12
478.783	92.12
479.002	98.12
479.22	84.12
479.439	92.12
479.658	87.12
479.876	92.12
480.095	80.12
480.313	105.12
480.532	84.12
480.751	91.12
480.969	113.12
481.188	152.12
481.406	120.12
481.624	72.12
481.843	84.12
482.061	87.12
482.28	78.12
482.498	88.12
482.717	91.12
482.935	76.12
483.153	82.12
483.372	94.12
483.59	74.12
483.808	93.12
484.027	91.12
484.245	96.12
484.463	100.12
484.681	104.12
484.9	79.12
485.118	101.12
485.336	84.12
485.554	95.12
485.772	92.12
485.99	100.12
486.209	106.12
486.427	104.12
486.645	108.12
486.863	108.12
487.081	105.12
487.299	80.12
487.517	95.12
487.735	97.12
487.953	106.12
488.171	94.12
488.389	104.12
488.607	101.12
488.825	90.12
489.043	84.12
489.261	86.12
489.479	89.12
489.696	80.12
489.914	93.12
490.132	91.12
490.35	95.12
490.568	83.12
490.786	85.12
491.003	90.12
491.221	99.12
491.439	90.12
491.657	100.12
491.874	96.12
492.092	96.12
492.31	92.12
492.527	97.12
492.745	93.12
492.963	97.12
493.18	80.12
493.398	87.12
493.615	89.12
493.833	100.12
494.05	93.12
494.268	92.12
494.485	82.12
494.703	101.12
494.92	89.12
495.138	88.12
495.355	80.12
495.573	105.12
495.79	88.12
496.008	88.12
496.225	96.12
496.442	81.12
496.66	97.12
496.877	82.12
497.094	93.12
497.312	87.12
497.529	85.12
497.746	104.12
497.963	76.12
498.181	90.12
498.398	79.12
498.615	101.12
498.832	97.12
499.049	86.12
499.267	87.12
499.484	86.12
499.701	85.12
499.918	92.12
500.135	88.12
500.352	86.12
500.569	89.12
500.786	88.12
501.003	90.12
501.22	108.12
501.437	100.12
501.654	103.12
501.871	93.12
502.088	89.12
502.305	91.12
502.522	74.12
502.739	81.12
502.956	84.12
503.172	85.12
503.389	101.12
503.606	100.12
503.823	79.12
504.04	84.12
504.256	87.12
504.473	98.12
504.69	83.12
504.907	100.12
505.123	84.12
505.34	83.12
505.557	94.12
505.773	85.12
505.99	89.12
506.207	91.12
506.423	84.12
506.64	69.12
506.856	80.12
507.073	99.12
507.289	91.12
507.506	93.12
507.722	96.12
507.939	83.12
508.155	94.12
508.372	74.12
508.588	90.12
508.805	85.12
509.021	91.12
509.238	90.12
509.454	102.12
509.67	107.12
509.887	86.12
510.103	106.12
510.319	164.12
510.536	548.12
510.752	1496.12
510.968	448.12
511.184	134.12
511.401	90.12
511.617	95.12
511.833	93.12
512.049	99.12
512.265	96.12
512.481	93.12
512.698	89.12
512.914	86.12
513.13	80.12
513.346	87.12
513.562	97.12
513.778	92.12
513.994	86.12
514.21	91.12
514.426	107.12
514.642	109.12
514.858	113.12
515.074	123.12
515.29	304.12
515.506	898.12
515.721	327.12
515.937	135.12
516.153	90.12
