Data from Circ_1982_H10_HRD10591_00003.txt Node
Date: Wed Jan 03 12:30:41 EST 2024
User: Yrep
Spectrometer: HR+D1059
Trigger mode: 1
Integration Time (sec): 1.000000E-1
Scans to average: 1
Electric dark correction enabled: true
Nonlinearity correction enabled: false
Boxcar width: 0
XAxis mode: Wavelengths
Number of Pixels in Spectrum: 2048
>>>>>Begin Spectral Data<<<<<
223.165	-11.5
223.4	-11.5
223.635	-11.5
223.869	-21.5
224.104	-6.5
224.338	-31.5
224.573	-10.5
224.808	-15.5
225.042	-0.5
225.277	-3.5
225.511	-3.5
225.746	0.5
225.98	8.5
226.215	14.5
226.449	13.5
226.683	10.5
226.918	29.5
227.152	27.5
227.387	38.5
227.621	32.5
227.856	47.5
228.09	55.5
228.324	47.5
228.559	53.5
228.793	56.5
229.027	70.5
229.262	85.5
229.496	71.5
229.73	89.5
229.964	87.5
230.199	94.5
230.433	87.5
230.667	72.5
230.901	72.5
231.136	89.5
231.37	71.5
231.604	73.5
231.838	84.5
232.072	93.5
232.306	87.5
232.541	78.5
232.775	88.5
233.009	81.5
233.243	72.5
233.477	87.5
233.711	81.5
233.945	79.5
234.179	81.5
234.413	75.5
234.647	79.5
234.881	76.5
235.115	75.5
235.349	91.5
235.583	90.5
235.817	74.5
236.051	82.5
236.285	89.5
236.519	76.5
236.753	81.5
236.987	68.5
237.221	85.5
237.455	79.5
237.689	75.5
237.922	83.5
238.156	65.5
238.39	82.5
238.624	92.5
238.858	64.5
239.091	77.5
239.325	61.5
239.559	81.5
239.793	95.5
240.027	89.5
240.26	76.5
240.494	62.5
240.728	68.5
240.961	86.5
241.195	85.5
241.429	82.5
241.662	82.5
241.896	71.5
242.13	97.5
242.363	78.5
242.597	82.5
242.83	85.5
243.064	62.5
243.298	84.5
243.531	66.5
243.765	77.5
243.998	82.5
244.232	95.5
244.465	88.5
244.699	81.5
244.932	78.5
245.166	73.5
245.399	87.5
245.633	93.5
245.866	75.5
246.099	67.5
246.333	76.5
246.566	85.5
246.8	85.5
247.033	84.5
247.266	85.5
247.5	78.5
247.733	63.5
247.966	78.5
248.2	69.5
248.433	75.5
248.666	78.5
248.899	94.5
249.133	79.5
249.366	87.5
249.599	87.5
249.832	69.5
250.066	89.5
250.299	78.5
250.532	81.5
250.765	83.5
250.998	87.5
251.231	83.5
251.465	89.5
251.698	82.5
251.931	85.5
252.164	80.5
252.397	83.5
252.63	75.5
252.863	82.5
253.096	87.5
253.329	89.5
253.562	89.5
253.795	69.5
254.028	85.5
254.261	94.5
254.494	87.5
254.727	78.5
254.96	75.5
255.193	83.5
255.426	74.5
255.659	66.5
255.892	85.5
256.124	84.5
256.357	86.5
256.59	72.5
256.823	75.5
257.056	74.5
257.289	81.5
257.521	81.5
257.754	74.5
257.987	81.5
258.22	80.5
258.452	93.5
258.685	84.5
258.918	78.5
259.151	76.5
259.383	78.5
259.616	73.5
259.849	63.5
260.081	89.5
260.314	81.5
260.547	88.5
260.779	93.5
261.012	74.5
261.244	90.5
261.477	92.5
261.71	99.5
261.942	89.5
262.175	103.5
262.407	81.5
262.64	88.5
262.872	90.5
263.105	72.5
263.337	87.5
263.57	95.5
263.802	78.5
264.035	77.5
264.267	75.5
264.499	83.5
264.732	76.5
264.964	90.5
265.197	81.5
265.429	89.5
265.661	83.5
265.894	86.5
266.126	92.5
266.358	73.5
266.591	81.5
266.823	84.5
267.055	89.5
267.287	86.5
267.52	92.5
267.752	77.5
267.984	79.5
268.216	78.5
268.448	85.5
268.681	83.5
268.913	84.5
269.145	94.5
269.377	96.5
269.609	71.5
269.841	85.5
270.073	88.5
270.306	86.5
270.538	76.5
270.77	87.5
271.002	86.5
271.234	82.5
271.466	94.5
271.698	86.5
271.93	73.5
272.162	87.5
272.394	85.5
272.626	84.5
272.858	83.5
273.09	81.5
273.322	72.5
273.553	91.5
273.785	90.5
274.017	91.5
274.249	89.5
274.481	82.5
274.713	68.5
274.945	82.5
275.176	85.5
275.408	85.5
275.64	81.5
275.872	99.5
276.104	98.5
276.335	90.5
276.567	89.5
276.799	94.5
277.031	89.5
277.262	98.5
277.494	82.5
277.726	92.5
277.957	92.5
278.189	100.5
278.421	77.5
278.652	93.5
278.884	74.5
279.115	86.5
279.347	85.5
279.579	93.5
279.81	86.5
280.042	73.5
280.273	83.5
280.505	84.5
280.736	81.5
280.968	79.5
281.199	77.5
281.431	85.5
281.662	91.5
281.894	82.5
282.125	101.5
282.356	100.5
282.588	128.5
282.819	91.5
283.051	95.5
283.282	93.5
283.513	84.5
283.745	92.5
283.976	95.5
284.207	86.5
284.439	70.5
284.67	91.5
284.901	105.5
285.132	81.5
285.364	89.5
285.595	100.5
285.826	68.5
286.057	102.5
286.288	94.5
286.52	87.5
286.751	97.5
286.982	82.5
287.213	99.5
287.444	87.5
287.675	82.5
287.906	85.5
288.138	85.5
288.369	84.5
288.6	92.5
288.831	91.5
289.062	96.5
289.293	84.5
289.524	101.5
289.755	91.5
289.986	104.5
290.217	97.5
290.448	89.5
290.679	74.5
290.91	86.5
291.141	90.5
291.371	98.5
291.602	85.5
291.833	107.5
292.064	89.5
292.295	97.5
292.526	79.5
292.757	84.5
292.987	95.5
293.218	85.5
293.449	73.5
293.68	94.5
293.91	87.5
294.141	89.5
294.372	83.5
294.603	86.5
294.833	82.5
295.064	90.5
295.295	93.5
295.525	87.5
295.756	96.5
295.987	117.5
296.217	111.5
296.448	99.5
296.679	83.5
296.909	90.5
297.14	86.5
297.37	93.5
297.601	88.5
297.831	95.5
298.062	85.5
298.292	97.5
298.523	80.5
298.753	67.5
298.984	78.5
299.214	94.5
299.445	87.5
299.675	82.5
299.905	89.5
300.136	89.5
300.366	86.5
300.597	75.5
300.827	97.5
301.057	100.5
301.288	97.5
301.518	87.5
301.748	90.5
301.979	97.5
302.209	85.5
302.439	79.5
302.669	91.5
302.9	92.5
303.13	79.5
303.36	79.5
303.59	101.5
303.82	98.5
304.051	100.5
304.281	92.5
304.511	108.5
304.741	88.5
304.971	77.5
305.201	90.5
305.431	68.5
305.661	103.5
305.891	102.5
306.121	85.5
306.352	89.5
306.582	96.5
306.812	86.5
307.042	86.5
307.272	89.5
307.502	103.5
307.731	93.5
307.961	91.5
308.191	98.5
308.421	85.5
308.651	93.5
308.881	88.5
309.111	94.5
309.341	86.5
309.571	85.5
309.8	99.5
310.03	97.5
310.26	94.5
310.49	97.5
310.72	90.5
310.949	96.5
311.179	89.5
311.409	101.5
311.639	111.5
311.868	98.5
312.098	82.5
312.328	85.5
312.557	107.5
312.787	102.5
313.017	96.5
313.246	92.5
313.476	79.5
313.706	81.5
313.935	102.5
314.165	96.5
314.394	93.5
314.624	90.5
314.853	106.5
315.083	97.5
315.312	101.5
315.542	94.5
315.771	99.5
316.001	89.5
316.23	84.5
316.46	84.5
316.689	89.5
316.919	79.5
317.148	78.5
317.377	102.5
317.607	95.5
317.836	98.5
318.065	84.5
318.295	93.5
318.524	79.5
318.753	86.5
318.983	76.5
319.212	85.5
319.441	89.5
319.67	91.5
319.9	101.5
320.129	93.5
320.358	93.5
320.587	94.5
320.816	106.5
321.046	92.5
321.275	94.5
321.504	101.5
321.733	87.5
321.962	88.5
322.191	103.5
322.42	100.5
322.649	101.5
322.878	113.5
323.108	107.5
323.337	112.5
323.566	108.5
323.795	132.5
324.024	150.5
324.253	276.5
324.482	551.5
324.71	1055.5
324.939	1368.5
325.168	520.5
325.397	190.5
325.626	124.5
325.855	120.5
326.084	109.5
326.313	118.5
326.542	127.5
326.77	170.5
326.999	324.5
327.228	617.5
327.457	1117.5
327.686	895.5
327.914	264.5
328.143	156.5
328.372	119.5
328.6	107.5
328.829	112.5
329.058	108.5
329.287	104.5
329.515	107.5
329.744	99.5
329.972	87.5
330.201	93.5
330.43	117.5
330.658	117.5
330.887	115.5
331.115	106.5
331.344	98.5
331.572	103.5
331.801	95.5
332.03	91.5
332.258	105.5
332.486	85.5
332.715	80.5
332.943	98.5
333.172	103.5
333.4	96.5
333.629	99.5
333.857	113.5
334.085	111.5
334.314	94.5
334.542	99.5
334.771	111.5
334.999	86.5
335.227	96.5
335.455	102.5
335.684	95.5
335.912	87.5
336.14	81.5
336.369	80.5
336.597	86.5
336.825	107.5
337.053	100.5
337.281	90.5
337.51	93.5
337.738	78.5
337.966	79.5
338.194	85.5
338.422	99.5
338.65	96.5
338.878	87.5
339.106	91.5
339.334	92.5
339.562	91.5
339.79	81.5
340.018	103.5
340.246	91.5
340.474	85.5
340.702	84.5
340.93	97.5
341.158	95.5
341.386	98.5
341.614	94.5
341.842	88.5
342.07	87.5
342.298	101.5
342.526	99.5
342.754	92.5
342.981	108.5
343.209	94.5
343.437	102.5
343.665	89.5
343.893	91.5
344.12	79.5
344.348	89.5
344.576	75.5
344.804	84.5
345.031	97.5
345.259	89.5
345.487	99.5
345.714	97.5
345.942	98.5
346.17	93.5
346.397	88.5
346.625	92.5
346.853	86.5
347.08	97.5
347.308	100.5
347.535	98.5
347.763	88.5
347.99	107.5
348.218	100.5
348.445	102.5
348.673	95.5
348.9	95.5
349.128	97.5
349.355	91.5
349.583	91.5
349.81	90.5
350.037	101.5
350.265	84.5
350.492	94.5
350.72	88.5
350.947	99.5
351.174	111.5
351.402	106.5
351.629	105.5
351.856	114.5
352.083	97.5
352.311	104.5
352.538	116.5
352.765	88.5
352.992	100.5
353.22	111.5
353.447	118.5
353.674	96.5
353.901	108.5
354.128	98.5
354.355	98.5
354.583	90.5
354.81	109.5
355.037	109.5
355.264	94.5
355.491	97.5
355.718	99.5
355.945	93.5
356.172	94.5
356.399	101.5
356.626	108.5
356.853	98.5
357.08	109.5
357.307	87.5
357.534	94.5
357.761	94.5
357.988	108.5
358.215	82.5
358.441	95.5
358.668	101.5
358.895	85.5
359.122	95.5
359.349	85.5
359.576	98.5
359.802	91.5
360.029	99.5
360.256	109.5
360.483	100.5
360.709	99.5
360.936	97.5
361.163	92.5
361.39	108.5
361.616	86.5
361.843	78.5
362.07	93.5
362.296	103.5
362.523	94.5
362.749	86.5
362.976	91.5
363.203	77.5
363.429	72.5
363.656	74.5
363.882	104.5
364.109	83.5
364.335	91.5
364.562	85.5
364.788	88.5
365.015	94.5
365.241	100.5
365.468	90.5
365.694	99.5
365.92	98.5
366.147	86.5
366.373	91.5
366.599	97.5
366.826	83.5
367.052	87.5
367.278	82.5
367.505	98.5
367.731	82.5
367.957	100.5
368.184	94.5
368.41	93.5
368.636	102.5
368.862	111.5
369.089	103.5
369.315	85.5
369.541	75.5
369.767	97.5
369.993	84.5
370.219	86.5
370.445	99.5
370.672	99.5
370.898	83.5
371.124	88.5
371.35	87.5
371.576	90.5
371.802	99.5
372.028	83.5
372.254	109.5
372.48	93.5
372.706	88.5
372.932	90.5
373.158	102.5
373.384	96.5
373.61	87.5
373.835	87.5
374.061	105.5
374.287	95.5
374.513	88.5
374.739	88.5
374.965	94.5
375.191	79.5
375.416	76.5
375.642	90.5
375.868	89.5
376.094	81.5
376.319	90.5
376.545	98.5
376.771	85.5
376.997	92.5
377.222	102.5
377.448	97.5
377.674	76.5
377.899	76.5
378.125	100.5
378.35	93.5
378.576	92.5
378.802	98.5
379.027	82.5
379.253	92.5
379.478	91.5
379.704	96.5
379.929	97.5
380.155	95.5
380.38	106.5
380.606	91.5
380.831	102.5
381.057	107.5
381.282	104.5
381.507	106.5
381.733	96.5
381.958	102.5
382.184	87.5
382.409	107.5
382.634	114.5
382.86	108.5
383.085	106.5
383.31	116.5
383.535	100.5
383.761	103.5
383.986	108.5
384.211	113.5
384.436	108.5
384.662	102.5
384.887	121.5
385.112	111.5
385.337	128.5
385.562	119.5
385.787	107.5
386.013	134.5
386.238	132.5
386.463	113.5
386.688	110.5
386.913	114.5
387.138	116.5
387.363	116.5
387.588	98.5
387.813	120.5
388.038	119.5
388.263	119.5
388.488	117.5
388.713	91.5
388.938	87.5
389.163	95.5
389.387	86.5
389.612	81.5
389.837	109.5
390.062	97.5
390.287	89.5
390.512	94.5
390.736	84.5
390.961	94.5
391.186	100.5
391.411	89.5
391.636	102.5
391.86	76.5
392.085	90.5
392.31	97.5
392.534	83.5
392.759	85.5
392.984	86.5
393.208	85.5
393.433	91.5
393.658	79.5
393.882	78.5
394.107	97.5
394.331	91.5
394.556	81.5
394.78	92.5
395.005	85.5
395.229	76.5
395.454	68.5
395.678	84.5
395.903	100.5
396.127	93.5
396.352	106.5
396.576	99.5
396.801	102.5
397.025	90.5
397.249	87.5
397.474	93.5
397.698	87.5
397.922	91.5
398.147	93.5
398.371	90.5
398.595	106.5
398.82	94.5
399.044	85.5
399.268	80.5
399.492	102.5
399.717	89.5
399.941	89.5
400.165	93.5
400.389	101.5
400.613	90.5
400.837	94.5
401.062	96.5
401.286	85.5
401.51	78.5
401.734	77.5
401.958	97.5
402.182	104.5
402.406	122.5
402.63	108.5
402.854	105.5
403.078	87.5
403.302	95.5
403.526	94.5
403.75	92.5
403.974	96.5
404.198	87.5
404.422	83.5
404.645	99.5
404.869	108.5
405.093	89.5
405.317	95.5
405.541	92.5
405.765	102.5
405.988	90.5
406.212	133.5
406.436	175.5
406.66	116.5
406.883	97.5
407.107	95.5
407.331	98.5
407.555	99.5
407.778	93.5
408.002	85.5
408.226	81.5
408.449	77.5
408.673	92.5
408.896	90.5
409.12	93.5
409.344	83.5
409.567	87.5
409.791	111.5
410.014	88.5
410.238	87.5
410.461	91.5
410.685	95.5
410.908	100.5
411.132	105.5
411.355	90.5
411.578	91.5
411.802	89.5
412.025	83.5
412.249	90.5
412.472	93.5
412.695	83.5
412.919	74.5
413.142	77.5
413.365	84.5
413.589	95.5
413.812	105.5
414.035	88.5
414.258	88.5
414.482	96.5
414.705	103.5
414.928	99.5
415.151	87.5
415.374	93.5
415.597	92.5
415.821	110.5
416.044	98.5
416.267	100.5
416.49	101.5
416.713	98.5
416.936	101.5
417.159	83.5
417.382	76.5
417.605	81.5
417.828	91.5
418.051	92.5
418.274	86.5
418.497	91.5
418.72	78.5
418.943	102.5
419.166	82.5
419.389	95.5
419.611	98.5
419.834	93.5
420.057	91.5
420.28	102.5
420.503	98.5
420.726	97.5
420.948	90.5
421.171	94.5
421.394	86.5
421.617	87.5
421.839	98.5
422.062	101.5
422.285	81.5
422.507	101.5
422.73	111.5
422.953	97.5
423.175	86.5
423.398	85.5
423.621	95.5
423.843	98.5
424.066	92.5
424.288	88.5
424.511	94.5
424.733	100.5
424.956	96.5
425.178	89.5
425.401	107.5
425.623	107.5
425.846	88.5
426.068	100.5
426.291	91.5
426.513	77.5
426.735	90.5
426.958	76.5
427.18	97.5
427.402	119.5
427.625	122.5
427.847	122.5
428.069	91.5
428.292	90.5
428.514	92.5
428.736	77.5
428.958	87.5
429.181	90.5
429.403	83.5
429.625	92.5
429.847	91.5
430.069	94.5
430.292	91.5
430.514	97.5
430.736	95.5
430.958	94.5
431.18	81.5
431.402	101.5
431.624	97.5
431.846	87.5
432.068	83.5
432.29	106.5
432.512	86.5
432.734	89.5
432.956	109.5
433.178	86.5
433.4	105.5
433.622	86.5
433.844	99.5
434.066	87.5
434.287	94.5
434.509	78.5
434.731	87.5
434.953	87.5
435.175	80.5
435.397	96.5
435.618	90.5
435.84	103.5
436.062	114.5
436.284	104.5
436.505	97.5
436.727	74.5
436.949	101.5
437.17	99.5
437.392	87.5
437.614	110.5
437.835	108.5
438.057	125.5
438.278	94.5
438.5	96.5
438.721	99.5
438.943	96.5
439.165	101.5
439.386	74.5
439.608	102.5
439.829	76.5
440.05	111.5
440.272	108.5
440.493	93.5
440.715	97.5
440.936	88.5
441.158	98.5
441.379	83.5
441.6	88.5
441.822	102.5
442.043	93.5
442.264	89.5
442.486	102.5
442.707	76.5
442.928	97.5
443.149	99.5
443.371	100.5
443.592	103.5
443.813	105.5
444.034	106.5
444.255	79.5
444.476	84.5
444.698	86.5
444.919	79.5
445.14	141.5
445.361	116.5
445.582	99.5
445.803	107.5
446.024	129.5
446.245	112.5
446.466	116.5
446.687	73.5
446.908	85.5
447.129	81.5
447.35	81.5
447.571	88.5
447.792	98.5
448.013	80.5
448.234	90.5
448.455	104.5
448.675	113.5
448.896	109.5
449.117	112.5
449.338	101.5
449.559	119.5
449.779	121.5
450	101.5
450.221	89.5
450.442	89.5
450.662	81.5
450.883	85.5
451.104	110.5
451.324	99.5
451.545	85.5
451.766	105.5
451.986	90.5
452.207	76.5
452.428	86.5
452.648	91.5
452.869	90.5
453.089	104.5
453.31	110.5
453.53	90.5
453.751	91.5
453.971	82.5
454.192	88.5
454.412	86.5
454.633	83.5
454.853	86.5
455.073	102.5
455.294	77.5
455.514	107.5
455.734	97.5
455.955	92.5
456.175	76.5
456.395	81.5
456.616	85.5
456.836	100.5
457.056	87.5
457.276	86.5
457.497	93.5
457.717	92.5
457.937	97.5
458.157	90.5
458.377	99.5
458.598	90.5
458.818	114.5
459.038	126.5
459.258	104.5
459.478	93.5
459.698	106.5
459.918	78.5
460.138	87.5
460.358	81.5
460.578	88.5
460.798	92.5
461.018	79.5
461.238	93.5
461.458	87.5
461.678	91.5
461.898	88.5
462.118	88.5
462.338	88.5
462.558	87.5
462.777	87.5
462.997	91.5
463.217	89.5
463.437	85.5
463.657	84.5
463.876	75.5
464.096	72.5
464.316	74.5
464.536	102.5
464.755	95.5
464.975	102.5
465.195	134.5
465.414	127.5
465.634	89.5
465.854	93.5
466.073	92.5
466.293	79.5
466.512	98.5
466.732	79.5
466.951	87.5
467.171	82.5
467.391	78.5
467.61	97.5
467.829	84.5
468.049	83.5
468.268	87.5
468.488	82.5
468.707	89.5
468.927	85.5
469.146	90.5
469.365	84.5
469.585	84.5
469.804	81.5
470.023	97.5
470.243	89.5
470.462	93.5
470.681	107.5
470.901	88.5
471.12	91.5
471.339	88.5
471.558	94.5
471.777	74.5
471.997	103.5
472.216	110.5
472.435	114.5
472.654	71.5
472.873	90.5
473.092	109.5
473.311	76.5
473.53	83.5
473.749	89.5
473.968	98.5
474.187	94.5
474.406	100.5
474.625	93.5
474.844	90.5
475.063	83.5
475.282	91.5
475.501	86.5
475.72	101.5
475.939	84.5
476.158	70.5
476.377	89.5
476.596	75.5
476.814	92.5
477.033	89.5
477.252	88.5
477.471	100.5
477.69	91.5
477.908	87.5
478.127	100.5
478.346	94.5
478.564	102.5
478.783	94.5
479.002	94.5
479.22	85.5
479.439	96.5
479.658	95.5
479.876	99.5
480.095	79.5
480.313	89.5
480.532	92.5
480.751	100.5
480.969	103.5
481.188	146.5
481.406	115.5
481.624	94.5
481.843	101.5
482.061	87.5
482.28	88.5
482.498	91.5
482.717	93.5
482.935	93.5
483.153	75.5
483.372	78.5
483.59	93.5
483.808	90.5
484.027	113.5
484.245	98.5
484.463	88.5
484.681	87.5
484.9	77.5
485.118	93.5
485.336	98.5
485.554	107.5
485.772	105.5
485.99	104.5
486.209	103.5
486.427	101.5
486.645	117.5
486.863	108.5
487.081	107.5
487.299	94.5
487.517	98.5
487.735	95.5
487.953	89.5
488.171	86.5
488.389	87.5
488.607	88.5
488.825	87.5
489.043	89.5
489.261	85.5
489.479	89.5
489.696	84.5
489.914	94.5
490.132	82.5
490.35	91.5
490.568	73.5
490.786	89.5
491.003	95.5
491.221	77.5
491.439	91.5
491.657	92.5
491.874	98.5
492.092	99.5
492.31	93.5
492.527	81.5
492.745	73.5
492.963	105.5
493.18	94.5
493.398	102.5
493.615	99.5
493.833	101.5
494.05	86.5
494.268	97.5
494.485	85.5
494.703	99.5
494.92	100.5
495.138	91.5
495.355	91.5
495.573	78.5
495.79	101.5
496.008	86.5
496.225	94.5
496.442	81.5
496.66	93.5
496.877	94.5
497.094	89.5
497.312	98.5
497.529	95.5
497.746	99.5
497.963	91.5
498.181	88.5
498.398	93.5
498.615	107.5
498.832	109.5
499.049	93.5
499.267	80.5
499.484	95.5
499.701	94.5
499.918	81.5
500.135	90.5
500.352	69.5
500.569	91.5
500.786	86.5
501.003	94.5
501.22	90.5
501.437	92.5
501.654	105.5
501.871	96.5
502.088	93.5
502.305	98.5
502.522	92.5
502.739	97.5
502.956	90.5
503.172	85.5
503.389	70.5
503.606	87.5
503.823	101.5
504.04	95.5
504.256	101.5
504.473	93.5
504.69	99.5
504.907	81.5
505.123	85.5
505.34	97.5
505.557	85.5
505.773	104.5
505.99	90.5
506.207	95.5
506.423	95.5
506.64	94.5
506.856	98.5
507.073	98.5
507.289	86.5
507.506	99.5
507.722	103.5
507.939	109.5
508.155	101.5
508.372	93.5
508.588	84.5
508.805	93.5
509.021	94.5
509.238	102.5
509.454	105.5
509.67	99.5
509.887	122.5
510.103	125.5
510.319	169.5
510.536	529.5
510.752	1432.5
510.968	435.5
511.184	114.5
511.401	109.5
511.617	91.5
511.833	83.5
512.049	96.5
512.265	94.5
512.481	93.5
512.698	90.5
512.914	93.5
513.13	66.5
513.346	93.5
513.562	87.5
513.778	106.5
513.994	95.5
514.21	91.5
514.426	98.5
514.642	118.5
514.858	107.5
515.074	133.5
515.29	316.5
515.506	879.5
515.721	338.5
515.937	130.5
516.153	107.5
516.369	87.5
516.585	87.5
516.801	92.5
517.016	97.5
517.232	95.5
517.448	97.5
517.664	103.5
517.879	81.5
518.095	97.5
518.311	90.5
518.527	91.5
518.742	93.5
518.958	95.5
519.173	103.5
519.389	105.5
519.605	85.5
519.82	92.5
520.036	95.5
520.251	95.5
520.467	111.5
520.682	95.5
520.898	105.5
521.113	96.5
521.329	118.5
521.544	149.5
521.76	365.5
521.975	1421.5
522.19	840.5
522.406	195.5
522.621	103.5
522.836	101.5
523.052	95.5
523.267	74.5
523.482	85.5
523.698	108.5
523.913	111.5
524.128	106.5
524.343	91.5
524.559	90.5
524.774	91.5
524.989	91.5
525.204	106.5
525.419	108.5
525.634	90.5
525.849	88.5
526.064	99.5
526.28	94.5
526.495	93.5
526.71	102.5
526.925	92.5
527.14	90.5
527.355	74.5
527.57	83.5
527.785	93.5
527.999	85.5
528.214	87.5
528.429	93.5
528.644	90.5
528.859	85.5
529.074	100.5
529.289	109.5
529.503	139.5
529.718	101.5
529.933	81.5
530.148	79.5
530.363	97.5
530.577	82.5
530.792	80.5
531.007	101.5
531.221	83.5
531.436	91.5
531.651	93.5
531.865	84.5
532.08	104.5
532.295	88.5
532.509	78.5
532.724	95.5
532.938	92.5
533.153	92.5
533.367	101.5
533.582	90.5
533.796	91.5
534.011	104.5
534.225	96.5
534.44	88.5
534.654	95.5
534.868	91.5
535.083	82.5
535.297	90.5
535.511	107.5
