Data from Circ_1982_H10_HRD10591_00078.txt Node
Date: Wed Jan 03 12:30:56 EST 2024
User: Yrep
Spectrometer: HR+D1059
Trigger mode: 1
Integration Time (sec): 1.000000E-1
Scans to average: 1
Electric dark correction enabled: true
Nonlinearity correction enabled: false
Boxcar width: 0
XAxis mode: Wavelengths
Number of Pixels in Spectrum: 2048
>>>>>Begin Spectral Data<<<<<
223.165	-12.38
223.4	-12.38
223.635	-12.38
223.869	-13.38
224.104	-16.38
224.338	-13.38
224.573	-20.38
224.808	-14.38
225.042	1.62
225.277	-4.38
225.511	-5.38
225.746	-2.38
225.98	1.62
226.215	-1.38
226.449	19.62
226.683	19.62
226.918	30.62
227.152	30.62
227.387	31.62
227.621	35.62
227.856	51.62
228.09	52.62
228.324	55.62
228.559	59.62
228.793	56.62
229.027	69.62
229.262	70.62
229.496	72.62
229.73	74.62
229.964	74.62
230.199	71.62
230.433	56.62
230.667	74.62
230.901	74.62
231.136	86.62
231.37	67.62
231.604	69.62
231.838	72.62
232.072	68.62
232.306	90.62
232.541	94.62
232.775	85.62
233.009	80.62
233.243	89.62
233.477	86.62
233.711	77.62
233.945	84.62
234.179	85.62
234.413	91.62
234.647	84.62
234.881	59.62
235.115	84.62
235.349	74.62
235.583	92.62
235.817	77.62
236.051	78.62
236.285	70.62
236.519	76.62
236.753	72.62
236.987	94.62
237.221	84.62
237.455	92.62
237.689	81.62
237.922	81.62
238.156	74.62
238.39	67.62
238.624	82.62
238.858	69.62
239.091	76.62
239.325	77.62
239.559	86.62
239.793	96.62
240.027	85.62
240.26	73.62
240.494	70.62
240.728	66.62
240.961	65.62
241.195	71.62
241.429	90.62
241.662	67.62
241.896	83.62
242.13	82.62
242.363	71.62
242.597	84.62
242.83	77.62
243.064	74.62
243.298	83.62
243.531	87.62
243.765	98.62
243.998	80.62
244.232	86.62
244.465	87.62
244.699	78.62
244.932	82.62
245.166	84.62
245.399	95.62
245.633	90.62
245.866	79.62
246.099	79.62
246.333	89.62
246.566	79.62
246.8	72.62
247.033	76.62
247.266	88.62
247.5	94.62
247.733	89.62
247.966	87.62
248.2	75.62
248.433	73.62
248.666	79.62
248.899	87.62
249.133	96.62
249.366	93.62
249.599	88.62
249.832	87.62
250.066	94.62
250.299	68.62
250.532	85.62
250.765	95.62
250.998	86.62
251.231	86.62
251.465	86.62
251.698	86.62
251.931	71.62
252.164	82.62
252.397	82.62
252.63	93.62
252.863	77.62
253.096	77.62
253.329	89.62
253.562	83.62
253.795	85.62
254.028	85.62
254.261	86.62
254.494	78.62
254.727	74.62
254.96	84.62
255.193	93.62
255.426	92.62
255.659	91.62
255.892	84.62
256.124	76.62
256.357	88.62
256.59	85.62
256.823	100.62
257.056	82.62
257.289	93.62
257.521	95.62
257.754	92.62
257.987	84.62
258.22	90.62
258.452	86.62
258.685	73.62
258.918	74.62
259.151	91.62
259.383	88.62
259.616	92.62
259.849	77.62
260.081	94.62
260.314	71.62
260.547	79.62
260.779	89.62
261.012	81.62
261.244	92.62
261.477	94.62
261.71	88.62
261.942	110.62
262.175	110.62
262.407	91.62
262.64	88.62
262.872	79.62
263.105	73.62
263.337	84.62
263.57	93.62
263.802	82.62
264.035	78.62
264.267	100.62
264.499	85.62
264.732	76.62
264.964	92.62
265.197	84.62
265.429	79.62
265.661	80.62
265.894	89.62
266.126	90.62
266.358	93.62
266.591	90.62
266.823	80.62
267.055	82.62
267.287	82.62
267.52	87.62
267.752	87.62
267.984	88.62
268.216	75.62
268.448	75.62
268.681	70.62
268.913	100.62
269.145	83.62
269.377	103.62
269.609	88.62
269.841	80.62
270.073	73.62
270.306	97.62
270.538	90.62
270.77	91.62
271.002	79.62
271.234	86.62
271.466	94.62
271.698	97.62
271.93	76.62
272.162	83.62
272.394	78.62
272.626	80.62
272.858	85.62
273.09	97.62
273.322	90.62
273.553	75.62
273.785	80.62
274.017	87.62
274.249	90.62
274.481	85.62
274.713	83.62
274.945	76.62
275.176	82.62
275.408	90.62
275.64	78.62
275.872	98.62
276.104	90.62
276.335	92.62
276.567	80.62
276.799	94.62
277.031	71.62
277.262	86.62
277.494	103.62
277.726	94.62
277.957	74.62
278.189	93.62
278.421	88.62
278.652	91.62
278.884	91.62
279.115	100.62
279.347	94.62
279.579	82.62
279.81	95.62
280.042	90.62
280.273	92.62
280.505	89.62
280.736	85.62
280.968	89.62
281.199	91.62
281.431	80.62
281.662	92.62
281.894	86.62
282.125	102.62
282.356	102.62
282.588	109.62
282.819	103.62
283.051	90.62
283.282	73.62
283.513	87.62
283.745	82.62
283.976	79.62
284.207	104.62
284.439	92.62
284.67	85.62
284.901	79.62
285.132	85.62
285.364	79.62
285.595	86.62
285.826	99.62
286.057	86.62
286.288	104.62
286.52	79.62
286.751	87.62
286.982	90.62
287.213	82.62
287.444	71.62
287.675	96.62
287.906	88.62
288.138	84.62
288.369	92.62
288.6	103.62
288.831	92.62
289.062	92.62
289.293	96.62
289.524	80.62
289.755	90.62
289.986	84.62
290.217	94.62
290.448	84.62
290.679	86.62
290.91	83.62
291.141	80.62
291.371	90.62
291.602	82.62
291.833	79.62
292.064	81.62
292.295	77.62
292.526	86.62
292.757	86.62
292.987	77.62
293.218	93.62
293.449	96.62
293.68	107.62
293.91	88.62
294.141	102.62
294.372	88.62
294.603	98.62
294.833	88.62
295.064	96.62
295.295	91.62
295.525	90.62
295.756	102.62
295.987	101.62
296.217	116.62
296.448	110.62
296.679	95.62
296.909	84.62
297.14	90.62
297.37	94.62
297.601	98.62
297.831	92.62
298.062	75.62
298.292	90.62
298.523	102.62
298.753	100.62
298.984	87.62
299.214	83.62
299.445	79.62
299.675	91.62
299.905	96.62
300.136	85.62
300.366	87.62
300.597	86.62
300.827	87.62
301.057	93.62
301.288	94.62
301.518	95.62
301.748	83.62
301.979	92.62
302.209	91.62
302.439	90.62
302.669	94.62
302.9	86.62
303.13	96.62
303.36	95.62
303.59	98.62
303.82	84.62
304.051	101.62
304.281	82.62
304.511	91.62
304.741	82.62
304.971	86.62
305.201	91.62
305.431	89.62
305.661	83.62
305.891	79.62
306.121	94.62
306.352	92.62
306.582	88.62
306.812	83.62
307.042	87.62
307.272	74.62
307.502	90.62
307.731	102.62
307.961	87.62
308.191	83.62
308.421	86.62
308.651	98.62
308.881	95.62
309.111	89.62
309.341	114.62
309.571	90.62
309.8	92.62
310.03	112.62
310.26	98.62
310.49	102.62
310.72	88.62
310.949	95.62
311.179	100.62
311.409	98.62
311.639	86.62
311.868	83.62
312.098	80.62
312.328	90.62
312.557	102.62
312.787	105.62
313.017	103.62
313.246	96.62
313.476	72.62
313.706	105.62
313.935	87.62
314.165	100.62
314.394	114.62
314.624	103.62
314.853	85.62
315.083	101.62
315.312	104.62
315.542	93.62
315.771	92.62
316.001	90.62
316.23	78.62
316.46	98.62
316.689	72.62
316.919	93.62
317.148	85.62
317.377	105.62
317.607	97.62
317.836	84.62
318.065	99.62
318.295	91.62
318.524	91.62
318.753	93.62
318.983	90.62
319.212	108.62
319.441	102.62
319.67	100.62
319.9	80.62
320.129	86.62
320.358	81.62
320.587	101.62
320.816	85.62
321.046	83.62
321.275	97.62
321.504	78.62
321.733	84.62
321.962	91.62
322.191	98.62
322.42	97.62
322.649	111.62
322.878	117.62
323.108	106.62
323.337	95.62
323.566	118.62
323.795	122.62
324.024	166.62
324.253	275.62
324.482	567.62
324.71	1166.62
324.939	1506.62
325.168	568.62
325.397	205.62
325.626	132.62
325.855	112.62
326.084	121.62
326.313	122.62
326.542	132.62
326.77	187.62
326.999	349.62
327.228	683.62
327.457	1226.62
327.686	986.62
327.914	293.62
328.143	152.62
328.372	134.62
328.6	123.62
328.829	120.62
329.058	109.62
329.287	105.62
329.515	99.62
329.744	102.62
329.972	111.62
330.201	117.62
330.43	122.62
330.658	108.62
330.887	133.62
331.115	118.62
331.344	108.62
331.572	99.62
331.801	104.62
332.03	103.62
332.258	95.62
332.486	91.62
332.715	79.62
332.943	93.62
333.172	94.62
333.4	100.62
333.629	106.62
333.857	104.62
334.085	104.62
334.314	109.62
334.542	122.62
334.771	112.62
334.999	109.62
335.227	100.62
335.455	91.62
335.684	90.62
335.912	95.62
336.14	91.62
336.369	117.62
336.597	109.62
336.825	106.62
337.053	86.62
337.281	90.62
337.51	93.62
337.738	91.62
337.966	102.62
338.194	101.62
338.422	98.62
338.65	108.62
338.878	96.62
339.106	101.62
339.334	89.62
339.562	88.62
339.79	89.62
340.018	86.62
340.246	101.62
340.474	93.62
340.702	88.62
340.93	105.62
341.158	92.62
341.386	94.62
341.614	92.62
341.842	74.62
342.07	72.62
342.298	92.62
342.526	96.62
342.754	95.62
342.981	94.62
343.209	104.62
343.437	109.62
343.665	90.62
343.893	87.62
344.12	89.62
344.348	100.62
344.576	102.62
344.804	88.62
345.031	106.62
345.259	104.62
345.487	92.62
345.714	98.62
345.942	91.62
346.17	102.62
346.397	92.62
346.625	91.62
346.853	89.62
347.08	106.62
347.308	92.62
347.535	96.62
347.763	103.62
347.99	83.62
348.218	86.62
348.445	100.62
348.673	91.62
348.9	98.62
349.128	98.62
349.355	86.62
349.583	94.62
349.81	93.62
350.037	93.62
350.265	93.62
350.492	102.62
350.72	88.62
350.947	89.62
351.174	84.62
351.402	109.62
351.629	106.62
351.856	112.62
352.083	95.62
352.311	104.62
352.538	113.62
352.765	103.62
352.992	102.62
353.22	100.62
353.447	111.62
353.674	97.62
353.901	87.62
354.128	98.62
354.355	84.62
354.583	96.62
354.81	98.62
355.037	92.62
355.264	96.62
355.491	109.62
355.718	98.62
355.945	82.62
356.172	88.62
356.399	106.62
356.626	113.62
356.853	102.62
357.08	96.62
357.307	104.62
357.534	111.62
357.761	88.62
357.988	104.62
358.215	102.62
358.441	99.62
358.668	96.62
358.895	82.62
359.122	91.62
359.349	94.62
359.576	71.62
359.802	96.62
360.029	105.62
360.256	97.62
360.483	89.62
360.709	87.62
360.936	98.62
361.163	97.62
361.39	82.62
361.616	78.62
361.843	100.62
362.07	90.62
362.296	105.62
362.523	94.62
362.749	93.62
362.976	94.62
363.203	109.62
363.429	82.62
363.656	96.62
363.882	79.62
364.109	88.62
364.335	84.62
364.562	90.62
364.788	91.62
365.015	85.62
365.241	100.62
365.468	99.62
365.694	87.62
365.92	93.62
366.147	88.62
366.373	84.62
366.599	95.62
366.826	95.62
367.052	94.62
367.278	87.62
367.505	108.62
367.731	92.62
367.957	94.62
368.184	86.62
368.41	102.62
368.636	99.62
368.862	109.62
369.089	95.62
369.315	87.62
369.541	83.62
369.767	90.62
369.993	101.62
370.219	90.62
370.445	80.62
370.672	98.62
370.898	90.62
371.124	95.62
371.35	95.62
371.576	85.62
371.802	92.62
372.028	95.62
372.254	83.62
372.48	98.62
372.706	78.62
372.932	88.62
373.158	97.62
373.384	94.62
373.61	102.62
373.835	91.62
374.061	83.62
374.287	94.62
374.513	83.62
374.739	87.62
374.965	89.62
375.191	100.62
375.416	93.62
375.642	83.62
375.868	87.62
376.094	88.62
376.319	94.62
376.545	88.62
376.771	87.62
376.997	86.62
377.222	86.62
377.448	104.62
377.674	80.62
377.899	95.62
378.125	82.62
378.35	102.62
378.576	98.62
378.802	99.62
379.027	97.62
379.253	95.62
379.478	100.62
379.704	93.62
379.929	95.62
380.155	88.62
380.38	98.62
380.606	87.62
380.831	91.62
381.057	107.62
381.282	102.62
381.507	95.62
381.733	93.62
381.958	96.62
382.184	86.62
382.409	94.62
382.634	91.62
382.86	96.62
383.085	102.62
383.31	99.62
383.535	92.62
383.761	79.62
383.986	103.62
384.211	86.62
384.436	94.62
384.662	95.62
384.887	98.62
385.112	99.62
385.337	90.62
385.562	96.62
385.787	105.62
386.013	102.62
386.238	108.62
386.463	95.62
386.688	107.62
386.913	104.62
387.138	102.62
387.363	107.62
387.588	97.62
387.813	90.62
388.038	95.62
388.263	106.62
388.488	113.62
388.713	106.62
388.938	96.62
389.163	101.62
389.387	98.62
389.612	89.62
389.837	99.62
390.062	101.62
390.287	91.62
390.512	80.62
390.736	93.62
390.961	93.62
391.186	93.62
391.411	93.62
391.636	93.62
391.86	91.62
392.085	90.62
392.31	75.62
392.534	86.62
392.759	75.62
392.984	78.62
393.208	94.62
393.433	95.62
393.658	104.62
393.882	98.62
394.107	84.62
394.331	87.62
394.556	84.62
394.78	99.62
395.005	82.62
395.229	93.62
395.454	95.62
395.678	84.62
395.903	91.62
396.127	68.62
396.352	84.62
396.576	97.62
396.801	86.62
397.025	94.62
397.249	76.62
397.474	83.62
397.698	84.62
397.922	85.62
398.147	91.62
398.371	92.62
398.595	94.62
398.82	93.62
399.044	86.62
399.268	84.62
399.492	84.62
399.717	85.62
399.941	84.62
400.165	87.62
400.389	102.62
400.613	79.62
400.837	86.62
401.062	78.62
401.286	93.62
401.51	92.62
401.734	75.62
401.958	91.62
402.182	103.62
402.406	128.62
402.63	107.62
402.854	95.62
403.078	94.62
403.302	90.62
403.526	99.62
403.75	85.62
403.974	84.62
404.198	99.62
404.422	87.62
404.645	90.62
404.869	78.62
405.093	100.62
405.317	91.62
405.541	102.62
405.765	89.62
405.988	98.62
406.212	140.62
406.436	164.62
406.66	126.62
406.883	76.62
407.107	88.62
407.331	103.62
407.555	92.62
407.778	95.62
408.002	84.62
408.226	92.62
408.449	88.62
408.673	81.62
408.896	92.62
409.12	100.62
409.344	94.62
409.567	87.62
409.791	98.62
410.014	93.62
410.238	100.62
410.461	105.62
410.685	93.62
410.908	103.62
411.132	118.62
411.355	103.62
411.578	92.62
411.802	84.62
412.025	92.62
412.249	98.62
412.472	93.62
412.695	93.62
412.919	79.62
413.142	88.62
413.365	90.62
413.589	96.62
413.812	93.62
414.035	93.62
414.258	90.62
414.482	106.62
414.705	117.62
414.928	90.62
415.151	103.62
415.374	93.62
415.597	93.62
415.821	77.62
416.044	89.62
416.267	88.62
416.49	100.62
416.713	87.62
416.936	91.62
417.159	101.62
417.382	86.62
417.605	92.62
417.828	83.62
418.051	94.62
418.274	94.62
418.497	97.62
418.72	101.62
418.943	87.62
419.166	94.62
419.389	88.62
419.611	93.62
419.834	90.62
420.057	96.62
420.28	78.62
420.503	98.62
420.726	94.62
420.948	94.62
421.171	96.62
421.394	93.62
421.617	82.62
421.839	82.62
422.062	82.62
422.285	95.62
422.507	102.62
422.73	103.62
422.953	90.62
423.175	93.62
423.398	87.62
423.621	98.62
423.843	79.62
424.066	87.62
424.288	77.62
424.511	97.62
424.733	106.62
424.956	93.62
425.178	82.62
425.401	94.62
425.623	102.62
425.846	91.62
426.068	76.62
426.291	95.62
426.513	102.62
426.735	104.62
426.958	94.62
427.18	105.62
427.402	120.62
427.625	147.62
427.847	121.62
428.069	117.62
428.292	90.62
428.514	82.62
428.736	85.62
428.958	74.62
429.181	82.62
429.403	84.62
429.625	67.62
429.847	94.62
430.069	82.62
430.292	95.62
430.514	85.62
430.736	91.62
430.958	96.62
431.18	75.62
431.402	88.62
431.624	88.62
431.846	89.62
432.068	92.62
432.29	86.62
432.512	80.62
432.734	90.62
432.956	82.62
433.178	91.62
433.4	104.62
433.622	94.62
433.844	104.62
434.066	86.62
434.287	94.62
434.509	78.62
434.731	85.62
434.953	89.62
435.175	88.62
435.397	86.62
435.618	95.62
435.84	103.62
436.062	112.62
436.284	95.62
436.505	100.62
436.727	104.62
436.949	98.62
437.17	92.62
437.392	84.62
437.614	92.62
437.835	102.62
438.057	110.62
438.278	111.62
438.5	99.62
438.721	95.62
438.943	92.62
439.165	108.62
439.386	99.62
439.608	94.62
439.829	91.62
440.05	113.62
440.272	125.62
440.493	95.62
440.715	88.62
440.936	100.62
441.158	90.62
441.379	83.62
441.6	104.62
441.822	82.62
442.043	105.62
442.264	103.62
442.486	100.62
442.707	103.62
442.928	91.62
443.149	104.62
443.371	117.62
443.592	106.62
443.813	106.62
444.034	104.62
444.255	93.62
444.476	78.62
444.698	84.62
444.919	83.62
445.14	127.62
445.361	130.62
445.582	108.62
445.803	120.62
446.024	109.62
446.245	126.62
446.466	104.62
446.687	76.62
446.908	87.62
447.129	67.62
447.35	97.62
447.571	96.62
447.792	91.62
448.013	94.62
448.234	105.62
448.455	89.62
448.675	112.62
448.896	97.62
449.117	101.62
449.338	99.62
449.559	115.62
449.779	112.62
450	91.62
450.221	90.62
450.442	92.62
450.662	91.62
450.883	98.62
451.104	90.62
451.324	88.62
451.545	78.62
451.766	92.62
451.986	96.62
452.207	91.62
452.428	85.62
452.648	100.62
452.869	96.62
453.089	105.62
453.31	106.62
453.53	94.62
453.751	89.62
453.971	95.62
454.192	99.62
454.412	93.62
454.633	80.62
454.853	93.62
455.073	87.62
455.294	87.62
455.514	91.62
455.734	103.62
455.955	92.62
456.175	94.62
456.395	100.62
456.616	76.62
456.836	89.62
457.056	87.62
457.276	89.62
457.497	84.62
457.717	80.62
457.937	87.62
458.157	90.62
458.377	83.62
458.598	98.62
458.818	116.62
459.038	117.62
459.258	109.62
459.478	93.62
459.698	101.62
459.918	85.62
460.138	98.62
460.358	84.62
460.578	80.62
460.798	99.62
461.018	85.62
461.238	91.62
461.458	77.62
461.678	77.62
461.898	98.62
462.118	84.62
462.338	92.62
462.558	82.62
462.777	90.62
462.997	79.62
463.217	82.62
463.437	94.62
463.657	94.62
463.876	94.62
464.096	86.62
464.316	93.62
464.536	85.62
464.755	88.62
464.975	101.62
465.195	133.62
465.414	133.62
465.634	107.62
465.854	88.62
466.073	94.62
466.293	90.62
466.512	86.62
466.732	96.62
466.951	90.62
467.171	94.62
467.391	90.62
467.61	91.62
467.829	105.62
468.049	102.62
468.268	99.62
468.488	77.62
468.707	87.62
468.927	90.62
469.146	73.62
469.365	93.62
469.585	94.62
469.804	99.62
470.023	99.62
470.243	112.62
470.462	87.62
470.681	95.62
470.901	99.62
471.12	75.62
471.339	87.62
471.558	103.62
471.777	90.62
471.997	97.62
472.216	121.62
472.435	133.62
472.654	109.62
472.873	81.62
473.092	91.62
473.311	84.62
473.53	92.62
473.749	93.62
473.968	87.62
474.187	91.62
474.406	83.62
474.625	88.62
474.844	85.62
475.063	72.62
475.282	99.62
475.501	75.62
475.72	98.62
475.939	88.62
476.158	98.62
476.377	82.62
476.596	90.62
476.814	99.62
477.033	92.62
477.252	90.62
477.471	95.62
477.69	87.62
477.908	85.62
478.127	99.62
478.346	101.62
478.564	96.62
478.783	105.62
479.002	82.62
479.22	102.62
479.439	105.62
479.658	90.62
479.876	95.62
480.095	98.62
480.313	94.62
480.532	96.62
480.751	94.62
480.969	117.62
481.188	152.62
481.406	132.62
481.624	86.62
481.843	85.62
482.061	80.62
482.28	95.62
482.498	89.62
482.717	92.62
482.935	89.62
483.153	84.62
483.372	94.62
483.59	88.62
483.808	93.62
484.027	95.62
484.245	100.62
484.463	88.62
484.681	112.62
484.9	116.62
485.118	112.62
485.336	103.62
485.554	91.62
485.772	93.62
485.99	116.62
486.209	92.62
486.427	95.62
486.645	120.62
486.863	123.62
487.081	85.62
487.299	105.62
487.517	94.62
487.735	99.62
487.953	97.62
488.171	99.62
488.389	104.62
488.607	105.62
488.825	85.62
489.043	96.62
489.261	92.62
489.479	92.62
489.696	91.62
489.914	94.62
490.132	94.62
490.35	91.62
490.568	98.62
490.786	81.62
491.003	86.62
491.221	92.62
491.439	98.62
491.657	92.62
491.874	99.62
492.092	86.62
492.31	86.62
492.527	99.62
492.745	86.62
492.963	104.62
493.18	96.62
493.398	101.62
493.615	87.62
493.833	92.62
494.05	87.62
494.268	92.62
494.485	92.62
494.703	92.62
494.92	90.62
495.138	87.62
495.355	91.62
495.573	99.62
495.79	102.62
496.008	86.62
496.225	99.62
496.442	98.62
496.66	94.62
496.877	89.62
497.094	96.62
497.312	82.62
497.529	86.62
497.746	91.62
497.963	75.62
498.181	79.62
498.398	80.62
498.615	109.62
498.832	90.62
499.049	92.62
499.267	92.62
499.484	101.62
499.701	92.62
499.918	109.62
500.135	85.62
500.352	84.62
500.569	106.62
500.786	85.62
501.003	100.62
501.22	91.62
501.437	98.62
501.654	99.62
501.871	82.62
502.088	99.62
502.305	80.62
502.522	90.62
502.739	101.62
502.956	83.62
503.172	86.62
503.389	99.62
503.606	101.62
503.823	87.62
504.04	86.62
504.256	88.62
504.473	96.62
504.69	87.62
504.907	90.62
505.123	90.62
505.34	81.62
505.557	72.62
505.773	84.62
505.99	88.62
506.207	84.62
506.423	88.62
506.64	87.62
506.856	82.62
507.073	90.62
507.289	83.62
507.506	100.62
507.722	94.62
507.939	102.62
508.155	92.62
508.372	79.62
508.588	108.62
508.805	99.62
509.021	96.62
509.238	91.62
509.454	92.62
509.67	86.62
509.887	110.62
510.103	134.62
510.319	188.62
510.536	553.62
510.752	1540.62
510.968	450.62
511.184	121.62
511.401	99.62
511.617	105.62
511.833	88.62
512.049	92.62
512.265	86.62
512.481	106.62
512.698	109.62
512.914	94.62
513.13	89.62
513.346	103.62
513.562	96.62
513.778	92.62
513.994	92.62
514.21	103.62
514.426	107.62
514.642	105.62
514.858	119.62
515.074	121.62
515.29	304.62
515.506	918.62
515.721	358.62
515.937	149.62
