Data from Circ_1982_H10_HRD10591_00019.txt Node
Date: Wed Jan 03 12:30:45 EST 2024
User: Yrep
Spectrometer: HR+D1059
Trigger mode: 1
Integration Time (sec): 1.000000E-1
Scans to average: 1
Electric dark correction enabled: true
Nonlinearity correction enabled: false
Boxcar width: 0
XAxis mode: Wavelengths
Number of Pixels in Spectrum: 2048
>>>>>Begin Spectral Data<<<<<
223.165	-14
223.4	-14
223.635	-14
223.869	-22
224.104	-25
224.338	-20
224.573	-10
224.808	-21
225.042	-12
225.277	-5
225.511	1
225.746	4
225.98	6
226.215	2
226.449	27
226.683	28
226.918	15
227.152	46
227.387	51
227.621	54
227.856	45
228.09	30
228.324	50
228.559	56
228.793	56
229.027	71
229.262	68
229.496	69
229.73	80
229.964	79
230.199	73
230.433	94
230.667	79
230.901	73
231.136	74
231.37	89
231.604	83
231.838	98
232.072	92
232.306	70
232.541	72
232.775	80
233.009	80
233.243	70
233.477	75
233.711	82
233.945	71
234.179	78
234.413	76
234.647	82
234.881	72
235.115	77
235.349	86
235.583	94
235.817	81
236.051	81
236.285	80
236.519	78
236.753	84
236.987	82
237.221	80
237.455	88
237.689	79
237.922	80
238.156	68
238.39	78
238.624	86
238.858	83
239.091	77
239.325	82
239.559	67
239.793	93
240.027	89
240.26	91
240.494	76
240.728	53
240.961	80
241.195	68
241.429	78
241.662	79
241.896	79
242.13	64
242.363	78
242.597	79
242.83	79
243.064	86
243.298	93
243.531	84
243.765	82
243.998	89
244.232	93
244.465	71
244.699	84
244.932	75
245.166	71
245.399	71
245.633	67
245.866	72
246.099	64
246.333	87
246.566	80
246.8	74
247.033	74
247.266	90
247.5	82
247.733	72
247.966	73
248.2	82
248.433	85
248.666	73
248.899	102
249.133	91
249.366	91
249.599	95
249.832	72
250.066	80
250.299	92
250.532	88
250.765	88
250.998	90
251.231	86
251.465	74
251.698	98
251.931	76
252.164	69
252.397	100
252.63	77
252.863	77
253.096	99
253.329	90
253.562	80
253.795	88
254.028	87
254.261	85
254.494	86
254.727	76
254.96	69
255.193	94
255.426	79
255.659	82
255.892	92
256.124	96
256.357	77
256.59	79
256.823	73
257.056	77
257.289	74
257.521	86
257.754	97
257.987	88
258.22	96
258.452	91
258.685	95
258.918	86
259.151	64
259.383	86
259.616	88
259.849	95
260.081	88
260.314	80
260.547	84
260.779	72
261.012	82
261.244	93
261.477	86
261.71	91
261.942	90
262.175	95
262.407	89
262.64	91
262.872	84
263.105	75
263.337	80
263.57	80
263.802	80
264.035	82
264.267	88
264.499	86
264.732	85
264.964	89
265.197	90
265.429	84
265.661	93
265.894	76
266.126	90
266.358	96
266.591	84
266.823	87
267.055	81
267.287	95
267.52	86
267.752	93
267.984	75
268.216	70
268.448	91
268.681	90
268.913	81
269.145	95
269.377	100
269.609	76
269.841	80
270.073	81
270.306	86
270.538	68
270.77	72
271.002	104
271.234	85
271.466	88
271.698	81
271.93	95
272.162	95
272.394	76
272.626	90
272.858	89
273.09	86
273.322	91
273.553	98
273.785	84
274.017	91
274.249	94
274.481	89
274.713	87
274.945	78
275.176	80
275.408	92
275.64	79
275.872	92
276.104	82
276.335	76
276.567	76
276.799	90
277.031	99
277.262	94
277.494	86
277.726	81
277.957	78
278.189	79
278.421	86
278.652	71
278.884	84
279.115	80
279.347	97
279.579	96
279.81	102
280.042	89
280.273	92
280.505	83
280.736	80
280.968	92
281.199	80
281.431	83
281.662	94
281.894	86
282.125	95
282.356	102
282.588	110
282.819	99
283.051	81
283.282	88
283.513	103
283.745	97
283.976	84
284.207	90
284.439	88
284.67	94
284.901	83
285.132	85
285.364	89
285.595	84
285.826	79
286.057	86
286.288	100
286.52	79
286.751	80
286.982	93
287.213	91
287.444	107
287.675	93
287.906	77
288.138	87
288.369	105
288.6	84
288.831	86
289.062	111
289.293	90
289.524	103
289.755	86
289.986	84
290.217	78
290.448	92
290.679	89
290.91	105
291.141	72
291.371	89
291.602	96
291.833	88
292.064	89
292.295	85
292.526	95
292.757	100
292.987	97
293.218	89
293.449	72
293.68	93
293.91	90
294.141	98
294.372	89
294.603	95
294.833	96
295.064	98
295.295	73
295.525	90
295.756	106
295.987	105
296.217	113
296.448	109
296.679	95
296.909	98
297.14	95
297.37	99
297.601	113
297.831	90
298.062	95
298.292	101
298.523	104
298.753	93
298.984	90
299.214	87
299.445	93
299.675	92
299.905	87
300.136	96
300.366	87
300.597	93
300.827	113
301.057	96
301.288	103
301.518	94
301.748	98
301.979	104
302.209	102
302.439	94
302.669	84
302.9	82
303.13	92
303.36	97
303.59	102
303.82	98
304.051	88
304.281	87
304.511	99
304.741	90
304.971	91
305.201	89
305.431	86
305.661	88
305.891	82
306.121	98
306.352	108
306.582	90
306.812	91
307.042	111
307.272	90
307.502	91
307.731	96
307.961	85
308.191	104
308.421	99
308.651	78
308.881	88
309.111	105
309.341	101
309.571	94
309.8	91
310.03	89
310.26	107
310.49	97
310.72	103
310.949	103
311.179	96
311.409	97
311.639	77
311.868	97
312.098	102
312.328	106
312.557	105
312.787	101
313.017	106
313.246	106
313.476	99
313.706	90
313.935	100
314.165	105
314.394	95
314.624	88
314.853	92
315.083	106
315.312	81
315.542	79
315.771	88
316.001	92
316.23	93
316.46	79
316.689	84
316.919	86
317.148	74
317.377	101
317.607	96
317.836	94
318.065	92
318.295	93
318.524	99
318.753	94
318.983	90
319.212	108
319.441	113
319.67	101
319.9	105
320.129	98
320.358	100
320.587	84
320.816	89
321.046	90
321.275	102
321.504	92
321.733	92
321.962	77
322.191	102
322.42	99
322.649	106
322.878	104
323.108	112
323.337	112
323.566	123
323.795	128
324.024	159
324.253	276
324.482	554
324.71	1100
324.939	1404
325.168	549
325.397	180
325.626	134
325.855	110
326.084	123
326.313	117
326.542	124
326.77	177
326.999	329
327.228	600
327.457	1140
327.686	904
327.914	271
328.143	165
328.372	141
328.6	108
328.829	109
329.058	99
329.287	107
329.515	91
329.744	102
329.972	115
330.201	102
330.43	131
330.658	119
330.887	128
331.115	121
331.344	96
331.572	119
331.801	94
332.03	88
332.258	97
332.486	111
332.715	110
332.943	110
333.172	110
333.4	112
333.629	103
333.857	107
334.085	112
334.314	117
334.542	110
334.771	113
334.999	100
335.227	109
335.455	102
335.684	92
335.912	90
336.14	100
336.369	77
336.597	99
336.825	101
337.053	103
337.281	99
337.51	88
337.738	94
337.966	89
338.194	91
338.422	103
338.65	77
338.878	104
339.106	80
339.334	101
339.562	109
339.79	97
340.018	96
340.246	90
340.474	100
340.702	104
340.93	101
341.158	86
341.386	95
341.614	92
341.842	92
342.07	107
342.298	91
342.526	97
342.754	104
342.981	92
343.209	96
343.437	108
343.665	93
343.893	98
344.12	100
344.348	82
344.576	86
344.804	96
345.031	101
345.259	105
345.487	99
345.714	108
345.942	88
346.17	102
346.397	92
346.625	108
346.853	94
347.08	101
347.308	100
347.535	96
347.763	110
347.99	102
348.218	101
348.445	94
348.673	92
348.9	86
349.128	115
349.355	104
349.583	91
349.81	100
350.037	113
350.265	106
350.492	84
350.72	92
350.947	103
351.174	109
351.402	101
351.629	104
351.856	107
352.083	102
352.311	107
352.538	104
352.765	115
352.992	121
353.22	103
353.447	120
353.674	106
353.901	89
354.128	107
354.355	103
354.583	87
354.81	115
355.037	95
355.264	87
355.491	117
355.718	90
355.945	93
356.172	109
356.399	108
356.626	102
356.853	101
357.08	98
357.307	90
357.534	89
357.761	96
357.988	94
358.215	106
358.441	100
358.668	90
358.895	99
359.122	99
359.349	85
359.576	97
359.802	101
360.029	98
360.256	113
360.483	92
360.709	80
360.936	101
361.163	81
361.39	94
361.616	96
361.843	103
362.07	102
362.296	93
362.523	90
362.749	89
362.976	94
363.203	86
363.429	82
363.656	86
363.882	89
364.109	109
364.335	100
364.562	94
364.788	73
365.015	102
365.241	85
365.468	110
365.694	92
365.92	87
366.147	105
366.373	90
366.599	80
366.826	86
367.052	91
367.278	81
367.505	90
367.731	88
367.957	92
368.184	88
368.41	96
368.636	99
368.862	103
369.089	101
369.315	102
369.541	98
369.767	101
369.993	87
370.219	80
370.445	86
370.672	81
370.898	89
371.124	93
371.35	88
371.576	91
371.802	94
372.028	92
372.254	87
372.48	86
372.706	83
372.932	97
373.158	94
373.384	93
373.61	108
373.835	91
374.061	90
374.287	94
374.513	89
374.739	93
374.965	96
375.191	90
375.416	105
375.642	87
375.868	111
376.094	91
376.319	99
376.545	86
376.771	90
376.997	87
377.222	96
377.448	94
377.674	103
377.899	89
378.125	98
378.35	101
378.576	95
378.802	100
379.027	95
379.253	100
379.478	105
379.704	94
379.929	96
380.155	102
380.38	111
380.606	106
380.831	84
381.057	117
381.282	100
381.507	101
381.733	95
381.958	97
382.184	93
382.409	92
382.634	96
382.86	102
383.085	113
383.31	103
383.535	107
383.761	97
383.986	109
384.211	110
384.436	101
384.662	109
384.887	104
385.112	106
385.337	114
385.562	113
385.787	116
386.013	122
386.238	120
386.463	99
386.688	87
386.913	114
387.138	118
387.363	99
387.588	98
387.813	102
388.038	108
388.263	136
388.488	135
388.713	92
388.938	90
389.163	110
389.387	88
389.612	80
389.837	94
390.062	96
390.287	85
390.512	96
390.736	85
390.961	95
391.186	96
391.411	93
391.636	101
391.86	88
392.085	86
392.31	89
392.534	94
392.759	74
392.984	80
393.208	98
393.433	117
393.658	104
393.882	81
394.107	99
394.331	86
394.556	90
394.78	88
395.005	88
395.229	88
395.454	95
395.678	81
395.903	75
396.127	100
396.352	107
396.576	94
396.801	82
397.025	74
397.249	97
397.474	90
397.698	78
397.922	97
398.147	90
398.371	90
398.595	103
398.82	74
399.044	100
399.268	82
399.492	96
399.717	92
399.941	97
400.165	87
400.389	87
400.613	97
400.837	86
401.062	99
401.286	101
401.51	89
401.734	93
401.958	102
402.182	108
402.406	137
402.63	105
402.854	71
403.078	99
403.302	95
403.526	88
403.75	103
403.974	93
404.198	93
404.422	101
404.645	97
404.869	87
405.093	100
405.317	84
405.541	112
405.765	102
405.988	119
406.212	138
406.436	175
406.66	103
406.883	90
407.107	88
407.331	95
407.555	109
407.778	87
408.002	81
408.226	85
408.449	77
408.673	91
408.896	88
409.12	86
409.344	96
409.567	96
409.791	96
410.014	114
410.238	78
410.461	92
410.685	94
410.908	92
411.132	103
411.355	92
411.578	90
411.802	85
412.025	96
412.249	94
412.472	88
412.695	102
412.919	81
413.142	93
413.365	102
413.589	94
413.812	89
414.035	89
414.258	89
414.482	92
414.705	85
414.928	105
415.151	76
415.374	102
415.597	91
415.821	72
416.044	90
416.267	98
416.49	93
416.713	102
416.936	100
417.159	93
417.382	78
417.605	95
417.828	98
418.051	96
418.274	80
418.497	86
418.72	92
418.943	93
419.166	89
419.389	101
419.611	100
419.834	82
420.057	98
420.28	90
420.503	88
420.726	93
420.948	93
421.171	82
421.394	89
421.617	94
421.839	96
422.062	96
422.285	90
422.507	102
422.73	101
422.953	108
423.175	94
423.398	96
423.621	94
423.843	84
424.066	89
424.288	89
424.511	96
424.733	92
424.956	106
425.178	100
425.401	108
425.623	108
425.846	88
426.068	91
426.291	98
426.513	91
426.735	82
426.958	85
427.18	102
427.402	128
427.625	139
427.847	119
428.069	95
428.292	85
428.514	98
428.736	101
428.958	91
429.181	82
429.403	89
429.625	76
429.847	81
430.069	101
430.292	83
430.514	81
430.736	95
430.958	73
431.18	94
431.402	92
431.624	93
431.846	89
432.068	103
432.29	84
432.512	98
432.734	80
432.956	109
433.178	96
433.4	102
433.622	98
433.844	89
434.066	79
434.287	92
434.509	100
434.731	89
434.953	92
435.175	99
435.397	92
435.618	79
435.84	96
436.062	100
436.284	102
436.505	92
436.727	102
436.949	97
437.17	97
437.392	93
437.614	94
437.835	105
438.057	92
438.278	100
438.5	97
438.721	118
438.943	105
439.165	88
439.386	79
439.608	96
439.829	97
440.05	105
440.272	125
440.493	93
440.715	86
440.936	88
441.158	89
441.379	85
441.6	88
441.822	101
442.043	89
442.264	85
442.486	108
442.707	109
442.928	109
443.149	121
443.371	106
443.592	88
443.813	101
444.034	107
444.255	97
444.476	106
444.698	84
444.919	94
445.14	130
445.361	135
445.582	109
445.803	120
446.024	125
446.245	124
446.466	98
446.687	88
446.908	96
447.129	78
447.35	90
447.571	94
447.792	90
448.013	89
448.234	99
448.455	100
448.675	109
448.896	109
449.117	97
449.338	99
449.559	106
449.779	119
450	97
450.221	100
450.442	96
450.662	89
450.883	100
451.104	94
451.324	88
451.545	78
451.766	85
451.986	86
452.207	96
452.428	99
452.648	108
452.869	102
453.089	103
453.31	106
453.53	105
453.751	96
453.971	101
454.192	104
454.412	101
454.633	96
454.853	86
455.073	97
455.294	87
455.514	97
455.734	89
455.955	84
456.175	90
456.395	93
456.616	93
456.836	88
457.056	96
457.276	92
457.497	78
457.717	93
457.937	99
458.157	101
458.377	102
458.598	86
458.818	128
459.038	125
459.258	102
459.478	81
459.698	86
459.918	88
460.138	72
460.358	83
460.578	94
460.798	106
461.018	87
461.238	86
461.458	75
461.678	86
461.898	104
462.118	91
462.338	71
462.558	82
462.777	90
462.997	99
463.217	93
463.437	78
463.657	98
463.876	93
464.096	98
464.316	95
464.536	91
464.755	88
464.975	85
465.195	124
465.414	124
465.634	90
465.854	100
466.073	91
466.293	74
466.512	95
466.732	83
466.951	96
467.171	84
467.391	88
467.61	90
467.829	86
468.049	102
468.268	88
468.488	92
468.707	93
468.927	87
469.146	98
469.365	77
469.585	82
469.804	101
470.023	97
470.243	105
470.462	94
470.681	101
470.901	85
471.12	92
471.339	93
471.558	86
471.777	96
471.997	94
472.216	90
472.435	123
472.654	89
472.873	103
473.092	94
473.311	94
473.53	82
473.749	100
473.968	100
474.187	104
474.406	88
474.625	82
474.844	81
475.063	76
475.282	107
475.501	89
475.72	86
475.939	96
476.158	81
476.377	88
476.596	78
476.814	96
477.033	93
477.252	88
477.471	95
477.69	96
477.908	94
478.127	97
478.346	97
478.564	85
478.783	84
479.002	86
479.22	93
479.439	89
479.658	113
479.876	92
480.095	83
480.313	89
480.532	91
480.751	87
480.969	121
481.188	149
481.406	136
481.624	100
481.843	89
482.061	98
482.28	94
482.498	94
482.717	96
482.935	90
483.153	97
483.372	102
483.59	82
483.808	104
484.027	109
484.245	99
484.463	94
484.681	88
484.9	95
485.118	96
485.336	101
485.554	98
485.772	100
485.99	112
486.209	111
486.427	106
486.645	99
486.863	113
487.081	108
487.299	101
487.517	92
487.735	96
487.953	99
488.171	99
488.389	102
488.607	96
488.825	98
489.043	97
489.261	90
489.479	97
489.696	95
489.914	68
490.132	94
490.35	90
490.568	85
490.786	82
491.003	92
491.221	79
491.439	89
491.657	106
491.874	99
492.092	84
492.31	102
492.527	89
492.745	86
492.963	90
493.18	93
493.398	104
493.615	115
493.833	98
494.05	97
494.268	92
494.485	80
494.703	87
494.92	88
495.138	101
495.355	87
495.573	96
495.79	85
496.008	95
496.225	93
496.442	94
496.66	89
496.877	103
497.094	94
497.312	103
497.529	97
497.746	89
497.963	90
498.181	95
498.398	107
498.615	116
498.832	95
499.049	106
499.267	81
499.484	89
499.701	93
499.918	103
500.135	92
500.352	94
500.569	85
500.786	106
501.003	96
501.22	102
501.437	92
501.654	108
501.871	84
502.088	99
502.305	88
502.522	101
502.739	88
502.956	93
503.172	84
503.389	96
503.606	94
503.823	94
504.04	99
504.256	82
504.473	77
504.69	91
504.907	100
505.123	102
505.34	75
505.557	90
505.773	84
505.99	81
506.207	90
506.423	94
506.64	93
506.856	86
507.073	84
507.289	98
507.506	88
507.722	93
507.939	104
508.155	108
508.372	102
508.588	91
508.805	103
509.021	103
509.238	94
509.454	84
509.67	94
509.887	117
510.103	106
510.319	173
510.536	539
510.752	1519
510.968	453
511.184	138
511.401	109
511.617	88
511.833	105
512.049	102
512.265	108
512.481	109
512.698	101
512.914	93
513.13	91
513.346	85
513.562	92
513.778	87
513.994	85
514.21	88
514.426	102
514.642	105
514.858	109
515.074	127
515.29	317
515.506	929
515.721	375
515.937	135
516.153	100
516.369	88
516.585	96
516.801	105
517.016	93
517.232	94
517.448	92
517.664	95
517.879	91
518.095	92
518.311	93
518.527	91
518.742	110
518.958	89
519.173	108
519.389	98
519.605	102
519.82	93
520.036	91
520.251	109
520.467	93
520.682	98
520.898	100
521.113	94
521.329	134
521.544	160
521.76	388
521.975	1510
522.19	896
522.406	222
522.621	101
522.836	101
523.052	98
523.267	92
523.482	100
523.698	101
523.913	125
524.128	104
524.343	106
524.559	86
524.774	98
524.989	112
525.204	104
525.419	88
525.634	105
525.849	107
526.064	98
526.28	93
526.495	80
526.71	72
526.925	81
527.14	102
527.355	89
527.57	107
527.785	68
527.999	91
528.214	97
528.429	97
528.644	96
528.859	84
529.074	70
529.289	109
529.503	139
529.718	112
529.933	80
530.148	95
530.363	92
530.577	78
530.792	80
531.007	81
531.221	88
531.436	101
531.651	94
531.865	96
532.08	110
532.295	105
532.509	82
532.724	87
532.938	105
533.153	96
533.367	93
533.582	109
533.796	104
534.011	81
534.225	94
534.44	94
534.654	117
534.868	86
535.083	86
535.297	101
535.511	104
535.726	93
535.94	90
536.154	99
536.369	90
536.583	91
536.797	91
537.011	94
537.225	79
537.44	86
537.654	88
537.868	80
538.082	96
538.296	82
538.51	92
538.724	93
538.938	93
539.153	103
539.367	109
539.581	113
539.795	84
540.009	101
540.222	80
540.436	79
540.65	79
540.864	82
541.078	85
541.292	101
541.506	97
541.72	86
541.934	89
542.147	74
542.361	106
542.575	84
542.789	100
543.002	89
543.216	110
543.43	88
543.644	105
543.857	96
544.071	101
544.285	92
544.498	89
544.712	96
544.925	86
545.139	91
545.352	88
545.566	97
545.779	98
545.993	92
546.206	77
546.42	109
546.633	101
546.847	94
547.06	101
547.274	96
547.487	94
547.7	85
547.914	84
548.127	104
548.34	87
548.554	99
548.767	107
548.98	104
549.193	89
549.407	100
549.62	83
549.833	86
550.046	84
550.259	86
550.473	93
550.686	97
550.899	89
551.112	90
551.325	93
551.538	90
551.751	102
551.964	95
552.177	95
552.39	87
552.603	90
552.816	105
553.029	93
553.242	97
553.455	95
553.667	102
553.88	95
554.093	91
554.306	79
554.519	93
554.732	89
554.944	74
555.157	101
555.37	86
555.583	97
555.795	100
556.008	105
556.221	105
556.433	80
556.646	96
556.859	96
557.071	106
557.284	91
557.496	108
557.709	100
557.921	89
558.134	92
558.346	96
558.559	82
558.771	89
558.984	71
559.196	82
559.409	73
559.621	98
559.833	95
560.046	90
560.258	85
560.47	90
560.683	95
560.895	102
561.107	96
561.32	92
561.532	91
561.744	90
561.956	104
562.168	101
562.381	95
562.593	88
562.805	92
563.017	86
563.229	92
563.441	81
563.653	92
563.865	95
564.077	92
564.289	90
564.501	80
564.713	93
564.925	97
565.137	112
565.349	85
565.561	94
565.773	104
565.985	106
566.197	91
566.408	98
566.62	97
566.832	91
567.044	99
567.255	78
567.467	98
567.679	97
567.891	97
568.102	87
568.314	79
568.526	94
568.737	97
568.949	102
569.161	91
569.372	85
569.584	105
569.795	98
570.007	106
570.218	176
570.43	125
570.641	88
570.853	87
571.064	108
571.276	100
571.487	94
571.698	94
571.91	96
572.121	85
572.333	92
572.544	95
572.755	90
572.966	101
573.178	77
573.389	80
573.6	78
573.811	82
574.023	94
574.234	94
574.445	100
574.656	99
574.867	87
575.078	106
575.289	88
575.501	88
575.712	86
575.923	98
576.134	88
576.345	97
576.556	104
576.767	84
576.978	90
577.188	86
577.399	106
577.61	91
577.821	103
578.032	119
578.243	220
578.454	486
578.665	162
578.875	100
579.086	96
579.297	99
579.508	85
579.718	84
579.929	81
580.14	85
580.35	96
580.561	90
580.772	88
580.982	93
581.193	99
581.403	90
581.614	95
581.825	93
582.035	92
582.246	102
582.456	100
582.667	82
