Data from Circ_1982_H10_HRD10591_00055.txt Node
Date: Wed Jan 03 12:30:52 EST 2024
User: Yrep
Spectrometer: HR+D1059
Trigger mode: 1
Integration Time (sec): 1.000000E-1
Scans to average: 1
Electric dark correction enabled: true
Nonlinearity correction enabled: false
Boxcar width: 0
XAxis mode: Wavelengths
Number of Pixels in Spectrum: 2048
>>>>>Begin Spectral Data<<<<<
223.165	-14.5
223.4	-14.5
223.635	-14.5
223.869	-19.5
224.104	-6.5
224.338	-20.5
224.573	-18.5
224.808	-5.5
225.042	-0.5
225.277	-6.5
225.511	-5.5
225.746	1.5
225.98	-1.5
226.215	20.5
226.449	8.5
226.683	22.5
226.918	17.5
227.152	28.5
227.387	46.5
227.621	40.5
227.856	50.5
228.09	61.5
228.324	49.5
228.559	74.5
228.793	62.5
229.027	72.5
229.262	62.5
229.496	84.5
229.73	78.5
229.964	90.5
230.199	91.5
230.433	86.5
230.667	89.5
230.901	76.5
231.136	91.5
231.37	96.5
231.604	87.5
231.838	79.5
232.072	88.5
232.306	85.5
232.541	71.5
232.775	88.5
233.009	87.5
233.243	85.5
233.477	88.5
233.711	73.5
233.945	94.5
234.179	71.5
234.413	79.5
234.647	89.5
234.881	87.5
235.115	85.5
235.349	91.5
235.583	82.5
235.817	88.5
236.051	82.5
236.285	85.5
236.519	85.5
236.753	83.5
236.987	85.5
237.221	84.5
237.455	89.5
237.689	90.5
237.922	87.5
238.156	71.5
238.39	70.5
238.624	77.5
238.858	85.5
239.091	70.5
239.325	71.5
239.559	82.5
239.793	83.5
240.027	72.5
240.26	84.5
240.494	91.5
240.728	81.5
240.961	75.5
241.195	72.5
241.429	77.5
241.662	70.5
241.896	75.5
242.13	80.5
242.363	85.5
242.597	77.5
242.83	77.5
243.064	77.5
243.298	94.5
243.531	64.5
243.765	80.5
243.998	96.5
244.232	85.5
244.465	76.5
244.699	91.5
244.932	84.5
245.166	73.5
245.399	92.5
245.633	91.5
245.866	78.5
246.099	80.5
246.333	81.5
246.566	74.5
246.8	78.5
247.033	80.5
247.266	81.5
247.5	93.5
247.733	84.5
247.966	90.5
248.2	88.5
248.433	70.5
248.666	81.5
248.899	85.5
249.133	91.5
249.366	101.5
249.599	84.5
249.832	95.5
250.066	87.5
250.299	81.5
250.532	91.5
250.765	76.5
250.998	95.5
251.231	84.5
251.465	84.5
251.698	75.5
251.931	82.5
252.164	73.5
252.397	90.5
252.63	89.5
252.863	92.5
253.096	79.5
253.329	92.5
253.562	75.5
253.795	81.5
254.028	78.5
254.261	80.5
254.494	95.5
254.727	105.5
254.96	91.5
255.193	66.5
255.426	78.5
255.659	81.5
255.892	85.5
256.124	74.5
256.357	82.5
256.59	76.5
256.823	80.5
257.056	84.5
257.289	84.5
257.521	89.5
257.754	84.5
257.987	90.5
258.22	86.5
258.452	75.5
258.685	100.5
258.918	97.5
259.151	94.5
259.383	92.5
259.616	74.5
259.849	80.5
260.081	92.5
260.314	99.5
260.547	102.5
260.779	102.5
261.012	89.5
261.244	93.5
261.477	85.5
261.71	110.5
261.942	90.5
262.175	90.5
262.407	78.5
262.64	81.5
262.872	85.5
263.105	87.5
263.337	84.5
263.57	72.5
263.802	90.5
264.035	86.5
264.267	93.5
264.499	77.5
264.732	84.5
264.964	94.5
265.197	89.5
265.429	76.5
265.661	80.5
265.894	85.5
266.126	92.5
266.358	88.5
266.591	81.5
266.823	77.5
267.055	70.5
267.287	84.5
267.52	78.5
267.752	80.5
267.984	93.5
268.216	83.5
268.448	84.5
268.681	80.5
268.913	73.5
269.145	95.5
269.377	88.5
269.609	86.5
269.841	72.5
270.073	84.5
270.306	85.5
270.538	78.5
270.77	82.5
271.002	96.5
271.234	86.5
271.466	90.5
271.698	75.5
271.93	76.5
272.162	87.5
272.394	96.5
272.626	78.5
272.858	76.5
273.09	92.5
273.322	103.5
273.553	94.5
273.785	81.5
274.017	80.5
274.249	84.5
274.481	91.5
274.713	89.5
274.945	93.5
275.176	78.5
275.408	88.5
275.64	97.5
275.872	94.5
276.104	89.5
276.335	96.5
276.567	97.5
276.799	93.5
277.031	93.5
277.262	103.5
277.494	90.5
277.726	98.5
277.957	85.5
278.189	79.5
278.421	88.5
278.652	90.5
278.884	92.5
279.115	86.5
279.347	75.5
279.579	94.5
279.81	86.5
280.042	93.5
280.273	82.5
280.505	87.5
280.736	95.5
280.968	81.5
281.199	86.5
281.431	74.5
281.662	96.5
281.894	95.5
282.125	89.5
282.356	90.5
282.588	101.5
282.819	113.5
283.051	98.5
283.282	87.5
283.513	94.5
283.745	91.5
283.976	90.5
284.207	96.5
284.439	87.5
284.67	79.5
284.901	103.5
285.132	88.5
285.364	65.5
285.595	96.5
285.826	98.5
286.057	96.5
286.288	75.5
286.52	81.5
286.751	88.5
286.982	96.5
287.213	108.5
287.444	99.5
287.675	104.5
287.906	92.5
288.138	99.5
288.369	87.5
288.6	94.5
288.831	96.5
289.062	96.5
289.293	86.5
289.524	83.5
289.755	85.5
289.986	92.5
290.217	87.5
290.448	90.5
290.679	68.5
290.91	97.5
291.141	101.5
291.371	95.5
291.602	85.5
291.833	85.5
292.064	87.5
292.295	93.5
292.526	92.5
292.757	82.5
292.987	101.5
293.218	86.5
293.449	92.5
293.68	100.5
293.91	112.5
294.141	87.5
294.372	79.5
294.603	90.5
294.833	87.5
295.064	87.5
295.295	94.5
295.525	88.5
295.756	101.5
295.987	106.5
296.217	112.5
296.448	90.5
296.679	96.5
296.909	74.5
297.14	93.5
297.37	90.5
297.601	96.5
297.831	101.5
298.062	96.5
298.292	94.5
298.523	83.5
298.753	77.5
298.984	97.5
299.214	89.5
299.445	92.5
299.675	86.5
299.905	96.5
300.136	105.5
300.366	96.5
300.597	90.5
300.827	90.5
301.057	101.5
301.288	92.5
301.518	102.5
301.748	93.5
301.979	107.5
302.209	89.5
302.439	93.5
302.669	95.5
302.9	87.5
303.13	103.5
303.36	91.5
303.59	110.5
303.82	98.5
304.051	79.5
304.281	99.5
304.511	106.5
304.741	89.5
304.971	88.5
305.201	87.5
305.431	88.5
305.661	89.5
305.891	95.5
306.121	80.5
306.352	86.5
306.582	112.5
306.812	94.5
307.042	84.5
307.272	90.5
307.502	104.5
307.731	101.5
307.961	90.5
308.191	95.5
308.421	99.5
308.651	87.5
308.881	103.5
309.111	93.5
309.341	102.5
309.571	94.5
309.8	86.5
310.03	101.5
310.26	97.5
310.49	87.5
310.72	104.5
310.949	99.5
311.179	95.5
311.409	95.5
311.639	91.5
311.868	95.5
312.098	86.5
312.328	100.5
312.557	96.5
312.787	104.5
313.017	92.5
313.246	88.5
313.476	93.5
313.706	104.5
313.935	92.5
314.165	91.5
314.394	86.5
314.624	84.5
314.853	110.5
315.083	88.5
315.312	101.5
315.542	84.5
315.771	89.5
316.001	92.5
316.23	97.5
316.46	79.5
316.689	94.5
316.919	86.5
317.148	96.5
317.377	98.5
317.607	92.5
317.836	97.5
318.065	91.5
318.295	101.5
318.524	94.5
318.753	84.5
318.983	93.5
319.212	87.5
319.441	110.5
319.67	98.5
319.9	86.5
320.129	85.5
320.358	93.5
320.587	98.5
320.816	102.5
321.046	103.5
321.275	99.5
321.504	103.5
321.733	97.5
321.962	99.5
322.191	89.5
322.42	86.5
322.649	104.5
322.878	108.5
323.108	108.5
323.337	106.5
323.566	136.5
323.795	122.5
324.024	166.5
324.253	297.5
324.482	593.5
324.71	1200.5
324.939	1548.5
325.168	588.5
325.397	196.5
325.626	123.5
325.855	113.5
326.084	108.5
326.313	120.5
326.542	137.5
326.77	170.5
326.999	333.5
327.228	697.5
327.457	1240.5
327.686	975.5
327.914	280.5
328.143	161.5
328.372	128.5
328.6	124.5
328.829	111.5
329.058	122.5
329.287	136.5
329.515	100.5
329.744	96.5
329.972	109.5
330.201	93.5
330.43	129.5
330.658	115.5
330.887	125.5
331.115	112.5
331.344	98.5
331.572	102.5
331.801	100.5
332.03	105.5
332.258	105.5
332.486	96.5
332.715	97.5
332.943	92.5
333.172	103.5
333.4	82.5
333.629	116.5
333.857	122.5
334.085	96.5
334.314	122.5
334.542	149.5
334.771	113.5
334.999	97.5
335.227	89.5
335.455	97.5
335.684	102.5
335.912	111.5
336.14	90.5
336.369	90.5
336.597	90.5
336.825	98.5
337.053	100.5
337.281	100.5
337.51	94.5
337.738	100.5
337.966	90.5
338.194	88.5
338.422	88.5
338.65	91.5
338.878	103.5
339.106	94.5
339.334	101.5
339.562	87.5
339.79	88.5
340.018	92.5
340.246	92.5
340.474	102.5
340.702	100.5
340.93	76.5
341.158	77.5
341.386	92.5
341.614	101.5
341.842	98.5
342.07	93.5
342.298	81.5
342.526	95.5
342.754	101.5
342.981	84.5
343.209	100.5
343.437	105.5
343.665	79.5
343.893	112.5
344.12	102.5
344.348	97.5
344.576	89.5
344.804	95.5
345.031	113.5
345.259	100.5
345.487	80.5
345.714	104.5
345.942	82.5
346.17	86.5
346.397	100.5
346.625	89.5
346.853	104.5
347.08	103.5
347.308	95.5
347.535	99.5
347.763	99.5
347.99	100.5
348.218	100.5
348.445	94.5
348.673	96.5
348.9	77.5
349.128	88.5
349.355	84.5
349.583	103.5
349.81	106.5
350.037	89.5
350.265	92.5
350.492	97.5
350.72	105.5
350.947	93.5
351.174	106.5
351.402	104.5
351.629	101.5
351.856	111.5
352.083	105.5
352.311	104.5
352.538	100.5
352.765	112.5
352.992	103.5
353.22	93.5
353.447	92.5
353.674	86.5
353.901	100.5
354.128	89.5
354.355	104.5
354.583	94.5
354.81	109.5
355.037	121.5
355.264	98.5
355.491	95.5
355.718	82.5
355.945	94.5
356.172	95.5
356.399	100.5
356.626	98.5
356.853	90.5
357.08	105.5
357.307	82.5
357.534	93.5
357.761	104.5
357.988	95.5
358.215	110.5
358.441	91.5
358.668	94.5
358.895	94.5
359.122	92.5
359.349	90.5
359.576	100.5
359.802	85.5
360.029	106.5
360.256	98.5
360.483	93.5
360.709	84.5
360.936	95.5
361.163	85.5
361.39	93.5
361.616	94.5
361.843	102.5
362.07	106.5
362.296	93.5
362.523	89.5
362.749	89.5
362.976	92.5
363.203	102.5
363.429	98.5
363.656	91.5
363.882	86.5
364.109	100.5
364.335	96.5
364.562	100.5
364.788	84.5
365.015	84.5
365.241	97.5
365.468	100.5
365.694	95.5
365.92	86.5
366.147	121.5
366.373	101.5
366.599	86.5
366.826	89.5
367.052	89.5
367.278	102.5
367.505	95.5
367.731	84.5
367.957	89.5
368.184	102.5
368.41	95.5
368.636	115.5
368.862	117.5
369.089	98.5
369.315	107.5
369.541	95.5
369.767	98.5
369.993	88.5
370.219	80.5
370.445	92.5
370.672	94.5
370.898	104.5
371.124	84.5
371.35	82.5
371.576	101.5
371.802	84.5
372.028	84.5
372.254	98.5
372.48	92.5
372.706	86.5
372.932	92.5
373.158	81.5
373.384	84.5
373.61	88.5
373.835	76.5
374.061	78.5
374.287	96.5
374.513	96.5
374.739	94.5
374.965	93.5
375.191	78.5
375.416	103.5
375.642	105.5
375.868	88.5
376.094	92.5
376.319	97.5
376.545	102.5
376.771	91.5
376.997	102.5
377.222	88.5
377.448	94.5
377.674	94.5
377.899	101.5
378.125	96.5
378.35	94.5
378.576	88.5
378.802	97.5
379.027	78.5
379.253	100.5
379.478	102.5
379.704	100.5
379.929	87.5
380.155	96.5
380.38	101.5
380.606	81.5
380.831	95.5
381.057	97.5
381.282	98.5
381.507	91.5
381.733	101.5
381.958	99.5
382.184	89.5
382.409	107.5
382.634	109.5
382.86	103.5
383.085	110.5
383.31	100.5
383.535	101.5
383.761	92.5
383.986	90.5
384.211	93.5
384.436	114.5
384.662	112.5
384.887	90.5
385.112	106.5
385.337	103.5
385.562	104.5
385.787	92.5
386.013	110.5
386.238	119.5
386.463	122.5
386.688	114.5
386.913	111.5
387.138	101.5
387.363	109.5
387.588	117.5
387.813	109.5
388.038	113.5
388.263	116.5
388.488	94.5
388.713	106.5
388.938	96.5
389.163	87.5
389.387	86.5
389.612	84.5
389.837	99.5
390.062	73.5
390.287	89.5
390.512	95.5
390.736	88.5
390.961	96.5
391.186	98.5
391.411	84.5
391.636	96.5
391.86	90.5
392.085	96.5
392.31	88.5
392.534	90.5
392.759	101.5
392.984	79.5
393.208	93.5
393.433	68.5
393.658	98.5
393.882	86.5
394.107	91.5
394.331	71.5
394.556	88.5
394.78	88.5
395.005	96.5
395.229	101.5
395.454	91.5
395.678	84.5
395.903	92.5
396.127	95.5
396.352	83.5
396.576	92.5
396.801	80.5
397.025	74.5
397.249	99.5
397.474	92.5
397.698	74.5
397.922	101.5
398.147	88.5
398.371	93.5
398.595	82.5
398.82	103.5
399.044	79.5
399.268	111.5
399.492	93.5
399.717	86.5
399.941	95.5
400.165	96.5
400.389	88.5
400.613	88.5
400.837	85.5
401.062	88.5
401.286	88.5
401.51	103.5
401.734	91.5
401.958	103.5
402.182	98.5
402.406	130.5
402.63	107.5
402.854	78.5
403.078	85.5
403.302	88.5
403.526	86.5
403.75	85.5
403.974	81.5
404.198	84.5
404.422	107.5
404.645	97.5
404.869	92.5
405.093	89.5
405.317	109.5
405.541	99.5
405.765	95.5
405.988	119.5
406.212	155.5
406.436	202.5
406.66	130.5
406.883	99.5
407.107	98.5
407.331	93.5
407.555	106.5
407.778	91.5
408.002	84.5
408.226	110.5
408.449	100.5
408.673	82.5
408.896	84.5
409.12	88.5
409.344	97.5
409.567	88.5
409.791	92.5
410.014	105.5
410.238	104.5
410.461	82.5
410.685	92.5
410.908	105.5
411.132	120.5
411.355	95.5
411.578	87.5
411.802	66.5
412.025	95.5
412.249	97.5
412.472	101.5
412.695	98.5
412.919	107.5
413.142	104.5
413.365	78.5
413.589	88.5
413.812	86.5
414.035	79.5
414.258	92.5
414.482	98.5
414.705	75.5
414.928	90.5
415.151	106.5
415.374	98.5
415.597	96.5
415.821	104.5
416.044	97.5
416.267	84.5
416.49	88.5
416.713	102.5
416.936	98.5
417.159	90.5
417.382	95.5
417.605	105.5
417.828	100.5
418.051	97.5
418.274	94.5
418.497	91.5
418.72	78.5
418.943	72.5
419.166	80.5
419.389	82.5
419.611	100.5
419.834	95.5
420.057	88.5
420.28	82.5
420.503	77.5
420.726	91.5
420.948	97.5
421.171	102.5
421.394	101.5
421.617	80.5
421.839	96.5
422.062	92.5
422.285	89.5
422.507	103.5
422.73	100.5
422.953	98.5
423.175	97.5
423.398	93.5
423.621	91.5
423.843	91.5
424.066	89.5
424.288	82.5
424.511	88.5
424.733	96.5
424.956	112.5
425.178	90.5
425.401	115.5
425.623	102.5
425.846	96.5
426.068	86.5
426.291	91.5
426.513	86.5
426.735	93.5
426.958	91.5
427.18	91.5
427.402	129.5
427.625	139.5
427.847	124.5
428.069	105.5
428.292	82.5
428.514	96.5
428.736	91.5
428.958	81.5
429.181	93.5
429.403	81.5
429.625	80.5
429.847	101.5
430.069	102.5
430.292	95.5
430.514	85.5
430.736	95.5
430.958	104.5
431.18	92.5
431.402	86.5
431.624	80.5
431.846	84.5
432.068	90.5
432.29	94.5
432.512	95.5
432.734	83.5
432.956	93.5
433.178	103.5
433.4	101.5
433.622	105.5
433.844	88.5
434.066	87.5
434.287	83.5
434.509	92.5
434.731	108.5
434.953	84.5
435.175	95.5
435.397	86.5
435.618	100.5
435.84	106.5
436.062	115.5
436.284	108.5
436.505	101.5
436.727	99.5
436.949	102.5
437.17	89.5
437.392	101.5
437.614	81.5
437.835	95.5
438.057	101.5
438.278	101.5
438.5	114.5
438.721	134.5
438.943	91.5
439.165	72.5
439.386	90.5
439.608	93.5
439.829	97.5
440.05	112.5
440.272	112.5
440.493	92.5
440.715	88.5
440.936	84.5
441.158	86.5
441.379	102.5
441.6	90.5
441.822	96.5
442.043	90.5
442.264	94.5
442.486	118.5
442.707	90.5
442.928	112.5
443.149	112.5
443.371	125.5
443.592	97.5
443.813	101.5
444.034	115.5
444.255	89.5
444.476	92.5
444.698	106.5
444.919	82.5
445.14	120.5
445.361	132.5
445.582	94.5
445.803	113.5
446.024	127.5
446.245	120.5
446.466	95.5
446.687	87.5
446.908	88.5
447.129	93.5
447.35	92.5
447.571	110.5
447.792	98.5
448.013	100.5
448.234	97.5
448.455	106.5
448.675	120.5
448.896	112.5
449.117	104.5
449.338	99.5
449.559	125.5
449.779	113.5
450	103.5
450.221	91.5
450.442	96.5
450.662	81.5
450.883	98.5
451.104	98.5
451.324	98.5
451.545	90.5
451.766	88.5
451.986	88.5
452.207	86.5
452.428	104.5
452.648	102.5
452.869	109.5
453.089	121.5
453.31	104.5
453.53	91.5
453.751	85.5
453.971	111.5
454.192	101.5
454.412	80.5
454.633	97.5
454.853	100.5
455.073	86.5
455.294	97.5
455.514	100.5
455.734	88.5
455.955	91.5
456.175	86.5
456.395	87.5
456.616	94.5
456.836	88.5
457.056	91.5
457.276	99.5
457.497	92.5
457.717	95.5
457.937	103.5
458.157	101.5
458.377	86.5
458.598	106.5
458.818	130.5
459.038	132.5
459.258	108.5
459.478	94.5
459.698	102.5
459.918	92.5
460.138	85.5
460.358	82.5
460.578	107.5
460.798	79.5
461.018	92.5
461.238	88.5
461.458	95.5
461.678	86.5
461.898	92.5
462.118	81.5
462.338	84.5
462.558	99.5
462.777	97.5
462.997	85.5
463.217	88.5
463.437	84.5
463.657	83.5
463.876	84.5
464.096	90.5
464.316	100.5
464.536	89.5
464.755	112.5
464.975	91.5
465.195	132.5
465.414	144.5
465.634	83.5
465.854	90.5
466.073	89.5
466.293	94.5
466.512	86.5
466.732	84.5
466.951	93.5
467.171	91.5
467.391	95.5
467.61	88.5
467.829	97.5
468.049	97.5
468.268	92.5
468.488	101.5
468.707	92.5
468.927	98.5
469.146	90.5
469.365	104.5
469.585	84.5
469.804	95.5
470.023	89.5
470.243	89.5
470.462	99.5
470.681	95.5
470.901	100.5
471.12	82.5
471.339	86.5
471.558	95.5
471.777	92.5
471.997	86.5
472.216	103.5
472.435	121.5
472.654	100.5
472.873	81.5
473.092	87.5
473.311	80.5
473.53	89.5
473.749	92.5
473.968	92.5
474.187	105.5
474.406	100.5
474.625	102.5
474.844	87.5
475.063	85.5
475.282	86.5
475.501	81.5
475.72	92.5
475.939	99.5
476.158	90.5
476.377	89.5
476.596	93.5
476.814	90.5
477.033	105.5
477.252	88.5
477.471	94.5
477.69	88.5
477.908	95.5
478.127	97.5
478.346	92.5
478.564	100.5
478.783	100.5
479.002	85.5
479.22	90.5
479.439	108.5
479.658	96.5
479.876	86.5
480.095	97.5
480.313	98.5
480.532	101.5
480.751	106.5
480.969	105.5
481.188	176.5
481.406	138.5
481.624	98.5
481.843	91.5
482.061	92.5
482.28	98.5
482.498	96.5
482.717	79.5
482.935	97.5
483.153	88.5
483.372	96.5
483.59	91.5
483.808	95.5
484.027	100.5
484.245	103.5
484.463	96.5
484.681	105.5
484.9	96.5
485.118	102.5
485.336	100.5
485.554	109.5
485.772	109.5
485.99	96.5
486.209	97.5
486.427	105.5
486.645	113.5
486.863	90.5
487.081	87.5
487.299	99.5
487.517	102.5
487.735	109.5
487.953	97.5
488.171	103.5
488.389	95.5
488.607	90.5
488.825	97.5
489.043	95.5
489.261	109.5
489.479	107.5
489.696	101.5
489.914	96.5
490.132	98.5
490.35	89.5
490.568	104.5
490.786	89.5
491.003	85.5
491.221	102.5
491.439	94.5
491.657	97.5
491.874	98.5
492.092	95.5
492.31	99.5
492.527	91.5
492.745	87.5
492.963	93.5
493.18	86.5
493.398	101.5
493.615	104.5
493.833	96.5
494.05	88.5
494.268	95.5
494.485	97.5
494.703	107.5
494.92	100.5
495.138	102.5
495.355	87.5
495.573	94.5
495.79	90.5
496.008	104.5
496.225	87.5
496.442	94.5
496.66	89.5
496.877	96.5
497.094	94.5
497.312	91.5
497.529	90.5
497.746	109.5
497.963	102.5
498.181	81.5
498.398	96.5
498.615	97.5
498.832	97.5
499.049	96.5
499.267	101.5
499.484	79.5
499.701	81.5
499.918	98.5
500.135	90.5
500.352	80.5
500.569	103.5
500.786	93.5
501.003	93.5
501.22	88.5
501.437	92.5
501.654	93.5
501.871	110.5
502.088	95.5
502.305	94.5
502.522	81.5
502.739	85.5
502.956	96.5
503.172	95.5
503.389	96.5
503.606	115.5
503.823	102.5
504.04	103.5
504.256	97.5
504.473	84.5
504.69	78.5
504.907	103.5
505.123	92.5
505.34	104.5
505.557	87.5
505.773	115.5
505.99	102.5
506.207	94.5
506.423	92.5
506.64	92.5
506.856	101.5
507.073	94.5
507.289	95.5
507.506	105.5
507.722	106.5
507.939	98.5
508.155	102.5
508.372	94.5
508.588	97.5
508.805	87.5
509.021	109.5
509.238	104.5
509.454	97.5
509.67	102.5
509.887	95.5
510.103	133.5
510.319	172.5
510.536	584.5
510.752	1748.5
510.968	486.5
511.184	142.5
511.401	103.5
511.617	100.5
511.833	98.5
512.049	99.5
512.265	96.5
512.481	108.5
512.698	105.5
512.914	88.5
513.13	107.5
513.346	81.5
513.562	97.5
513.778	96.5
513.994	89.5
514.21	102.5
514.426	108.5
514.642	120.5
514.858	108.5
515.074	138.5
515.29	334.5
515.506	1031.5
515.721	365.5
515.937	136.5
516.153	105.5
516.369	81.5
516.585	94.5
516.801	95.5
517.016	97.5
517.232	97.5
517.448	88.5
517.664	95.5
517.879	97.5
518.095	96.5
518.311	94.5
518.527	94.5
518.742	86.5
518.958	93.5
519.173	89.5
519.389	97.5
519.605	98.5
519.82	81.5
520.036	105.5
520.251	114.5
520.467	113.5
520.682	95.5
520.898	97.5
521.113	122.5
521.329	125.5
521.544	165.5
521.76	447.5
521.975	1704.5
522.19	1017.5
522.406	228.5
522.621	119.5
522.836	97.5
523.052	96.5
523.267	91.5
523.482	106.5
523.698	88.5
523.913	126.5
524.128	103.5
524.343	110.5
524.559	100.5
524.774	90.5
524.989	93.5
525.204	105.5
525.419	92.5
525.634	108.5
525.849	83.5
526.064	90.5
526.28	78.5
526.495	77.5
526.71	84.5
526.925	93.5
527.14	92.5
527.355	95.5
527.57	99.5
527.785	87.5
527.999	97.5
528.214	91.5
528.429	99.5
528.644	94.5
528.859	83.5
529.074	90.5
529.289	120.5
529.503	138.5
529.718	97.5
529.933	91.5
530.148	91.5
530.363	99.5
530.577	88.5
530.792	95.5
531.007	100.5
531.221	111.5
531.436	102.5
531.651	93.5
531.865	96.5
532.08	89.5
532.295	95.5
532.509	95.5
532.724	83.5
532.938	102.5
533.153	91.5
533.367	90.5
533.582	107.5
533.796	90.5
534.011	105.5
534.225	92.5
534.44	90.5
