Data from Circ_1982_H10_HRD10591_00072.txt Node
Date: Wed Jan 03 12:30:55 EST 2024
User: Yrep
Spectrometer: HR+D1059
Trigger mode: 1
Integration Time (sec): 1.000000E-1
Scans to average: 1
Electric dark correction enabled: true
Nonlinearity correction enabled: false
Boxcar width: 0
XAxis mode: Wavelengths
Number of Pixels in Spectrum: 2048
>>>>>Begin Spectral Data<<<<<
223.165	-9.06
223.4	-9.06
223.635	-9.06
223.869	-13.06
224.104	-12.06
224.338	-14.06
224.573	-17.06
224.808	-19.06
225.042	-16.06
225.277	-0.06
225.511	-10.06
225.746	-5.06
225.98	4.94
226.215	22.94
226.449	9.94
226.683	18.94
226.918	27.94
227.152	30.94
227.387	29.94
227.621	50.94
227.856	53.94
228.09	48.94
228.324	54.94
228.559	52.94
228.793	57.94
229.027	52.94
229.262	51.94
229.496	67.94
229.73	76.94
229.964	64.94
230.199	69.94
230.433	88.94
230.667	71.94
230.901	76.94
231.136	77.94
231.37	87.94
231.604	75.94
231.838	81.94
232.072	85.94
232.306	76.94
232.541	69.94
232.775	84.94
233.009	88.94
233.243	75.94
233.477	84.94
233.711	77.94
233.945	92.94
234.179	84.94
234.413	74.94
234.647	78.94
234.881	70.94
235.115	86.94
235.349	101.94
235.583	80.94
235.817	69.94
236.051	85.94
236.285	91.94
236.519	80.94
236.753	74.94
236.987	80.94
237.221	70.94
237.455	78.94
237.689	77.94
237.922	74.94
238.156	73.94
238.39	81.94
238.624	77.94
238.858	73.94
239.091	81.94
239.325	72.94
239.559	70.94
239.793	84.94
240.027	90.94
240.26	80.94
240.494	86.94
240.728	90.94
240.961	84.94
241.195	83.94
241.429	82.94
241.662	71.94
241.896	87.94
242.13	67.94
242.363	63.94
242.597	68.94
242.83	73.94
243.064	74.94
243.298	88.94
243.531	71.94
243.765	75.94
243.998	88.94
244.232	76.94
244.465	73.94
244.699	87.94
244.932	76.94
245.166	75.94
245.399	82.94
245.633	74.94
245.866	68.94
246.099	82.94
246.333	74.94
246.566	70.94
246.8	82.94
247.033	81.94
247.266	76.94
247.5	67.94
247.733	84.94
247.966	80.94
248.2	89.94
248.433	82.94
248.666	87.94
248.899	70.94
249.133	71.94
249.366	88.94
249.599	80.94
249.832	77.94
250.066	90.94
250.299	80.94
250.532	84.94
250.765	79.94
250.998	84.94
251.231	72.94
251.465	80.94
251.698	82.94
251.931	77.94
252.164	61.94
252.397	88.94
252.63	69.94
252.863	82.94
253.096	74.94
253.329	90.94
253.562	79.94
253.795	78.94
254.028	77.94
254.261	74.94
254.494	79.94
254.727	82.94
254.96	86.94
255.193	74.94
255.426	85.94
255.659	88.94
255.892	76.94
256.124	90.94
256.357	84.94
256.59	84.94
256.823	94.94
257.056	74.94
257.289	90.94
257.521	92.94
257.754	82.94
257.987	70.94
258.22	77.94
258.452	84.94
258.685	69.94
258.918	93.94
259.151	92.94
259.383	75.94
259.616	85.94
259.849	79.94
260.081	90.94
260.314	87.94
260.547	68.94
260.779	76.94
261.012	82.94
261.244	76.94
261.477	89.94
261.71	96.94
261.942	91.94
262.175	94.94
262.407	86.94
262.64	96.94
262.872	87.94
263.105	73.94
263.337	83.94
263.57	78.94
263.802	86.94
264.035	101.94
264.267	88.94
264.499	82.94
264.732	84.94
264.964	86.94
265.197	93.94
265.429	87.94
265.661	84.94
265.894	70.94
266.126	71.94
266.358	76.94
266.591	81.94
266.823	77.94
267.055	82.94
267.287	85.94
267.52	87.94
267.752	82.94
267.984	98.94
268.216	68.94
268.448	89.94
268.681	88.94
268.913	90.94
269.145	83.94
269.377	70.94
269.609	91.94
269.841	73.94
270.073	82.94
270.306	87.94
270.538	80.94
270.77	72.94
271.002	72.94
271.234	90.94
271.466	81.94
271.698	91.94
271.93	88.94
272.162	91.94
272.394	75.94
272.626	89.94
272.858	93.94
273.09	81.94
273.322	69.94
273.553	100.94
273.785	77.94
274.017	84.94
274.249	90.94
274.481	81.94
274.713	78.94
274.945	82.94
275.176	71.94
275.408	85.94
275.64	82.94
275.872	81.94
276.104	83.94
276.335	98.94
276.567	104.94
276.799	100.94
277.031	88.94
277.262	91.94
277.494	86.94
277.726	82.94
277.957	86.94
278.189	84.94
278.421	100.94
278.652	88.94
278.884	77.94
279.115	98.94
279.347	90.94
279.579	85.94
279.81	80.94
280.042	91.94
280.273	80.94
280.505	84.94
280.736	77.94
280.968	75.94
281.199	93.94
281.431	91.94
281.662	103.94
281.894	93.94
282.125	97.94
282.356	113.94
282.588	119.94
282.819	89.94
283.051	72.94
283.282	86.94
283.513	80.94
283.745	81.94
283.976	93.94
284.207	92.94
284.439	86.94
284.67	92.94
284.901	80.94
285.132	77.94
285.364	76.94
285.595	96.94
285.826	84.94
286.057	84.94
286.288	91.94
286.52	80.94
286.751	69.94
286.982	95.94
287.213	80.94
287.444	80.94
287.675	88.94
287.906	97.94
288.138	86.94
288.369	100.94
288.6	94.94
288.831	78.94
289.062	89.94
289.293	96.94
289.524	86.94
289.755	90.94
289.986	82.94
290.217	82.94
290.448	91.94
290.679	92.94
290.91	96.94
291.141	92.94
291.371	87.94
291.602	92.94
291.833	70.94
292.064	80.94
292.295	87.94
292.526	93.94
292.757	83.94
292.987	73.94
293.218	86.94
293.449	80.94
293.68	73.94
293.91	89.94
294.141	88.94
294.372	70.94
294.603	84.94
294.833	101.94
295.064	92.94
295.295	91.94
295.525	90.94
295.756	93.94
295.987	104.94
296.217	117.94
296.448	115.94
296.679	87.94
296.909	84.94
297.14	81.94
297.37	103.94
297.601	85.94
297.831	71.94
298.062	91.94
298.292	81.94
298.523	87.94
298.753	90.94
298.984	85.94
299.214	91.94
299.445	92.94
299.675	90.94
299.905	114.94
300.136	94.94
300.366	92.94
300.597	83.94
300.827	97.94
301.057	93.94
301.288	89.94
301.518	86.94
301.748	81.94
301.979	105.94
302.209	102.94
302.439	97.94
302.669	85.94
302.9	104.94
303.13	104.94
303.36	77.94
303.59	85.94
303.82	92.94
304.051	108.94
304.281	92.94
304.511	92.94
304.741	88.94
304.971	80.94
305.201	75.94
305.431	86.94
305.661	91.94
305.891	88.94
306.121	88.94
306.352	96.94
306.582	101.94
306.812	93.94
307.042	91.94
307.272	76.94
307.502	81.94
307.731	88.94
307.961	94.94
308.191	94.94
308.421	97.94
308.651	101.94
308.881	86.94
309.111	81.94
309.341	82.94
309.571	88.94
309.8	82.94
310.03	86.94
310.26	89.94
310.49	93.94
310.72	106.94
310.949	92.94
311.179	96.94
311.409	84.94
311.639	97.94
311.868	93.94
312.098	104.94
312.328	88.94
312.557	100.94
312.787	114.94
313.017	88.94
313.246	83.94
313.476	76.94
313.706	96.94
313.935	104.94
314.165	96.94
314.394	91.94
314.624	109.94
314.853	88.94
315.083	86.94
315.312	83.94
315.542	94.94
315.771	82.94
316.001	78.94
316.23	83.94
316.46	95.94
316.689	78.94
316.919	99.94
317.148	102.94
317.377	99.94
317.607	98.94
317.836	94.94
318.065	87.94
318.295	92.94
318.524	88.94
318.753	100.94
318.983	92.94
319.212	96.94
319.441	100.94
319.67	90.94
319.9	91.94
320.129	99.94
320.358	94.94
320.587	86.94
320.816	101.94
321.046	94.94
321.275	92.94
321.504	96.94
321.733	88.94
321.962	84.94
322.191	101.94
322.42	116.94
322.649	101.94
322.878	106.94
323.108	109.94
323.337	112.94
323.566	108.94
323.795	133.94
324.024	163.94
324.253	304.94
324.482	573.94
324.71	1149.94
324.939	1537.94
325.168	564.94
325.397	182.94
325.626	128.94
325.855	114.94
326.084	107.94
326.313	117.94
326.542	150.94
326.77	198.94
326.999	360.94
327.228	688.94
327.457	1195.94
327.686	932.94
327.914	289.94
328.143	159.94
328.372	148.94
328.6	121.94
328.829	107.94
329.058	118.94
329.287	118.94
329.515	116.94
329.744	105.94
329.972	92.94
330.201	115.94
330.43	116.94
330.658	115.94
330.887	119.94
331.115	108.94
331.344	98.94
331.572	87.94
331.801	107.94
332.03	112.94
332.258	106.94
332.486	101.94
332.715	85.94
332.943	96.94
333.172	104.94
333.4	93.94
333.629	100.94
333.857	100.94
334.085	103.94
334.314	109.94
334.542	123.94
334.771	104.94
334.999	101.94
335.227	105.94
335.455	100.94
335.684	105.94
335.912	96.94
336.14	104.94
336.369	96.94
336.597	91.94
336.825	106.94
337.053	113.94
337.281	92.94
337.51	86.94
337.738	90.94
337.966	105.94
338.194	84.94
338.422	95.94
338.65	94.94
338.878	94.94
339.106	98.94
339.334	102.94
339.562	86.94
339.79	90.94
340.018	93.94
340.246	87.94
340.474	97.94
340.702	96.94
340.93	92.94
341.158	95.94
341.386	84.94
341.614	84.94
341.842	85.94
342.07	71.94
342.298	91.94
342.526	76.94
342.754	84.94
342.981	91.94
343.209	93.94
343.437	99.94
343.665	94.94
343.893	82.94
344.12	111.94
344.348	86.94
344.576	92.94
344.804	85.94
345.031	100.94
345.259	93.94
345.487	82.94
345.714	100.94
345.942	92.94
346.17	97.94
346.397	109.94
346.625	92.94
346.853	91.94
347.08	96.94
347.308	92.94
347.535	84.94
347.763	105.94
347.99	104.94
348.218	94.94
348.445	100.94
348.673	93.94
348.9	88.94
349.128	108.94
349.355	93.94
349.583	102.94
349.81	97.94
350.037	96.94
350.265	96.94
350.492	91.94
350.72	107.94
350.947	97.94
351.174	114.94
351.402	100.94
351.629	98.94
351.856	94.94
352.083	83.94
352.311	93.94
352.538	100.94
352.765	99.94
352.992	100.94
353.22	103.94
353.447	92.94
353.674	100.94
353.901	98.94
354.128	92.94
354.355	90.94
354.583	92.94
354.81	109.94
355.037	89.94
355.264	84.94
355.491	78.94
355.718	100.94
355.945	91.94
356.172	101.94
356.399	98.94
356.626	91.94
356.853	84.94
357.08	91.94
357.307	110.94
357.534	94.94
357.761	88.94
357.988	93.94
358.215	108.94
358.441	93.94
358.668	90.94
358.895	92.94
359.122	99.94
359.349	85.94
359.576	92.94
359.802	84.94
360.029	92.94
360.256	99.94
360.483	101.94
360.709	95.94
360.936	91.94
361.163	85.94
361.39	77.94
361.616	94.94
361.843	81.94
362.07	97.94
362.296	91.94
362.523	96.94
362.749	85.94
362.976	109.94
363.203	90.94
363.429	90.94
363.656	91.94
363.882	92.94
364.109	102.94
364.335	88.94
364.562	93.94
364.788	95.94
365.015	101.94
365.241	87.94
365.468	106.94
365.694	103.94
365.92	101.94
366.147	101.94
366.373	98.94
366.599	108.94
366.826	97.94
367.052	92.94
367.278	85.94
367.505	86.94
367.731	94.94
367.957	98.94
368.184	97.94
368.41	89.94
368.636	103.94
368.862	113.94
369.089	82.94
369.315	90.94
369.541	75.94
369.767	97.94
369.993	72.94
370.219	91.94
370.445	96.94
370.672	92.94
370.898	91.94
371.124	92.94
371.35	96.94
371.576	91.94
371.802	75.94
372.028	98.94
372.254	92.94
372.48	87.94
372.706	83.94
372.932	86.94
373.158	106.94
373.384	102.94
373.61	85.94
373.835	82.94
374.061	93.94
374.287	93.94
374.513	85.94
374.739	87.94
374.965	87.94
375.191	89.94
375.416	93.94
375.642	82.94
375.868	73.94
376.094	94.94
376.319	93.94
376.545	88.94
376.771	98.94
376.997	87.94
377.222	102.94
377.448	92.94
377.674	89.94
377.899	97.94
378.125	85.94
378.35	82.94
378.576	98.94
378.802	72.94
379.027	101.94
379.253	89.94
379.478	93.94
379.704	91.94
379.929	84.94
380.155	94.94
380.38	86.94
380.606	83.94
380.831	97.94
381.057	86.94
381.282	101.94
381.507	89.94
381.733	98.94
381.958	96.94
382.184	104.94
382.409	91.94
382.634	87.94
382.86	102.94
383.085	103.94
383.31	92.94
383.535	101.94
383.761	103.94
383.986	93.94
384.211	108.94
384.436	103.94
384.662	98.94
384.887	96.94
385.112	99.94
385.337	105.94
385.562	92.94
385.787	102.94
386.013	89.94
386.238	112.94
386.463	108.94
386.688	115.94
386.913	100.94
387.138	103.94
387.363	94.94
387.588	109.94
387.813	91.94
388.038	100.94
388.263	99.94
388.488	106.94
388.713	103.94
388.938	96.94
389.163	89.94
389.387	83.94
389.612	97.94
389.837	88.94
390.062	83.94
390.287	100.94
390.512	93.94
390.736	99.94
390.961	86.94
391.186	89.94
391.411	90.94
391.636	88.94
391.86	93.94
392.085	92.94
392.31	101.94
392.534	83.94
392.759	96.94
392.984	85.94
393.208	89.94
393.433	63.94
393.658	76.94
393.882	92.94
394.107	79.94
394.331	79.94
394.556	91.94
394.78	82.94
395.005	91.94
395.229	69.94
395.454	85.94
395.678	74.94
395.903	100.94
396.127	96.94
396.352	91.94
396.576	101.94
396.801	88.94
397.025	84.94
397.249	77.94
397.474	93.94
397.698	87.94
397.922	81.94
398.147	90.94
398.371	90.94
398.595	97.94
398.82	85.94
399.044	86.94
399.268	92.94
399.492	113.94
399.717	90.94
399.941	91.94
400.165	94.94
400.389	89.94
400.613	86.94
400.837	90.94
401.062	82.94
401.286	93.94
401.51	90.94
401.734	94.94
401.958	95.94
402.182	116.94
402.406	133.94
402.63	107.94
402.854	77.94
403.078	93.94
403.302	92.94
403.526	77.94
403.75	84.94
403.974	88.94
404.198	87.94
404.422	81.94
404.645	87.94
404.869	84.94
405.093	93.94
405.317	84.94
405.541	97.94
405.765	92.94
405.988	94.94
406.212	148.94
406.436	188.94
406.66	129.94
406.883	96.94
407.107	93.94
407.331	98.94
407.555	110.94
407.778	97.94
408.002	91.94
408.226	87.94
408.449	97.94
408.673	84.94
408.896	86.94
409.12	100.94
409.344	93.94
409.567	98.94
409.791	90.94
410.014	94.94
410.238	96.94
410.461	99.94
410.685	103.94
410.908	96.94
411.132	101.94
411.355	102.94
411.578	83.94
411.802	86.94
412.025	82.94
412.249	100.94
412.472	90.94
412.695	87.94
412.919	97.94
413.142	89.94
413.365	68.94
413.589	75.94
413.812	83.94
414.035	82.94
414.258	87.94
414.482	102.94
414.705	103.94
414.928	107.94
415.151	106.94
415.374	96.94
415.597	99.94
415.821	91.94
416.044	97.94
416.267	88.94
416.49	92.94
416.713	83.94
416.936	88.94
417.159	85.94
417.382	79.94
417.605	94.94
417.828	98.94
418.051	87.94
418.274	78.94
418.497	84.94
418.72	102.94
418.943	104.94
419.166	88.94
419.389	74.94
419.611	72.94
419.834	95.94
420.057	84.94
420.28	96.94
420.503	99.94
420.726	90.94
420.948	90.94
421.171	81.94
421.394	106.94
421.617	103.94
421.839	95.94
422.062	97.94
422.285	84.94
422.507	89.94
422.73	97.94
422.953	87.94
423.175	74.94
423.398	83.94
423.621	90.94
423.843	94.94
424.066	71.94
424.288	94.94
424.511	88.94
424.733	92.94
424.956	90.94
425.178	99.94
425.401	94.94
425.623	84.94
425.846	99.94
426.068	99.94
426.291	91.94
426.513	96.94
426.735	88.94
426.958	99.94
427.18	85.94
427.402	125.94
427.625	138.94
427.847	116.94
428.069	101.94
428.292	88.94
428.514	78.94
428.736	82.94
428.958	95.94
429.181	84.94
429.403	84.94
429.625	84.94
429.847	84.94
430.069	84.94
430.292	90.94
430.514	88.94
430.736	88.94
430.958	88.94
431.18	88.94
431.402	82.94
431.624	73.94
431.846	92.94
432.068	105.94
432.29	100.94
432.512	92.94
432.734	89.94
432.956	89.94
433.178	101.94
433.4	97.94
433.622	82.94
433.844	105.94
434.066	87.94
434.287	79.94
434.509	78.94
434.731	92.94
434.953	84.94
435.175	96.94
435.397	94.94
435.618	90.94
435.84	92.94
436.062	108.94
436.284	93.94
436.505	93.94
436.727	103.94
436.949	77.94
437.17	83.94
437.392	85.94
437.614	96.94
437.835	85.94
438.057	97.94
438.278	85.94
438.5	104.94
438.721	122.94
438.943	97.94
439.165	92.94
439.386	75.94
439.608	89.94
439.829	92.94
440.05	95.94
440.272	126.94
440.493	101.94
440.715	101.94
440.936	86.94
441.158	95.94
441.379	100.94
441.6	90.94
441.822	88.94
442.043	95.94
442.264	98.94
442.486	88.94
442.707	83.94
442.928	106.94
443.149	109.94
443.371	121.94
443.592	109.94
443.813	107.94
444.034	96.94
444.255	86.94
444.476	82.94
444.698	77.94
444.919	77.94
445.14	132.94
445.361	110.94
445.582	122.94
445.803	118.94
446.024	113.94
446.245	117.94
446.466	108.94
446.687	80.94
446.908	78.94
447.129	83.94
447.35	88.94
447.571	87.94
447.792	95.94
448.013	98.94
448.234	98.94
448.455	96.94
448.675	102.94
448.896	98.94
449.117	91.94
449.338	90.94
449.559	113.94
449.779	111.94
450	99.94
450.221	84.94
450.442	96.94
450.662	100.94
450.883	94.94
451.104	110.94
451.324	85.94
451.545	91.94
451.766	90.94
451.986	71.94
452.207	94.94
452.428	84.94
452.648	96.94
452.869	95.94
453.089	91.94
453.31	118.94
453.53	75.94
453.751	80.94
453.971	96.94
454.192	87.94
454.412	109.94
454.633	82.94
454.853	90.94
455.073	89.94
455.294	83.94
455.514	91.94
455.734	93.94
455.955	87.94
456.175	76.94
456.395	86.94
456.616	82.94
456.836	85.94
457.056	77.94
457.276	86.94
457.497	89.94
457.717	91.94
457.937	102.94
458.157	89.94
458.377	89.94
458.598	101.94
458.818	134.94
459.038	136.94
459.258	114.94
459.478	92.94
459.698	72.94
459.918	101.94
460.138	89.94
460.358	89.94
460.578	97.94
460.798	82.94
461.018	84.94
461.238	101.94
461.458	96.94
461.678	85.94
461.898	86.94
462.118	85.94
462.338	85.94
462.558	82.94
462.777	83.94
462.997	85.94
463.217	102.94
463.437	88.94
463.657	80.94
463.876	88.94
464.096	91.94
464.316	80.94
464.536	96.94
464.755	91.94
464.975	92.94
465.195	138.94
465.414	112.94
465.634	85.94
465.854	96.94
466.073	83.94
466.293	69.94
466.512	76.94
466.732	87.94
466.951	76.94
467.171	90.94
467.391	90.94
467.61	87.94
467.829	98.94
468.049	89.94
468.268	102.94
468.488	96.94
468.707	82.94
468.927	75.94
469.146	84.94
469.365	91.94
469.585	94.94
469.804	96.94
470.023	73.94
470.243	81.94
470.462	91.94
470.681	93.94
470.901	94.94
471.12	75.94
471.339	92.94
471.558	98.94
471.777	80.94
471.997	92.94
472.216	101.94
472.435	114.94
472.654	92.94
472.873	98.94
473.092	86.94
473.311	92.94
473.53	85.94
473.749	81.94
473.968	81.94
474.187	105.94
474.406	105.94
474.625	88.94
474.844	82.94
475.063	77.94
475.282	87.94
475.501	91.94
475.72	92.94
475.939	80.94
476.158	76.94
476.377	98.94
476.596	76.94
476.814	90.94
477.033	94.94
477.252	99.94
477.471	81.94
477.69	88.94
477.908	81.94
478.127	81.94
478.346	94.94
478.564	75.94
478.783	99.94
479.002	96.94
479.22	103.94
479.439	96.94
479.658	86.94
479.876	92.94
480.095	85.94
480.313	90.94
480.532	98.94
480.751	88.94
480.969	107.94
481.188	163.94
481.406	136.94
481.624	85.94
481.843	93.94
482.061	81.94
482.28	85.94
482.498	94.94
482.717	87.94
482.935	85.94
483.153	85.94
483.372	98.94
483.59	101.94
483.808	88.94
484.027	103.94
484.245	89.94
484.463	100.94
484.681	92.94
484.9	97.94
485.118	97.94
485.336	108.94
485.554	101.94
485.772	103.94
485.99	115.94
486.209	102.94
486.427	106.94
486.645	95.94
486.863	106.94
487.081	106.94
487.299	101.94
487.517	90.94
487.735	102.94
487.953	91.94
488.171	89.94
488.389	77.94
488.607	96.94
488.825	86.94
489.043	92.94
489.261	88.94
489.479	89.94
489.696	92.94
489.914	85.94
490.132	86.94
490.35	88.94
490.568	86.94
490.786	78.94
491.003	86.94
491.221	77.94
491.439	90.94
491.657	100.94
491.874	97.94
492.092	94.94
492.31	96.94
492.527	84.94
492.745	91.94
492.963	84.94
493.18	91.94
493.398	105.94
493.615	98.94
493.833	84.94
494.05	93.94
494.268	89.94
494.485	73.94
494.703	106.94
494.92	95.94
495.138	104.94
495.355	91.94
495.573	94.94
495.79	94.94
496.008	100.94
496.225	82.94
496.442	98.94
496.66	89.94
496.877	93.94
497.094	93.94
497.312	93.94
497.529	92.94
497.746	117.94
497.963	88.94
498.181	98.94
498.398	75.94
498.615	102.94
498.832	100.94
499.049	114.94
499.267	92.94
499.484	96.94
499.701	91.94
499.918	98.94
500.135	87.94
500.352	90.94
500.569	88.94
500.786	104.94
501.003	101.94
501.22	80.94
501.437	104.94
501.654	93.94
501.871	105.94
502.088	88.94
502.305	96.94
502.522	93.94
502.739	86.94
502.956	92.94
503.172	85.94
503.389	99.94
503.606	113.94
503.823	93.94
504.04	88.94
504.256	99.94
504.473	84.94
504.69	92.94
504.907	92.94
505.123	93.94
505.34	96.94
505.557	86.94
505.773	94.94
505.99	95.94
506.207	83.94
506.423	86.94
506.64	93.94
506.856	91.94
507.073	89.94
507.289	99.94
507.506	98.94
507.722	108.94
507.939	90.94
508.155	100.94
508.372	82.94
508.588	109.94
508.805	103.94
509.021	94.94
509.238	103.94
509.454	102.94
509.67	91.94
509.887	108.94
510.103	123.94
510.319	178.94
510.536	582.94
510.752	1700.94
510.968	483.94
511.184	138.94
511.401	96.94
511.617	93.94
511.833	108.94
512.049	103.94
512.265	86.94
512.481	90.94
512.698	84.94
512.914	89.94
513.13	108.94
513.346	103.94
513.562	100.94
513.778	108.94
513.994	98.94
514.21	109.94
514.426	100.94
514.642	109.94
514.858	101.94
515.074	146.94
515.29	337.94
515.506	1016.94
515.721	375.94
515.937	123.94
516.153	112.94
