Data from Circ_1982_H10_HRD10591_00092.txt Node
Date: Wed Jan 03 12:30:59 EST 2024
User: Yrep
Spectrometer: HR+D1059
Trigger mode: 1
Integration Time (sec): 1.000000E-1
Scans to average: 1
Electric dark correction enabled: true
Nonlinearity correction enabled: false
Boxcar width: 0
XAxis mode: Wavelengths
Number of Pixels in Spectrum: 2048
>>>>>Begin Spectral Data<<<<<
223.165	-10.88
223.4	-10.88
223.635	-10.88
223.869	-21.88
224.104	-49.88
224.338	-10.88
224.573	-19.88
224.808	-8.88
225.042	-2.88
225.277	-10.88
225.511	11.12
225.746	19.12
225.98	-7.88
226.215	10.12
226.449	26.12
226.683	19.12
226.918	23.12
227.152	35.12
227.387	26.12
227.621	26.12
227.856	44.12
228.09	46.12
228.324	55.12
228.559	52.12
228.793	44.12
229.027	56.12
229.262	73.12
229.496	68.12
229.73	69.12
229.964	81.12
230.199	71.12
230.433	74.12
230.667	73.12
230.901	75.12
231.136	74.12
231.37	72.12
231.604	83.12
231.838	69.12
232.072	85.12
232.306	72.12
232.541	72.12
232.775	74.12
233.009	81.12
233.243	66.12
233.477	67.12
233.711	71.12
233.945	77.12
234.179	84.12
234.413	85.12
234.647	77.12
234.881	84.12
235.115	75.12
235.349	74.12
235.583	59.12
235.817	67.12
236.051	73.12
236.285	73.12
236.519	76.12
236.753	61.12
236.987	69.12
237.221	90.12
237.455	77.12
237.689	74.12
237.922	81.12
238.156	79.12
238.39	74.12
238.624	79.12
238.858	71.12
239.091	77.12
239.325	71.12
239.559	83.12
239.793	81.12
240.027	65.12
240.26	65.12
240.494	63.12
240.728	66.12
240.961	68.12
241.195	76.12
241.429	57.12
241.662	73.12
241.896	87.12
242.13	73.12
242.363	58.12
242.597	72.12
242.83	70.12
243.064	69.12
243.298	73.12
243.531	70.12
243.765	70.12
243.998	72.12
244.232	91.12
244.465	81.12
244.699	93.12
244.932	66.12
245.166	70.12
245.399	80.12
245.633	81.12
245.866	74.12
246.099	86.12
246.333	73.12
246.566	68.12
246.8	84.12
247.033	82.12
247.266	73.12
247.5	66.12
247.733	80.12
247.966	77.12
248.2	66.12
248.433	86.12
248.666	77.12
248.899	66.12
249.133	98.12
249.366	79.12
249.599	98.12
249.832	87.12
250.066	72.12
250.299	81.12
250.532	81.12
250.765	79.12
250.998	77.12
251.231	74.12
251.465	77.12
251.698	85.12
251.931	70.12
252.164	78.12
252.397	65.12
252.63	89.12
252.863	86.12
253.096	78.12
253.329	78.12
253.562	71.12
253.795	87.12
254.028	74.12
254.261	77.12
254.494	79.12
254.727	70.12
254.96	69.12
255.193	69.12
255.426	69.12
255.659	77.12
255.892	74.12
256.124	77.12
256.357	86.12
256.59	78.12
256.823	78.12
257.056	81.12
257.289	75.12
257.521	77.12
257.754	58.12
257.987	79.12
258.22	67.12
258.452	83.12
258.685	86.12
258.918	77.12
259.151	75.12
259.383	89.12
259.616	99.12
259.849	80.12
260.081	75.12
260.314	80.12
260.547	77.12
260.779	80.12
261.012	85.12
261.244	89.12
261.477	83.12
261.71	109.12
261.942	94.12
262.175	103.12
262.407	89.12
262.64	77.12
262.872	78.12
263.105	74.12
263.337	94.12
263.57	63.12
263.802	76.12
264.035	77.12
264.267	63.12
264.499	79.12
264.732	85.12
264.964	80.12
265.197	83.12
265.429	78.12
265.661	94.12
265.894	78.12
266.126	82.12
266.358	75.12
266.591	98.12
266.823	81.12
267.055	85.12
267.287	86.12
267.52	90.12
267.752	90.12
267.984	85.12
268.216	78.12
268.448	82.12
268.681	80.12
268.913	97.12
269.145	70.12
269.377	81.12
269.609	67.12
269.841	83.12
270.073	79.12
270.306	85.12
270.538	87.12
270.77	81.12
271.002	71.12
271.234	79.12
271.466	67.12
271.698	77.12
271.93	73.12
272.162	93.12
272.394	92.12
272.626	83.12
272.858	96.12
273.09	81.12
273.322	89.12
273.553	85.12
273.785	73.12
274.017	83.12
274.249	81.12
274.481	65.12
274.713	87.12
274.945	77.12
275.176	68.12
275.408	85.12
275.64	86.12
275.872	82.12
276.104	95.12
276.335	93.12
276.567	79.12
276.799	93.12
277.031	97.12
277.262	99.12
277.494	85.12
277.726	77.12
277.957	79.12
278.189	82.12
278.421	94.12
278.652	81.12
278.884	82.12
279.115	89.12
279.347	85.12
279.579	89.12
279.81	75.12
280.042	73.12
280.273	89.12
280.505	94.12
280.736	77.12
280.968	84.12
281.199	90.12
281.431	76.12
281.662	103.12
281.894	91.12
282.125	91.12
282.356	93.12
282.588	114.12
282.819	101.12
283.051	82.12
283.282	63.12
283.513	89.12
283.745	73.12
283.976	90.12
284.207	86.12
284.439	87.12
284.67	90.12
284.901	91.12
285.132	88.12
285.364	81.12
285.595	86.12
285.826	90.12
286.057	95.12
286.288	96.12
286.52	85.12
286.751	85.12
286.982	85.12
287.213	85.12
287.444	89.12
287.675	78.12
287.906	81.12
288.138	87.12
288.369	79.12
288.6	88.12
288.831	91.12
289.062	86.12
289.293	84.12
289.524	81.12
289.755	74.12
289.986	79.12
290.217	84.12
290.448	81.12
290.679	87.12
290.91	85.12
291.141	90.12
291.371	69.12
291.602	84.12
291.833	85.12
292.064	86.12
292.295	80.12
292.526	74.12
292.757	94.12
292.987	77.12
293.218	76.12
293.449	87.12
293.68	77.12
293.91	88.12
294.141	94.12
294.372	79.12
294.603	79.12
294.833	84.12
295.064	82.12
295.295	95.12
295.525	96.12
295.756	93.12
295.987	101.12
296.217	128.12
296.448	103.12
296.679	83.12
296.909	75.12
297.14	87.12
297.37	94.12
297.601	88.12
297.831	96.12
298.062	87.12
298.292	81.12
298.523	89.12
298.753	96.12
298.984	86.12
299.214	103.12
299.445	95.12
299.675	87.12
299.905	80.12
300.136	85.12
300.366	73.12
300.597	81.12
300.827	97.12
301.057	85.12
301.288	90.12
301.518	83.12
301.748	79.12
301.979	106.12
302.209	81.12
302.439	103.12
302.669	99.12
302.9	96.12
303.13	86.12
303.36	96.12
303.59	97.12
303.82	106.12
304.051	89.12
304.281	90.12
304.511	84.12
304.741	83.12
304.971	94.12
305.201	90.12
305.431	85.12
305.661	81.12
305.891	89.12
306.121	90.12
306.352	100.12
306.582	97.12
306.812	87.12
307.042	88.12
307.272	102.12
307.502	104.12
307.731	90.12
307.961	96.12
308.191	95.12
308.421	92.12
308.651	86.12
308.881	73.12
309.111	89.12
309.341	77.12
309.571	106.12
309.8	96.12
310.03	87.12
310.26	97.12
310.49	103.12
310.72	90.12
310.949	85.12
311.179	99.12
311.409	86.12
311.639	89.12
311.868	91.12
312.098	102.12
312.328	97.12
312.557	95.12
312.787	77.12
313.017	81.12
313.246	86.12
313.476	87.12
313.706	88.12
313.935	97.12
314.165	99.12
314.394	94.12
314.624	100.12
314.853	95.12
315.083	91.12
315.312	81.12
315.542	89.12
315.771	93.12
316.001	75.12
316.23	87.12
316.46	93.12
316.689	83.12
316.919	97.12
317.148	74.12
317.377	101.12
317.607	94.12
317.836	93.12
318.065	96.12
318.295	94.12
318.524	74.12
318.753	97.12
318.983	91.12
319.212	90.12
319.441	90.12
319.67	99.12
319.9	85.12
320.129	84.12
320.358	83.12
320.587	81.12
320.816	83.12
321.046	87.12
321.275	91.12
321.504	97.12
321.733	96.12
321.962	93.12
322.191	92.12
322.42	99.12
322.649	113.12
322.878	98.12
323.108	95.12
323.337	109.12
323.566	117.12
323.795	126.12
324.024	164.12
324.253	293.12
324.482	568.12
324.71	1133.12
324.939	1465.12
325.168	583.12
325.397	175.12
325.626	126.12
325.855	107.12
326.084	111.12
326.313	112.12
326.542	129.12
326.77	179.12
326.999	337.12
327.228	655.12
327.457	1161.12
327.686	927.12
327.914	280.12
328.143	147.12
328.372	139.12
328.6	124.12
328.829	102.12
329.058	103.12
329.287	100.12
329.515	96.12
329.744	93.12
329.972	85.12
330.201	114.12
330.43	128.12
330.658	105.12
330.887	103.12
331.115	98.12
331.344	94.12
331.572	98.12
331.801	96.12
332.03	109.12
332.258	88.12
332.486	101.12
332.715	81.12
332.943	97.12
333.172	87.12
333.4	98.12
333.629	95.12
333.857	95.12
334.085	94.12
334.314	104.12
334.542	125.12
334.771	117.12
334.999	103.12
335.227	107.12
335.455	94.12
335.684	87.12
335.912	98.12
336.14	96.12
336.369	102.12
336.597	99.12
336.825	87.12
337.053	88.12
337.281	95.12
337.51	95.12
337.738	105.12
337.966	91.12
338.194	104.12
338.422	87.12
338.65	87.12
338.878	87.12
339.106	91.12
339.334	94.12
339.562	87.12
339.79	79.12
340.018	88.12
340.246	85.12
340.474	84.12
340.702	78.12
340.93	86.12
341.158	86.12
341.386	89.12
341.614	87.12
341.842	95.12
342.07	82.12
342.298	81.12
342.526	83.12
342.754	92.12
342.981	65.12
343.209	82.12
343.437	97.12
343.665	83.12
343.893	89.12
344.12	92.12
344.348	87.12
344.576	79.12
344.804	82.12
345.031	84.12
345.259	94.12
345.487	102.12
345.714	69.12
345.942	101.12
346.17	89.12
346.397	83.12
346.625	96.12
346.853	96.12
347.08	91.12
347.308	91.12
347.535	89.12
347.763	103.12
347.99	98.12
348.218	105.12
348.445	101.12
348.673	98.12
348.9	93.12
349.128	104.12
349.355	99.12
349.583	97.12
349.81	88.12
350.037	89.12
350.265	98.12
350.492	88.12
350.72	101.12
350.947	92.12
351.174	94.12
351.402	101.12
351.629	95.12
351.856	97.12
352.083	98.12
352.311	105.12
352.538	98.12
352.765	116.12
352.992	106.12
353.22	87.12
353.447	104.12
353.674	95.12
353.901	97.12
354.128	91.12
354.355	107.12
354.583	92.12
354.81	97.12
355.037	96.12
355.264	99.12
355.491	96.12
355.718	85.12
355.945	97.12
356.172	96.12
356.399	102.12
356.626	86.12
356.853	95.12
357.08	88.12
357.307	85.12
357.534	86.12
357.761	90.12
357.988	89.12
358.215	89.12
358.441	91.12
358.668	92.12
358.895	82.12
359.122	97.12
359.349	86.12
359.576	98.12
359.802	85.12
360.029	105.12
360.256	92.12
360.483	79.12
360.709	93.12
360.936	83.12
361.163	88.12
361.39	94.12
361.616	96.12
361.843	102.12
362.07	83.12
362.296	79.12
362.523	106.12
362.749	96.12
362.976	95.12
363.203	93.12
363.429	85.12
363.656	78.12
363.882	83.12
364.109	82.12
364.335	95.12
364.562	90.12
364.788	82.12
365.015	93.12
365.241	96.12
365.468	97.12
365.694	99.12
365.92	83.12
366.147	89.12
366.373	82.12
366.599	89.12
366.826	65.12
367.052	74.12
367.278	74.12
367.505	74.12
367.731	85.12
367.957	88.12
368.184	99.12
368.41	87.12
368.636	105.12
368.862	101.12
369.089	85.12
369.315	87.12
369.541	95.12
369.767	97.12
369.993	83.12
370.219	79.12
370.445	84.12
370.672	83.12
370.898	82.12
371.124	105.12
371.35	79.12
371.576	86.12
371.802	84.12
372.028	94.12
372.254	82.12
372.48	70.12
372.706	84.12
372.932	79.12
373.158	85.12
373.384	91.12
373.61	93.12
373.835	91.12
374.061	87.12
374.287	84.12
374.513	84.12
374.739	86.12
374.965	77.12
375.191	97.12
375.416	94.12
375.642	88.12
375.868	87.12
376.094	85.12
376.319	65.12
376.545	89.12
376.771	82.12
376.997	91.12
377.222	87.12
377.448	83.12
377.674	95.12
377.899	85.12
378.125	90.12
378.35	94.12
378.576	82.12
378.802	86.12
379.027	85.12
379.253	82.12
379.478	83.12
379.704	89.12
379.929	106.12
380.155	76.12
380.38	85.12
380.606	92.12
380.831	88.12
381.057	90.12
381.282	87.12
381.507	89.12
381.733	83.12
381.958	91.12
382.184	97.12
382.409	92.12
382.634	99.12
382.86	93.12
383.085	87.12
383.31	78.12
383.535	88.12
383.761	92.12
383.986	102.12
384.211	89.12
384.436	97.12
384.662	88.12
384.887	102.12
385.112	88.12
385.337	95.12
385.562	94.12
385.787	102.12
386.013	111.12
386.238	91.12
386.463	87.12
386.688	107.12
386.913	104.12
387.138	94.12
387.363	91.12
387.588	87.12
387.813	98.12
388.038	77.12
388.263	94.12
388.488	104.12
388.713	101.12
388.938	87.12
389.163	73.12
389.387	97.12
389.612	81.12
389.837	86.12
390.062	86.12
390.287	98.12
390.512	76.12
390.736	80.12
390.961	73.12
391.186	89.12
391.411	87.12
391.636	85.12
391.86	73.12
392.085	81.12
392.31	78.12
392.534	94.12
392.759	82.12
392.984	81.12
393.208	80.12
393.433	80.12
393.658	85.12
393.882	90.12
394.107	100.12
394.331	74.12
394.556	66.12
394.78	80.12
395.005	85.12
395.229	74.12
395.454	95.12
395.678	68.12
395.903	90.12
396.127	95.12
396.352	93.12
396.576	78.12
396.801	79.12
397.025	81.12
397.249	80.12
397.474	93.12
397.698	79.12
397.922	74.12
398.147	93.12
398.371	78.12
398.595	86.12
398.82	92.12
399.044	73.12
399.268	83.12
399.492	77.12
399.717	83.12
399.941	85.12
400.165	103.12
400.389	90.12
400.613	72.12
400.837	76.12
401.062	97.12
401.286	82.12
401.51	81.12
401.734	90.12
401.958	90.12
402.182	110.12
402.406	138.12
402.63	119.12
402.854	89.12
403.078	88.12
403.302	81.12
403.526	84.12
403.75	97.12
403.974	93.12
404.198	98.12
404.422	90.12
404.645	90.12
404.869	81.12
405.093	94.12
405.317	113.12
405.541	92.12
405.765	105.12
405.988	104.12
406.212	138.12
406.436	166.12
406.66	116.12
406.883	92.12
407.107	80.12
407.331	96.12
407.555	98.12
407.778	101.12
408.002	74.12
408.226	81.12
408.449	93.12
408.673	87.12
408.896	83.12
409.12	93.12
409.344	93.12
409.567	97.12
409.791	88.12
410.014	89.12
410.238	86.12
410.461	79.12
410.685	90.12
410.908	82.12
411.132	112.12
411.355	95.12
411.578	81.12
411.802	78.12
412.025	88.12
412.249	75.12
412.472	71.12
412.695	66.12
412.919	79.12
413.142	75.12
413.365	92.12
413.589	85.12
413.812	98.12
414.035	81.12
414.258	81.12
414.482	73.12
414.705	85.12
414.928	99.12
415.151	104.12
415.374	99.12
415.597	86.12
415.821	79.12
416.044	75.12
416.267	88.12
416.49	79.12
416.713	79.12
416.936	87.12
417.159	82.12
417.382	89.12
417.605	77.12
417.828	83.12
418.051	85.12
418.274	89.12
418.497	75.12
418.72	90.12
418.943	88.12
419.166	93.12
419.389	80.12
419.611	69.12
419.834	106.12
420.057	83.12
420.28	76.12
420.503	86.12
420.726	83.12
420.948	74.12
421.171	86.12
421.394	73.12
421.617	77.12
421.839	78.12
422.062	79.12
422.285	68.12
422.507	99.12
422.73	99.12
422.953	82.12
423.175	82.12
423.398	94.12
423.621	83.12
423.843	86.12
424.066	90.12
424.288	89.12
424.511	86.12
424.733	81.12
424.956	86.12
425.178	90.12
425.401	92.12
425.623	90.12
425.846	91.12
426.068	99.12
426.291	81.12
426.513	101.12
426.735	86.12
426.958	98.12
427.18	85.12
427.402	112.12
427.625	146.12
427.847	134.12
428.069	109.12
428.292	73.12
428.514	86.12
428.736	91.12
428.958	64.12
429.181	81.12
429.403	85.12
429.625	72.12
429.847	91.12
430.069	80.12
430.292	90.12
430.514	74.12
430.736	77.12
430.958	57.12
431.18	89.12
431.402	85.12
431.624	83.12
431.846	86.12
432.068	85.12
432.29	74.12
432.512	85.12
432.734	73.12
432.956	89.12
433.178	101.12
433.4	85.12
433.622	93.12
433.844	93.12
434.066	86.12
434.287	91.12
434.509	84.12
434.731	76.12
434.953	81.12
435.175	77.12
435.397	88.12
435.618	85.12
435.84	91.12
436.062	114.12
436.284	93.12
436.505	93.12
436.727	94.12
436.949	89.12
437.17	77.12
437.392	86.12
437.614	77.12
437.835	94.12
438.057	93.12
438.278	99.12
438.5	86.12
438.721	99.12
438.943	105.12
439.165	82.12
439.386	73.12
439.608	81.12
439.829	89.12
440.05	107.12
440.272	127.12
440.493	80.12
440.715	78.12
440.936	79.12
441.158	89.12
441.379	69.12
441.6	88.12
441.822	98.12
442.043	88.12
442.264	89.12
442.486	82.12
442.707	88.12
442.928	88.12
443.149	115.12
443.371	95.12
443.592	82.12
443.813	98.12
444.034	99.12
444.255	93.12
444.476	85.12
444.698	100.12
444.919	89.12
445.14	104.12
445.361	107.12
445.582	97.12
445.803	120.12
446.024	115.12
446.245	108.12
446.466	96.12
446.687	86.12
446.908	78.12
447.129	87.12
447.35	80.12
447.571	91.12
447.792	91.12
448.013	89.12
448.234	98.12
448.455	100.12
448.675	96.12
448.896	103.12
449.117	85.12
449.338	97.12
449.559	101.12
449.779	123.12
450	88.12
450.221	79.12
450.442	85.12
450.662	84.12
450.883	96.12
451.104	111.12
451.324	96.12
451.545	94.12
451.766	59.12
451.986	96.12
452.207	81.12
452.428	96.12
452.648	84.12
452.869	93.12
453.089	95.12
453.31	102.12
453.53	79.12
453.751	80.12
453.971	94.12
454.192	93.12
454.412	79.12
454.633	110.12
454.853	85.12
455.073	82.12
455.294	89.12
455.514	85.12
455.734	84.12
455.955	82.12
456.175	97.12
456.395	91.12
456.616	68.12
456.836	63.12
457.056	88.12
457.276	79.12
457.497	96.12
457.717	71.12
457.937	91.12
458.157	93.12
458.377	90.12
458.598	91.12
458.818	132.12
459.038	128.12
459.258	92.12
459.478	91.12
459.698	74.12
459.918	82.12
460.138	90.12
460.358	86.12
460.578	77.12
460.798	80.12
461.018	72.12
461.238	90.12
461.458	101.12
461.678	81.12
461.898	82.12
462.118	83.12
462.338	79.12
462.558	84.12
462.777	71.12
462.997	96.12
463.217	77.12
463.437	77.12
463.657	74.12
463.876	90.12
464.096	84.12
464.316	85.12
464.536	74.12
464.755	93.12
464.975	79.12
465.195	133.12
465.414	106.12
465.634	81.12
465.854	78.12
466.073	85.12
466.293	79.12
466.512	88.12
466.732	78.12
466.951	95.12
467.171	86.12
467.391	82.12
467.61	93.12
467.829	99.12
468.049	101.12
468.268	109.12
468.488	91.12
468.707	81.12
468.927	79.12
469.146	69.12
469.365	103.12
469.585	88.12
469.804	86.12
470.023	89.12
470.243	94.12
470.462	91.12
470.681	99.12
470.901	70.12
471.12	93.12
471.339	93.12
471.558	83.12
471.777	76.12
471.997	95.12
472.216	115.12
472.435	138.12
472.654	93.12
472.873	78.12
473.092	82.12
473.311	88.12
473.53	90.12
473.749	97.12
473.968	84.12
474.187	109.12
474.406	86.12
474.625	94.12
474.844	88.12
475.063	84.12
475.282	93.12
475.501	85.12
475.72	80.12
475.939	90.12
476.158	95.12
476.377	89.12
476.596	82.12
476.814	80.12
477.033	89.12
477.252	92.12
477.471	83.12
477.69	93.12
477.908	81.12
478.127	92.12
478.346	73.12
478.564	101.12
478.783	93.12
479.002	78.12
479.22	95.12
479.439	91.12
479.658	91.12
479.876	90.12
480.095	70.12
480.313	96.12
480.532	81.12
480.751	86.12
480.969	89.12
481.188	177.12
481.406	121.12
481.624	90.12
481.843	87.12
482.061	70.12
482.28	82.12
482.498	71.12
482.717	85.12
482.935	83.12
483.153	84.12
483.372	95.12
483.59	94.12
483.808	92.12
484.027	84.12
484.245	94.12
484.463	94.12
484.681	93.12
484.9	81.12
485.118	103.12
485.336	80.12
485.554	96.12
485.772	95.12
485.99	111.12
486.209	98.12
486.427	95.12
486.645	93.12
486.863	113.12
487.081	97.12
487.299	104.12
487.517	95.12
487.735	92.12
487.953	80.12
488.171	107.12
488.389	87.12
488.607	99.12
488.825	85.12
489.043	91.12
489.261	90.12
489.479	98.12
489.696	80.12
489.914	103.12
490.132	85.12
490.35	89.12
490.568	83.12
490.786	72.12
491.003	91.12
491.221	82.12
491.439	90.12
491.657	74.12
491.874	92.12
492.092	97.12
492.31	78.12
492.527	89.12
492.745	91.12
492.963	70.12
493.18	83.12
493.398	88.12
493.615	106.12
493.833	85.12
494.05	93.12
494.268	98.12
494.485	95.12
494.703	79.12
494.92	84.12
495.138	89.12
495.355	78.12
495.573	99.12
495.79	98.12
496.008	97.12
496.225	72.12
496.442	89.12
496.66	92.12
496.877	87.12
497.094	93.12
497.312	96.12
497.529	85.12
497.746	93.12
497.963	70.12
498.181	73.12
498.398	101.12
498.615	106.12
498.832	96.12
499.049	78.12
499.267	82.12
499.484	88.12
499.701	90.12
499.918	96.12
500.135	81.12
500.352	100.12
500.569	77.12
500.786	82.12
501.003	84.12
501.22	84.12
501.437	90.12
501.654	99.12
501.871	101.12
502.088	74.12
502.305	89.12
502.522	82.12
502.739	69.12
502.956	89.12
503.172	86.12
503.389	88.12
503.606	94.12
503.823	89.12
504.04	89.12
504.256	89.12
504.473	92.12
504.69	84.12
504.907	85.12
505.123	85.12
505.34	86.12
505.557	86.12
505.773	88.12
505.99	101.12
506.207	80.12
506.423	89.12
506.64	86.12
506.856	78.12
507.073	91.12
507.289	102.12
507.506	89.12
507.722	109.12
507.939	93.12
508.155	94.12
508.372	95.12
508.588	100.12
508.805	94.12
509.021	93.12
509.238	101.12
509.454	94.12
509.67	93.12
509.887	88.12
510.103	118.12
510.319	175.12
510.536	553.12
510.752	1665.12
510.968	497.12
511.184	127.12
511.401	92.12
511.617	100.12
511.833	90.12
512.049	87.12
512.265	90.12
512.481	105.12
512.698	78.12
512.914	70.12
513.13	91.12
513.346	87.12
513.562	82.12
513.778	104.12
513.994	73.12
514.21	93.12
514.426	99.12
514.642	114.12
514.858	110.12
515.074	137.12
515.29	345.12
515.506	987.12
515.721	376.12
515.937	128.12
516.153	107.12
516.369	88.12
516.585	90.12
516.801	89.12
517.016	97.12
517.232	83.12
517.448	96.12
517.664	89.12
