Data from Circ_1982_H10_HRD10591_00043.txt Node
Date: Wed Jan 03 12:30:49 EST 2024
User: Yrep
Spectrometer: HR+D1059
Trigger mode: 1
Integration Time (sec): 1.000000E-1
Scans to average: 1
Electric dark correction enabled: true
Nonlinearity correction enabled: false
Boxcar width: 0
XAxis mode: Wavelengths
Number of Pixels in Spectrum: 2048
>>>>>Begin Spectral Data<<<<<
223.165	-10
223.4	-10
223.635	-10
223.869	-11
224.104	-22
224.338	-1
224.573	-8
224.808	-1
225.042	-22
225.277	-2
225.511	-5
225.746	6
225.98	8
226.215	6
226.449	21
226.683	11
226.918	20
227.152	10
227.387	36
227.621	45
227.856	45
228.09	47
228.324	66
228.559	70
228.793	65
229.027	61
229.262	67
229.496	76
229.73	82
229.964	79
230.199	82
230.433	79
230.667	79
230.901	83
231.136	72
231.37	97
231.604	86
231.838	72
232.072	84
232.306	94
232.541	76
232.775	84
233.009	88
233.243	86
233.477	83
233.711	76
233.945	79
234.179	78
234.413	71
234.647	82
234.881	80
235.115	80
235.349	87
235.583	69
235.817	79
236.051	74
236.285	88
236.519	89
236.753	82
236.987	86
237.221	69
237.455	89
237.689	84
237.922	67
238.156	77
238.39	74
238.624	68
238.858	79
239.091	76
239.325	85
239.559	73
239.793	88
240.027	76
240.26	71
240.494	80
240.728	84
240.961	79
241.195	89
241.429	86
241.662	84
241.896	78
242.13	74
242.363	81
242.597	78
242.83	86
243.064	90
243.298	86
243.531	77
243.765	80
243.998	78
244.232	80
244.465	79
244.699	73
244.932	83
245.166	100
245.399	85
245.633	64
245.866	76
246.099	72
246.333	75
246.566	79
246.8	83
247.033	79
247.266	92
247.5	92
247.733	86
247.966	69
248.2	68
248.433	80
248.666	94
248.899	71
249.133	88
249.366	87
249.599	94
249.832	75
250.066	85
250.299	91
250.532	100
250.765	80
250.998	90
251.231	90
251.465	79
251.698	70
251.931	87
252.164	88
252.397	79
252.63	68
252.863	94
253.096	86
253.329	82
253.562	85
253.795	72
254.028	72
254.261	69
254.494	94
254.727	94
254.96	84
255.193	84
255.426	95
255.659	86
255.892	80
256.124	84
256.357	96
256.59	90
256.823	91
257.056	75
257.289	87
257.521	93
257.754	86
257.987	77
258.22	84
258.452	77
258.685	77
258.918	94
259.151	93
259.383	85
259.616	66
259.849	94
260.081	91
260.314	88
260.547	94
260.779	73
261.012	77
261.244	76
261.477	98
261.71	93
261.942	87
262.175	104
262.407	93
262.64	90
262.872	82
263.105	89
263.337	94
263.57	87
263.802	82
264.035	82
264.267	91
264.499	88
264.732	86
264.964	77
265.197	96
265.429	86
265.661	92
265.894	91
266.126	88
266.358	88
266.591	75
266.823	77
267.055	94
267.287	87
267.52	86
267.752	80
267.984	88
268.216	99
268.448	91
268.681	85
268.913	90
269.145	85
269.377	99
269.609	82
269.841	89
270.073	83
270.306	85
270.538	84
270.77	84
271.002	74
271.234	73
271.466	95
271.698	85
271.93	92
272.162	92
272.394	83
272.626	86
272.858	70
273.09	91
273.322	82
273.553	76
273.785	98
274.017	86
274.249	90
274.481	87
274.713	84
274.945	85
275.176	101
275.408	98
275.64	93
275.872	79
276.104	93
276.335	91
276.567	78
276.799	105
277.031	95
277.262	100
277.494	82
277.726	83
277.957	78
278.189	93
278.421	86
278.652	95
278.884	86
279.115	99
279.347	90
279.579	92
279.81	95
280.042	87
280.273	96
280.505	86
280.736	66
280.968	79
281.199	107
281.431	100
281.662	90
281.894	95
282.125	89
282.356	103
282.588	120
282.819	96
283.051	82
283.282	95
283.513	93
283.745	87
283.976	98
284.207	88
284.439	73
284.67	88
284.901	77
285.132	90
285.364	103
285.595	84
285.826	96
286.057	94
286.288	79
286.52	90
286.751	78
286.982	85
287.213	91
287.444	83
287.675	85
287.906	93
288.138	85
288.369	96
288.6	106
288.831	83
289.062	92
289.293	100
289.524	94
289.755	90
289.986	83
290.217	89
290.448	87
290.679	106
290.91	98
291.141	86
291.371	95
291.602	92
291.833	79
292.064	82
292.295	86
292.526	64
292.757	78
292.987	106
293.218	108
293.449	91
293.68	87
293.91	94
294.141	92
294.372	86
294.603	88
294.833	90
295.064	91
295.295	100
295.525	79
295.756	99
295.987	110
296.217	118
296.448	100
296.679	94
296.909	87
297.14	101
297.37	95
297.601	100
297.831	102
298.062	86
298.292	104
298.523	106
298.753	93
298.984	98
299.214	84
299.445	93
299.675	92
299.905	95
300.136	88
300.366	86
300.597	95
300.827	85
301.057	76
301.288	104
301.518	88
301.748	103
301.979	99
302.209	98
302.439	89
302.669	99
302.9	109
303.13	83
303.36	84
303.59	96
303.82	107
304.051	98
304.281	96
304.511	94
304.741	91
304.971	94
305.201	85
305.431	107
305.661	99
305.891	85
306.121	85
306.352	82
306.582	101
306.812	91
307.042	98
307.272	79
307.502	96
307.731	92
307.961	101
308.191	110
308.421	91
308.651	91
308.881	93
309.111	102
309.341	90
309.571	93
309.8	85
310.03	106
310.26	86
310.49	100
310.72	99
310.949	95
311.179	99
311.409	98
311.639	98
311.868	93
312.098	86
312.328	102
312.557	109
312.787	93
313.017	103
313.246	105
313.476	85
313.706	89
313.935	93
314.165	95
314.394	95
314.624	102
314.853	97
315.083	93
315.312	93
315.542	87
315.771	82
316.001	83
316.23	100
316.46	100
316.689	83
316.919	92
317.148	91
317.377	102
317.607	87
317.836	92
318.065	88
318.295	97
318.524	89
318.753	86
318.983	95
319.212	99
319.441	102
319.67	98
319.9	101
320.129	99
320.358	94
320.587	107
320.816	84
321.046	85
321.275	91
321.504	88
321.733	93
321.962	91
322.191	94
322.42	103
322.649	112
322.878	103
323.108	104
323.337	117
323.566	124
323.795	124
324.024	166
324.253	287
324.482	560
324.71	1085
324.939	1432
325.168	535
325.397	175
325.626	116
325.855	125
326.084	117
326.313	106
326.542	128
326.77	166
326.999	338
327.228	640
327.457	1152
327.686	925
327.914	277
328.143	157
328.372	119
328.6	112
328.829	104
329.058	107
329.287	116
329.515	96
329.744	95
329.972	99
330.201	101
330.43	113
330.658	115
330.887	112
331.115	102
331.344	99
331.572	88
331.801	103
332.03	98
332.258	105
332.486	85
332.715	94
332.943	95
333.172	93
333.4	98
333.629	93
333.857	105
334.085	107
334.314	114
334.542	120
334.771	121
334.999	103
335.227	88
335.455	78
335.684	83
335.912	98
336.14	99
336.369	102
336.597	92
336.825	99
337.053	94
337.281	107
337.51	113
337.738	83
337.966	79
338.194	90
338.422	91
338.65	96
338.878	86
339.106	95
339.334	101
339.562	82
339.79	90
340.018	84
340.246	85
340.474	87
340.702	71
340.93	91
341.158	86
341.386	86
341.614	87
341.842	82
342.07	77
342.298	102
342.526	76
342.754	89
342.981	86
343.209	106
343.437	98
343.665	91
343.893	86
344.12	105
344.348	94
344.576	80
344.804	86
345.031	82
345.259	98
345.487	85
345.714	99
345.942	79
346.17	90
346.397	92
346.625	85
346.853	87
347.08	84
347.308	99
347.535	82
347.763	98
347.99	82
348.218	99
348.445	93
348.673	124
348.9	105
349.128	103
349.355	96
349.583	85
349.81	99
350.037	107
350.265	109
350.492	112
350.72	101
350.947	106
351.174	100
351.402	95
351.629	94
351.856	101
352.083	96
352.311	99
352.538	100
352.765	117
352.992	94
353.22	103
353.447	107
353.674	108
353.901	91
354.128	101
354.355	88
354.583	101
354.81	84
355.037	82
355.264	87
355.491	101
355.718	84
355.945	107
356.172	91
356.399	96
356.626	102
356.853	97
357.08	94
357.307	90
357.534	104
357.761	105
357.988	89
358.215	104
358.441	91
358.668	124
358.895	106
359.122	105
359.349	77
359.576	88
359.802	94
360.029	95
360.256	96
360.483	99
360.709	92
360.936	91
361.163	95
361.39	97
361.616	86
361.843	87
362.07	98
362.296	88
362.523	94
362.749	86
362.976	84
363.203	94
363.429	84
363.656	80
363.882	81
364.109	76
364.335	95
364.562	88
364.788	94
365.015	104
365.241	95
365.468	106
365.694	99
365.92	94
366.147	91
366.373	96
366.599	78
366.826	90
367.052	87
367.278	100
367.505	92
367.731	98
367.957	92
368.184	96
368.41	91
368.636	116
368.862	117
369.089	96
369.315	83
369.541	90
369.767	90
369.993	75
370.219	90
370.445	84
370.672	88
370.898	93
371.124	99
371.35	86
371.576	82
371.802	87
372.028	91
372.254	95
372.48	86
372.706	98
372.932	83
373.158	77
373.384	86
373.61	103
373.835	91
374.061	71
374.287	93
374.513	77
374.739	90
374.965	89
375.191	93
375.416	75
375.642	92
375.868	103
376.094	82
376.319	64
376.545	76
376.771	85
376.997	106
377.222	100
377.448	101
377.674	71
377.899	86
378.125	108
378.35	84
378.576	100
378.802	100
379.027	93
379.253	90
379.478	100
379.704	101
379.929	93
380.155	107
380.38	98
380.606	85
380.831	102
381.057	93
381.282	86
381.507	105
381.733	76
381.958	98
382.184	107
382.409	102
382.634	104
382.86	96
383.085	89
383.31	100
383.535	106
383.761	119
383.986	104
384.211	111
384.436	103
384.662	108
384.887	113
385.112	117
385.337	115
385.562	107
385.787	106
386.013	106
386.238	103
386.463	103
386.688	117
386.913	111
387.138	108
387.363	99
387.588	97
387.813	100
388.038	113
388.263	122
388.488	119
388.713	98
388.938	102
389.163	93
389.387	102
389.612	89
389.837	95
390.062	88
390.287	85
390.512	91
390.736	100
390.961	88
391.186	91
391.411	88
391.636	94
391.86	79
392.085	93
392.31	86
392.534	82
392.759	98
392.984	77
393.208	90
393.433	89
393.658	91
393.882	86
394.107	79
394.331	86
394.556	79
394.78	89
395.005	82
395.229	78
395.454	84
395.678	93
395.903	82
396.127	99
396.352	85
396.576	83
396.801	88
397.025	89
397.249	90
397.474	94
397.698	102
397.922	91
398.147	96
398.371	93
398.595	83
398.82	94
399.044	90
399.268	92
399.492	96
399.717	88
399.941	89
400.165	95
400.389	86
400.613	96
400.837	86
401.062	80
401.286	85
401.51	91
401.734	94
401.958	95
402.182	102
402.406	137
402.63	106
402.854	98
403.078	87
403.302	93
403.526	71
403.75	70
403.974	78
404.198	82
404.422	110
404.645	92
404.869	98
405.093	86
405.317	97
405.541	93
405.765	92
405.988	96
406.212	134
406.436	155
406.66	133
406.883	106
407.107	79
407.331	107
407.555	89
407.778	102
408.002	92
408.226	89
408.449	87
408.673	90
408.896	88
409.12	109
409.344	100
409.567	86
409.791	91
410.014	87
410.238	93
410.461	91
410.685	96
410.908	97
411.132	100
411.355	98
411.578	99
411.802	86
412.025	81
412.249	94
412.472	92
412.695	91
412.919	94
413.142	84
413.365	86
413.589	87
413.812	88
414.035	90
414.258	91
414.482	106
414.705	79
414.928	92
415.151	82
415.374	107
415.597	95
415.821	86
416.044	85
416.267	86
416.49	97
416.713	93
416.936	93
417.159	77
417.382	102
417.605	99
417.828	105
418.051	87
418.274	91
418.497	84
418.72	92
418.943	73
419.166	74
419.389	83
419.611	79
419.834	77
420.057	96
420.28	90
420.503	101
420.726	71
420.948	91
421.171	77
421.394	90
421.617	93
421.839	90
422.062	98
422.285	85
422.507	96
422.73	102
422.953	82
423.175	92
423.398	85
423.621	86
423.843	96
424.066	94
424.288	86
424.511	87
424.733	90
424.956	96
425.178	86
425.401	89
425.623	82
425.846	93
426.068	92
426.291	102
426.513	74
426.735	79
426.958	110
427.18	91
427.402	115
427.625	131
427.847	107
428.069	87
428.292	99
428.514	88
428.736	84
428.958	76
429.181	73
429.403	77
429.625	95
429.847	89
430.069	87
430.292	98
430.514	78
430.736	84
430.958	86
431.18	92
431.402	84
431.624	91
431.846	80
432.068	89
432.29	95
432.512	95
432.734	95
432.956	95
433.178	76
433.4	100
433.622	91
433.844	105
434.066	68
434.287	100
434.509	103
434.731	101
434.953	83
435.175	94
435.397	98
435.618	93
435.84	104
436.062	106
436.284	106
436.505	92
436.727	105
436.949	109
437.17	85
437.392	84
437.614	85
437.835	96
438.057	94
438.278	104
438.5	108
438.721	107
438.943	95
439.165	85
439.386	90
439.608	79
439.829	98
440.05	111
440.272	116
440.493	99
440.715	85
440.936	82
441.158	88
441.379	87
441.6	99
441.822	106
442.043	81
442.264	90
442.486	85
442.707	106
442.928	95
443.149	103
443.371	109
443.592	91
443.813	98
444.034	89
444.255	91
444.476	98
444.698	85
444.919	97
445.14	128
445.361	124
445.582	101
445.803	106
446.024	111
446.245	116
446.466	91
446.687	76
446.908	102
447.129	94
447.35	92
447.571	93
447.792	87
448.013	91
448.234	93
448.455	97
448.675	118
448.896	104
449.117	95
449.338	93
449.559	119
449.779	119
450	88
450.221	92
450.442	103
450.662	90
450.883	95
451.104	101
451.324	82
451.545	93
451.766	87
451.986	87
452.207	87
452.428	87
452.648	72
452.869	95
453.089	103
453.31	105
453.53	86
453.751	109
453.971	102
454.192	81
454.412	90
454.633	89
454.853	84
455.073	88
455.294	95
455.514	96
455.734	88
455.955	76
456.175	97
456.395	93
456.616	88
456.836	74
457.056	87
457.276	89
457.497	96
457.717	78
457.937	70
458.157	86
458.377	70
458.598	106
458.818	126
459.038	128
459.258	93
459.478	96
459.698	79
459.918	84
460.138	90
460.358	76
460.578	95
460.798	88
461.018	91
461.238	82
461.458	72
461.678	81
461.898	89
462.118	102
462.338	94
462.558	92
462.777	86
462.997	91
463.217	95
463.437	80
463.657	106
463.876	89
464.096	87
464.316	86
464.536	90
464.755	87
464.975	109
465.195	142
465.414	121
465.634	100
465.854	86
466.073	86
466.293	90
466.512	83
466.732	94
466.951	91
467.171	86
467.391	99
467.61	109
467.829	102
468.049	90
468.268	84
468.488	79
468.707	79
468.927	86
469.146	85
469.365	97
469.585	92
469.804	93
470.023	102
470.243	89
470.462	85
470.681	92
470.901	89
471.12	81
471.339	91
471.558	95
471.777	91
471.997	97
472.216	112
472.435	128
472.654	102
472.873	88
473.092	91
473.311	83
473.53	85
473.749	88
473.968	93
474.187	97
474.406	96
474.625	86
474.844	100
475.063	101
475.282	91
475.501	90
475.72	96
475.939	75
476.158	93
476.377	96
476.596	92
476.814	88
477.033	75
477.252	84
477.471	90
477.69	110
477.908	98
478.127	83
478.346	92
478.564	80
478.783	85
479.002	93
479.22	91
479.439	99
479.658	85
479.876	100
480.095	80
480.313	100
480.532	96
480.751	101
480.969	116
481.188	162
481.406	120
481.624	96
481.843	84
482.061	87
482.28	93
482.498	99
482.717	79
482.935	93
483.153	87
483.372	82
483.59	89
483.808	102
484.027	88
484.245	99
484.463	88
484.681	94
484.9	82
485.118	102
485.336	99
485.554	88
485.772	99
485.99	122
486.209	109
486.427	124
486.645	102
486.863	108
487.081	103
487.299	106
487.517	92
487.735	96
487.953	106
488.171	96
488.389	94
488.607	90
488.825	100
489.043	84
489.261	88
489.479	86
489.696	91
489.914	82
490.132	107
490.35	94
490.568	95
490.786	81
491.003	95
491.221	84
491.439	104
491.657	100
491.874	100
492.092	90
492.31	79
492.527	103
492.745	112
492.963	90
493.18	96
493.398	82
493.615	90
493.833	102
494.05	91
494.268	93
494.485	83
494.703	85
494.92	86
495.138	86
495.355	72
495.573	84
495.79	91
496.008	93
496.225	92
496.442	92
496.66	95
496.877	101
497.094	77
497.312	73
497.529	92
497.746	97
497.963	104
498.181	86
498.398	83
498.615	88
498.832	100
499.049	101
499.267	77
499.484	93
499.701	88
499.918	97
500.135	88
500.352	92
500.569	83
500.786	98
501.003	100
501.22	82
501.437	92
501.654	109
501.871	98
502.088	84
502.305	94
502.522	89
502.739	95
502.956	82
503.172	93
503.389	109
503.606	97
503.823	93
504.04	94
504.256	90
504.473	77
504.69	89
504.907	86
505.123	81
505.34	98
505.557	90
505.773	98
505.99	90
506.207	87
506.423	91
506.64	102
506.856	84
507.073	87
507.289	94
507.506	110
507.722	95
507.939	94
508.155	91
508.372	91
508.588	95
508.805	94
509.021	82
509.238	115
509.454	105
509.67	95
509.887	92
510.103	123
510.319	159
510.536	502
510.752	1388
510.968	416
511.184	124
511.401	100
511.617	90
511.833	92
512.049	98
512.265	96
512.481	100
512.698	85
512.914	99
513.13	93
513.346	100
513.562	88
513.778	95
513.994	89
514.21	100
514.426	108
514.642	121
514.858	103
515.074	134
515.29	287
515.506	820
515.721	319
515.937	108
516.153	88
516.369	106
516.585	94
516.801	85
517.016	101
517.232	92
517.448	99
517.664	99
517.879	94
518.095	76
518.311	83
518.527	88
518.742	94
518.958	80
519.173	100
519.389	102
519.605	106
519.82	96
520.036	99
520.251	125
520.467	113
520.682	101
520.898	97
521.113	109
521.329	118
521.544	149
521.76	354
521.975	1336
522.19	808
522.406	209
522.621	111
522.836	97
523.052	91
523.267	94
523.482	101
523.698	96
523.913	110
524.128	105
524.343	99
524.559	89
524.774	87
524.989	100
525.204	98
525.419	92
525.634	85
525.849	88
526.064	84
526.28	98
526.495	94
526.71	90
526.925	91
527.14	83
527.355	98
527.57	89
527.785	88
527.999	103
528.214	86
528.429	100
528.644	83
528.859	93
529.074	103
529.289	111
529.503	135
529.718	91
529.933	109
530.148	86
530.363	95
530.577	101
530.792	99
531.007	95
531.221	91
531.436	87
531.651	94
531.865	97
532.08	89
532.295	86
532.509	102
532.724	107
532.938	105
533.153	99
533.367	90
533.582	103
533.796	87
534.011	108
534.225	106
534.44	80
534.654	103
534.868	92
535.083	77
535.297	100
535.511	96
535.726	98
535.94	81
536.154	88
536.369	95
536.583	91
536.797	99
537.011	93
537.225	80
537.44	86
537.654	86
537.868	96
538.082	87
538.296	90
538.51	91
538.724	84
538.938	88
539.153	91
539.367	95
539.581	104
539.795	87
540.009	98
540.222	83
540.436	98
540.65	90
540.864	87
541.078	103
541.292	87
541.506	97
541.72	75
541.934	98
542.147	101
542.361	70
542.575	94
542.789	91
543.002	90
543.216	96
543.43	98
543.644	98
543.857	85
544.071	97
544.285	105
544.498	91
544.712	100
544.925	80
545.139	82
545.352	96
545.566	94
545.779	100
545.993	96
546.206	98
546.42	104
546.633	77
546.847	94
547.06	90
547.274	101
547.487	102
547.7	89
547.914	88
548.127	104
548.34	91
548.554	88
548.767	94
548.98	94
549.193	92
549.407	87
549.62	100
549.833	102
550.046	86
550.259	101
550.473	98
550.686	87
550.899	84
551.112	92
551.325	92
551.538	82
551.751	91
551.964	94
552.177	88
552.39	84
552.603	92
552.816	98
553.029	88
553.242	98
553.455	92
553.667	94
553.88	94
554.093	79
554.306	91
554.519	91
554.732	92
554.944	90
555.157	88
555.37	82
555.583	94
555.795	96
556.008	99
556.221	97
556.433	96
556.646	89
556.859	92
557.071	87
557.284	76
557.496	106
557.709	81
557.921	95
558.134	103
558.346	90
558.559	89
558.771	102
558.984	86
559.196	92
559.409	100
559.621	115
559.833	93
560.046	78
560.258	79
560.47	90
560.683	88
560.895	93
561.107	88
561.32	90
561.532	83
561.744	90
561.956	97
562.168	93
562.381	94
562.593	94
562.805	95
563.017	89
563.229	87
563.441	79
563.653	86
563.865	97
564.077	102
564.289	87
564.501	84
564.713	98
564.925	99
565.137	79
565.349	94
565.561	96
565.773	96
565.985	83
566.197	92
566.408	75
566.62	101
566.832	95
567.044	99
567.255	94
567.467	92
567.679	97
567.891	94
568.102	95
568.314	84
568.526	92
568.737	95
568.949	84
569.161	94
569.372	78
569.584	92
569.795	98
570.007	102
570.218	164
570.43	123
570.641	94
570.853	88
571.064	94
571.276	88
571.487	83
571.698	99
571.91	95
572.121	87
572.333	74
572.544	84
572.755	110
572.966	87
573.178	87
573.389	99
573.6	99
573.811	85
574.023	97
574.234	88
574.445	89
574.656	88
574.867	86
575.078	88
575.289	90
575.501	99
575.712	92
575.923	100
576.134	85
576.345	85
576.556	94
576.767	83
576.978	87
577.188	103
577.399	87
577.61	90
577.821	84
578.032	93
578.243	188
578.454	425
578.665	146
578.875	98
579.086	88
579.297	81
579.508	92
579.718	82
579.929	89
580.14	83
580.35	75
580.561	79
580.772	84
580.982	93
581.193	88
581.403	78
581.614	94
581.825	87
582.035	99
582.246	96
582.456	90
582.667	100
582.877	85
583.087	91
583.298	81
583.508	88
583.719	91
583.929	85
584.139	89
584.35	92
584.56	78
