Data from Circ_1982_H10_HRD10591_00052.txt Node
Date: Wed Jan 03 12:30:51 EST 2024
User: Yrep
Spectrometer: HR+D1059
Trigger mode: 1
Integration Time (sec): 1.000000E-1
Scans to average: 1
Electric dark correction enabled: true
Nonlinearity correction enabled: false
Boxcar width: 0
XAxis mode: Wavelengths
Number of Pixels in Spectrum: 2048
>>>>>Begin Spectral Data<<<<<
223.165	-25
223.4	-25
223.635	-25
223.869	-25
224.104	-34
224.338	-24
224.573	-8
224.808	-12
225.042	-1
225.277	0
225.511	-7
225.746	7
225.98	5
226.215	25
226.449	19
226.683	28
226.918	17
227.152	35
227.387	24
227.621	37
227.856	53
228.09	41
228.324	31
228.559	51
228.793	53
229.027	64
229.262	59
229.496	77
229.73	81
229.964	71
230.199	57
230.433	81
230.667	71
230.901	76
231.136	67
231.37	81
231.604	76
231.838	85
232.072	79
232.306	99
232.541	82
232.775	72
233.009	79
233.243	81
233.477	92
233.711	75
233.945	75
234.179	82
234.413	72
234.647	97
234.881	83
235.115	69
235.349	91
235.583	72
235.817	71
236.051	71
236.285	82
236.519	67
236.753	89
236.987	86
237.221	83
237.455	91
237.689	79
237.922	81
238.156	71
238.39	70
238.624	66
238.858	69
239.091	63
239.325	74
239.559	73
239.793	83
240.027	96
240.26	80
240.494	79
240.728	76
240.961	69
241.195	91
241.429	71
241.662	77
241.896	83
242.13	77
242.363	89
242.597	75
242.83	76
243.064	85
243.298	69
243.531	71
243.765	69
243.998	76
244.232	82
244.465	87
244.699	93
244.932	87
245.166	83
245.399	84
245.633	69
245.866	70
246.099	81
246.333	75
246.566	65
246.8	72
247.033	76
247.266	83
247.5	80
247.733	84
247.966	83
248.2	77
248.433	79
248.666	70
248.899	87
249.133	91
249.366	101
249.599	98
249.832	67
250.066	96
250.299	84
250.532	75
250.765	83
250.998	92
251.231	83
251.465	87
251.698	65
251.931	70
252.164	73
252.397	58
252.63	87
252.863	84
253.096	80
253.329	81
253.562	74
253.795	79
254.028	71
254.261	74
254.494	86
254.727	83
254.96	85
255.193	71
255.426	87
255.659	83
255.892	84
256.124	74
256.357	86
256.59	72
256.823	83
257.056	87
257.289	91
257.521	69
257.754	85
257.987	86
258.22	77
258.452	72
258.685	83
258.918	82
259.151	80
259.383	76
259.616	75
259.849	80
260.081	83
260.314	68
260.547	69
260.779	71
261.012	83
261.244	95
261.477	84
261.71	75
261.942	81
262.175	99
262.407	92
262.64	79
262.872	82
263.105	82
263.337	76
263.57	85
263.802	85
264.035	83
264.267	95
264.499	82
264.732	89
264.964	81
265.197	74
265.429	68
265.661	71
265.894	67
266.126	83
266.358	81
266.591	77
266.823	80
267.055	82
267.287	81
267.52	93
267.752	85
267.984	81
268.216	79
268.448	87
268.681	85
268.913	91
269.145	81
269.377	93
269.609	86
269.841	87
270.073	71
270.306	97
270.538	85
270.77	90
271.002	68
271.234	90
271.466	98
271.698	95
271.93	97
272.162	73
272.394	67
272.626	74
272.858	82
273.09	67
273.322	81
273.553	87
273.785	77
274.017	84
274.249	82
274.481	95
274.713	90
274.945	90
275.176	90
275.408	78
275.64	86
275.872	87
276.104	77
276.335	85
276.567	80
276.799	99
277.031	88
277.262	94
277.494	100
277.726	97
277.957	84
278.189	91
278.421	96
278.652	91
278.884	83
279.115	90
279.347	69
279.579	77
279.81	88
280.042	91
280.273	90
280.505	89
280.736	65
280.968	89
281.199	90
281.431	85
281.662	75
281.894	84
282.125	95
282.356	94
282.588	105
282.819	96
283.051	85
283.282	99
283.513	98
283.745	79
283.976	87
284.207	86
284.439	94
284.67	94
284.901	88
285.132	99
285.364	86
285.595	95
285.826	100
286.057	90
286.288	87
286.52	67
286.751	95
286.982	90
287.213	91
287.444	84
287.675	91
287.906	78
288.138	71
288.369	106
288.6	82
288.831	91
289.062	86
289.293	84
289.524	85
289.755	82
289.986	95
290.217	87
290.448	87
290.679	106
290.91	90
291.141	74
291.371	93
291.602	93
291.833	97
292.064	81
292.295	86
292.526	85
292.757	81
292.987	85
293.218	86
293.449	69
293.68	97
293.91	86
294.141	104
294.372	91
294.603	76
294.833	83
295.064	76
295.295	87
295.525	91
295.756	84
295.987	109
296.217	113
296.448	107
296.679	86
296.909	89
297.14	89
297.37	108
297.601	87
297.831	93
298.062	84
298.292	92
298.523	91
298.753	82
298.984	83
299.214	89
299.445	95
299.675	82
299.905	87
300.136	84
300.366	91
300.597	85
300.827	90
301.057	102
301.288	103
301.518	90
301.748	83
301.979	98
302.209	84
302.439	89
302.669	99
302.9	83
303.13	83
303.36	91
303.59	91
303.82	98
304.051	98
304.281	82
304.511	101
304.741	92
304.971	87
305.201	86
305.431	94
305.661	90
305.891	81
306.121	99
306.352	92
306.582	92
306.812	103
307.042	98
307.272	92
307.502	75
307.731	95
307.961	76
308.191	84
308.421	88
308.651	77
308.881	74
309.111	101
309.341	99
309.571	90
309.8	91
310.03	90
310.26	85
310.49	104
310.72	99
310.949	96
311.179	90
311.409	90
311.639	84
311.868	100
312.098	96
312.328	91
312.557	95
312.787	89
313.017	101
313.246	93
313.476	92
313.706	98
313.935	99
314.165	99
314.394	90
314.624	92
314.853	86
315.083	90
315.312	82
315.542	86
315.771	93
316.001	97
316.23	95
316.46	88
316.689	87
316.919	95
317.148	84
317.377	90
317.607	93
317.836	92
318.065	90
318.295	91
318.524	78
318.753	82
318.983	100
319.212	88
319.441	98
319.67	95
319.9	100
320.129	90
320.358	98
320.587	105
320.816	98
321.046	102
321.275	87
321.504	89
321.733	89
321.962	101
322.191	105
322.42	95
322.649	91
322.878	97
323.108	109
323.337	116
323.566	116
323.795	124
324.024	163
324.253	289
324.482	598
324.71	1161
324.939	1508
325.168	556
325.397	173
325.626	131
325.855	108
326.084	113
326.313	133
326.542	136
326.77	184
326.999	357
327.228	642
327.457	1188
327.686	966
327.914	264
328.143	153
328.372	136
328.6	113
328.829	105
329.058	100
329.287	106
329.515	80
329.744	103
329.972	108
330.201	111
330.43	117
330.658	99
330.887	119
331.115	102
331.344	92
331.572	88
331.801	101
332.03	90
332.258	92
332.486	100
332.715	95
332.943	88
333.172	91
333.4	87
333.629	86
333.857	96
334.085	94
334.314	93
334.542	137
334.771	108
334.999	92
335.227	74
335.455	90
335.684	84
335.912	91
336.14	87
336.369	90
336.597	85
336.825	121
337.053	106
337.281	96
337.51	106
337.738	97
337.966	92
338.194	97
338.422	90
338.65	90
338.878	102
339.106	92
339.334	79
339.562	85
339.79	88
340.018	100
340.246	97
340.474	80
340.702	84
340.93	106
341.158	92
341.386	86
341.614	82
341.842	97
342.07	89
342.298	103
342.526	97
342.754	87
342.981	84
343.209	79
343.437	85
343.665	90
343.893	91
344.12	92
344.348	104
344.576	92
344.804	85
345.031	94
345.259	95
345.487	90
345.714	90
345.942	84
346.17	99
346.397	92
346.625	99
346.853	98
347.08	93
347.308	85
347.535	93
347.763	106
347.99	98
348.218	96
348.445	95
348.673	86
348.9	87
349.128	86
349.355	89
349.583	105
349.81	92
350.037	80
350.265	82
350.492	98
350.72	100
350.947	92
351.174	104
351.402	107
351.629	82
351.856	95
352.083	99
352.311	116
352.538	111
352.765	103
352.992	99
353.22	115
353.447	103
353.674	80
353.901	91
354.128	98
354.355	77
354.583	106
354.81	93
355.037	105
355.264	83
355.491	87
355.718	88
355.945	85
356.172	87
356.399	95
356.626	96
356.853	93
357.08	91
357.307	103
357.534	86
357.761	100
357.988	88
358.215	93
358.441	99
358.668	108
358.895	98
359.122	87
359.349	72
359.576	99
359.802	90
360.029	90
360.256	89
360.483	100
360.709	93
360.936	93
361.163	88
361.39	87
361.616	91
361.843	90
362.07	96
362.296	100
362.523	92
362.749	99
362.976	91
363.203	90
363.429	93
363.656	88
363.882	90
364.109	91
364.335	89
364.562	84
364.788	82
365.015	91
365.241	102
365.468	89
365.694	92
365.92	87
366.147	101
366.373	90
366.599	85
366.826	89
367.052	81
367.278	92
367.505	86
367.731	106
367.957	88
368.184	93
368.41	110
368.636	115
368.862	102
369.089	107
369.315	97
369.541	92
369.767	81
369.993	76
370.219	91
370.445	97
370.672	84
370.898	89
371.124	91
371.35	83
371.576	77
371.802	83
372.028	85
372.254	98
372.48	87
372.706	95
372.932	82
373.158	89
373.384	93
373.61	84
373.835	72
374.061	86
374.287	101
374.513	83
374.739	93
374.965	92
375.191	103
375.416	89
375.642	88
375.868	94
376.094	92
376.319	85
376.545	91
376.771	98
376.997	88
377.222	79
377.448	104
377.674	93
377.899	100
378.125	95
378.35	92
378.576	79
378.802	95
379.027	94
379.253	87
379.478	91
379.704	75
379.929	103
380.155	87
380.38	89
380.606	89
380.831	95
381.057	103
381.282	89
381.507	96
381.733	87
381.958	104
382.184	113
382.409	92
382.634	95
382.86	91
383.085	75
383.31	97
383.535	99
383.761	101
383.986	104
384.211	97
384.436	95
384.662	84
384.887	89
385.112	100
385.337	104
385.562	101
385.787	107
386.013	110
386.238	107
386.463	106
386.688	103
386.913	113
387.138	104
387.363	99
387.588	94
387.813	89
388.038	92
388.263	116
388.488	110
388.713	106
388.938	96
389.163	118
389.387	103
389.612	94
389.837	88
390.062	105
390.287	93
390.512	99
390.736	84
390.961	98
391.186	86
391.411	86
391.636	90
391.86	87
392.085	84
392.31	101
392.534	90
392.759	81
392.984	92
393.208	91
393.433	79
393.658	80
393.882	88
394.107	91
394.331	89
394.556	80
394.78	83
395.005	92
395.229	83
395.454	90
395.678	79
395.903	95
396.127	81
396.352	82
396.576	96
396.801	89
397.025	102
397.249	87
397.474	87
397.698	72
397.922	85
398.147	84
398.371	85
398.595	100
398.82	84
399.044	80
399.268	99
399.492	81
399.717	80
399.941	75
400.165	87
400.389	82
400.613	82
400.837	74
401.062	87
401.286	76
401.51	76
401.734	93
401.958	96
402.182	103
402.406	127
402.63	101
402.854	97
403.078	90
403.302	89
403.526	95
403.75	80
403.974	80
404.198	87
404.422	87
404.645	87
404.869	86
405.093	90
405.317	90
405.541	96
405.765	105
405.988	112
406.212	134
406.436	171
406.66	112
406.883	103
407.107	94
407.331	85
407.555	92
407.778	95
408.002	84
408.226	89
408.449	96
408.673	81
408.896	86
409.12	82
409.344	92
409.567	85
409.791	90
410.014	97
410.238	90
410.461	90
410.685	95
410.908	106
411.132	98
411.355	76
411.578	99
411.802	94
412.025	86
412.249	92
412.472	91
412.695	103
412.919	86
413.142	76
413.365	92
413.589	85
413.812	87
414.035	97
414.258	82
414.482	83
414.705	91
414.928	89
415.151	95
415.374	98
415.597	95
415.821	75
416.044	103
416.267	89
416.49	72
416.713	77
416.936	86
417.159	76
417.382	86
417.605	100
417.828	103
418.051	99
418.274	72
418.497	87
418.72	91
418.943	75
419.166	74
419.389	89
419.611	102
419.834	75
420.057	101
420.28	98
420.503	98
420.726	94
420.948	88
421.171	92
421.394	87
421.617	88
421.839	101
422.062	87
422.285	101
422.507	95
422.73	91
422.953	80
423.175	93
423.398	101
423.621	80
423.843	90
424.066	89
424.288	86
424.511	86
424.733	98
424.956	100
425.178	83
425.401	91
425.623	86
425.846	90
426.068	87
426.291	86
426.513	85
426.735	83
426.958	97
427.18	98
427.402	132
427.625	148
427.847	107
428.069	103
428.292	81
428.514	74
428.736	83
428.958	97
429.181	72
429.403	91
429.625	80
429.847	81
430.069	100
430.292	95
430.514	80
430.736	81
430.958	89
431.18	67
431.402	90
431.624	86
431.846	86
432.068	82
432.29	72
432.512	83
432.734	85
432.956	92
433.178	93
433.4	100
433.622	85
433.844	95
434.066	83
434.287	87
434.509	80
434.731	74
434.953	78
435.175	83
435.397	97
435.618	92
435.84	95
436.062	98
436.284	111
436.505	102
436.727	91
436.949	95
437.17	91
437.392	90
437.614	94
437.835	88
438.057	93
438.278	105
438.5	92
438.721	109
438.943	96
439.165	93
439.386	72
439.608	83
439.829	94
440.05	100
440.272	120
440.493	106
440.715	79
440.936	74
441.158	71
441.379	69
441.6	96
441.822	92
442.043	85
442.264	78
442.486	94
442.707	76
442.928	83
443.149	103
443.371	99
443.592	101
443.813	111
444.034	101
444.255	95
444.476	87
444.698	84
444.919	104
445.14	122
445.361	103
445.582	109
445.803	109
446.024	109
446.245	133
446.466	107
446.687	89
446.908	87
447.129	89
447.35	90
447.571	84
447.792	90
448.013	97
448.234	92
448.455	89
448.675	107
448.896	109
449.117	96
449.338	103
449.559	111
449.779	122
450	93
450.221	86
450.442	79
450.662	81
450.883	99
451.104	92
451.324	85
451.545	92
451.766	76
451.986	82
452.207	93
452.428	90
452.648	75
452.869	105
453.089	95
453.31	105
453.53	93
453.751	89
453.971	99
454.192	102
454.412	96
454.633	76
454.853	84
455.073	83
455.294	93
455.514	89
455.734	83
455.955	90
456.175	89
456.395	75
456.616	75
456.836	83
457.056	81
457.276	82
457.497	92
457.717	77
457.937	75
458.157	70
458.377	76
458.598	92
458.818	115
459.038	133
459.258	103
459.478	75
459.698	93
459.918	89
460.138	71
460.358	90
460.578	83
460.798	87
461.018	94
461.238	87
461.458	81
461.678	83
461.898	82
462.118	91
462.338	76
462.558	88
462.777	85
462.997	73
463.217	86
463.437	84
463.657	79
463.876	83
464.096	80
464.316	85
464.536	86
464.755	85
464.975	93
465.195	140
465.414	136
465.634	80
465.854	80
466.073	86
466.293	92
466.512	87
466.732	83
466.951	86
467.171	83
467.391	93
467.61	98
467.829	92
468.049	92
468.268	85
468.488	82
468.707	85
468.927	85
469.146	93
469.365	91
469.585	83
469.804	98
470.023	76
470.243	95
470.462	88
470.681	83
470.901	90
471.12	99
471.339	92
471.558	78
471.777	87
471.997	77
472.216	103
472.435	128
472.654	97
472.873	90
473.092	99
473.311	75
473.53	91
473.749	83
473.968	89
474.187	96
474.406	94
474.625	79
474.844	81
475.063	91
475.282	84
475.501	88
475.72	97
475.939	82
476.158	71
476.377	75
476.596	95
476.814	80
477.033	95
477.252	67
477.471	76
477.69	91
477.908	99
478.127	107
478.346	82
478.564	106
478.783	92
479.002	102
479.22	92
479.439	103
479.658	107
479.876	95
480.095	84
480.313	77
480.532	95
480.751	90
480.969	107
481.188	157
481.406	131
481.624	90
481.843	93
482.061	91
482.28	94
482.498	88
482.717	84
482.935	92
483.153	85
483.372	89
483.59	99
483.808	94
484.027	95
484.245	87
484.463	90
484.681	89
484.9	93
485.118	96
485.336	89
485.554	105
485.772	107
485.99	98
486.209	105
486.427	95
486.645	102
486.863	112
487.081	91
487.299	95
487.517	101
487.735	82
487.953	91
488.171	100
488.389	85
488.607	100
488.825	88
489.043	90
489.261	84
489.479	89
489.696	99
489.914	96
490.132	106
490.35	92
490.568	105
490.786	97
491.003	75
491.221	81
491.439	108
491.657	112
491.874	100
492.092	79
492.31	85
492.527	80
492.745	85
492.963	90
493.18	81
493.398	75
493.615	104
493.833	97
494.05	79
494.268	89
494.485	83
494.703	84
494.92	88
495.138	93
495.355	84
495.573	75
495.79	79
496.008	94
496.225	84
496.442	77
496.66	85
496.877	91
497.094	97
497.312	74
497.529	95
497.746	99
497.963	90
498.181	93
498.398	103
498.615	110
498.832	91
499.049	77
499.267	93
499.484	80
499.701	87
499.918	91
500.135	98
500.352	92
500.569	95
500.786	92
501.003	81
501.22	91
501.437	103
501.654	96
501.871	101
502.088	92
502.305	91
502.522	83
502.739	85
502.956	82
503.172	76
503.389	87
503.606	92
503.823	84
504.04	97
504.256	97
504.473	97
504.69	91
504.907	92
505.123	85
505.34	92
505.557	72
505.773	102
505.99	81
506.207	86
506.423	66
506.64	84
506.856	81
507.073	105
507.289	92
507.506	89
507.722	106
507.939	105
508.155	93
508.372	87
508.588	99
508.805	88
509.021	95
509.238	115
509.454	91
509.67	97
509.887	92
510.103	119
510.319	168
510.536	547
510.752	1611
510.968	467
511.184	119
511.401	97
511.617	83
511.833	81
512.049	83
512.265	95
512.481	98
512.698	83
512.914	84
513.13	89
513.346	83
513.562	97
513.778	101
513.994	97
514.21	90
514.426	114
514.642	117
514.858	111
515.074	140
515.29	346
515.506	961
515.721	369
515.937	136
516.153	113
516.369	93
516.585	105
516.801	89
517.016	82
517.232	93
517.448	88
517.664	89
517.879	81
518.095	80
518.311	98
518.527	84
518.742	85
518.958	97
519.173	104
519.389	80
519.605	90
519.82	97
520.036	99
520.251	114
520.467	108
520.682	102
520.898	105
521.113	92
521.329	117
521.544	173
521.76	407
521.975	1561
522.19	933
522.406	228
522.621	124
522.836	99
523.052	108
523.267	93
523.482	95
523.698	104
523.913	111
524.128	102
524.343	87
524.559	92
524.774	82
524.989	80
525.204	96
525.419	99
525.634	82
525.849	88
526.064	89
526.28	89
526.495	88
526.71	97
526.925	97
527.14	93
527.355	79
527.57	85
527.785	95
527.999	85
528.214	105
528.429	83
528.644	97
528.859	96
529.074	88
529.289	109
529.503	149
529.718	91
529.933	90
530.148	96
530.363	108
530.577	93
530.792	90
531.007	86
531.221	83
531.436	85
531.651	78
531.865	94
532.08	91
532.295	98
532.509	85
532.724	85
532.938	88
533.153	85
533.367	96
533.582	95
533.796	92
534.011	90
534.225	92
534.44	85
534.654	96
534.868	92
535.083	67
535.297	89
535.511	100
535.726	91
535.94	84
536.154	93
536.369	97
536.583	92
536.797	93
537.011	100
537.225	74
537.44	90
537.654	87
537.868	90
538.082	96
538.296	92
538.51	93
538.724	78
538.938	79
539.153	87
539.367	101
539.581	89
539.795	83
540.009	87
540.222	89
540.436	85
540.65	95
540.864	88
541.078	99
541.292	86
541.506	89
541.72	97
541.934	97
542.147	97
542.361	86
542.575	87
542.789	82
543.002	88
543.216	98
543.43	94
543.644	108
543.857	99
544.071	101
544.285	88
544.498	88
544.712	91
544.925	89
545.139	88
545.352	68
545.566	92
545.779	93
545.993	94
546.206	95
546.42	91
546.633	93
546.847	97
547.06	92
547.274	91
547.487	88
547.7	98
547.914	98
548.127	100
548.34	100
548.554	79
548.767	84
548.98	82
549.193	77
549.407	79
549.62	90
549.833	84
550.046	88
550.259	98
550.473	85
550.686	97
550.899	89
551.112	102
551.325	89
551.538	102
551.751	83
551.964	88
552.177	82
552.39	102
552.603	98
552.816	92
553.029	86
553.242	89
553.455	103
553.667	103
553.88	102
554.093	88
554.306	100
554.519	86
554.732	108
554.944	85
555.157	91
555.37	85
555.583	103
555.795	93
556.008	93
556.221	81
556.433	99
556.646	99
556.859	91
557.071	81
557.284	89
557.496	88
557.709	75
557.921	99
558.134	83
558.346	74
558.559	98
558.771	88
558.984	91
559.196	76
559.409	80
559.621	84
559.833	77
560.046	79
560.258	88
560.47	99
560.683	81
560.895	79
561.107	85
561.32	87
561.532	89
561.744	99
561.956	82
562.168	83
562.381	96
562.593	96
562.805	94
563.017	87
563.229	89
563.441	94
563.653	91
563.865	86
564.077	99
564.289	98
564.501	97
564.713	86
564.925	91
565.137	102
565.349	105
565.561	85
565.773	88
565.985	89
566.197	95
566.408	102
566.62	100
566.832	93
567.044	90
567.255	68
567.467	76
567.679	83
567.891	88
568.102	102
568.314	85
568.526	93
568.737	85
568.949	76
569.161	87
569.372	89
569.584	84
569.795	82
570.007	91
570.218	186
570.43	125
570.641	95
570.853	91
571.064	78
571.276	78
571.487	88
571.698	86
571.91	82
572.121	90
572.333	76
572.544	73
572.755	84
572.966	76
573.178	84
573.389	82
573.6	83
573.811	78
574.023	88
574.234	90
574.445	93
574.656	100
574.867	91
575.078	96
575.289	89
575.501	96
575.712	90
575.923	99
576.134	90
576.345	88
576.556	94
576.767	80
576.978	100
577.188	92
577.399	85
577.61	91
577.821	98
578.032	98
578.243	218
578.454	505
578.665	167
578.875	97
579.086	81
579.297	94
579.508	88
579.718	80
579.929	101
580.14	85
580.35	96
580.561	81
580.772	82
580.982	90
581.193	85
581.403	88
581.614	86
581.825	89
582.035	84
582.246	80
582.456	69
582.667	87
582.877	83
583.087	87
583.298	85
583.508	103
583.719	79
583.929	66
584.139	78
584.35	95
584.56	89
584.77	80
584.981	81
585.191	98
585.401	85
585.611	90
585.821	86
586.032	87
