Data from Circ_1982_H10_HRD10591_00084.txt Node
Date: Wed Jan 03 12:30:58 EST 2024
User: Yrep
Spectrometer: HR+D1059
Trigger mode: 1
Integration Time (sec): 1.000000E-1
Scans to average: 1
Electric dark correction enabled: true
Nonlinearity correction enabled: false
Boxcar width: 0
XAxis mode: Wavelengths
Number of Pixels in Spectrum: 2048
>>>>>Begin Spectral Data<<<<<
223.165	-14
223.4	-14
223.635	-14
223.869	-17
224.104	-21
224.338	-31
224.573	-17
224.808	-13
225.042	6
225.277	-10
225.511	0
225.746	-2
225.98	2
226.215	26
226.449	3
226.683	26
226.918	28
227.152	34
227.387	37
227.621	51
227.856	43
228.09	43
228.324	63
228.559	61
228.793	48
229.027	62
229.262	80
229.496	75
229.73	95
229.964	74
230.199	69
230.433	75
230.667	93
230.901	74
231.136	68
231.37	65
231.604	74
231.838	86
232.072	86
232.306	86
232.541	84
232.775	101
233.009	86
233.243	93
233.477	93
233.711	89
233.945	84
234.179	90
234.413	91
234.647	81
234.881	77
235.115	84
235.349	78
235.583	76
235.817	85
236.051	76
236.285	82
236.519	85
236.753	79
236.987	82
237.221	82
237.455	75
237.689	78
237.922	75
238.156	76
238.39	74
238.624	76
238.858	71
239.091	79
239.325	67
239.559	74
239.793	80
240.027	92
240.26	67
240.494	72
240.728	83
240.961	79
241.195	84
241.429	83
241.662	89
241.896	85
242.13	86
242.363	77
242.597	79
242.83	71
243.064	67
243.298	65
243.531	78
243.765	88
243.998	88
244.232	71
244.465	83
244.699	75
244.932	75
245.166	83
245.399	69
245.633	88
245.866	82
246.099	86
246.333	83
246.566	75
246.8	83
247.033	82
247.266	98
247.5	83
247.733	69
247.966	84
248.2	83
248.433	92
248.666	78
248.899	90
249.133	101
249.366	90
249.599	92
249.832	92
250.066	79
250.299	80
250.532	76
250.765	86
250.998	86
251.231	76
251.465	84
251.698	74
251.931	84
252.164	78
252.397	86
252.63	94
252.863	78
253.096	76
253.329	84
253.562	79
253.795	87
254.028	82
254.261	80
254.494	93
254.727	87
254.96	91
255.193	92
255.426	87
255.659	99
255.892	87
256.124	72
256.357	78
256.59	91
256.823	94
257.056	101
257.289	80
257.521	74
257.754	91
257.987	89
258.22	82
258.452	93
258.685	82
258.918	91
259.151	92
259.383	82
259.616	96
259.849	76
260.081	96
260.314	86
260.547	91
260.779	84
261.012	70
261.244	95
261.477	102
261.71	85
261.942	111
262.175	105
262.407	94
262.64	81
262.872	82
263.105	93
263.337	89
263.57	75
263.802	87
264.035	88
264.267	85
264.499	80
264.732	90
264.964	84
265.197	89
265.429	97
265.661	98
265.894	75
266.126	84
266.358	86
266.591	91
266.823	86
267.055	80
267.287	81
267.52	81
267.752	95
267.984	92
268.216	86
268.448	88
268.681	74
268.913	85
269.145	84
269.377	85
269.609	87
269.841	79
270.073	99
270.306	81
270.538	89
270.77	73
271.002	97
271.234	94
271.466	87
271.698	95
271.93	90
272.162	86
272.394	103
272.626	82
272.858	92
273.09	103
273.322	86
273.553	95
273.785	85
274.017	84
274.249	78
274.481	95
274.713	97
274.945	77
275.176	91
275.408	96
275.64	84
275.872	78
276.104	94
276.335	89
276.567	98
276.799	99
277.031	94
277.262	90
277.494	87
277.726	89
277.957	89
278.189	83
278.421	104
278.652	80
278.884	87
279.115	88
279.347	79
279.579	83
279.81	88
280.042	99
280.273	92
280.505	86
280.736	92
280.968	86
281.199	80
281.431	99
281.662	101
281.894	85
282.125	100
282.356	131
282.588	131
282.819	121
283.051	86
283.282	88
283.513	80
283.745	98
283.976	88
284.207	93
284.439	98
284.67	90
284.901	100
285.132	88
285.364	87
285.595	87
285.826	83
286.057	95
286.288	89
286.52	106
286.751	93
286.982	98
287.213	85
287.444	95
287.675	86
287.906	78
288.138	90
288.369	84
288.6	87
288.831	95
289.062	95
289.293	85
289.524	89
289.755	92
289.986	78
290.217	89
290.448	90
290.679	81
290.91	83
291.141	82
291.371	100
291.602	99
291.833	96
292.064	92
292.295	91
292.526	90
292.757	91
292.987	88
293.218	100
293.449	78
293.68	93
293.91	79
294.141	103
294.372	100
294.603	97
294.833	78
295.064	78
295.295	102
295.525	102
295.756	110
295.987	117
296.217	116
296.448	120
296.679	94
296.909	100
297.14	86
297.37	106
297.601	92
297.831	91
298.062	95
298.292	68
298.523	86
298.753	82
298.984	89
299.214	86
299.445	94
299.675	98
299.905	100
300.136	96
300.366	99
300.597	83
300.827	101
301.057	96
301.288	90
301.518	79
301.748	86
301.979	94
302.209	103
302.439	86
302.669	82
302.9	87
303.13	92
303.36	102
303.59	103
303.82	101
304.051	91
304.281	93
304.511	97
304.741	84
304.971	106
305.201	103
305.431	86
305.661	88
305.891	107
306.121	70
306.352	87
306.582	86
306.812	91
307.042	97
307.272	91
307.502	95
307.731	91
307.961	91
308.191	90
308.421	90
308.651	93
308.881	87
309.111	99
309.341	100
309.571	106
309.8	100
310.03	111
310.26	86
310.49	91
310.72	104
310.949	109
311.179	104
311.409	94
311.639	89
311.868	100
312.098	98
312.328	91
312.557	102
312.787	115
313.017	103
313.246	92
313.476	102
313.706	91
313.935	91
314.165	93
314.394	89
314.624	88
314.853	100
315.083	100
315.312	89
315.542	103
315.771	94
316.001	90
316.23	91
316.46	89
316.689	110
316.919	90
317.148	95
317.377	98
317.607	88
317.836	98
318.065	87
318.295	84
318.524	76
318.753	91
318.983	101
319.212	106
319.441	88
319.67	113
319.9	97
320.129	96
320.358	96
320.587	79
320.816	95
321.046	90
321.275	91
321.504	86
321.733	102
321.962	70
322.191	87
322.42	86
322.649	88
322.878	102
323.108	107
323.337	123
323.566	110
323.795	128
324.024	171
324.253	266
324.482	555
324.71	1084
324.939	1380
325.168	559
325.397	183
325.626	138
325.855	106
326.084	115
326.313	116
326.542	131
326.77	187
326.999	318
327.228	654
327.457	1106
327.686	863
327.914	264
328.143	156
328.372	130
328.6	116
328.829	99
329.058	111
329.287	108
329.515	98
329.744	96
329.972	107
330.201	108
330.43	128
330.658	106
330.887	124
331.115	123
331.344	119
331.572	109
331.801	95
332.03	90
332.258	94
332.486	91
332.715	96
332.943	95
333.172	102
333.4	98
333.629	108
333.857	111
334.085	109
334.314	110
334.542	123
334.771	125
334.999	125
335.227	103
335.455	106
335.684	100
335.912	90
336.14	104
336.369	90
336.597	103
336.825	103
337.053	88
337.281	83
337.51	74
337.738	99
337.966	88
338.194	85
338.422	87
338.65	108
338.878	94
339.106	82
339.334	87
339.562	84
339.79	85
340.018	94
340.246	89
340.474	95
340.702	85
340.93	99
341.158	85
341.386	90
341.614	78
341.842	85
342.07	87
342.298	88
342.526	96
342.754	78
342.981	93
343.209	93
343.437	110
343.665	79
343.893	86
344.12	102
344.348	93
344.576	82
344.804	93
345.031	88
345.259	83
345.487	76
345.714	90
345.942	100
346.17	92
346.397	79
346.625	93
346.853	90
347.08	106
347.308	108
347.535	103
347.763	75
347.99	116
348.218	115
348.445	110
348.673	93
348.9	109
349.128	91
349.355	85
349.583	95
349.81	102
350.037	99
350.265	102
350.492	82
350.72	90
350.947	101
351.174	98
351.402	85
351.629	92
351.856	91
352.083	99
352.311	99
352.538	98
352.765	106
352.992	108
353.22	99
353.447	106
353.674	111
353.901	111
354.128	101
354.355	91
354.583	97
354.81	82
355.037	94
355.264	96
355.491	101
355.718	110
355.945	98
356.172	96
356.399	101
356.626	96
356.853	105
357.08	98
357.307	89
357.534	94
357.761	92
357.988	103
358.215	101
358.441	96
358.668	83
358.895	83
359.122	85
359.349	87
359.576	93
359.802	104
360.029	87
360.256	107
360.483	82
360.709	76
360.936	92
361.163	91
361.39	92
361.616	76
361.843	107
362.07	94
362.296	89
362.523	96
362.749	88
362.976	80
363.203	99
363.429	108
363.656	93
363.882	92
364.109	88
364.335	91
364.562	96
364.788	83
365.015	87
365.241	99
365.468	111
365.694	113
365.92	96
366.147	94
366.373	97
366.599	96
366.826	84
367.052	92
367.278	92
367.505	74
367.731	95
367.957	98
368.184	92
368.41	98
368.636	88
368.862	118
369.089	87
369.315	88
369.541	84
369.767	91
369.993	86
370.219	97
370.445	78
370.672	72
370.898	80
371.124	86
371.35	103
371.576	90
371.802	101
372.028	92
372.254	85
372.48	83
372.706	94
372.932	86
373.158	103
373.384	122
373.61	96
373.835	76
374.061	74
374.287	88
374.513	88
374.739	86
374.965	97
375.191	98
375.416	88
375.642	88
375.868	94
376.094	99
376.319	99
376.545	88
376.771	75
376.997	82
377.222	97
377.448	88
377.674	87
377.899	87
378.125	91
378.35	99
378.576	98
378.802	101
379.027	80
379.253	76
379.478	90
379.704	91
379.929	92
380.155	90
380.38	73
380.606	88
380.831	95
381.057	87
381.282	87
381.507	103
381.733	98
381.958	83
382.184	98
382.409	92
382.634	109
382.86	84
383.085	93
383.31	107
383.535	103
383.761	101
383.986	98
384.211	102
384.436	102
384.662	99
384.887	94
385.112	110
385.337	105
385.562	102
385.787	103
386.013	111
386.238	111
386.463	101
386.688	111
386.913	107
387.138	104
387.363	99
387.588	96
387.813	121
388.038	96
388.263	116
388.488	97
388.713	101
388.938	106
389.163	95
389.387	105
389.612	99
389.837	100
390.062	94
390.287	96
390.512	95
390.736	99
390.961	84
391.186	103
391.411	95
391.636	92
391.86	92
392.085	87
392.31	93
392.534	101
392.759	100
392.984	98
393.208	90
393.433	90
393.658	78
393.882	91
394.107	74
394.331	78
394.556	75
394.78	95
395.005	82
395.229	86
395.454	100
395.678	94
395.903	95
396.127	88
396.352	87
396.576	93
396.801	73
397.025	87
397.249	95
397.474	79
397.698	86
397.922	81
398.147	79
398.371	88
398.595	89
398.82	78
399.044	93
399.268	99
399.492	72
399.717	96
399.941	103
400.165	78
400.389	86
400.613	91
400.837	85
401.062	90
401.286	95
401.51	76
401.734	80
401.958	93
402.182	117
402.406	116
402.63	100
402.854	94
403.078	86
403.302	96
403.526	92
403.75	86
403.974	86
404.198	86
404.422	89
404.645	78
404.869	94
405.093	84
405.317	85
405.541	104
405.765	105
405.988	101
406.212	149
406.436	160
406.66	119
406.883	112
407.107	92
407.331	98
407.555	97
407.778	89
408.002	116
408.226	88
408.449	87
408.673	84
408.896	87
409.12	99
409.344	88
409.567	94
409.791	85
410.014	105
410.238	95
410.461	87
410.685	91
410.908	100
411.132	101
411.355	101
411.578	87
411.802	84
412.025	77
412.249	93
412.472	88
412.695	96
412.919	94
413.142	82
413.365	89
413.589	101
413.812	90
414.035	93
414.258	82
414.482	80
414.705	84
414.928	92
415.151	96
415.374	110
415.597	86
415.821	88
416.044	86
416.267	89
416.49	86
416.713	85
416.936	86
417.159	96
417.382	76
417.605	99
417.828	84
418.051	75
418.274	90
418.497	89
418.72	84
418.943	93
419.166	104
419.389	88
419.611	94
419.834	91
420.057	83
420.28	85
420.503	96
420.726	91
420.948	94
421.171	94
421.394	96
421.617	94
421.839	109
422.062	83
422.285	100
422.507	87
422.73	88
422.953	96
423.175	94
423.398	94
423.621	92
423.843	99
424.066	108
424.288	95
424.511	89
424.733	99
424.956	99
425.178	92
425.401	102
425.623	99
425.846	92
426.068	96
426.291	89
426.513	90
426.735	79
426.958	98
427.18	88
427.402	108
427.625	136
427.847	104
428.069	93
428.292	93
428.514	77
428.736	90
428.958	82
429.181	81
429.403	88
429.625	94
429.847	91
430.069	83
430.292	91
430.514	105
430.736	96
430.958	78
431.18	86
431.402	90
431.624	92
431.846	87
432.068	82
432.29	77
432.512	104
432.734	100
432.956	92
433.178	104
433.4	82
433.622	96
433.844	91
434.066	95
434.287	94
434.509	78
434.731	82
434.953	97
435.175	88
435.397	101
435.618	85
435.84	108
436.062	114
436.284	111
436.505	102
436.727	95
436.949	97
437.17	88
437.392	93
437.614	107
437.835	99
438.057	100
438.278	99
438.5	104
438.721	106
438.943	98
439.165	96
439.386	87
439.608	95
439.829	96
440.05	110
440.272	131
440.493	97
440.715	86
440.936	90
441.158	98
441.379	82
441.6	99
441.822	92
442.043	88
442.264	96
442.486	119
442.707	97
442.928	86
443.149	105
443.371	117
443.592	102
443.813	100
444.034	105
444.255	106
444.476	100
444.698	82
444.919	90
445.14	133
445.361	123
445.582	118
445.803	112
446.024	132
446.245	115
446.466	108
446.687	105
446.908	95
447.129	90
447.35	95
447.571	92
447.792	84
448.013	102
448.234	95
448.455	91
448.675	111
448.896	108
449.117	97
449.338	106
449.559	117
449.779	121
450	90
450.221	102
450.442	94
450.662	100
450.883	91
451.104	98
451.324	97
451.545	87
451.766	87
451.986	84
452.207	94
452.428	102
452.648	102
452.869	102
453.089	112
453.31	107
453.53	81
453.751	82
453.971	98
454.192	112
454.412	98
454.633	83
454.853	88
455.073	93
455.294	95
455.514	98
455.734	89
455.955	92
456.175	88
456.395	98
456.616	89
456.836	96
457.056	93
457.276	92
457.497	81
457.717	93
457.937	108
458.157	78
458.377	79
458.598	100
458.818	137
459.038	134
459.258	91
459.478	94
459.698	93
459.918	105
460.138	74
460.358	90
460.578	87
460.798	87
461.018	97
461.238	77
461.458	95
461.678	94
461.898	82
462.118	96
462.338	84
462.558	97
462.777	88
462.997	96
463.217	86
463.437	89
463.657	86
463.876	76
464.096	101
464.316	106
464.536	99
464.755	77
464.975	92
465.195	143
465.414	133
465.634	83
465.854	87
466.073	82
466.293	78
466.512	89
466.732	93
466.951	82
467.171	103
467.391	88
467.61	99
467.829	99
468.049	114
468.268	120
468.488	87
468.707	92
468.927	101
469.146	75
469.365	88
469.585	100
469.804	103
470.023	87
470.243	104
470.462	94
470.681	79
470.901	86
471.12	86
471.339	72
471.558	94
471.777	101
471.997	102
472.216	106
472.435	128
472.654	92
472.873	92
473.092	103
473.311	72
473.53	73
473.749	92
473.968	79
474.187	116
474.406	100
474.625	93
474.844	91
475.063	82
475.282	83
475.501	84
475.72	82
475.939	87
476.158	81
476.377	82
476.596	95
476.814	83
477.033	94
477.252	84
477.471	84
477.69	90
477.908	88
478.127	95
478.346	106
478.564	93
478.783	94
479.002	105
479.22	93
479.439	102
479.658	83
479.876	92
480.095	83
480.313	95
480.532	98
480.751	92
480.969	124
481.188	182
481.406	112
481.624	102
481.843	104
482.061	99
482.28	93
482.498	98
482.717	81
482.935	88
483.153	86
483.372	90
483.59	80
483.808	85
484.027	98
484.245	98
484.463	93
484.681	107
484.9	95
485.118	114
485.336	97
485.554	99
485.772	101
485.99	110
486.209	103
486.427	109
486.645	116
486.863	114
487.081	102
487.299	90
487.517	98
487.735	89
487.953	107
488.171	103
488.389	109
488.607	107
488.825	94
489.043	102
489.261	98
489.479	88
489.696	90
489.914	83
490.132	98
490.35	90
490.568	85
490.786	97
491.003	82
491.221	97
491.439	96
491.657	99
491.874	100
492.092	86
492.31	100
492.527	96
492.745	82
492.963	100
493.18	84
493.398	82
493.615	89
493.833	84
494.05	91
494.268	93
494.485	96
494.703	98
494.92	87
495.138	80
495.355	87
495.573	82
495.79	94
496.008	92
496.225	92
496.442	104
496.66	100
496.877	94
497.094	91
497.312	85
497.529	94
497.746	102
497.963	95
498.181	100
498.398	91
498.615	106
498.832	118
499.049	108
499.267	111
499.484	83
499.701	92
499.918	92
500.135	95
500.352	88
500.569	88
500.786	96
501.003	95
501.22	91
501.437	88
501.654	94
501.871	102
502.088	103
502.305	111
502.522	108
502.739	105
502.956	85
503.172	106
503.389	105
503.606	106
503.823	97
504.04	100
504.256	78
504.473	88
504.69	100
504.907	91
505.123	98
505.34	89
505.557	94
505.773	97
505.99	93
506.207	90
506.423	82
506.64	63
506.856	77
507.073	89
507.289	86
507.506	98
507.722	104
507.939	104
508.155	101
508.372	88
508.588	86
508.805	86
509.021	85
509.238	104
509.454	94
509.67	98
509.887	105
510.103	124
510.319	188
510.536	570
510.752	1583
510.968	438
511.184	121
511.401	100
511.617	87
511.833	87
512.049	83
512.265	99
512.481	101
512.698	96
512.914	103
513.13	99
513.346	102
513.562	95
513.778	96
513.994	102
514.21	98
514.426	102
514.642	109
514.858	113
515.074	142
515.29	320
515.506	921
515.721	365
515.937	132
516.153	97
516.369	106
516.585	91
516.801	85
517.016	98
517.232	101
517.448	92
517.664	89
517.879	88
518.095	80
518.311	103
518.527	95
518.742	101
518.958	95
519.173	87
519.389	90
519.605	94
519.82	106
520.036	92
520.251	99
520.467	111
520.682	97
520.898	99
521.113	106
521.329	123
521.544	168
521.76	387
521.975	1519
522.19	895
522.406	220
522.621	110
522.836	106
523.052	92
523.267	91
523.482	93
523.698	115
523.913	121
524.128	112
524.343	102
524.559	99
524.774	109
524.989	95
525.204	103
525.419	109
525.634	92
525.849	100
526.064	106
526.28	90
526.495	97
526.71	79
526.925	93
527.14	86
527.355	94
527.57	101
527.785	95
527.999	79
528.214	86
528.429	102
528.644	95
528.859	91
529.074	84
529.289	99
529.503	146
529.718	107
529.933	99
530.148	103
530.363	87
530.577	90
530.792	88
531.007	80
531.221	82
531.436	85
531.651	103
531.865	100
532.08	79
532.295	90
532.509	92
532.724	87
532.938	101
533.153	99
533.367	105
533.582	90
533.796	85
534.011	85
534.225	110
534.44	108
534.654	97
534.868	94
535.083	88
535.297	110
535.511	101
535.726	106
535.94	91
536.154	118
536.369	94
536.583	92
536.797	99
537.011	93
537.225	101
537.44	104
537.654	99
537.868	90
538.082	93
538.296	99
538.51	99
538.724	89
538.938	111
539.153	93
539.367	111
539.581	99
539.795	87
540.009	80
540.222	86
540.436	97
540.65	89
540.864	96
541.078	94
541.292	101
541.506	92
541.72	96
541.934	84
542.147	98
542.361	85
542.575	75
542.789	83
543.002	96
543.216	105
543.43	105
543.644	93
543.857	107
544.071	101
544.285	94
544.498	96
544.712	92
544.925	98
545.139	98
545.352	106
545.566	102
545.779	97
545.993	83
546.206	84
546.42	91
546.633	95
546.847	97
547.06	91
547.274	97
547.487	79
547.7	89
547.914	90
548.127	83
548.34	84
548.554	94
548.767	85
548.98	106
549.193	98
549.407	80
549.62	98
549.833	89
550.046	93
550.259	86
550.473	89
550.686	82
550.899	85
551.112	82
551.325	87
551.538	87
551.751	99
551.964	99
552.177	95
552.39	90
552.603	104
552.816	93
553.029	96
553.242	83
553.455	86
553.667	94
553.88	105
554.093	93
554.306	89
554.519	100
554.732	89
554.944	84
555.157	88
555.37	95
555.583	95
555.795	107
556.008	109
556.221	92
556.433	95
556.646	91
556.859	86
557.071	92
557.284	101
557.496	93
557.709	86
557.921	93
558.134	91
558.346	91
558.559	107
558.771	102
558.984	77
559.196	95
559.409	78
559.621	76
559.833	96
560.046	79
560.258	89
560.47	101
560.683	95
560.895	91
561.107	83
561.32	88
561.532	84
561.744	115
561.956	99
562.168	95
562.381	100
562.593	88
562.805	82
563.017	87
563.229	99
563.441	87
563.653	91
563.865	103
564.077	91
564.289	98
564.501	95
564.713	93
564.925	94
565.137	100
565.349	88
565.561	98
565.773	92
565.985	80
566.197	78
566.408	95
566.62	77
566.832	92
567.044	96
567.255	90
567.467	85
567.679	102
567.891	90
568.102	94
568.314	91
568.526	94
568.737	86
568.949	84
569.161	94
569.372	101
569.584	79
569.795	93
570.007	107
570.218	195
570.43	126
570.641	96
570.853	87
571.064	99
571.276	91
571.487	107
571.698	95
571.91	82
572.121	76
572.333	86
572.544	87
572.755	90
572.966	92
573.178	85
573.389	91
573.6	97
573.811	75
574.023	83
574.234	105
574.445	94
574.656	79
574.867	97
575.078	94
575.289	90
575.501	90
575.712	86
575.923	88
576.134	85
576.345	93
576.556	106
576.767	87
576.978	93
577.188	70
577.399	79
577.61	91
577.821	94
578.032	99
578.243	202
578.454	504
578.665	176
578.875	103
579.086	96
579.297	88
579.508	80
579.718	110
579.929	102
580.14	93
580.35	93
580.561	96
580.772	92
580.982	93
581.193	77
581.403	90
581.614	83
581.825	100
582.035	95
582.246	101
582.456	96
582.667	82
582.877	72
583.087	87
583.298	84
583.508	86
583.719	74
