Data from Circ_1982_H10_HRD10591_00085.txt Node
Date: Wed Jan 03 12:30:58 EST 2024
User: Yrep
Spectrometer: HR+D1059
Trigger mode: 1
Integration Time (sec): 1.000000E-1
Scans to average: 1
Electric dark correction enabled: true
Nonlinearity correction enabled: false
Boxcar width: 0
XAxis mode: Wavelengths
Number of Pixels in Spectrum: 2048
>>>>>Begin Spectral Data<<<<<
223.165	-16.88
223.4	-16.88
223.635	-16.88
223.869	-21.88
224.104	-19.88
224.338	-20.88
224.573	-11.88
224.808	-0.88
225.042	-7.88
225.277	-0.88
225.511	-1.88
225.746	1.12
225.98	0.12
226.215	13.12
226.449	13.12
226.683	20.12
226.918	22.12
227.152	33.12
227.387	30.12
227.621	30.12
227.856	46.12
228.09	33.12
228.324	64.12
228.559	61.12
228.793	62.12
229.027	57.12
229.262	70.12
229.496	76.12
229.73	75.12
229.964	75.12
230.199	76.12
230.433	73.12
230.667	78.12
230.901	75.12
231.136	70.12
231.37	74.12
231.604	75.12
231.838	91.12
232.072	82.12
232.306	70.12
232.541	92.12
232.775	75.12
233.009	86.12
233.243	75.12
233.477	78.12
233.711	78.12
233.945	77.12
234.179	91.12
234.413	79.12
234.647	79.12
234.881	85.12
235.115	95.12
235.349	81.12
235.583	79.12
235.817	87.12
236.051	76.12
236.285	67.12
236.519	85.12
236.753	77.12
236.987	96.12
237.221	85.12
237.455	93.12
237.689	78.12
237.922	72.12
238.156	86.12
238.39	67.12
238.624	62.12
238.858	75.12
239.091	66.12
239.325	87.12
239.559	84.12
239.793	83.12
240.027	67.12
240.26	71.12
240.494	81.12
240.728	81.12
240.961	77.12
241.195	72.12
241.429	78.12
241.662	76.12
241.896	74.12
242.13	57.12
242.363	75.12
242.597	75.12
242.83	75.12
243.064	82.12
243.298	71.12
243.531	73.12
243.765	77.12
243.998	78.12
244.232	71.12
244.465	69.12
244.699	62.12
244.932	73.12
245.166	88.12
245.399	79.12
245.633	74.12
245.866	72.12
246.099	64.12
246.333	72.12
246.566	83.12
246.8	78.12
247.033	70.12
247.266	74.12
247.5	73.12
247.733	81.12
247.966	85.12
248.2	70.12
248.433	79.12
248.666	85.12
248.899	85.12
249.133	84.12
249.366	89.12
249.599	93.12
249.832	89.12
250.066	91.12
250.299	94.12
250.532	78.12
250.765	78.12
250.998	78.12
251.231	91.12
251.465	72.12
251.698	88.12
251.931	87.12
252.164	91.12
252.397	82.12
252.63	87.12
252.863	86.12
253.096	76.12
253.329	83.12
253.562	76.12
253.795	83.12
254.028	93.12
254.261	78.12
254.494	74.12
254.727	81.12
254.96	89.12
255.193	84.12
255.426	75.12
255.659	82.12
255.892	86.12
256.124	87.12
256.357	93.12
256.59	76.12
256.823	64.12
257.056	77.12
257.289	61.12
257.521	85.12
257.754	84.12
257.987	82.12
258.22	81.12
258.452	80.12
258.685	86.12
258.918	94.12
259.151	92.12
259.383	83.12
259.616	90.12
259.849	81.12
260.081	80.12
260.314	94.12
260.547	75.12
260.779	81.12
261.012	76.12
261.244	74.12
261.477	95.12
261.71	102.12
261.942	103.12
262.175	108.12
262.407	96.12
262.64	79.12
262.872	76.12
263.105	71.12
263.337	91.12
263.57	86.12
263.802	75.12
264.035	86.12
264.267	88.12
264.499	79.12
264.732	94.12
264.964	90.12
265.197	87.12
265.429	84.12
265.661	101.12
265.894	79.12
266.126	83.12
266.358	74.12
266.591	97.12
266.823	89.12
267.055	98.12
267.287	87.12
267.52	75.12
267.752	94.12
267.984	88.12
268.216	93.12
268.448	83.12
268.681	98.12
268.913	93.12
269.145	82.12
269.377	86.12
269.609	93.12
269.841	82.12
270.073	80.12
270.306	88.12
270.538	99.12
270.77	96.12
271.002	70.12
271.234	85.12
271.466	87.12
271.698	77.12
271.93	92.12
272.162	92.12
272.394	103.12
272.626	85.12
272.858	86.12
273.09	101.12
273.322	77.12
273.553	91.12
273.785	94.12
274.017	91.12
274.249	91.12
274.481	82.12
274.713	99.12
274.945	90.12
275.176	85.12
275.408	87.12
275.64	84.12
275.872	78.12
276.104	96.12
276.335	87.12
276.567	83.12
276.799	98.12
277.031	92.12
277.262	89.12
277.494	84.12
277.726	77.12
277.957	78.12
278.189	84.12
278.421	84.12
278.652	83.12
278.884	93.12
279.115	83.12
279.347	83.12
279.579	91.12
279.81	78.12
280.042	85.12
280.273	96.12
280.505	92.12
280.736	90.12
280.968	75.12
281.199	92.12
281.431	88.12
281.662	82.12
281.894	91.12
282.125	98.12
282.356	110.12
282.588	125.12
282.819	120.12
283.051	98.12
283.282	89.12
283.513	100.12
283.745	74.12
283.976	77.12
284.207	94.12
284.439	90.12
284.67	86.12
284.901	94.12
285.132	90.12
285.364	94.12
285.595	93.12
285.826	92.12
286.057	91.12
286.288	92.12
286.52	91.12
286.751	79.12
286.982	89.12
287.213	87.12
287.444	73.12
287.675	77.12
287.906	77.12
288.138	84.12
288.369	93.12
288.6	98.12
288.831	105.12
289.062	100.12
289.293	85.12
289.524	74.12
289.755	85.12
289.986	100.12
290.217	93.12
290.448	103.12
290.679	83.12
290.91	98.12
291.141	97.12
291.371	83.12
291.602	86.12
291.833	79.12
292.064	79.12
292.295	97.12
292.526	89.12
292.757	97.12
292.987	94.12
293.218	84.12
293.449	98.12
293.68	89.12
293.91	82.12
294.141	103.12
294.372	94.12
294.603	93.12
294.833	77.12
295.064	81.12
295.295	91.12
295.525	81.12
295.756	92.12
295.987	105.12
296.217	124.12
296.448	110.12
296.679	93.12
296.909	85.12
297.14	83.12
297.37	89.12
297.601	70.12
297.831	88.12
298.062	88.12
298.292	93.12
298.523	93.12
298.753	114.12
298.984	101.12
299.214	91.12
299.445	105.12
299.675	85.12
299.905	99.12
300.136	77.12
300.366	87.12
300.597	95.12
300.827	88.12
301.057	107.12
301.288	101.12
301.518	95.12
301.748	93.12
301.979	112.12
302.209	87.12
302.439	92.12
302.669	90.12
302.9	91.12
303.13	82.12
303.36	85.12
303.59	87.12
303.82	92.12
304.051	91.12
304.281	83.12
304.511	87.12
304.741	82.12
304.971	97.12
305.201	81.12
305.431	84.12
305.661	77.12
305.891	90.12
306.121	103.12
306.352	101.12
306.582	106.12
306.812	103.12
307.042	105.12
307.272	98.12
307.502	85.12
307.731	103.12
307.961	85.12
308.191	89.12
308.421	93.12
308.651	87.12
308.881	84.12
309.111	98.12
309.341	97.12
309.571	96.12
309.8	89.12
310.03	95.12
310.26	101.12
310.49	102.12
310.72	97.12
310.949	92.12
311.179	100.12
311.409	97.12
311.639	108.12
311.868	97.12
312.098	98.12
312.328	83.12
312.557	109.12
312.787	115.12
313.017	90.12
313.246	107.12
313.476	95.12
313.706	102.12
313.935	93.12
314.165	100.12
314.394	94.12
314.624	93.12
314.853	88.12
315.083	93.12
315.312	100.12
315.542	84.12
315.771	92.12
316.001	82.12
316.23	99.12
316.46	78.12
316.689	93.12
316.919	93.12
317.148	99.12
317.377	84.12
317.607	108.12
317.836	90.12
318.065	107.12
318.295	85.12
318.524	87.12
318.753	88.12
318.983	88.12
319.212	88.12
319.441	96.12
319.67	112.12
319.9	85.12
320.129	91.12
320.358	97.12
320.587	85.12
320.816	88.12
321.046	106.12
321.275	90.12
321.504	92.12
321.733	103.12
321.962	114.12
322.191	107.12
322.42	95.12
322.649	100.12
322.878	118.12
323.108	121.12
323.337	110.12
323.566	115.12
323.795	130.12
324.024	166.12
324.253	325.12
324.482	664.12
324.71	1287.12
324.939	1723.12
325.168	649.12
325.397	193.12
325.626	132.12
325.855	119.12
326.084	119.12
326.313	121.12
326.542	138.12
326.77	198.12
326.999	363.12
327.228	742.12
327.457	1318.12
327.686	1048.12
327.914	313.12
328.143	182.12
328.372	135.12
328.6	125.12
328.829	114.12
329.058	118.12
329.287	125.12
329.515	105.12
329.744	105.12
329.972	100.12
330.201	112.12
330.43	125.12
330.658	121.12
330.887	122.12
331.115	119.12
331.344	98.12
331.572	99.12
331.801	100.12
332.03	103.12
332.258	99.12
332.486	98.12
332.715	106.12
332.943	87.12
333.172	88.12
333.4	99.12
333.629	99.12
333.857	113.12
334.085	108.12
334.314	107.12
334.542	142.12
334.771	116.12
334.999	111.12
335.227	93.12
335.455	95.12
335.684	92.12
335.912	100.12
336.14	113.12
336.369	91.12
336.597	85.12
336.825	93.12
337.053	93.12
337.281	92.12
337.51	93.12
337.738	90.12
337.966	99.12
338.194	112.12
338.422	97.12
338.65	95.12
338.878	105.12
339.106	91.12
339.334	92.12
339.562	97.12
339.79	80.12
340.018	88.12
340.246	94.12
340.474	88.12
340.702	90.12
340.93	107.12
341.158	93.12
341.386	99.12
341.614	99.12
341.842	93.12
342.07	94.12
342.298	90.12
342.526	85.12
342.754	75.12
342.981	97.12
343.209	83.12
343.437	98.12
343.665	90.12
343.893	89.12
344.12	99.12
344.348	85.12
344.576	86.12
344.804	99.12
345.031	91.12
345.259	88.12
345.487	84.12
345.714	101.12
345.942	89.12
346.17	86.12
346.397	102.12
346.625	96.12
346.853	92.12
347.08	99.12
347.308	96.12
347.535	94.12
347.763	98.12
347.99	94.12
348.218	91.12
348.445	102.12
348.673	105.12
348.9	105.12
349.128	97.12
349.355	100.12
349.583	95.12
349.81	101.12
350.037	93.12
350.265	89.12
350.492	91.12
350.72	90.12
350.947	97.12
351.174	119.12
351.402	120.12
351.629	93.12
351.856	91.12
352.083	115.12
352.311	108.12
352.538	95.12
352.765	109.12
352.992	108.12
353.22	102.12
353.447	98.12
353.674	114.12
353.901	78.12
354.128	100.12
354.355	86.12
354.583	86.12
354.81	102.12
355.037	99.12
355.264	101.12
355.491	102.12
355.718	91.12
355.945	97.12
356.172	114.12
356.399	88.12
356.626	90.12
356.853	102.12
357.08	89.12
357.307	104.12
357.534	89.12
357.761	95.12
357.988	90.12
358.215	103.12
358.441	82.12
358.668	97.12
358.895	86.12
359.122	87.12
359.349	87.12
359.576	118.12
359.802	94.12
360.029	118.12
360.256	100.12
360.483	94.12
360.709	94.12
360.936	99.12
361.163	91.12
361.39	93.12
361.616	92.12
361.843	98.12
362.07	107.12
362.296	94.12
362.523	91.12
362.749	85.12
362.976	89.12
363.203	99.12
363.429	102.12
363.656	91.12
363.882	81.12
364.109	97.12
364.335	92.12
364.562	96.12
364.788	92.12
365.015	82.12
365.241	91.12
365.468	107.12
365.694	110.12
365.92	111.12
366.147	87.12
366.373	95.12
366.599	103.12
366.826	85.12
367.052	86.12
367.278	90.12
367.505	94.12
367.731	98.12
367.957	97.12
368.184	90.12
368.41	102.12
368.636	111.12
368.862	127.12
369.089	93.12
369.315	83.12
369.541	90.12
369.767	77.12
369.993	90.12
370.219	90.12
370.445	88.12
370.672	84.12
370.898	91.12
371.124	102.12
371.35	83.12
371.576	89.12
371.802	78.12
372.028	89.12
372.254	75.12
372.48	86.12
372.706	105.12
372.932	84.12
373.158	93.12
373.384	95.12
373.61	84.12
373.835	83.12
374.061	97.12
374.287	91.12
374.513	81.12
374.739	89.12
374.965	102.12
375.191	91.12
375.416	88.12
375.642	75.12
375.868	90.12
376.094	90.12
376.319	89.12
376.545	81.12
376.771	92.12
376.997	78.12
377.222	92.12
377.448	91.12
377.674	91.12
377.899	95.12
378.125	89.12
378.35	91.12
378.576	85.12
378.802	95.12
379.027	86.12
379.253	88.12
379.478	89.12
379.704	87.12
379.929	97.12
380.155	81.12
380.38	90.12
380.606	104.12
380.831	90.12
381.057	99.12
381.282	103.12
381.507	103.12
381.733	100.12
381.958	81.12
382.184	100.12
382.409	79.12
382.634	101.12
382.86	89.12
383.085	99.12
383.31	92.12
383.535	101.12
383.761	84.12
383.986	85.12
384.211	100.12
384.436	98.12
384.662	105.12
384.887	99.12
385.112	94.12
385.337	105.12
385.562	97.12
385.787	94.12
386.013	100.12
386.238	99.12
386.463	93.12
386.688	116.12
386.913	107.12
387.138	106.12
387.363	103.12
387.588	97.12
387.813	83.12
388.038	105.12
388.263	105.12
388.488	124.12
388.713	92.12
388.938	98.12
389.163	99.12
389.387	95.12
389.612	97.12
389.837	97.12
390.062	89.12
390.287	92.12
390.512	103.12
390.736	94.12
390.961	89.12
391.186	90.12
391.411	102.12
391.636	96.12
391.86	80.12
392.085	90.12
392.31	85.12
392.534	94.12
392.759	85.12
392.984	82.12
393.208	89.12
393.433	93.12
393.658	85.12
393.882	76.12
394.107	87.12
394.331	75.12
394.556	92.12
394.78	88.12
395.005	89.12
395.229	104.12
395.454	91.12
395.678	78.12
395.903	92.12
396.127	74.12
396.352	87.12
396.576	95.12
396.801	88.12
397.025	71.12
397.249	91.12
397.474	88.12
397.698	74.12
397.922	90.12
398.147	86.12
398.371	83.12
398.595	83.12
398.82	94.12
399.044	106.12
399.268	100.12
399.492	94.12
399.717	99.12
399.941	90.12
400.165	99.12
400.389	97.12
400.613	92.12
400.837	78.12
401.062	85.12
401.286	99.12
401.51	93.12
401.734	81.12
401.958	95.12
402.182	109.12
402.406	132.12
402.63	103.12
402.854	103.12
403.078	100.12
403.302	97.12
403.526	84.12
403.75	85.12
403.974	79.12
404.198	95.12
404.422	83.12
404.645	89.12
404.869	93.12
405.093	94.12
405.317	92.12
405.541	101.12
405.765	95.12
405.988	103.12
406.212	156.12
406.436	186.12
406.66	138.12
406.883	93.12
407.107	88.12
407.331	91.12
407.555	91.12
407.778	87.12
408.002	83.12
408.226	80.12
408.449	92.12
408.673	84.12
408.896	89.12
409.12	90.12
409.344	90.12
409.567	78.12
409.791	98.12
410.014	93.12
410.238	88.12
410.461	93.12
410.685	87.12
410.908	93.12
411.132	100.12
411.355	97.12
411.578	93.12
411.802	87.12
412.025	84.12
412.249	82.12
412.472	70.12
412.695	87.12
412.919	92.12
413.142	77.12
413.365	81.12
413.589	93.12
413.812	88.12
414.035	97.12
414.258	94.12
414.482	90.12
414.705	83.12
414.928	92.12
415.151	108.12
415.374	97.12
415.597	88.12
415.821	75.12
416.044	87.12
416.267	85.12
416.49	95.12
416.713	85.12
416.936	96.12
417.159	87.12
417.382	77.12
417.605	84.12
417.828	87.12
418.051	94.12
418.274	92.12
418.497	90.12
418.72	85.12
418.943	92.12
419.166	81.12
419.389	87.12
419.611	82.12
419.834	95.12
420.057	98.12
420.28	97.12
420.503	90.12
420.726	84.12
420.948	88.12
421.171	83.12
421.394	86.12
421.617	103.12
421.839	99.12
422.062	89.12
422.285	89.12
422.507	98.12
422.73	94.12
422.953	79.12
423.175	95.12
423.398	96.12
423.621	87.12
423.843	94.12
424.066	91.12
424.288	88.12
424.511	80.12
424.733	91.12
424.956	98.12
425.178	87.12
425.401	87.12
425.623	98.12
425.846	88.12
426.068	103.12
426.291	95.12
426.513	99.12
426.735	82.12
426.958	87.12
427.18	99.12
427.402	119.12
427.625	134.12
427.847	130.12
428.069	95.12
428.292	98.12
428.514	83.12
428.736	91.12
428.958	94.12
429.181	87.12
429.403	85.12
429.625	83.12
429.847	79.12
430.069	90.12
430.292	72.12
430.514	87.12
430.736	92.12
430.958	96.12
431.18	85.12
431.402	86.12
431.624	85.12
431.846	93.12
432.068	63.12
432.29	107.12
432.512	78.12
432.734	91.12
432.956	75.12
433.178	94.12
433.4	81.12
433.622	85.12
433.844	88.12
434.066	81.12
434.287	105.12
434.509	91.12
434.731	84.12
434.953	83.12
435.175	85.12
435.397	90.12
435.618	90.12
435.84	88.12
436.062	120.12
436.284	106.12
436.505	103.12
436.727	114.12
436.949	90.12
437.17	100.12
437.392	95.12
437.614	98.12
437.835	103.12
438.057	101.12
438.278	103.12
438.5	106.12
438.721	107.12
438.943	110.12
439.165	88.12
439.386	90.12
439.608	85.12
439.829	102.12
440.05	110.12
440.272	125.12
440.493	103.12
440.715	83.12
440.936	89.12
441.158	82.12
441.379	85.12
441.6	87.12
441.822	92.12
442.043	89.12
442.264	97.12
442.486	108.12
442.707	83.12
442.928	101.12
443.149	122.12
443.371	107.12
443.592	99.12
443.813	117.12
444.034	104.12
444.255	93.12
444.476	84.12
444.698	77.12
444.919	71.12
445.14	120.12
445.361	115.12
445.582	105.12
445.803	127.12
446.024	125.12
446.245	131.12
446.466	114.12
446.687	108.12
446.908	107.12
447.129	87.12
447.35	92.12
447.571	92.12
447.792	87.12
448.013	86.12
448.234	98.12
448.455	87.12
448.675	105.12
448.896	104.12
449.117	94.12
449.338	110.12
449.559	138.12
449.779	119.12
450	100.12
450.221	98.12
450.442	88.12
450.662	92.12
450.883	89.12
451.104	90.12
451.324	96.12
451.545	70.12
451.766	92.12
451.986	103.12
452.207	87.12
452.428	97.12
452.648	95.12
452.869	99.12
453.089	104.12
453.31	118.12
453.53	100.12
453.751	102.12
453.971	101.12
454.192	108.12
454.412	94.12
454.633	88.12
454.853	73.12
455.073	76.12
455.294	80.12
455.514	91.12
455.734	93.12
455.955	85.12
456.175	83.12
456.395	107.12
456.616	86.12
456.836	90.12
457.056	92.12
457.276	86.12
457.497	72.12
457.717	90.12
457.937	102.12
458.157	90.12
458.377	78.12
458.598	92.12
458.818	121.12
459.038	134.12
459.258	99.12
459.478	94.12
459.698	86.12
459.918	87.12
460.138	83.12
460.358	88.12
460.578	90.12
460.798	74.12
461.018	76.12
461.238	89.12
461.458	82.12
461.678	79.12
461.898	85.12
462.118	87.12
462.338	103.12
462.558	83.12
462.777	84.12
462.997	81.12
463.217	85.12
463.437	85.12
463.657	91.12
463.876	96.12
464.096	87.12
464.316	70.12
464.536	89.12
464.755	86.12
464.975	99.12
465.195	139.12
465.414	118.12
465.634	83.12
465.854	87.12
466.073	92.12
466.293	90.12
466.512	73.12
466.732	85.12
466.951	85.12
467.171	98.12
467.391	96.12
467.61	86.12
467.829	93.12
468.049	95.12
468.268	96.12
468.488	89.12
468.707	82.12
468.927	81.12
469.146	94.12
469.365	101.12
469.585	83.12
469.804	106.12
470.023	79.12
470.243	91.12
470.462	105.12
470.681	94.12
470.901	90.12
471.12	77.12
471.339	83.12
471.558	85.12
471.777	96.12
471.997	96.12
472.216	101.12
472.435	123.12
472.654	95.12
472.873	90.12
473.092	93.12
473.311	85.12
473.53	93.12
473.749	98.12
473.968	89.12
474.187	107.12
474.406	97.12
474.625	86.12
474.844	78.12
475.063	100.12
475.282	94.12
475.501	81.12
475.72	91.12
475.939	79.12
476.158	93.12
476.377	73.12
476.596	84.12
476.814	93.12
477.033	98.12
477.252	97.12
477.471	87.12
477.69	87.12
477.908	82.12
478.127	87.12
478.346	82.12
478.564	99.12
478.783	90.12
479.002	77.12
479.22	90.12
479.439	97.12
479.658	97.12
479.876	89.12
480.095	88.12
480.313	86.12
480.532	89.12
480.751	113.12
480.969	97.12
481.188	199.12
481.406	145.12
481.624	92.12
481.843	96.12
482.061	98.12
482.28	90.12
482.498	69.12
482.717	74.12
482.935	91.12
483.153	82.12
483.372	95.12
483.59	94.12
483.808	95.12
484.027	93.12
484.245	103.12
484.463	89.12
484.681	97.12
484.9	93.12
485.118	89.12
485.336	89.12
485.554	101.12
485.772	115.12
485.99	92.12
486.209	110.12
486.427	103.12
486.645	106.12
486.863	102.12
487.081	101.12
487.299	110.12
487.517	83.12
487.735	102.12
487.953	91.12
488.171	87.12
488.389	99.12
488.607	93.12
488.825	81.12
489.043	83.12
489.261	91.12
489.479	94.12
489.696	93.12
489.914	85.12
490.132	94.12
490.35	87.12
490.568	82.12
490.786	78.12
491.003	94.12
491.221	95.12
491.439	91.12
491.657	85.12
491.874	81.12
492.092	76.12
492.31	81.12
492.527	87.12
492.745	95.12
492.963	98.12
493.18	77.12
493.398	72.12
493.615	97.12
493.833	89.12
494.05	85.12
494.268	87.12
494.485	104.12
494.703	83.12
494.92	95.12
495.138	104.12
495.355	76.12
495.573	89.12
495.79	88.12
496.008	89.12
496.225	103.12
496.442	91.12
496.66	84.12
496.877	112.12
497.094	110.12
497.312	73.12
497.529	111.12
497.746	75.12
497.963	98.12
498.181	94.12
498.398	98.12
498.615	93.12
498.832	102.12
499.049	89.12
499.267	91.12
499.484	109.12
499.701	100.12
499.918	75.12
500.135	93.12
500.352	93.12
500.569	88.12
500.786	95.12
501.003	107.12
501.22	104.12
501.437	94.12
501.654	90.12
501.871	93.12
502.088	93.12
502.305	106.12
502.522	97.12
502.739	87.12
502.956	99.12
503.172	107.12
503.389	89.12
503.606	93.12
503.823	97.12
504.04	100.12
504.256	93.12
504.473	88.12
504.69	85.12
504.907	77.12
505.123	79.12
505.34	77.12
505.557	86.12
505.773	96.12
505.99	85.12
506.207	81.12
506.423	98.12
506.64	96.12
506.856	104.12
507.073	97.12
507.289	88.12
507.506	90.12
507.722	106.12
507.939	87.12
508.155	101.12
508.372	100.12
508.588	93.12
508.805	92.12
509.021	83.12
509.238	98.12
509.454	105.12
509.67	99.12
509.887	102.12
510.103	128.12
510.319	197.12
510.536	621.12
510.752	1936.12
510.968	534.12
511.184	139.12
511.401	115.12
511.617	102.12
511.833	91.12
512.049	89.12
512.265	84.12
512.481	98.12
512.698	103.12
512.914	90.12
513.13	87.12
513.346	91.12
513.562	104.12
513.778	100.12
513.994	77.12
514.21	91.12
514.426	109.12
514.642	110.12
514.858	111.12
515.074	147.12
515.29	385.12
515.506	1168.12
515.721	420.12
515.937	145.12
