Data from Circ_1982_H10_HRD10591_00099.txt Node
Date: Wed Jan 03 12:31:01 EST 2024
User: Yrep
Spectrometer: HR+D1059
Trigger mode: 1
Integration Time (sec): 1.000000E-1
Scans to average: 1
Electric dark correction enabled: true
Nonlinearity correction enabled: false
Boxcar width: 0
XAxis mode: Wavelengths
Number of Pixels in Spectrum: 2048
>>>>>Begin Spectral Data<<<<<
223.165	-25.56
223.4	-25.56
223.635	-25.56
223.869	-16.56
224.104	-18.56
224.338	-6.56
224.573	-20.56
224.808	-14.56
225.042	-16.56
225.277	-9.56
225.511	8.44
225.746	0.44
225.98	6.44
226.215	-1.56
226.449	9.44
226.683	27.44
226.918	32.44
227.152	45.44
227.387	35.44
227.621	43.44
227.856	55.44
228.09	48.44
228.324	46.44
228.559	53.44
228.793	64.44
229.027	62.44
229.262	63.44
229.496	68.44
229.73	75.44
229.964	82.44
230.199	73.44
230.433	77.44
230.667	66.44
230.901	72.44
231.136	83.44
231.37	85.44
231.604	89.44
231.838	86.44
232.072	88.44
232.306	72.44
232.541	85.44
232.775	75.44
233.009	83.44
233.243	90.44
233.477	80.44
233.711	91.44
233.945	72.44
234.179	73.44
234.413	75.44
234.647	66.44
234.881	75.44
235.115	77.44
235.349	67.44
235.583	72.44
235.817	64.44
236.051	68.44
236.285	72.44
236.519	71.44
236.753	90.44
236.987	79.44
237.221	70.44
237.455	71.44
237.689	69.44
237.922	69.44
238.156	87.44
238.39	68.44
238.624	74.44
238.858	66.44
239.091	80.44
239.325	76.44
239.559	91.44
239.793	65.44
240.027	79.44
240.26	69.44
240.494	81.44
240.728	80.44
240.961	57.44
241.195	81.44
241.429	92.44
241.662	82.44
241.896	80.44
242.13	75.44
242.363	61.44
242.597	83.44
242.83	69.44
243.064	87.44
243.298	74.44
243.531	74.44
243.765	92.44
243.998	89.44
244.232	72.44
244.465	76.44
244.699	76.44
244.932	77.44
245.166	76.44
245.399	76.44
245.633	67.44
245.866	78.44
246.099	61.44
246.333	80.44
246.566	83.44
246.8	72.44
247.033	73.44
247.266	70.44
247.5	72.44
247.733	72.44
247.966	83.44
248.2	75.44
248.433	86.44
248.666	83.44
248.899	76.44
249.133	79.44
249.366	93.44
249.599	79.44
249.832	85.44
250.066	76.44
250.299	85.44
250.532	84.44
250.765	81.44
250.998	91.44
251.231	74.44
251.465	66.44
251.698	86.44
251.931	83.44
252.164	71.44
252.397	88.44
252.63	84.44
252.863	81.44
253.096	84.44
253.329	84.44
253.562	83.44
253.795	76.44
254.028	84.44
254.261	89.44
254.494	77.44
254.727	72.44
254.96	89.44
255.193	77.44
255.426	73.44
255.659	75.44
255.892	82.44
256.124	71.44
256.357	67.44
256.59	90.44
256.823	84.44
257.056	74.44
257.289	81.44
257.521	75.44
257.754	91.44
257.987	87.44
258.22	90.44
258.452	77.44
258.685	95.44
258.918	74.44
259.151	80.44
259.383	87.44
259.616	79.44
259.849	87.44
260.081	81.44
260.314	103.44
260.547	88.44
260.779	83.44
261.012	84.44
261.244	82.44
261.477	91.44
261.71	89.44
261.942	117.44
262.175	96.44
262.407	90.44
262.64	86.44
262.872	81.44
263.105	73.44
263.337	83.44
263.57	72.44
263.802	75.44
264.035	80.44
264.267	81.44
264.499	70.44
264.732	94.44
264.964	90.44
265.197	62.44
265.429	76.44
265.661	75.44
265.894	84.44
266.126	76.44
266.358	74.44
266.591	83.44
266.823	98.44
267.055	80.44
267.287	81.44
267.52	88.44
267.752	86.44
267.984	78.44
268.216	79.44
268.448	93.44
268.681	81.44
268.913	93.44
269.145	77.44
269.377	73.44
269.609	58.44
269.841	88.44
270.073	92.44
270.306	84.44
270.538	83.44
270.77	86.44
271.002	68.44
271.234	69.44
271.466	77.44
271.698	75.44
271.93	82.44
272.162	76.44
272.394	73.44
272.626	75.44
272.858	81.44
273.09	74.44
273.322	103.44
273.553	88.44
273.785	85.44
274.017	76.44
274.249	85.44
274.481	89.44
274.713	85.44
274.945	91.44
275.176	88.44
275.408	81.44
275.64	87.44
275.872	71.44
276.104	91.44
276.335	87.44
276.567	82.44
276.799	96.44
277.031	103.44
277.262	88.44
277.494	77.44
277.726	88.44
277.957	85.44
278.189	67.44
278.421	90.44
278.652	83.44
278.884	75.44
279.115	74.44
279.347	94.44
279.579	76.44
279.81	91.44
280.042	86.44
280.273	92.44
280.505	80.44
280.736	76.44
280.968	82.44
281.199	101.44
281.431	81.44
281.662	79.44
281.894	102.44
282.125	87.44
282.356	115.44
282.588	116.44
282.819	91.44
283.051	76.44
283.282	86.44
283.513	85.44
283.745	81.44
283.976	72.44
284.207	77.44
284.439	93.44
284.67	76.44
284.901	87.44
285.132	99.44
285.364	96.44
285.595	82.44
285.826	80.44
286.057	87.44
286.288	92.44
286.52	82.44
286.751	75.44
286.982	91.44
287.213	101.44
287.444	97.44
287.675	97.44
287.906	75.44
288.138	89.44
288.369	99.44
288.6	89.44
288.831	97.44
289.062	92.44
289.293	80.44
289.524	95.44
289.755	84.44
289.986	92.44
290.217	82.44
290.448	67.44
290.679	83.44
290.91	86.44
291.141	97.44
291.371	82.44
291.602	87.44
291.833	89.44
292.064	80.44
292.295	92.44
292.526	67.44
292.757	77.44
292.987	83.44
293.218	97.44
293.449	84.44
293.68	87.44
293.91	87.44
294.141	85.44
294.372	99.44
294.603	75.44
294.833	88.44
295.064	91.44
295.295	96.44
295.525	84.44
295.756	85.44
295.987	107.44
296.217	114.44
296.448	123.44
296.679	96.44
296.909	90.44
297.14	80.44
297.37	85.44
297.601	96.44
297.831	87.44
298.062	90.44
298.292	93.44
298.523	88.44
298.753	84.44
298.984	83.44
299.214	73.44
299.445	87.44
299.675	94.44
299.905	91.44
300.136	89.44
300.366	86.44
300.597	88.44
300.827	84.44
301.057	99.44
301.288	108.44
301.518	88.44
301.748	85.44
301.979	106.44
302.209	96.44
302.439	80.44
302.669	81.44
302.9	89.44
303.13	96.44
303.36	88.44
303.59	88.44
303.82	112.44
304.051	77.44
304.281	83.44
304.511	82.44
304.741	83.44
304.971	91.44
305.201	91.44
305.431	86.44
305.661	85.44
305.891	82.44
306.121	86.44
306.352	103.44
306.582	112.44
306.812	77.44
307.042	92.44
307.272	86.44
307.502	91.44
307.731	97.44
307.961	89.44
308.191	84.44
308.421	87.44
308.651	89.44
308.881	87.44
309.111	86.44
309.341	84.44
309.571	83.44
309.8	87.44
310.03	93.44
310.26	97.44
310.49	100.44
310.72	86.44
310.949	93.44
311.179	71.44
311.409	82.44
311.639	81.44
311.868	98.44
312.098	95.44
312.328	71.44
312.557	96.44
312.787	101.44
313.017	108.44
313.246	95.44
313.476	90.44
313.706	97.44
313.935	89.44
314.165	92.44
314.394	88.44
314.624	99.44
314.853	95.44
315.083	96.44
315.312	87.44
315.542	96.44
315.771	91.44
316.001	84.44
316.23	93.44
316.46	82.44
316.689	82.44
316.919	89.44
317.148	85.44
317.377	96.44
317.607	102.44
317.836	88.44
318.065	85.44
318.295	87.44
318.524	93.44
318.753	83.44
318.983	84.44
319.212	93.44
319.441	101.44
319.67	99.44
319.9	95.44
320.129	84.44
320.358	85.44
320.587	84.44
320.816	89.44
321.046	88.44
321.275	93.44
321.504	99.44
321.733	102.44
321.962	99.44
322.191	107.44
322.42	93.44
322.649	89.44
322.878	104.44
323.108	106.44
323.337	92.44
323.566	98.44
323.795	122.44
324.024	164.44
324.253	287.44
324.482	589.44
324.71	1191.44
324.939	1526.44
325.168	578.44
325.397	185.44
325.626	140.44
325.855	118.44
326.084	116.44
326.313	115.44
326.542	131.44
326.77	185.44
326.999	352.44
327.228	672.44
327.457	1187.44
327.686	938.44
327.914	277.44
328.143	140.44
328.372	142.44
328.6	119.44
328.829	101.44
329.058	108.44
329.287	113.44
329.515	107.44
329.744	91.44
329.972	99.44
330.201	108.44
330.43	107.44
330.658	115.44
330.887	103.44
331.115	112.44
331.344	105.44
331.572	96.44
331.801	87.44
332.03	90.44
332.258	99.44
332.486	84.44
332.715	92.44
332.943	106.44
333.172	87.44
333.4	99.44
333.629	99.44
333.857	104.44
334.085	97.44
334.314	105.44
334.542	118.44
334.771	145.44
334.999	97.44
335.227	102.44
335.455	97.44
335.684	97.44
335.912	99.44
336.14	90.44
336.369	98.44
336.597	107.44
336.825	101.44
337.053	85.44
337.281	92.44
337.51	97.44
337.738	97.44
337.966	100.44
338.194	90.44
338.422	85.44
338.65	75.44
338.878	97.44
339.106	82.44
339.334	98.44
339.562	88.44
339.79	106.44
340.018	81.44
340.246	94.44
340.474	87.44
340.702	90.44
340.93	98.44
341.158	84.44
341.386	75.44
341.614	90.44
341.842	89.44
342.07	91.44
342.298	90.44
342.526	85.44
342.754	83.44
342.981	94.44
343.209	89.44
343.437	104.44
343.665	93.44
343.893	94.44
344.12	72.44
344.348	78.44
344.576	104.44
344.804	95.44
345.031	99.44
345.259	100.44
345.487	82.44
345.714	93.44
345.942	91.44
346.17	103.44
346.397	87.44
346.625	92.44
346.853	81.44
347.08	83.44
347.308	91.44
347.535	92.44
347.763	103.44
347.99	92.44
348.218	93.44
348.445	98.44
348.673	96.44
348.9	88.44
349.128	96.44
349.355	97.44
349.583	104.44
349.81	95.44
350.037	91.44
350.265	86.44
350.492	97.44
350.72	99.44
350.947	87.44
351.174	97.44
351.402	104.44
351.629	103.44
351.856	103.44
352.083	95.44
352.311	91.44
352.538	108.44
352.765	100.44
352.992	113.44
353.22	101.44
353.447	91.44
353.674	89.44
353.901	88.44
354.128	98.44
354.355	92.44
354.583	103.44
354.81	101.44
355.037	98.44
355.264	85.44
355.491	102.44
355.718	96.44
355.945	109.44
356.172	100.44
356.399	96.44
356.626	81.44
356.853	81.44
357.08	88.44
357.307	91.44
357.534	91.44
357.761	84.44
357.988	89.44
358.215	107.44
358.441	96.44
358.668	87.44
358.895	82.44
359.122	85.44
359.349	77.44
359.576	95.44
359.802	95.44
360.029	97.44
360.256	96.44
360.483	99.44
360.709	91.44
360.936	88.44
361.163	93.44
361.39	99.44
361.616	96.44
361.843	92.44
362.07	102.44
362.296	94.44
362.523	92.44
362.749	69.44
362.976	76.44
363.203	91.44
363.429	89.44
363.656	92.44
363.882	93.44
364.109	88.44
364.335	89.44
364.562	84.44
364.788	84.44
365.015	87.44
365.241	109.44
365.468	83.44
365.694	106.44
365.92	82.44
366.147	80.44
366.373	66.44
366.599	87.44
366.826	96.44
367.052	97.44
367.278	96.44
367.505	89.44
367.731	73.44
367.957	101.44
368.184	80.44
368.41	97.44
368.636	104.44
368.862	107.44
369.089	109.44
369.315	93.44
369.541	86.44
369.767	90.44
369.993	108.44
370.219	87.44
370.445	83.44
370.672	93.44
370.898	81.44
371.124	91.44
371.35	67.44
371.576	95.44
371.802	89.44
372.028	95.44
372.254	97.44
372.48	90.44
372.706	76.44
372.932	91.44
373.158	87.44
373.384	95.44
373.61	95.44
373.835	109.44
374.061	89.44
374.287	89.44
374.513	83.44
374.739	83.44
374.965	80.44
375.191	77.44
375.416	70.44
375.642	80.44
375.868	100.44
376.094	85.44
376.319	85.44
376.545	89.44
376.771	97.44
376.997	92.44
377.222	88.44
377.448	92.44
377.674	91.44
377.899	76.44
378.125	86.44
378.35	90.44
378.576	86.44
378.802	105.44
379.027	75.44
379.253	93.44
379.478	95.44
379.704	99.44
379.929	90.44
380.155	103.44
380.38	91.44
380.606	99.44
380.831	97.44
381.057	74.44
381.282	75.44
381.507	95.44
381.733	79.44
381.958	93.44
382.184	95.44
382.409	93.44
382.634	97.44
382.86	95.44
383.085	99.44
383.31	100.44
383.535	105.44
383.761	99.44
383.986	95.44
384.211	92.44
384.436	88.44
384.662	82.44
384.887	102.44
385.112	101.44
385.337	98.44
385.562	100.44
385.787	89.44
386.013	89.44
386.238	99.44
386.463	119.44
386.688	85.44
386.913	100.44
387.138	87.44
387.363	87.44
387.588	102.44
387.813	100.44
388.038	112.44
388.263	100.44
388.488	104.44
388.713	97.44
388.938	98.44
389.163	81.44
389.387	93.44
389.612	85.44
389.837	96.44
390.062	83.44
390.287	81.44
390.512	100.44
390.736	72.44
390.961	85.44
391.186	87.44
391.411	100.44
391.636	87.44
391.86	92.44
392.085	80.44
392.31	80.44
392.534	85.44
392.759	87.44
392.984	87.44
393.208	84.44
393.433	84.44
393.658	85.44
393.882	74.44
394.107	92.44
394.331	91.44
394.556	83.44
394.78	82.44
395.005	83.44
395.229	93.44
395.454	99.44
395.678	71.44
395.903	88.44
396.127	74.44
396.352	71.44
396.576	75.44
396.801	85.44
397.025	99.44
397.249	93.44
397.474	82.44
397.698	85.44
397.922	92.44
398.147	79.44
398.371	86.44
398.595	86.44
398.82	82.44
399.044	84.44
399.268	76.44
399.492	87.44
399.717	95.44
399.941	87.44
400.165	84.44
400.389	106.44
400.613	93.44
400.837	93.44
401.062	86.44
401.286	101.44
401.51	91.44
401.734	90.44
401.958	94.44
402.182	131.44
402.406	135.44
402.63	119.44
402.854	88.44
403.078	82.44
403.302	99.44
403.526	87.44
403.75	90.44
403.974	93.44
404.198	85.44
404.422	81.44
404.645	83.44
404.869	78.44
405.093	80.44
405.317	92.44
405.541	94.44
405.765	103.44
405.988	103.44
406.212	131.44
406.436	197.44
406.66	136.44
406.883	92.44
407.107	74.44
407.331	92.44
407.555	85.44
407.778	96.44
408.002	97.44
408.226	84.44
408.449	99.44
408.673	76.44
408.896	77.44
409.12	89.44
409.344	84.44
409.567	82.44
409.791	91.44
410.014	79.44
410.238	102.44
410.461	94.44
410.685	88.44
410.908	99.44
411.132	109.44
411.355	97.44
411.578	87.44
411.802	85.44
412.025	74.44
412.249	86.44
412.472	81.44
412.695	108.44
412.919	93.44
413.142	100.44
413.365	95.44
413.589	80.44
413.812	88.44
414.035	85.44
414.258	91.44
414.482	85.44
414.705	79.44
414.928	85.44
415.151	96.44
415.374	95.44
415.597	93.44
415.821	76.44
416.044	95.44
416.267	84.44
416.49	103.44
416.713	85.44
416.936	87.44
417.159	99.44
417.382	89.44
417.605	95.44
417.828	81.44
418.051	75.44
418.274	83.44
418.497	81.44
418.72	84.44
418.943	97.44
419.166	95.44
419.389	89.44
419.611	94.44
419.834	84.44
420.057	94.44
420.28	80.44
420.503	86.44
420.726	74.44
420.948	88.44
421.171	75.44
421.394	93.44
421.617	92.44
421.839	81.44
422.062	75.44
422.285	73.44
422.507	95.44
422.73	85.44
422.953	84.44
423.175	78.44
423.398	98.44
423.621	89.44
423.843	87.44
424.066	74.44
424.288	86.44
424.511	90.44
424.733	87.44
424.956	104.44
425.178	91.44
425.401	96.44
425.623	99.44
425.846	76.44
426.068	80.44
426.291	90.44
426.513	91.44
426.735	81.44
426.958	88.44
427.18	102.44
427.402	109.44
427.625	131.44
427.847	109.44
428.069	100.44
428.292	88.44
428.514	79.44
428.736	93.44
428.958	93.44
429.181	93.44
429.403	82.44
429.625	92.44
429.847	85.44
430.069	90.44
430.292	88.44
430.514	73.44
430.736	87.44
430.958	81.44
431.18	82.44
431.402	81.44
431.624	76.44
431.846	89.44
432.068	90.44
432.29	86.44
432.512	88.44
432.734	71.44
432.956	89.44
433.178	84.44
433.4	85.44
433.622	78.44
433.844	83.44
434.066	79.44
434.287	86.44
434.509	97.44
434.731	75.44
434.953	90.44
435.175	97.44
435.397	95.44
435.618	88.44
435.84	93.44
436.062	109.44
436.284	94.44
436.505	95.44
436.727	90.44
436.949	87.44
437.17	99.44
437.392	80.44
437.614	99.44
437.835	101.44
438.057	93.44
438.278	114.44
438.5	88.44
438.721	108.44
438.943	91.44
439.165	98.44
439.386	86.44
439.608	88.44
439.829	90.44
440.05	110.44
440.272	121.44
440.493	81.44
440.715	85.44
440.936	97.44
441.158	87.44
441.379	90.44
441.6	92.44
441.822	89.44
442.043	89.44
442.264	84.44
442.486	97.44
442.707	92.44
442.928	85.44
443.149	115.44
443.371	114.44
443.592	95.44
443.813	99.44
444.034	95.44
444.255	97.44
444.476	83.44
444.698	92.44
444.919	87.44
445.14	131.44
445.361	114.44
445.582	102.44
445.803	113.44
446.024	113.44
446.245	123.44
446.466	107.44
446.687	79.44
446.908	94.44
447.129	96.44
447.35	79.44
447.571	93.44
447.792	87.44
448.013	96.44
448.234	94.44
448.455	103.44
448.675	98.44
448.896	97.44
449.117	85.44
449.338	100.44
449.559	109.44
449.779	102.44
450	68.44
450.221	80.44
450.442	106.44
450.662	92.44
450.883	102.44
451.104	99.44
451.324	112.44
451.545	81.44
451.766	92.44
451.986	101.44
452.207	93.44
452.428	81.44
452.648	99.44
452.869	99.44
453.089	106.44
453.31	105.44
453.53	93.44
453.751	89.44
453.971	103.44
454.192	91.44
454.412	86.44
454.633	86.44
454.853	92.44
455.073	81.44
455.294	85.44
455.514	79.44
455.734	93.44
455.955	93.44
456.175	85.44
456.395	87.44
456.616	87.44
456.836	87.44
457.056	73.44
457.276	83.44
457.497	71.44
457.717	75.44
457.937	86.44
458.157	75.44
458.377	98.44
458.598	101.44
458.818	121.44
459.038	146.44
459.258	98.44
459.478	72.44
459.698	90.44
459.918	74.44
460.138	98.44
460.358	85.44
460.578	85.44
460.798	95.44
461.018	85.44
461.238	87.44
461.458	79.44
461.678	90.44
461.898	74.44
462.118	74.44
462.338	82.44
462.558	90.44
462.777	84.44
462.997	87.44
463.217	89.44
463.437	69.44
463.657	90.44
463.876	85.44
464.096	95.44
464.316	102.44
464.536	88.44
464.755	82.44
464.975	87.44
465.195	134.44
465.414	125.44
465.634	94.44
465.854	95.44
466.073	98.44
466.293	71.44
466.512	92.44
466.732	79.44
466.951	76.44
467.171	74.44
467.391	92.44
467.61	97.44
467.829	97.44
468.049	102.44
468.268	98.44
468.488	85.44
468.707	79.44
468.927	81.44
469.146	91.44
469.365	92.44
469.585	82.44
469.804	85.44
470.023	85.44
470.243	102.44
470.462	91.44
470.681	93.44
470.901	94.44
471.12	81.44
471.339	97.44
471.558	81.44
471.777	90.44
471.997	94.44
472.216	101.44
472.435	113.44
472.654	104.44
472.873	87.44
473.092	96.44
473.311	81.44
473.53	93.44
473.749	95.44
473.968	91.44
474.187	98.44
474.406	100.44
474.625	83.44
474.844	73.44
475.063	92.44
475.282	75.44
475.501	95.44
475.72	89.44
475.939	89.44
476.158	92.44
476.377	92.44
476.596	71.44
476.814	89.44
477.033	91.44
477.252	80.44
477.471	76.44
477.69	84.44
477.908	86.44
478.127	92.44
478.346	86.44
478.564	73.44
478.783	86.44
479.002	95.44
479.22	83.44
479.439	108.44
479.658	95.44
479.876	95.44
480.095	79.44
480.313	108.44
480.532	103.44
480.751	90.44
480.969	114.44
481.188	166.44
481.406	141.44
481.624	100.44
481.843	83.44
482.061	83.44
482.28	95.44
482.498	99.44
482.717	79.44
482.935	87.44
483.153	100.44
483.372	91.44
483.59	96.44
483.808	89.44
484.027	87.44
484.245	88.44
484.463	89.44
484.681	90.44
484.9	87.44
485.118	84.44
485.336	86.44
485.554	92.44
485.772	103.44
485.99	98.44
486.209	97.44
486.427	87.44
486.645	112.44
486.863	110.44
487.081	95.44
487.299	96.44
487.517	83.44
487.735	100.44
487.953	81.44
488.171	93.44
488.389	92.44
488.607	108.44
488.825	89.44
489.043	94.44
489.261	85.44
489.479	87.44
489.696	93.44
489.914	85.44
490.132	107.44
490.35	90.44
490.568	79.44
490.786	86.44
491.003	78.44
491.221	92.44
491.439	90.44
491.657	100.44
491.874	92.44
492.092	100.44
492.31	88.44
492.527	90.44
492.745	79.44
492.963	90.44
493.18	102.44
493.398	74.44
493.615	91.44
493.833	96.44
494.05	97.44
494.268	86.44
494.485	92.44
494.703	91.44
494.92	85.44
495.138	82.44
495.355	88.44
495.573	83.44
495.79	71.44
496.008	97.44
496.225	82.44
496.442	83.44
496.66	91.44
496.877	83.44
497.094	104.44
497.312	96.44
497.529	99.44
497.746	88.44
497.963	83.44
498.181	103.44
498.398	83.44
498.615	107.44
498.832	107.44
499.049	93.44
499.267	101.44
499.484	97.44
499.701	94.44
499.918	91.44
500.135	75.44
500.352	92.44
500.569	83.44
500.786	80.44
501.003	96.44
501.22	91.44
501.437	86.44
501.654	91.44
501.871	94.44
502.088	90.44
502.305	93.44
502.522	90.44
502.739	76.44
502.956	105.44
503.172	98.44
503.389	82.44
503.606	105.44
503.823	98.44
504.04	92.44
504.256	97.44
504.473	98.44
504.69	89.44
504.907	86.44
505.123	84.44
505.34	99.44
505.557	79.44
505.773	85.44
505.99	94.44
506.207	93.44
506.423	90.44
506.64	76.44
506.856	84.44
507.073	109.44
507.289	90.44
507.506	97.44
507.722	103.44
507.939	119.44
508.155	106.44
508.372	89.44
508.588	99.44
508.805	104.44
509.021	101.44
509.238	93.44
509.454	112.44
509.67	100.44
509.887	96.44
510.103	110.44
510.319	194.44
510.536	616.44
510.752	1832.44
510.968	518.44
511.184	138.44
511.401	97.44
511.617	81.44
511.833	81.44
512.049	89.44
512.265	99.44
512.481	85.44
512.698	91.44
512.914	90.44
513.13	86.44
513.346	99.44
513.562	97.44
513.778	90.44
513.994	84.44
514.21	101.44
514.426	110.44
514.642	108.44
514.858	117.44
515.074	131.44
515.29	339.44
515.506	1071.44
515.721	378.44
515.937	138.44
516.153	111.44
516.369	91.44
516.585	96.44
516.801	99.44
517.016	91.44
