Data from Circ_1982_H10_HRD10591_00081.txt Node
Date: Wed Jan 03 12:30:57 EST 2024
User: Yrep
Spectrometer: HR+D1059
Trigger mode: 1
Integration Time (sec): 1.000000E-1
Scans to average: 1
Electric dark correction enabled: true
Nonlinearity correction enabled: false
Boxcar width: 0
XAxis mode: Wavelengths
Number of Pixels in Spectrum: 2048
>>>>>Begin Spectral Data<<<<<
223.165	4.25
223.4	4.25
223.635	4.25
223.869	-21.75
224.104	-14.75
224.338	-27.75
224.573	-20.75
224.808	-10.75
225.042	-14.75
225.277	1.25
225.511	-9.75
225.746	-1.75
225.98	17.25
226.215	3.25
226.449	19.25
226.683	11.25
226.918	29.25
227.152	36.25
227.387	36.25
227.621	44.25
227.856	57.25
228.09	42.25
228.324	37.25
228.559	63.25
228.793	45.25
229.027	43.25
229.262	68.25
229.496	77.25
229.73	75.25
229.964	71.25
230.199	81.25
230.433	67.25
230.667	72.25
230.901	87.25
231.136	81.25
231.37	81.25
231.604	71.25
231.838	70.25
232.072	78.25
232.306	81.25
232.541	72.25
232.775	79.25
233.009	76.25
233.243	77.25
233.477	91.25
233.711	78.25
233.945	67.25
234.179	85.25
234.413	95.25
234.647	81.25
234.881	75.25
235.115	76.25
235.349	76.25
235.583	88.25
235.817	77.25
236.051	84.25
236.285	83.25
236.519	82.25
236.753	76.25
236.987	96.25
237.221	85.25
237.455	79.25
237.689	88.25
237.922	72.25
238.156	87.25
238.39	67.25
238.624	81.25
238.858	82.25
239.091	74.25
239.325	85.25
239.559	81.25
239.793	86.25
240.027	72.25
240.26	84.25
240.494	76.25
240.728	79.25
240.961	79.25
241.195	82.25
241.429	76.25
241.662	81.25
241.896	59.25
242.13	77.25
242.363	88.25
242.597	63.25
242.83	79.25
243.064	59.25
243.298	86.25
243.531	61.25
243.765	66.25
243.998	73.25
244.232	89.25
244.465	74.25
244.699	76.25
244.932	73.25
245.166	81.25
245.399	74.25
245.633	92.25
245.866	81.25
246.099	97.25
246.333	94.25
246.566	96.25
246.8	69.25
247.033	89.25
247.266	99.25
247.5	90.25
247.733	67.25
247.966	68.25
248.2	66.25
248.433	81.25
248.666	68.25
248.899	88.25
249.133	92.25
249.366	84.25
249.599	92.25
249.832	91.25
250.066	85.25
250.299	82.25
250.532	73.25
250.765	77.25
250.998	89.25
251.231	89.25
251.465	85.25
251.698	80.25
251.931	87.25
252.164	73.25
252.397	92.25
252.63	79.25
252.863	81.25
253.096	77.25
253.329	85.25
253.562	68.25
253.795	76.25
254.028	81.25
254.261	72.25
254.494	74.25
254.727	66.25
254.96	94.25
255.193	81.25
255.426	79.25
255.659	69.25
255.892	61.25
256.124	74.25
256.357	84.25
256.59	96.25
256.823	103.25
257.056	91.25
257.289	84.25
257.521	82.25
257.754	83.25
257.987	82.25
258.22	87.25
258.452	76.25
258.685	88.25
258.918	85.25
259.151	82.25
259.383	73.25
259.616	75.25
259.849	87.25
260.081	73.25
260.314	90.25
260.547	81.25
260.779	79.25
261.012	82.25
261.244	81.25
261.477	81.25
261.71	91.25
261.942	101.25
262.175	106.25
262.407	82.25
262.64	85.25
262.872	87.25
263.105	89.25
263.337	99.25
263.57	63.25
263.802	78.25
264.035	87.25
264.267	85.25
264.499	76.25
264.732	99.25
264.964	95.25
265.197	84.25
265.429	87.25
265.661	80.25
265.894	87.25
266.126	87.25
266.358	80.25
266.591	73.25
266.823	83.25
267.055	77.25
267.287	71.25
267.52	95.25
267.752	84.25
267.984	80.25
268.216	82.25
268.448	95.25
268.681	87.25
268.913	80.25
269.145	81.25
269.377	85.25
269.609	83.25
269.841	95.25
270.073	81.25
270.306	84.25
270.538	72.25
270.77	81.25
271.002	70.25
271.234	82.25
271.466	85.25
271.698	83.25
271.93	84.25
272.162	90.25
272.394	79.25
272.626	81.25
272.858	82.25
273.09	104.25
273.322	71.25
273.553	87.25
273.785	103.25
274.017	93.25
274.249	86.25
274.481	87.25
274.713	85.25
274.945	83.25
275.176	92.25
275.408	89.25
275.64	84.25
275.872	89.25
276.104	89.25
276.335	99.25
276.567	89.25
276.799	99.25
277.031	88.25
277.262	89.25
277.494	83.25
277.726	97.25
277.957	82.25
278.189	81.25
278.421	81.25
278.652	84.25
278.884	97.25
279.115	87.25
279.347	86.25
279.579	87.25
279.81	69.25
280.042	91.25
280.273	88.25
280.505	84.25
280.736	68.25
280.968	80.25
281.199	97.25
281.431	89.25
281.662	85.25
281.894	101.25
282.125	92.25
282.356	124.25
282.588	118.25
282.819	98.25
283.051	89.25
283.282	78.25
283.513	87.25
283.745	82.25
283.976	82.25
284.207	84.25
284.439	76.25
284.67	83.25
284.901	73.25
285.132	87.25
285.364	92.25
285.595	93.25
285.826	91.25
286.057	91.25
286.288	88.25
286.52	96.25
286.751	76.25
286.982	100.25
287.213	96.25
287.444	96.25
287.675	80.25
287.906	84.25
288.138	83.25
288.369	108.25
288.6	85.25
288.831	73.25
289.062	99.25
289.293	91.25
289.524	84.25
289.755	88.25
289.986	73.25
290.217	88.25
290.448	85.25
290.679	85.25
290.91	102.25
291.141	87.25
291.371	95.25
291.602	83.25
291.833	100.25
292.064	80.25
292.295	102.25
292.526	89.25
292.757	93.25
292.987	86.25
293.218	85.25
293.449	85.25
293.68	83.25
293.91	82.25
294.141	70.25
294.372	96.25
294.603	98.25
294.833	83.25
295.064	103.25
295.295	75.25
295.525	89.25
295.756	104.25
295.987	102.25
296.217	118.25
296.448	92.25
296.679	95.25
296.909	85.25
297.14	97.25
297.37	96.25
297.601	99.25
297.831	85.25
298.062	97.25
298.292	96.25
298.523	89.25
298.753	84.25
298.984	79.25
299.214	89.25
299.445	99.25
299.675	109.25
299.905	96.25
300.136	83.25
300.366	90.25
300.597	85.25
300.827	95.25
301.057	98.25
301.288	92.25
301.518	106.25
301.748	87.25
301.979	99.25
302.209	108.25
302.439	84.25
302.669	86.25
302.9	87.25
303.13	100.25
303.36	92.25
303.59	100.25
303.82	101.25
304.051	80.25
304.281	85.25
304.511	92.25
304.741	90.25
304.971	80.25
305.201	84.25
305.431	87.25
305.661	91.25
305.891	79.25
306.121	81.25
306.352	84.25
306.582	104.25
306.812	106.25
307.042	94.25
307.272	100.25
307.502	84.25
307.731	84.25
307.961	91.25
308.191	102.25
308.421	85.25
308.651	87.25
308.881	86.25
309.111	92.25
309.341	97.25
309.571	103.25
309.8	87.25
310.03	94.25
310.26	96.25
310.49	92.25
310.72	91.25
310.949	89.25
311.179	96.25
311.409	76.25
311.639	99.25
311.868	97.25
312.098	86.25
312.328	96.25
312.557	103.25
312.787	95.25
313.017	87.25
313.246	82.25
313.476	97.25
313.706	104.25
313.935	107.25
314.165	95.25
314.394	106.25
314.624	108.25
314.853	95.25
315.083	100.25
315.312	84.25
315.542	96.25
315.771	84.25
316.001	89.25
316.23	96.25
316.46	88.25
316.689	78.25
316.919	95.25
317.148	104.25
317.377	79.25
317.607	89.25
317.836	83.25
318.065	88.25
318.295	88.25
318.524	87.25
318.753	88.25
318.983	76.25
319.212	91.25
319.441	94.25
319.67	97.25
319.9	91.25
320.129	105.25
320.358	106.25
320.587	83.25
320.816	109.25
321.046	108.25
321.275	97.25
321.504	89.25
321.733	95.25
321.962	94.25
322.191	114.25
322.42	102.25
322.649	90.25
322.878	105.25
323.108	108.25
323.337	112.25
323.566	114.25
323.795	133.25
324.024	163.25
324.253	301.25
324.482	591.25
324.71	1165.25
324.939	1553.25
325.168	568.25
325.397	194.25
325.626	121.25
325.855	116.25
326.084	116.25
326.313	119.25
326.542	126.25
326.77	176.25
326.999	320.25
327.228	648.25
327.457	1189.25
327.686	935.25
327.914	284.25
328.143	170.25
328.372	131.25
328.6	116.25
328.829	105.25
329.058	96.25
329.287	112.25
329.515	89.25
329.744	95.25
329.972	100.25
330.201	105.25
330.43	138.25
330.658	113.25
330.887	114.25
331.115	123.25
331.344	82.25
331.572	89.25
331.801	82.25
332.03	104.25
332.258	99.25
332.486	108.25
332.715	99.25
332.943	89.25
333.172	86.25
333.4	74.25
333.629	104.25
333.857	119.25
334.085	114.25
334.314	111.25
334.542	134.25
334.771	116.25
334.999	103.25
335.227	104.25
335.455	100.25
335.684	99.25
335.912	91.25
336.14	103.25
336.369	96.25
336.597	109.25
336.825	99.25
337.053	83.25
337.281	88.25
337.51	103.25
337.738	97.25
337.966	96.25
338.194	90.25
338.422	98.25
338.65	98.25
338.878	88.25
339.106	85.25
339.334	83.25
339.562	79.25
339.79	83.25
340.018	87.25
340.246	102.25
340.474	94.25
340.702	96.25
340.93	92.25
341.158	97.25
341.386	90.25
341.614	93.25
341.842	104.25
342.07	95.25
342.298	79.25
342.526	96.25
342.754	93.25
342.981	82.25
343.209	87.25
343.437	101.25
343.665	86.25
343.893	72.25
344.12	92.25
344.348	91.25
344.576	88.25
344.804	80.25
345.031	91.25
345.259	92.25
345.487	100.25
345.714	90.25
345.942	91.25
346.17	83.25
346.397	87.25
346.625	77.25
346.853	99.25
347.08	88.25
347.308	92.25
347.535	84.25
347.763	99.25
347.99	83.25
348.218	96.25
348.445	93.25
348.673	93.25
348.9	99.25
349.128	102.25
349.355	91.25
349.583	110.25
349.81	81.25
350.037	93.25
350.265	83.25
350.492	93.25
350.72	92.25
350.947	93.25
351.174	109.25
351.402	109.25
351.629	104.25
351.856	100.25
352.083	95.25
352.311	96.25
352.538	103.25
352.765	99.25
352.992	102.25
353.22	95.25
353.447	89.25
353.674	101.25
353.901	103.25
354.128	107.25
354.355	108.25
354.583	87.25
354.81	91.25
355.037	96.25
355.264	97.25
355.491	88.25
355.718	88.25
355.945	88.25
356.172	106.25
356.399	100.25
356.626	92.25
356.853	92.25
357.08	108.25
357.307	92.25
357.534	81.25
357.761	88.25
357.988	104.25
358.215	100.25
358.441	71.25
358.668	94.25
358.895	87.25
359.122	86.25
359.349	82.25
359.576	96.25
359.802	96.25
360.029	95.25
360.256	93.25
360.483	88.25
360.709	83.25
360.936	96.25
361.163	98.25
361.39	101.25
361.616	88.25
361.843	85.25
362.07	90.25
362.296	87.25
362.523	88.25
362.749	87.25
362.976	85.25
363.203	91.25
363.429	73.25
363.656	72.25
363.882	74.25
364.109	83.25
364.335	85.25
364.562	91.25
364.788	87.25
365.015	77.25
365.241	87.25
365.468	103.25
365.694	106.25
365.92	96.25
366.147	93.25
366.373	95.25
366.599	97.25
366.826	79.25
367.052	83.25
367.278	86.25
367.505	105.25
367.731	90.25
367.957	88.25
368.184	92.25
368.41	80.25
368.636	91.25
368.862	98.25
369.089	97.25
369.315	93.25
369.541	87.25
369.767	96.25
369.993	81.25
370.219	113.25
370.445	74.25
370.672	91.25
370.898	94.25
371.124	90.25
371.35	83.25
371.576	96.25
371.802	74.25
372.028	91.25
372.254	86.25
372.48	92.25
372.706	90.25
372.932	106.25
373.158	83.25
373.384	82.25
373.61	89.25
373.835	87.25
374.061	70.25
374.287	90.25
374.513	89.25
374.739	96.25
374.965	95.25
375.191	87.25
375.416	55.25
375.642	58.25
375.868	86.25
376.094	96.25
376.319	77.25
376.545	97.25
376.771	77.25
376.997	97.25
377.222	85.25
377.448	84.25
377.674	98.25
377.899	100.25
378.125	100.25
378.35	92.25
378.576	110.25
378.802	92.25
379.027	97.25
379.253	107.25
379.478	92.25
379.704	85.25
379.929	87.25
380.155	97.25
380.38	90.25
380.606	98.25
380.831	100.25
381.057	112.25
381.282	91.25
381.507	80.25
381.733	94.25
381.958	92.25
382.184	61.25
382.409	92.25
382.634	108.25
382.86	91.25
383.085	91.25
383.31	97.25
383.535	92.25
383.761	105.25
383.986	108.25
384.211	92.25
384.436	96.25
384.662	98.25
384.887	85.25
385.112	102.25
385.337	101.25
385.562	90.25
385.787	111.25
386.013	111.25
386.238	111.25
386.463	96.25
386.688	104.25
386.913	106.25
387.138	100.25
387.363	104.25
387.588	90.25
387.813	101.25
388.038	102.25
388.263	111.25
388.488	108.25
388.713	107.25
388.938	105.25
389.163	81.25
389.387	98.25
389.612	106.25
389.837	99.25
390.062	96.25
390.287	106.25
390.512	100.25
390.736	97.25
390.961	81.25
391.186	98.25
391.411	99.25
391.636	100.25
391.86	98.25
392.085	74.25
392.31	88.25
392.534	89.25
392.759	90.25
392.984	80.25
393.208	98.25
393.433	87.25
393.658	88.25
393.882	86.25
394.107	89.25
394.331	87.25
394.556	70.25
394.78	91.25
395.005	93.25
395.229	76.25
395.454	83.25
395.678	77.25
395.903	87.25
396.127	95.25
396.352	95.25
396.576	85.25
396.801	92.25
397.025	75.25
397.249	76.25
397.474	99.25
397.698	89.25
397.922	99.25
398.147	90.25
398.371	90.25
398.595	91.25
398.82	80.25
399.044	87.25
399.268	91.25
399.492	93.25
399.717	91.25
399.941	93.25
400.165	91.25
400.389	91.25
400.613	80.25
400.837	89.25
401.062	91.25
401.286	84.25
401.51	96.25
401.734	98.25
401.958	91.25
402.182	107.25
402.406	140.25
402.63	101.25
402.854	85.25
403.078	85.25
403.302	82.25
403.526	85.25
403.75	77.25
403.974	76.25
404.198	101.25
404.422	83.25
404.645	85.25
404.869	94.25
405.093	87.25
405.317	89.25
405.541	98.25
405.765	88.25
405.988	97.25
406.212	148.25
406.436	171.25
406.66	124.25
406.883	105.25
407.107	87.25
407.331	92.25
407.555	98.25
407.778	90.25
408.002	94.25
408.226	81.25
408.449	79.25
408.673	90.25
408.896	79.25
409.12	81.25
409.344	89.25
409.567	81.25
409.791	103.25
410.014	99.25
410.238	84.25
410.461	84.25
410.685	95.25
410.908	87.25
411.132	109.25
411.355	103.25
411.578	93.25
411.802	88.25
412.025	91.25
412.249	83.25
412.472	83.25
412.695	90.25
412.919	77.25
413.142	88.25
413.365	85.25
413.589	75.25
413.812	88.25
414.035	95.25
414.258	94.25
414.482	92.25
414.705	85.25
414.928	73.25
415.151	91.25
415.374	91.25
415.597	92.25
415.821	91.25
416.044	67.25
416.267	78.25
416.49	92.25
416.713	88.25
416.936	86.25
417.159	88.25
417.382	84.25
417.605	102.25
417.828	91.25
418.051	92.25
418.274	85.25
418.497	88.25
418.72	79.25
418.943	62.25
419.166	84.25
419.389	93.25
419.611	84.25
419.834	85.25
420.057	84.25
420.28	81.25
420.503	93.25
420.726	98.25
420.948	87.25
421.171	93.25
421.394	98.25
421.617	93.25
421.839	90.25
422.062	94.25
422.285	83.25
422.507	97.25
422.73	92.25
422.953	92.25
423.175	82.25
423.398	74.25
423.621	83.25
423.843	84.25
424.066	85.25
424.288	84.25
424.511	80.25
424.733	86.25
424.956	107.25
425.178	86.25
425.401	87.25
425.623	97.25
425.846	79.25
426.068	79.25
426.291	82.25
426.513	101.25
426.735	95.25
426.958	86.25
427.18	97.25
427.402	115.25
427.625	129.25
427.847	121.25
428.069	105.25
428.292	87.25
428.514	85.25
428.736	80.25
428.958	90.25
429.181	96.25
429.403	83.25
429.625	81.25
429.847	72.25
430.069	98.25
430.292	91.25
430.514	90.25
430.736	83.25
430.958	97.25
431.18	76.25
431.402	93.25
431.624	91.25
431.846	97.25
432.068	99.25
432.29	89.25
432.512	87.25
432.734	80.25
432.956	99.25
433.178	92.25
433.4	96.25
433.622	84.25
433.844	98.25
434.066	98.25
434.287	97.25
434.509	87.25
434.731	75.25
434.953	70.25
435.175	86.25
435.397	87.25
435.618	99.25
435.84	89.25
436.062	109.25
436.284	100.25
436.505	85.25
436.727	96.25
436.949	95.25
437.17	87.25
437.392	80.25
437.614	83.25
437.835	86.25
438.057	109.25
438.278	90.25
438.5	107.25
438.721	105.25
438.943	96.25
439.165	89.25
439.386	77.25
439.608	100.25
439.829	105.25
440.05	129.25
440.272	115.25
440.493	82.25
440.715	90.25
440.936	78.25
441.158	91.25
441.379	77.25
441.6	76.25
441.822	85.25
442.043	90.25
442.264	107.25
442.486	97.25
442.707	89.25
442.928	90.25
443.149	120.25
443.371	108.25
443.592	111.25
443.813	97.25
444.034	96.25
444.255	97.25
444.476	84.25
444.698	85.25
444.919	95.25
445.14	129.25
445.361	115.25
445.582	104.25
445.803	116.25
446.024	109.25
446.245	132.25
446.466	97.25
446.687	84.25
446.908	93.25
447.129	82.25
447.35	84.25
447.571	88.25
447.792	97.25
448.013	82.25
448.234	110.25
448.455	90.25
448.675	97.25
448.896	110.25
449.117	96.25
449.338	96.25
449.559	114.25
449.779	106.25
450	95.25
450.221	84.25
450.442	99.25
450.662	76.25
450.883	102.25
451.104	90.25
451.324	87.25
451.545	94.25
451.766	81.25
451.986	98.25
452.207	92.25
452.428	80.25
452.648	89.25
452.869	88.25
453.089	109.25
453.31	123.25
453.53	95.25
453.751	83.25
453.971	89.25
454.192	93.25
454.412	88.25
454.633	79.25
454.853	83.25
455.073	73.25
455.294	84.25
455.514	89.25
455.734	88.25
455.955	75.25
456.175	84.25
456.395	83.25
456.616	84.25
456.836	83.25
457.056	81.25
457.276	93.25
457.497	79.25
457.717	78.25
457.937	76.25
458.157	81.25
458.377	88.25
458.598	100.25
458.818	121.25
459.038	127.25
459.258	90.25
459.478	90.25
459.698	71.25
459.918	83.25
460.138	79.25
460.358	76.25
460.578	89.25
460.798	70.25
461.018	96.25
461.238	93.25
461.458	87.25
461.678	81.25
461.898	80.25
462.118	75.25
462.338	74.25
462.558	83.25
462.777	93.25
462.997	89.25
463.217	86.25
463.437	83.25
463.657	83.25
463.876	84.25
464.096	92.25
464.316	93.25
464.536	86.25
464.755	89.25
464.975	90.25
465.195	130.25
465.414	140.25
465.634	97.25
465.854	90.25
466.073	94.25
466.293	81.25
466.512	82.25
466.732	87.25
466.951	91.25
467.171	76.25
467.391	95.25
467.61	94.25
467.829	101.25
468.049	103.25
468.268	90.25
468.488	100.25
468.707	109.25
468.927	86.25
469.146	87.25
469.365	88.25
469.585	100.25
469.804	94.25
470.023	79.25
470.243	88.25
470.462	95.25
470.681	111.25
470.901	88.25
471.12	76.25
471.339	84.25
471.558	93.25
471.777	85.25
471.997	87.25
472.216	113.25
472.435	113.25
472.654	76.25
472.873	89.25
473.092	96.25
473.311	90.25
473.53	97.25
473.749	73.25
473.968	92.25
474.187	87.25
474.406	89.25
474.625	92.25
474.844	88.25
475.063	95.25
475.282	73.25
475.501	72.25
475.72	85.25
475.939	89.25
476.158	93.25
476.377	85.25
476.596	74.25
476.814	92.25
477.033	90.25
477.252	99.25
477.471	87.25
477.69	79.25
477.908	59.25
478.127	88.25
478.346	74.25
478.564	76.25
478.783	93.25
479.002	93.25
479.22	83.25
479.439	84.25
479.658	98.25
479.876	99.25
480.095	93.25
480.313	94.25
480.532	81.25
480.751	92.25
480.969	118.25
481.188	179.25
481.406	153.25
481.624	83.25
481.843	71.25
482.061	89.25
482.28	92.25
482.498	88.25
482.717	84.25
482.935	89.25
483.153	80.25
483.372	101.25
483.59	91.25
483.808	85.25
484.027	108.25
484.245	93.25
484.463	77.25
484.681	81.25
484.9	101.25
485.118	103.25
485.336	100.25
485.554	96.25
485.772	88.25
485.99	101.25
486.209	99.25
486.427	111.25
486.645	111.25
486.863	96.25
487.081	107.25
487.299	87.25
487.517	89.25
487.735	82.25
487.953	105.25
488.171	99.25
488.389	77.25
488.607	97.25
488.825	86.25
489.043	95.25
489.261	79.25
489.479	91.25
489.696	90.25
489.914	93.25
490.132	84.25
490.35	85.25
490.568	82.25
490.786	83.25
491.003	82.25
491.221	76.25
491.439	83.25
491.657	85.25
491.874	76.25
492.092	93.25
492.31	84.25
492.527	90.25
492.745	85.25
492.963	99.25
493.18	88.25
493.398	91.25
493.615	104.25
493.833	98.25
494.05	96.25
494.268	92.25
494.485	91.25
494.703	74.25
494.92	83.25
495.138	97.25
495.355	83.25
495.573	91.25
495.79	88.25
496.008	98.25
496.225	81.25
496.442	96.25
496.66	93.25
496.877	95.25
497.094	88.25
497.312	83.25
497.529	88.25
497.746	91.25
497.963	96.25
498.181	96.25
498.398	99.25
498.615	107.25
498.832	103.25
499.049	99.25
499.267	99.25
499.484	90.25
499.701	84.25
499.918	88.25
500.135	86.25
500.352	88.25
500.569	85.25
500.786	90.25
501.003	86.25
501.22	81.25
501.437	95.25
501.654	82.25
501.871	109.25
502.088	101.25
502.305	102.25
502.522	81.25
502.739	87.25
502.956	85.25
503.172	83.25
503.389	81.25
503.606	97.25
503.823	111.25
504.04	90.25
504.256	92.25
504.473	81.25
504.69	92.25
504.907	100.25
505.123	87.25
505.34	92.25
505.557	92.25
505.773	84.25
505.99	82.25
506.207	83.25
506.423	91.25
506.64	82.25
506.856	79.25
507.073	84.25
507.289	88.25
507.506	100.25
507.722	113.25
507.939	114.25
508.155	87.25
508.372	88.25
508.588	75.25
508.805	101.25
509.021	89.25
509.238	87.25
509.454	98.25
509.67	97.25
509.887	109.25
510.103	121.25
510.319	186.25
510.536	603.25
510.752	1751.25
510.968	483.25
511.184	132.25
511.401	96.25
511.617	96.25
511.833	72.25
512.049	94.25
512.265	91.25
512.481	84.25
512.698	92.25
512.914	87.25
513.13	97.25
513.346	89.25
513.562	106.25
513.778	78.25
513.994	84.25
514.21	110.25
514.426	115.25
514.642	130.25
514.858	113.25
515.074	134.25
515.29	354.25
515.506	1047.25
515.721	383.25
515.937	122.25
516.153	98.25
516.369	97.25
516.585	90.25
516.801	97.25
