Data from Circ_1982_H10_HRD10591_00047.txt Node
Date: Wed Jan 03 12:30:50 EST 2024
User: Yrep
Spectrometer: HR+D1059
Trigger mode: 1
Integration Time (sec): 1.000000E-1
Scans to average: 1
Electric dark correction enabled: true
Nonlinearity correction enabled: false
Boxcar width: 0
XAxis mode: Wavelengths
Number of Pixels in Spectrum: 2048
>>>>>Begin Spectral Data<<<<<
223.165	-29.5
223.4	-29.5
223.635	-29.5
223.869	-25.5
224.104	-11.5
224.338	-18.5
224.573	-12.5
224.808	-16.5
225.042	-12.5
225.277	-5.5
225.511	-16.5
225.746	7.5
225.98	15.5
226.215	20.5
226.449	27.5
226.683	23.5
226.918	26.5
227.152	27.5
227.387	27.5
227.621	47.5
227.856	49.5
228.09	46.5
228.324	64.5
228.559	61.5
228.793	50.5
229.027	62.5
229.262	63.5
229.496	65.5
229.73	85.5
229.964	69.5
230.199	56.5
230.433	89.5
230.667	73.5
230.901	78.5
231.136	75.5
231.37	89.5
231.604	85.5
231.838	81.5
232.072	89.5
232.306	83.5
232.541	85.5
232.775	85.5
233.009	74.5
233.243	74.5
233.477	94.5
233.711	94.5
233.945	83.5
234.179	76.5
234.413	76.5
234.647	90.5
234.881	83.5
235.115	74.5
235.349	71.5
235.583	86.5
235.817	71.5
236.051	72.5
236.285	86.5
236.519	68.5
236.753	74.5
236.987	64.5
237.221	84.5
237.455	87.5
237.689	85.5
237.922	85.5
238.156	73.5
238.39	78.5
238.624	70.5
238.858	82.5
239.091	98.5
239.325	79.5
239.559	89.5
239.793	83.5
240.027	67.5
240.26	77.5
240.494	73.5
240.728	87.5
240.961	64.5
241.195	89.5
241.429	70.5
241.662	81.5
241.896	76.5
242.13	83.5
242.363	86.5
242.597	72.5
242.83	77.5
243.064	74.5
243.298	73.5
243.531	71.5
243.765	85.5
243.998	82.5
244.232	63.5
244.465	87.5
244.699	89.5
244.932	89.5
245.166	86.5
245.399	74.5
245.633	57.5
245.866	87.5
246.099	77.5
246.333	72.5
246.566	65.5
246.8	80.5
247.033	89.5
247.266	82.5
247.5	72.5
247.733	85.5
247.966	93.5
248.2	64.5
248.433	81.5
248.666	77.5
248.899	80.5
249.133	93.5
249.366	112.5
249.599	86.5
249.832	87.5
250.066	72.5
250.299	92.5
250.532	82.5
250.765	69.5
250.998	83.5
251.231	74.5
251.465	78.5
251.698	92.5
251.931	70.5
252.164	79.5
252.397	89.5
252.63	75.5
252.863	81.5
253.096	75.5
253.329	83.5
253.562	81.5
253.795	88.5
254.028	89.5
254.261	78.5
254.494	74.5
254.727	77.5
254.96	70.5
255.193	85.5
255.426	82.5
255.659	86.5
255.892	89.5
256.124	83.5
256.357	82.5
256.59	85.5
256.823	83.5
257.056	87.5
257.289	92.5
257.521	86.5
257.754	61.5
257.987	86.5
258.22	85.5
258.452	77.5
258.685	82.5
258.918	86.5
259.151	74.5
259.383	81.5
259.616	85.5
259.849	77.5
260.081	87.5
260.314	87.5
260.547	79.5
260.779	89.5
261.012	92.5
261.244	73.5
261.477	98.5
261.71	83.5
261.942	106.5
262.175	103.5
262.407	89.5
262.64	90.5
262.872	84.5
263.105	70.5
263.337	85.5
263.57	89.5
263.802	75.5
264.035	91.5
264.267	81.5
264.499	79.5
264.732	85.5
264.964	70.5
265.197	82.5
265.429	83.5
265.661	86.5
265.894	99.5
266.126	84.5
266.358	66.5
266.591	78.5
266.823	70.5
267.055	91.5
267.287	83.5
267.52	86.5
267.752	79.5
267.984	77.5
268.216	84.5
268.448	83.5
268.681	77.5
268.913	89.5
269.145	77.5
269.377	83.5
269.609	84.5
269.841	82.5
270.073	76.5
270.306	71.5
270.538	85.5
270.77	83.5
271.002	73.5
271.234	94.5
271.466	75.5
271.698	71.5
271.93	90.5
272.162	102.5
272.394	86.5
272.626	92.5
272.858	90.5
273.09	91.5
273.322	86.5
273.553	85.5
273.785	87.5
274.017	86.5
274.249	90.5
274.481	73.5
274.713	98.5
274.945	85.5
275.176	85.5
275.408	82.5
275.64	90.5
275.872	74.5
276.104	87.5
276.335	92.5
276.567	98.5
276.799	88.5
277.031	97.5
277.262	89.5
277.494	84.5
277.726	92.5
277.957	87.5
278.189	77.5
278.421	97.5
278.652	87.5
278.884	85.5
279.115	78.5
279.347	92.5
279.579	86.5
279.81	71.5
280.042	94.5
280.273	82.5
280.505	84.5
280.736	81.5
280.968	87.5
281.199	83.5
281.431	79.5
281.662	81.5
281.894	106.5
282.125	93.5
282.356	97.5
282.588	111.5
282.819	118.5
283.051	85.5
283.282	96.5
283.513	99.5
283.745	83.5
283.976	97.5
284.207	90.5
284.439	83.5
284.67	77.5
284.901	86.5
285.132	86.5
285.364	74.5
285.595	87.5
285.826	75.5
286.057	97.5
286.288	85.5
286.52	87.5
286.751	94.5
286.982	78.5
287.213	82.5
287.444	89.5
287.675	77.5
287.906	89.5
288.138	85.5
288.369	100.5
288.6	87.5
288.831	93.5
289.062	96.5
289.293	107.5
289.524	101.5
289.755	95.5
289.986	83.5
290.217	81.5
290.448	84.5
290.679	93.5
290.91	85.5
291.141	70.5
291.371	89.5
291.602	83.5
291.833	90.5
292.064	84.5
292.295	101.5
292.526	90.5
292.757	85.5
292.987	99.5
293.218	101.5
293.449	83.5
293.68	109.5
293.91	76.5
294.141	85.5
294.372	77.5
294.603	89.5
294.833	91.5
295.064	82.5
295.295	75.5
295.525	93.5
295.756	101.5
295.987	99.5
296.217	121.5
296.448	103.5
296.679	83.5
296.909	96.5
297.14	97.5
297.37	107.5
297.601	87.5
297.831	99.5
298.062	100.5
298.292	76.5
298.523	85.5
298.753	89.5
298.984	86.5
299.214	101.5
299.445	98.5
299.675	104.5
299.905	89.5
300.136	89.5
300.366	89.5
300.597	76.5
300.827	89.5
301.057	103.5
301.288	92.5
301.518	99.5
301.748	69.5
301.979	105.5
302.209	80.5
302.439	86.5
302.669	87.5
302.9	83.5
303.13	96.5
303.36	90.5
303.59	88.5
303.82	98.5
304.051	91.5
304.281	89.5
304.511	95.5
304.741	79.5
304.971	85.5
305.201	90.5
305.431	96.5
305.661	81.5
305.891	98.5
306.121	101.5
306.352	99.5
306.582	120.5
306.812	89.5
307.042	93.5
307.272	96.5
307.502	105.5
307.731	74.5
307.961	94.5
308.191	88.5
308.421	89.5
308.651	88.5
308.881	77.5
309.111	96.5
309.341	96.5
309.571	92.5
309.8	78.5
310.03	87.5
310.26	97.5
310.49	93.5
310.72	91.5
310.949	85.5
311.179	93.5
311.409	85.5
311.639	102.5
311.868	82.5
312.098	90.5
312.328	95.5
312.557	97.5
312.787	115.5
313.017	95.5
313.246	75.5
313.476	97.5
313.706	93.5
313.935	92.5
314.165	95.5
314.394	93.5
314.624	97.5
314.853	93.5
315.083	95.5
315.312	88.5
315.542	74.5
315.771	76.5
316.001	84.5
316.23	94.5
316.46	97.5
316.689	101.5
316.919	85.5
317.148	87.5
317.377	90.5
317.607	86.5
317.836	90.5
318.065	83.5
318.295	117.5
318.524	99.5
318.753	94.5
318.983	87.5
319.212	97.5
319.441	103.5
319.67	105.5
319.9	86.5
320.129	92.5
320.358	113.5
320.587	101.5
320.816	98.5
321.046	99.5
321.275	102.5
321.504	107.5
321.733	95.5
321.962	93.5
322.191	97.5
322.42	106.5
322.649	116.5
322.878	98.5
323.108	101.5
323.337	109.5
323.566	110.5
323.795	135.5
324.024	181.5
324.253	300.5
324.482	608.5
324.71	1176.5
324.939	1581.5
325.168	604.5
325.397	195.5
325.626	120.5
325.855	125.5
326.084	114.5
326.313	106.5
326.542	120.5
326.77	171.5
326.999	345.5
327.228	699.5
327.457	1249.5
327.686	1015.5
327.914	299.5
328.143	170.5
328.372	132.5
328.6	104.5
328.829	100.5
329.058	101.5
329.287	117.5
329.515	96.5
329.744	97.5
329.972	106.5
330.201	118.5
330.43	129.5
330.658	127.5
330.887	119.5
331.115	109.5
331.344	94.5
331.572	100.5
331.801	104.5
332.03	102.5
332.258	100.5
332.486	96.5
332.715	101.5
332.943	91.5
333.172	90.5
333.4	101.5
333.629	103.5
333.857	113.5
334.085	91.5
334.314	113.5
334.542	119.5
334.771	118.5
334.999	95.5
335.227	88.5
335.455	94.5
335.684	91.5
335.912	100.5
336.14	88.5
336.369	107.5
336.597	113.5
336.825	97.5
337.053	101.5
337.281	91.5
337.51	102.5
337.738	87.5
337.966	84.5
338.194	96.5
338.422	101.5
338.65	95.5
338.878	90.5
339.106	95.5
339.334	102.5
339.562	87.5
339.79	86.5
340.018	93.5
340.246	100.5
340.474	100.5
340.702	90.5
340.93	84.5
341.158	101.5
341.386	95.5
341.614	97.5
341.842	89.5
342.07	93.5
342.298	90.5
342.526	82.5
342.754	99.5
342.981	97.5
343.209	79.5
343.437	100.5
343.665	106.5
343.893	87.5
344.12	98.5
344.348	89.5
344.576	96.5
344.804	108.5
345.031	99.5
345.259	105.5
345.487	82.5
345.714	103.5
345.942	101.5
346.17	93.5
346.397	93.5
346.625	84.5
346.853	85.5
347.08	89.5
347.308	95.5
347.535	99.5
347.763	109.5
347.99	95.5
348.218	94.5
348.445	101.5
348.673	102.5
348.9	96.5
349.128	105.5
349.355	89.5
349.583	92.5
349.81	93.5
350.037	93.5
350.265	105.5
350.492	92.5
350.72	109.5
350.947	99.5
351.174	91.5
351.402	100.5
351.629	104.5
351.856	93.5
352.083	98.5
352.311	105.5
352.538	111.5
352.765	102.5
352.992	115.5
353.22	107.5
353.447	102.5
353.674	95.5
353.901	98.5
354.128	90.5
354.355	102.5
354.583	103.5
354.81	93.5
355.037	89.5
355.264	95.5
355.491	90.5
355.718	80.5
355.945	85.5
356.172	98.5
356.399	94.5
356.626	87.5
356.853	89.5
357.08	95.5
357.307	104.5
357.534	100.5
357.761	96.5
357.988	90.5
358.215	82.5
358.441	83.5
358.668	93.5
358.895	95.5
359.122	88.5
359.349	95.5
359.576	103.5
359.802	79.5
360.029	97.5
360.256	103.5
360.483	101.5
360.709	99.5
360.936	100.5
361.163	78.5
361.39	79.5
361.616	76.5
361.843	110.5
362.07	84.5
362.296	85.5
362.523	79.5
362.749	97.5
362.976	99.5
363.203	95.5
363.429	77.5
363.656	93.5
363.882	88.5
364.109	87.5
364.335	75.5
364.562	83.5
364.788	94.5
365.015	93.5
365.241	86.5
365.468	102.5
365.694	95.5
365.92	80.5
366.147	89.5
366.373	85.5
366.599	100.5
366.826	99.5
367.052	91.5
367.278	94.5
367.505	105.5
367.731	99.5
367.957	99.5
368.184	83.5
368.41	84.5
368.636	97.5
368.862	118.5
369.089	88.5
369.315	85.5
369.541	90.5
369.767	95.5
369.993	94.5
370.219	99.5
370.445	94.5
370.672	105.5
370.898	85.5
371.124	78.5
371.35	83.5
371.576	103.5
371.802	84.5
372.028	94.5
372.254	97.5
372.48	105.5
372.706	99.5
372.932	82.5
373.158	78.5
373.384	93.5
373.61	100.5
373.835	91.5
374.061	81.5
374.287	76.5
374.513	87.5
374.739	104.5
374.965	92.5
375.191	89.5
375.416	82.5
375.642	83.5
375.868	98.5
376.094	88.5
376.319	79.5
376.545	79.5
376.771	90.5
376.997	100.5
377.222	98.5
377.448	92.5
377.674	106.5
377.899	87.5
378.125	79.5
378.35	92.5
378.576	87.5
378.802	102.5
379.027	101.5
379.253	96.5
379.478	102.5
379.704	94.5
379.929	99.5
380.155	96.5
380.38	94.5
380.606	99.5
380.831	101.5
381.057	104.5
381.282	87.5
381.507	95.5
381.733	98.5
381.958	91.5
382.184	99.5
382.409	109.5
382.634	113.5
382.86	94.5
383.085	94.5
383.31	100.5
383.535	93.5
383.761	93.5
383.986	97.5
384.211	101.5
384.436	103.5
384.662	103.5
384.887	103.5
385.112	102.5
385.337	102.5
385.562	113.5
385.787	101.5
386.013	117.5
386.238	114.5
386.463	111.5
386.688	103.5
386.913	112.5
387.138	115.5
387.363	112.5
387.588	113.5
387.813	96.5
388.038	90.5
388.263	95.5
388.488	105.5
388.713	90.5
388.938	95.5
389.163	93.5
389.387	101.5
389.612	103.5
389.837	100.5
390.062	95.5
390.287	94.5
390.512	102.5
390.736	96.5
390.961	85.5
391.186	88.5
391.411	110.5
391.636	92.5
391.86	87.5
392.085	75.5
392.31	83.5
392.534	85.5
392.759	92.5
392.984	87.5
393.208	85.5
393.433	91.5
393.658	86.5
393.882	77.5
394.107	87.5
394.331	94.5
394.556	93.5
394.78	81.5
395.005	85.5
395.229	88.5
395.454	71.5
395.678	82.5
395.903	78.5
396.127	84.5
396.352	94.5
396.576	93.5
396.801	78.5
397.025	87.5
397.249	79.5
397.474	95.5
397.698	76.5
397.922	102.5
398.147	91.5
398.371	93.5
398.595	81.5
398.82	87.5
399.044	87.5
399.268	76.5
399.492	89.5
399.717	82.5
399.941	92.5
400.165	104.5
400.389	99.5
400.613	102.5
400.837	99.5
401.062	90.5
401.286	108.5
401.51	70.5
401.734	93.5
401.958	91.5
402.182	119.5
402.406	150.5
402.63	118.5
402.854	88.5
403.078	101.5
403.302	91.5
403.526	97.5
403.75	76.5
403.974	84.5
404.198	100.5
404.422	101.5
404.645	87.5
404.869	93.5
405.093	85.5
405.317	99.5
405.541	95.5
405.765	101.5
405.988	99.5
406.212	139.5
406.436	196.5
406.66	131.5
406.883	101.5
407.107	96.5
407.331	92.5
407.555	104.5
407.778	95.5
408.002	87.5
408.226	91.5
408.449	98.5
408.673	84.5
408.896	99.5
409.12	89.5
409.344	92.5
409.567	91.5
409.791	85.5
410.014	101.5
410.238	93.5
410.461	94.5
410.685	95.5
410.908	114.5
411.132	107.5
411.355	109.5
411.578	89.5
411.802	78.5
412.025	91.5
412.249	91.5
412.472	92.5
412.695	99.5
412.919	91.5
413.142	92.5
413.365	92.5
413.589	77.5
413.812	86.5
414.035	94.5
414.258	103.5
414.482	96.5
414.705	96.5
414.928	104.5
415.151	100.5
415.374	98.5
415.597	93.5
415.821	92.5
416.044	90.5
416.267	95.5
416.49	100.5
416.713	87.5
416.936	78.5
417.159	96.5
417.382	91.5
417.605	104.5
417.828	95.5
418.051	99.5
418.274	89.5
418.497	80.5
418.72	86.5
418.943	94.5
419.166	91.5
419.389	95.5
419.611	92.5
419.834	91.5
420.057	80.5
420.28	93.5
420.503	91.5
420.726	90.5
420.948	82.5
421.171	81.5
421.394	93.5
421.617	87.5
421.839	98.5
422.062	86.5
422.285	92.5
422.507	107.5
422.73	98.5
422.953	109.5
423.175	101.5
423.398	83.5
423.621	87.5
423.843	92.5
424.066	86.5
424.288	91.5
424.511	84.5
424.733	87.5
424.956	98.5
425.178	102.5
425.401	99.5
425.623	103.5
425.846	93.5
426.068	82.5
426.291	97.5
426.513	85.5
426.735	80.5
426.958	92.5
427.18	99.5
427.402	122.5
427.625	138.5
427.847	129.5
428.069	110.5
428.292	91.5
428.514	102.5
428.736	92.5
428.958	95.5
429.181	88.5
429.403	97.5
429.625	93.5
429.847	84.5
430.069	102.5
430.292	89.5
430.514	76.5
430.736	91.5
430.958	75.5
431.18	89.5
431.402	81.5
431.624	84.5
431.846	79.5
432.068	85.5
432.29	92.5
432.512	92.5
432.734	74.5
432.956	87.5
433.178	104.5
433.4	101.5
433.622	91.5
433.844	97.5
434.066	93.5
434.287	99.5
434.509	94.5
434.731	102.5
434.953	85.5
435.175	94.5
435.397	112.5
435.618	82.5
435.84	99.5
436.062	107.5
436.284	97.5
436.505	108.5
436.727	102.5
436.949	101.5
437.17	89.5
437.392	99.5
437.614	97.5
437.835	105.5
438.057	109.5
438.278	102.5
438.5	104.5
438.721	111.5
438.943	94.5
439.165	98.5
439.386	97.5
439.608	90.5
439.829	86.5
440.05	94.5
440.272	112.5
440.493	94.5
440.715	79.5
440.936	88.5
441.158	81.5
441.379	86.5
441.6	101.5
441.822	89.5
442.043	99.5
442.264	78.5
442.486	100.5
442.707	89.5
442.928	118.5
443.149	101.5
443.371	107.5
443.592	104.5
443.813	97.5
444.034	102.5
444.255	97.5
444.476	80.5
444.698	90.5
444.919	75.5
445.14	137.5
445.361	104.5
445.582	110.5
445.803	116.5
446.024	127.5
446.245	115.5
446.466	98.5
446.687	81.5
446.908	87.5
447.129	97.5
447.35	85.5
447.571	97.5
447.792	93.5
448.013	98.5
448.234	101.5
448.455	93.5
448.675	89.5
448.896	109.5
449.117	117.5
449.338	108.5
449.559	115.5
449.779	130.5
450	94.5
450.221	99.5
450.442	96.5
450.662	89.5
450.883	109.5
451.104	105.5
451.324	83.5
451.545	86.5
451.766	84.5
451.986	81.5
452.207	93.5
452.428	103.5
452.648	106.5
452.869	104.5
453.089	110.5
453.31	114.5
453.53	100.5
453.751	89.5
453.971	106.5
454.192	102.5
454.412	94.5
454.633	82.5
454.853	96.5
455.073	71.5
455.294	96.5
455.514	85.5
455.734	76.5
455.955	108.5
456.175	71.5
456.395	91.5
456.616	85.5
456.836	79.5
457.056	91.5
457.276	81.5
457.497	85.5
457.717	74.5
457.937	87.5
458.157	97.5
458.377	87.5
458.598	101.5
458.818	122.5
459.038	142.5
459.258	104.5
459.478	98.5
459.698	89.5
459.918	93.5
460.138	93.5
460.358	77.5
460.578	108.5
460.798	103.5
461.018	95.5
461.238	105.5
461.458	99.5
461.678	98.5
461.898	102.5
462.118	85.5
462.338	86.5
462.558	84.5
462.777	97.5
462.997	99.5
463.217	91.5
463.437	83.5
463.657	74.5
463.876	93.5
464.096	118.5
464.316	88.5
464.536	93.5
464.755	97.5
464.975	103.5
465.195	140.5
465.414	134.5
465.634	86.5
465.854	95.5
466.073	97.5
466.293	85.5
466.512	97.5
466.732	99.5
466.951	91.5
467.171	88.5
467.391	97.5
467.61	94.5
467.829	95.5
468.049	97.5
468.268	107.5
468.488	89.5
468.707	83.5
468.927	87.5
469.146	87.5
469.365	87.5
469.585	82.5
469.804	94.5
470.023	97.5
470.243	107.5
470.462	90.5
470.681	107.5
470.901	103.5
471.12	93.5
471.339	80.5
471.558	70.5
471.777	106.5
471.997	95.5
472.216	97.5
472.435	123.5
472.654	104.5
472.873	84.5
473.092	93.5
473.311	86.5
473.53	95.5
473.749	91.5
473.968	90.5
474.187	81.5
474.406	77.5
474.625	81.5
474.844	97.5
475.063	78.5
475.282	87.5
475.501	96.5
475.72	86.5
475.939	87.5
476.158	75.5
476.377	94.5
476.596	105.5
476.814	92.5
477.033	86.5
477.252	99.5
477.471	85.5
477.69	78.5
477.908	87.5
478.127	75.5
478.346	82.5
478.564	86.5
478.783	93.5
479.002	101.5
479.22	83.5
479.439	100.5
479.658	87.5
479.876	87.5
480.095	85.5
480.313	94.5
480.532	104.5
480.751	84.5
480.969	96.5
481.188	164.5
481.406	117.5
481.624	94.5
481.843	94.5
482.061	83.5
482.28	93.5
482.498	79.5
482.717	84.5
482.935	110.5
483.153	100.5
483.372	99.5
483.59	93.5
483.808	100.5
484.027	98.5
484.245	94.5
484.463	109.5
484.681	89.5
484.9	97.5
485.118	100.5
485.336	102.5
485.554	107.5
485.772	101.5
485.99	111.5
486.209	115.5
486.427	108.5
486.645	110.5
486.863	101.5
487.081	102.5
487.299	102.5
487.517	107.5
487.735	117.5
487.953	84.5
488.171	103.5
488.389	109.5
488.607	113.5
488.825	79.5
489.043	87.5
489.261	89.5
489.479	98.5
489.696	99.5
489.914	90.5
490.132	91.5
490.35	94.5
490.568	88.5
490.786	89.5
491.003	88.5
491.221	101.5
491.439	92.5
491.657	91.5
491.874	102.5
492.092	96.5
492.31	76.5
492.527	86.5
492.745	93.5
492.963	97.5
493.18	85.5
493.398	98.5
493.615	115.5
493.833	94.5
494.05	81.5
494.268	90.5
494.485	108.5
494.703	89.5
494.92	103.5
495.138	95.5
495.355	83.5
495.573	89.5
495.79	90.5
496.008	106.5
496.225	95.5
496.442	99.5
496.66	97.5
496.877	100.5
497.094	103.5
497.312	93.5
497.529	106.5
497.746	86.5
497.963	90.5
498.181	91.5
498.398	100.5
498.615	98.5
498.832	101.5
499.049	84.5
499.267	79.5
499.484	106.5
499.701	97.5
499.918	86.5
500.135	89.5
500.352	104.5
500.569	82.5
500.786	88.5
501.003	90.5
501.22	95.5
501.437	101.5
501.654	90.5
501.871	98.5
502.088	64.5
502.305	98.5
502.522	95.5
502.739	91.5
502.956	88.5
503.172	84.5
503.389	90.5
503.606	109.5
503.823	94.5
504.04	95.5
504.256	109.5
504.473	88.5
504.69	101.5
504.907	91.5
505.123	96.5
505.34	107.5
505.557	95.5
505.773	91.5
505.99	90.5
506.207	93.5
506.423	91.5
506.64	94.5
506.856	97.5
507.073	99.5
507.289	84.5
507.506	99.5
507.722	87.5
507.939	98.5
508.155	105.5
508.372	80.5
508.588	93.5
508.805	91.5
509.021	87.5
509.238	86.5
509.454	85.5
509.67	91.5
509.887	100.5
510.103	119.5
510.319	183.5
510.536	572.5
510.752	1708.5
510.968	492.5
511.184	146.5
511.401	101.5
511.617	90.5
511.833	94.5
512.049	99.5
512.265	88.5
512.481	98.5
512.698	99.5
512.914	91.5
513.13	83.5
513.346	79.5
513.562	100.5
513.778	86.5
513.994	95.5
514.21	100.5
514.426	111.5
514.642	121.5
514.858	99.5
515.074	147.5
515.29	311.5
515.506	1030.5
515.721	379.5
515.937	129.5
516.153	107.5
516.369	97.5
516.585	97.5
516.801	90.5
517.016	91.5
517.232	88.5
517.448	90.5
517.664	87.5
517.879	97.5
518.095	85.5
518.311	112.5
518.527	93.5
518.742	96.5
518.958	95.5
519.173	99.5
519.389	99.5
519.605	108.5
519.82	112.5
520.036	107.5
520.251	104.5
520.467	109.5
520.682	106.5
520.898	98.5
521.113	111.5
521.329	134.5
521.544	172.5
521.76	431.5
521.975	1673.5
522.19	1001.5
522.406	249.5
522.621	130.5
522.836	102.5
523.052	105.5
523.267	94.5
523.482	87.5
523.698	100.5
523.913	111.5
524.128	99.5
524.343	83.5
524.559	97.5
524.774	83.5
524.989	96.5
525.204	102.5
525.419	95.5
525.634	90.5
525.849	97.5
526.064	101.5
526.28	84.5
526.495	88.5
526.71	73.5
526.925	71.5
527.14	81.5
527.355	91.5
527.57	101.5
527.785	90.5
527.999	94.5
528.214	103.5
528.429	98.5
528.644	101.5
528.859	106.5
529.074	89.5
529.289	111.5
529.503	134.5
529.718	94.5
529.933	90.5
530.148	97.5
530.363	101.5
530.577	84.5
530.792	79.5
531.007	94.5
531.221	99.5
531.436	99.5
531.651	92.5
531.865	97.5
532.08	97.5
532.295	103.5
532.509	85.5
532.724	79.5
532.938	94.5
533.153	94.5
533.367	104.5
533.582	78.5
533.796	104.5
534.011	105.5
534.225	86.5
534.44	90.5
534.654	90.5
534.868	100.5
