Data from Circ_1982_H10_HRD10591_00016.txt Node
Date: Wed Jan 03 12:30:44 EST 2024
User: Yrep
Spectrometer: HR+D1059
Trigger mode: 1
Integration Time (sec): 1.000000E-1
Scans to average: 1
Electric dark correction enabled: true
Nonlinearity correction enabled: false
Boxcar width: 0
XAxis mode: Wavelengths
Number of Pixels in Spectrum: 2048
>>>>>Begin Spectral Data<<<<<
223.165	-13.44
223.4	-13.44
223.635	-13.44
223.869	-30.44
224.104	-19.44
224.338	-11.44
224.573	-7.44
224.808	-2.44
225.042	-3.44
225.277	-11.44
225.511	-8.44
225.746	-2.44
225.98	10.56
226.215	13.56
226.449	8.56
226.683	24.56
226.918	22.56
227.152	30.56
227.387	32.56
227.621	35.56
227.856	39.56
228.09	47.56
228.324	54.56
228.559	59.56
228.793	58.56
229.027	64.56
229.262	58.56
229.496	67.56
229.73	84.56
229.964	80.56
230.199	77.56
230.433	72.56
230.667	86.56
230.901	68.56
231.136	75.56
231.37	89.56
231.604	90.56
231.838	89.56
232.072	84.56
232.306	86.56
232.541	81.56
232.775	74.56
233.009	62.56
233.243	76.56
233.477	89.56
233.711	72.56
233.945	76.56
234.179	82.56
234.413	67.56
234.647	80.56
234.881	81.56
235.115	86.56
235.349	77.56
235.583	83.56
235.817	76.56
236.051	83.56
236.285	89.56
236.519	66.56
236.753	71.56
236.987	84.56
237.221	80.56
237.455	80.56
237.689	79.56
237.922	78.56
238.156	79.56
238.39	75.56
238.624	73.56
238.858	82.56
239.091	69.56
239.325	51.56
239.559	98.56
239.793	74.56
240.027	74.56
240.26	72.56
240.494	86.56
240.728	77.56
240.961	76.56
241.195	86.56
241.429	73.56
241.662	77.56
241.896	76.56
242.13	86.56
242.363	80.56
242.597	81.56
242.83	83.56
243.064	71.56
243.298	81.56
243.531	68.56
243.765	82.56
243.998	79.56
244.232	87.56
244.465	85.56
244.699	71.56
244.932	72.56
245.166	82.56
245.399	77.56
245.633	76.56
245.866	76.56
246.099	82.56
246.333	88.56
246.566	83.56
246.8	87.56
247.033	84.56
247.266	75.56
247.5	72.56
247.733	82.56
247.966	91.56
248.2	96.56
248.433	77.56
248.666	82.56
248.899	89.56
249.133	78.56
249.366	99.56
249.599	97.56
249.832	85.56
250.066	73.56
250.299	73.56
250.532	69.56
250.765	73.56
250.998	84.56
251.231	72.56
251.465	85.56
251.698	97.56
251.931	76.56
252.164	86.56
252.397	82.56
252.63	80.56
252.863	83.56
253.096	102.56
253.329	92.56
253.562	78.56
253.795	82.56
254.028	95.56
254.261	86.56
254.494	84.56
254.727	90.56
254.96	80.56
255.193	76.56
255.426	77.56
255.659	72.56
255.892	90.56
256.124	81.56
256.357	77.56
256.59	91.56
256.823	89.56
257.056	84.56
257.289	86.56
257.521	67.56
257.754	69.56
257.987	74.56
258.22	78.56
258.452	75.56
258.685	73.56
258.918	86.56
259.151	70.56
259.383	70.56
259.616	69.56
259.849	60.56
260.081	85.56
260.314	90.56
260.547	89.56
260.779	96.56
261.012	91.56
261.244	88.56
261.477	81.56
261.71	86.56
261.942	103.56
262.175	111.56
262.407	87.56
262.64	79.56
262.872	92.56
263.105	84.56
263.337	77.56
263.57	96.56
263.802	81.56
264.035	80.56
264.267	80.56
264.499	81.56
264.732	93.56
264.964	77.56
265.197	95.56
265.429	78.56
265.661	96.56
265.894	86.56
266.126	92.56
266.358	86.56
266.591	99.56
266.823	78.56
267.055	87.56
267.287	76.56
267.52	84.56
267.752	84.56
267.984	93.56
268.216	76.56
268.448	82.56
268.681	90.56
268.913	84.56
269.145	72.56
269.377	105.56
269.609	84.56
269.841	91.56
270.073	92.56
270.306	96.56
270.538	68.56
270.77	80.56
271.002	85.56
271.234	77.56
271.466	83.56
271.698	82.56
271.93	80.56
272.162	64.56
272.394	90.56
272.626	90.56
272.858	91.56
273.09	91.56
273.322	80.56
273.553	92.56
273.785	99.56
274.017	74.56
274.249	76.56
274.481	79.56
274.713	89.56
274.945	92.56
275.176	88.56
275.408	96.56
275.64	90.56
275.872	88.56
276.104	86.56
276.335	92.56
276.567	105.56
276.799	100.56
277.031	102.56
277.262	88.56
277.494	95.56
277.726	80.56
277.957	100.56
278.189	90.56
278.421	92.56
278.652	84.56
278.884	91.56
279.115	98.56
279.347	77.56
279.579	89.56
279.81	73.56
280.042	84.56
280.273	96.56
280.505	93.56
280.736	93.56
280.968	103.56
281.199	97.56
281.431	81.56
281.662	88.56
281.894	97.56
282.125	89.56
282.356	101.56
282.588	127.56
282.819	113.56
283.051	89.56
283.282	81.56
283.513	89.56
283.745	97.56
283.976	98.56
284.207	93.56
284.439	98.56
284.67	82.56
284.901	94.56
285.132	91.56
285.364	85.56
285.595	86.56
285.826	83.56
286.057	100.56
286.288	88.56
286.52	76.56
286.751	90.56
286.982	85.56
287.213	81.56
287.444	89.56
287.675	83.56
287.906	80.56
288.138	77.56
288.369	98.56
288.6	101.56
288.831	77.56
289.062	90.56
289.293	95.56
289.524	94.56
289.755	84.56
289.986	87.56
290.217	90.56
290.448	96.56
290.679	82.56
290.91	75.56
291.141	81.56
291.371	110.56
291.602	101.56
291.833	95.56
292.064	86.56
292.295	89.56
292.526	85.56
292.757	95.56
292.987	78.56
293.218	81.56
293.449	88.56
293.68	97.56
293.91	97.56
294.141	94.56
294.372	99.56
294.603	84.56
294.833	85.56
295.064	85.56
295.295	96.56
295.525	90.56
295.756	90.56
295.987	114.56
296.217	135.56
296.448	107.56
296.679	84.56
296.909	89.56
297.14	89.56
297.37	94.56
297.601	87.56
297.831	75.56
298.062	87.56
298.292	92.56
298.523	89.56
298.753	94.56
298.984	84.56
299.214	84.56
299.445	93.56
299.675	91.56
299.905	97.56
300.136	84.56
300.366	84.56
300.597	92.56
300.827	78.56
301.057	94.56
301.288	106.56
301.518	96.56
301.748	84.56
301.979	103.56
302.209	88.56
302.439	84.56
302.669	92.56
302.9	100.56
303.13	99.56
303.36	99.56
303.59	101.56
303.82	92.56
304.051	105.56
304.281	88.56
304.511	78.56
304.741	84.56
304.971	91.56
305.201	84.56
305.431	100.56
305.661	96.56
305.891	96.56
306.121	95.56
306.352	106.56
306.582	90.56
306.812	96.56
307.042	95.56
307.272	102.56
307.502	79.56
307.731	84.56
307.961	73.56
308.191	88.56
308.421	82.56
308.651	80.56
308.881	72.56
309.111	96.56
309.341	108.56
309.571	93.56
309.8	90.56
310.03	95.56
310.26	101.56
310.49	92.56
310.72	84.56
310.949	104.56
311.179	93.56
311.409	99.56
311.639	84.56
311.868	89.56
312.098	89.56
312.328	98.56
312.557	91.56
312.787	105.56
313.017	87.56
313.246	97.56
313.476	97.56
313.706	93.56
313.935	88.56
314.165	83.56
314.394	95.56
314.624	93.56
314.853	93.56
315.083	93.56
315.312	92.56
315.542	113.56
315.771	100.56
316.001	96.56
316.23	92.56
316.46	93.56
316.689	91.56
316.919	92.56
317.148	80.56
317.377	78.56
317.607	86.56
317.836	94.56
318.065	75.56
318.295	88.56
318.524	91.56
318.753	82.56
318.983	95.56
319.212	99.56
319.441	116.56
319.67	97.56
319.9	84.56
320.129	82.56
320.358	83.56
320.587	84.56
320.816	76.56
321.046	84.56
321.275	102.56
321.504	98.56
321.733	88.56
321.962	110.56
322.191	96.56
322.42	94.56
322.649	117.56
322.878	96.56
323.108	96.56
323.337	110.56
323.566	116.56
323.795	138.56
324.024	185.56
324.253	322.56
324.482	638.56
324.71	1318.56
324.939	1762.56
325.168	669.56
325.397	210.56
325.626	129.56
325.855	131.56
326.084	123.56
326.313	115.56
326.542	141.56
326.77	190.56
326.999	370.56
327.228	738.56
327.457	1365.56
327.686	1080.56
327.914	310.56
328.143	181.56
328.372	140.56
328.6	117.56
328.829	101.56
329.058	107.56
329.287	121.56
329.515	92.56
329.744	109.56
329.972	105.56
330.201	105.56
330.43	118.56
330.658	105.56
330.887	122.56
331.115	98.56
331.344	92.56
331.572	106.56
331.801	105.56
332.03	105.56
332.258	100.56
332.486	79.56
332.715	84.56
332.943	88.56
333.172	95.56
333.4	106.56
333.629	96.56
333.857	119.56
334.085	113.56
334.314	104.56
334.542	114.56
334.771	110.56
334.999	94.56
335.227	96.56
335.455	91.56
335.684	93.56
335.912	99.56
336.14	95.56
336.369	99.56
336.597	101.56
336.825	88.56
337.053	99.56
337.281	89.56
337.51	87.56
337.738	84.56
337.966	84.56
338.194	91.56
338.422	98.56
338.65	99.56
338.878	112.56
339.106	87.56
339.334	87.56
339.562	85.56
339.79	110.56
340.018	92.56
340.246	102.56
340.474	93.56
340.702	101.56
340.93	80.56
341.158	78.56
341.386	86.56
341.614	98.56
341.842	92.56
342.07	89.56
342.298	95.56
342.526	93.56
342.754	90.56
342.981	92.56
343.209	100.56
343.437	104.56
343.665	97.56
343.893	94.56
344.12	104.56
344.348	96.56
344.576	84.56
344.804	94.56
345.031	79.56
345.259	99.56
345.487	84.56
345.714	85.56
345.942	93.56
346.17	86.56
346.397	85.56
346.625	93.56
346.853	90.56
347.08	90.56
347.308	96.56
347.535	83.56
347.763	102.56
347.99	105.56
348.218	92.56
348.445	98.56
348.673	91.56
348.9	91.56
349.128	94.56
349.355	89.56
349.583	85.56
349.81	85.56
350.037	98.56
350.265	94.56
350.492	105.56
350.72	100.56
350.947	88.56
351.174	113.56
351.402	108.56
351.629	99.56
351.856	98.56
352.083	101.56
352.311	109.56
352.538	111.56
352.765	100.56
352.992	109.56
353.22	102.56
353.447	107.56
353.674	102.56
353.901	94.56
354.128	98.56
354.355	92.56
354.583	96.56
354.81	101.56
355.037	95.56
355.264	81.56
355.491	90.56
355.718	93.56
355.945	101.56
356.172	105.56
356.399	111.56
356.626	100.56
356.853	96.56
357.08	101.56
357.307	92.56
357.534	91.56
357.761	92.56
357.988	93.56
358.215	96.56
358.441	94.56
358.668	82.56
358.895	93.56
359.122	92.56
359.349	93.56
359.576	82.56
359.802	104.56
360.029	102.56
360.256	92.56
360.483	98.56
360.709	93.56
360.936	89.56
361.163	83.56
361.39	96.56
361.616	91.56
361.843	96.56
362.07	101.56
362.296	82.56
362.523	95.56
362.749	100.56
362.976	93.56
363.203	97.56
363.429	79.56
363.656	90.56
363.882	86.56
364.109	91.56
364.335	82.56
364.562	92.56
364.788	96.56
365.015	88.56
365.241	106.56
365.468	99.56
365.694	113.56
365.92	100.56
366.147	100.56
366.373	89.56
366.599	104.56
366.826	95.56
367.052	86.56
367.278	88.56
367.505	101.56
367.731	88.56
367.957	90.56
368.184	100.56
368.41	98.56
368.636	107.56
368.862	99.56
369.089	107.56
369.315	102.56
369.541	87.56
369.767	87.56
369.993	96.56
370.219	105.56
370.445	83.56
370.672	91.56
370.898	84.56
371.124	87.56
371.35	99.56
371.576	98.56
371.802	91.56
372.028	86.56
372.254	89.56
372.48	90.56
372.706	90.56
372.932	88.56
373.158	107.56
373.384	102.56
373.61	97.56
373.835	83.56
374.061	84.56
374.287	98.56
374.513	92.56
374.739	96.56
374.965	98.56
375.191	86.56
375.416	83.56
375.642	96.56
375.868	104.56
376.094	97.56
376.319	94.56
376.545	88.56
376.771	93.56
376.997	101.56
377.222	74.56
377.448	93.56
377.674	99.56
377.899	91.56
378.125	91.56
378.35	103.56
378.576	98.56
378.802	91.56
379.027	100.56
379.253	93.56
379.478	84.56
379.704	81.56
379.929	104.56
380.155	97.56
380.38	101.56
380.606	96.56
380.831	100.56
381.057	93.56
381.282	87.56
381.507	96.56
381.733	103.56
381.958	101.56
382.184	102.56
382.409	102.56
382.634	110.56
382.86	94.56
383.085	98.56
383.31	107.56
383.535	96.56
383.761	102.56
383.986	111.56
384.211	109.56
384.436	98.56
384.662	99.56
384.887	119.56
385.112	93.56
385.337	97.56
385.562	99.56
385.787	117.56
386.013	120.56
386.238	115.56
386.463	115.56
386.688	115.56
386.913	97.56
387.138	109.56
387.363	115.56
387.588	101.56
387.813	98.56
388.038	118.56
388.263	116.56
388.488	113.56
388.713	90.56
388.938	87.56
389.163	81.56
389.387	89.56
389.612	102.56
389.837	98.56
390.062	106.56
390.287	107.56
390.512	92.56
390.736	105.56
390.961	84.56
391.186	91.56
391.411	91.56
391.636	91.56
391.86	93.56
392.085	84.56
392.31	85.56
392.534	83.56
392.759	103.56
392.984	94.56
393.208	87.56
393.433	102.56
393.658	107.56
393.882	92.56
394.107	110.56
394.331	85.56
394.556	82.56
394.78	99.56
395.005	96.56
395.229	88.56
395.454	93.56
395.678	81.56
395.903	98.56
396.127	91.56
396.352	89.56
396.576	96.56
396.801	92.56
397.025	91.56
397.249	85.56
397.474	70.56
397.698	78.56
397.922	100.56
398.147	74.56
398.371	80.56
398.595	70.56
398.82	89.56
399.044	80.56
399.268	89.56
399.492	84.56
399.717	89.56
399.941	87.56
400.165	93.56
400.389	88.56
400.613	84.56
400.837	97.56
401.062	77.56
401.286	87.56
401.51	103.56
401.734	98.56
401.958	86.56
402.182	116.56
402.406	139.56
402.63	110.56
402.854	83.56
403.078	86.56
403.302	87.56
403.526	86.56
403.75	82.56
403.974	75.56
404.198	88.56
404.422	83.56
404.645	87.56
404.869	99.56
405.093	75.56
405.317	96.56
405.541	90.56
405.765	97.56
405.988	118.56
406.212	151.56
406.436	185.56
406.66	126.56
406.883	78.56
407.107	84.56
407.331	89.56
407.555	100.56
407.778	100.56
408.002	97.56
408.226	83.56
408.449	95.56
408.673	92.56
408.896	98.56
409.12	110.56
409.344	97.56
409.567	92.56
409.791	110.56
410.014	100.56
410.238	97.56
410.461	104.56
410.685	97.56
410.908	96.56
411.132	92.56
411.355	106.56
411.578	100.56
411.802	88.56
412.025	87.56
412.249	90.56
412.472	86.56
412.695	85.56
412.919	95.56
413.142	86.56
413.365	75.56
413.589	82.56
413.812	92.56
414.035	99.56
414.258	92.56
414.482	89.56
414.705	82.56
414.928	75.56
415.151	88.56
415.374	92.56
415.597	100.56
415.821	84.56
416.044	99.56
416.267	96.56
416.49	93.56
416.713	104.56
416.936	86.56
417.159	90.56
417.382	90.56
417.605	90.56
417.828	85.56
418.051	85.56
418.274	91.56
418.497	90.56
418.72	98.56
418.943	96.56
419.166	100.56
419.389	91.56
419.611	83.56
419.834	81.56
420.057	91.56
420.28	84.56
420.503	95.56
420.726	92.56
420.948	91.56
421.171	75.56
421.394	91.56
421.617	84.56
421.839	88.56
422.062	83.56
422.285	94.56
422.507	109.56
422.73	94.56
422.953	98.56
423.175	72.56
423.398	87.56
423.621	103.56
423.843	74.56
424.066	91.56
424.288	98.56
424.511	93.56
424.733	101.56
424.956	112.56
425.178	90.56
425.401	108.56
425.623	90.56
425.846	91.56
426.068	82.56
426.291	89.56
426.513	86.56
426.735	86.56
426.958	98.56
427.18	107.56
427.402	121.56
427.625	144.56
427.847	116.56
428.069	113.56
428.292	86.56
428.514	91.56
428.736	85.56
428.958	77.56
429.181	86.56
429.403	90.56
429.625	97.56
429.847	95.56
430.069	106.56
430.292	80.56
430.514	88.56
430.736	96.56
430.958	82.56
431.18	82.56
431.402	81.56
431.624	93.56
431.846	91.56
432.068	91.56
432.29	87.56
432.512	90.56
432.734	101.56
432.956	101.56
433.178	97.56
433.4	101.56
433.622	93.56
433.844	108.56
434.066	76.56
434.287	97.56
434.509	97.56
434.731	77.56
434.953	74.56
435.175	91.56
435.397	92.56
435.618	93.56
435.84	108.56
436.062	119.56
436.284	110.56
436.505	97.56
436.727	93.56
436.949	102.56
437.17	82.56
437.392	96.56
437.614	89.56
437.835	106.56
438.057	117.56
438.278	103.56
438.5	99.56
438.721	105.56
438.943	86.56
439.165	85.56
439.386	92.56
439.608	96.56
439.829	104.56
440.05	125.56
440.272	123.56
440.493	100.56
440.715	94.56
440.936	92.56
441.158	74.56
441.379	87.56
441.6	99.56
441.822	88.56
442.043	103.56
442.264	97.56
442.486	100.56
442.707	93.56
442.928	96.56
443.149	120.56
443.371	124.56
443.592	115.56
443.813	113.56
444.034	92.56
444.255	75.56
444.476	77.56
444.698	94.56
444.919	95.56
445.14	134.56
445.361	131.56
445.582	99.56
445.803	129.56
446.024	116.56
446.245	131.56
446.466	106.56
446.687	84.56
446.908	89.56
447.129	100.56
447.35	98.56
447.571	91.56
447.792	98.56
448.013	85.56
448.234	92.56
448.455	89.56
448.675	113.56
448.896	125.56
449.117	97.56
449.338	111.56
449.559	113.56
449.779	134.56
450	94.56
450.221	91.56
450.442	87.56
450.662	92.56
450.883	93.56
451.104	92.56
451.324	89.56
451.545	96.56
451.766	72.56
451.986	94.56
452.207	100.56
452.428	82.56
452.648	89.56
452.869	100.56
453.089	110.56
453.31	107.56
453.53	92.56
453.751	96.56
453.971	100.56
454.192	92.56
454.412	104.56
454.633	85.56
454.853	80.56
455.073	97.56
455.294	87.56
455.514	81.56
455.734	95.56
455.955	90.56
456.175	95.56
456.395	100.56
456.616	89.56
456.836	98.56
457.056	94.56
457.276	84.56
457.497	91.56
457.717	74.56
457.937	102.56
458.157	64.56
458.377	88.56
458.598	88.56
458.818	130.56
459.038	127.56
459.258	103.56
459.478	84.56
459.698	85.56
459.918	105.56
460.138	73.56
460.358	88.56
460.578	92.56
460.798	83.56
461.018	91.56
461.238	94.56
461.458	83.56
461.678	90.56
461.898	92.56
462.118	92.56
462.338	94.56
462.558	93.56
462.777	91.56
462.997	79.56
463.217	88.56
463.437	100.56
463.657	90.56
463.876	92.56
464.096	99.56
464.316	106.56
464.536	97.56
464.755	93.56
464.975	93.56
465.195	131.56
465.414	131.56
465.634	81.56
465.854	78.56
466.073	80.56
466.293	85.56
466.512	83.56
466.732	98.56
466.951	94.56
467.171	92.56
467.391	97.56
467.61	107.56
467.829	89.56
468.049	89.56
468.268	89.56
468.488	88.56
468.707	86.56
468.927	88.56
469.146	92.56
469.365	89.56
469.585	75.56
469.804	92.56
470.023	110.56
470.243	105.56
470.462	92.56
470.681	106.56
470.901	92.56
471.12	89.56
471.339	95.56
471.558	90.56
471.777	84.56
471.997	93.56
472.216	104.56
472.435	125.56
472.654	92.56
472.873	87.56
473.092	83.56
473.311	91.56
473.53	84.56
473.749	86.56
473.968	87.56
474.187	98.56
474.406	105.56
474.625	99.56
474.844	90.56
475.063	104.56
475.282	96.56
475.501	87.56
475.72	77.56
475.939	91.56
476.158	77.56
476.377	96.56
476.596	98.56
476.814	94.56
477.033	93.56
477.252	100.56
477.471	87.56
477.69	94.56
477.908	84.56
478.127	82.56
478.346	88.56
478.564	87.56
478.783	89.56
479.002	96.56
479.22	106.56
479.439	90.56
479.658	87.56
479.876	92.56
480.095	77.56
480.313	90.56
480.532	92.56
480.751	100.56
480.969	107.56
481.188	176.56
481.406	133.56
481.624	88.56
481.843	87.56
482.061	96.56
482.28	88.56
482.498	86.56
482.717	105.56
482.935	92.56
483.153	93.56
483.372	95.56
483.59	98.56
483.808	107.56
484.027	86.56
484.245	86.56
484.463	97.56
484.681	99.56
484.9	89.56
485.118	100.56
485.336	93.56
485.554	100.56
485.772	95.56
485.99	122.56
486.209	118.56
486.427	104.56
486.645	101.56
486.863	93.56
487.081	108.56
487.299	87.56
487.517	105.56
487.735	86.56
487.953	105.56
488.171	100.56
488.389	89.56
488.607	108.56
488.825	94.56
489.043	93.56
489.261	76.56
489.479	85.56
489.696	83.56
489.914	90.56
490.132	100.56
490.35	92.56
490.568	85.56
490.786	84.56
491.003	96.56
491.221	81.56
491.439	95.56
491.657	82.56
491.874	93.56
492.092	97.56
492.31	92.56
492.527	90.56
492.745	85.56
492.963	89.56
493.18	94.56
493.398	87.56
493.615	97.56
493.833	94.56
494.05	93.56
494.268	87.56
494.485	100.56
494.703	77.56
494.92	74.56
495.138	86.56
495.355	92.56
495.573	94.56
495.79	111.56
496.008	104.56
496.225	82.56
496.442	93.56
496.66	86.56
496.877	92.56
497.094	96.56
497.312	75.56
497.529	66.56
497.746	88.56
497.963	75.56
498.181	82.56
498.398	88.56
498.615	85.56
498.832	100.56
499.049	94.56
499.267	90.56
499.484	101.56
499.701	89.56
499.918	86.56
500.135	77.56
500.352	91.56
500.569	104.56
500.786	114.56
501.003	91.56
501.22	70.56
501.437	78.56
501.654	91.56
501.871	104.56
502.088	88.56
502.305	96.56
502.522	77.56
502.739	93.56
502.956	90.56
503.172	92.56
503.389	102.56
503.606	102.56
503.823	90.56
504.04	87.56
504.256	84.56
504.473	81.56
504.69	96.56
504.907	80.56
505.123	94.56
505.34	88.56
505.557	105.56
505.773	90.56
505.99	100.56
506.207	84.56
506.423	97.56
506.64	80.56
506.856	92.56
507.073	94.56
507.289	91.56
507.506	114.56
507.722	108.56
507.939	110.56
508.155	97.56
508.372	88.56
508.588	88.56
508.805	93.56
509.021	108.56
509.238	86.56
509.454	98.56
509.67	102.56
509.887	102.56
510.103	114.56
510.319	172.56
510.536	650.56
510.752	1874.56
510.968	528.56
511.184	148.56
511.401	104.56
511.617	102.56
511.833	88.56
512.049	90.56
512.265	92.56
512.481	94.56
512.698	87.56
512.914	93.56
513.13	90.56
513.346	99.56
513.562	86.56
513.778	107.56
513.994	100.56
514.21	98.56
514.426	99.56
514.642	122.56
514.858	115.56
515.074	153.56
515.29	412.56
515.506	1186.56
515.721	428.56
