Data from Circ_1982_H10_HRD10591_00023.txt Node
Date: Wed Jan 03 12:30:45 EST 2024
User: Yrep
Spectrometer: HR+D1059
Trigger mode: 1
Integration Time (sec): 1.000000E-1
Scans to average: 1
Electric dark correction enabled: true
Nonlinearity correction enabled: false
Boxcar width: 0
XAxis mode: Wavelengths
Number of Pixels in Spectrum: 2048
>>>>>Begin Spectral Data<<<<<
223.165	-17.25
223.4	-17.25
223.635	-17.25
223.869	-13.25
224.104	-13.25
224.338	-4.25
224.573	-9.25
224.808	-14.25
225.042	-13.25
225.277	-19.25
225.511	-3.25
225.746	6.75
225.98	-0.25
226.215	3.75
226.449	8.75
226.683	23.75
226.918	33.75
227.152	30.75
227.387	31.75
227.621	50.75
227.856	48.75
228.09	38.75
228.324	40.75
228.559	51.75
228.793	64.75
229.027	52.75
229.262	77.75
229.496	70.75
229.73	77.75
229.964	84.75
230.199	78.75
230.433	79.75
230.667	84.75
230.901	82.75
231.136	64.75
231.37	92.75
231.604	82.75
231.838	78.75
232.072	84.75
232.306	70.75
232.541	84.75
232.775	90.75
233.009	83.75
233.243	98.75
233.477	82.75
233.711	73.75
233.945	90.75
234.179	82.75
234.413	78.75
234.647	82.75
234.881	84.75
235.115	63.75
235.349	71.75
235.583	88.75
235.817	70.75
236.051	79.75
236.285	72.75
236.519	93.75
236.753	82.75
236.987	87.75
237.221	83.75
237.455	86.75
237.689	94.75
237.922	72.75
238.156	73.75
238.39	77.75
238.624	71.75
238.858	77.75
239.091	76.75
239.325	65.75
239.559	66.75
239.793	83.75
240.027	80.75
240.26	98.75
240.494	79.75
240.728	66.75
240.961	93.75
241.195	72.75
241.429	78.75
241.662	88.75
241.896	84.75
242.13	70.75
242.363	83.75
242.597	76.75
242.83	78.75
243.064	84.75
243.298	82.75
243.531	79.75
243.765	92.75
243.998	83.75
244.232	78.75
244.465	73.75
244.699	92.75
244.932	80.75
245.166	77.75
245.399	98.75
245.633	74.75
245.866	74.75
246.099	74.75
246.333	85.75
246.566	88.75
246.8	91.75
247.033	79.75
247.266	79.75
247.5	103.75
247.733	82.75
247.966	74.75
248.2	81.75
248.433	86.75
248.666	66.75
248.899	85.75
249.133	82.75
249.366	94.75
249.599	99.75
249.832	102.75
250.066	88.75
250.299	86.75
250.532	86.75
250.765	89.75
250.998	76.75
251.231	96.75
251.465	75.75
251.698	89.75
251.931	79.75
252.164	86.75
252.397	69.75
252.63	74.75
252.863	91.75
253.096	79.75
253.329	88.75
253.562	84.75
253.795	102.75
254.028	91.75
254.261	86.75
254.494	106.75
254.727	91.75
254.96	83.75
255.193	89.75
255.426	93.75
255.659	71.75
255.892	96.75
256.124	58.75
256.357	93.75
256.59	71.75
256.823	86.75
257.056	91.75
257.289	86.75
257.521	93.75
257.754	94.75
257.987	97.75
258.22	86.75
258.452	88.75
258.685	82.75
258.918	85.75
259.151	83.75
259.383	72.75
259.616	101.75
259.849	86.75
260.081	99.75
260.314	91.75
260.547	87.75
260.779	88.75
261.012	90.75
261.244	91.75
261.477	79.75
261.71	98.75
261.942	102.75
262.175	102.75
262.407	80.75
262.64	77.75
262.872	73.75
263.105	80.75
263.337	76.75
263.57	90.75
263.802	87.75
264.035	82.75
264.267	70.75
264.499	84.75
264.732	86.75
264.964	78.75
265.197	74.75
265.429	79.75
265.661	90.75
265.894	88.75
266.126	79.75
266.358	77.75
266.591	83.75
266.823	69.75
267.055	92.75
267.287	69.75
267.52	80.75
267.752	76.75
267.984	94.75
268.216	76.75
268.448	79.75
268.681	95.75
268.913	84.75
269.145	86.75
269.377	92.75
269.609	81.75
269.841	95.75
270.073	91.75
270.306	87.75
270.538	72.75
270.77	67.75
271.002	90.75
271.234	79.75
271.466	90.75
271.698	85.75
271.93	99.75
272.162	100.75
272.394	88.75
272.626	80.75
272.858	88.75
273.09	94.75
273.322	94.75
273.553	92.75
273.785	87.75
274.017	82.75
274.249	89.75
274.481	86.75
274.713	77.75
274.945	80.75
275.176	83.75
275.408	90.75
275.64	91.75
275.872	107.75
276.104	95.75
276.335	98.75
276.567	107.75
276.799	94.75
277.031	99.75
277.262	96.75
277.494	79.75
277.726	77.75
277.957	71.75
278.189	82.75
278.421	95.75
278.652	88.75
278.884	94.75
279.115	78.75
279.347	92.75
279.579	94.75
279.81	84.75
280.042	101.75
280.273	88.75
280.505	91.75
280.736	100.75
280.968	79.75
281.199	86.75
281.431	82.75
281.662	113.75
281.894	88.75
282.125	103.75
282.356	114.75
282.588	123.75
282.819	95.75
283.051	87.75
283.282	84.75
283.513	94.75
283.745	84.75
283.976	82.75
284.207	97.75
284.439	102.75
284.67	89.75
284.901	91.75
285.132	73.75
285.364	100.75
285.595	93.75
285.826	82.75
286.057	95.75
286.288	79.75
286.52	90.75
286.751	89.75
286.982	90.75
287.213	98.75
287.444	90.75
287.675	87.75
287.906	96.75
288.138	75.75
288.369	85.75
288.6	85.75
288.831	94.75
289.062	89.75
289.293	94.75
289.524	96.75
289.755	86.75
289.986	91.75
290.217	100.75
290.448	83.75
290.679	86.75
290.91	96.75
291.141	97.75
291.371	75.75
291.602	92.75
291.833	90.75
292.064	89.75
292.295	90.75
292.526	86.75
292.757	78.75
292.987	92.75
293.218	79.75
293.449	84.75
293.68	83.75
293.91	86.75
294.141	94.75
294.372	80.75
294.603	98.75
294.833	82.75
295.064	86.75
295.295	90.75
295.525	94.75
295.756	108.75
295.987	107.75
296.217	128.75
296.448	128.75
296.679	99.75
296.909	89.75
297.14	91.75
297.37	88.75
297.601	96.75
297.831	95.75
298.062	90.75
298.292	83.75
298.523	100.75
298.753	99.75
298.984	86.75
299.214	98.75
299.445	88.75
299.675	102.75
299.905	99.75
300.136	105.75
300.366	99.75
300.597	96.75
300.827	100.75
301.057	94.75
301.288	90.75
301.518	109.75
301.748	95.75
301.979	105.75
302.209	95.75
302.439	90.75
302.669	92.75
302.9	105.75
303.13	100.75
303.36	96.75
303.59	112.75
303.82	110.75
304.051	88.75
304.281	79.75
304.511	86.75
304.741	90.75
304.971	99.75
305.201	90.75
305.431	96.75
305.661	90.75
305.891	108.75
306.121	103.75
306.352	101.75
306.582	97.75
306.812	92.75
307.042	100.75
307.272	93.75
307.502	86.75
307.731	98.75
307.961	80.75
308.191	100.75
308.421	90.75
308.651	95.75
308.881	94.75
309.111	98.75
309.341	93.75
309.571	83.75
309.8	107.75
310.03	106.75
310.26	102.75
310.49	98.75
310.72	103.75
310.949	108.75
311.179	92.75
311.409	93.75
311.639	75.75
311.868	93.75
312.098	86.75
312.328	98.75
312.557	101.75
312.787	111.75
313.017	95.75
313.246	102.75
313.476	89.75
313.706	91.75
313.935	91.75
314.165	97.75
314.394	92.75
314.624	96.75
314.853	105.75
315.083	89.75
315.312	91.75
315.542	93.75
315.771	86.75
316.001	97.75
316.23	93.75
316.46	97.75
316.689	86.75
316.919	113.75
317.148	96.75
317.377	94.75
317.607	95.75
317.836	95.75
318.065	90.75
318.295	85.75
318.524	83.75
318.753	78.75
318.983	103.75
319.212	107.75
319.441	92.75
319.67	104.75
319.9	86.75
320.129	85.75
320.358	101.75
320.587	96.75
320.816	96.75
321.046	99.75
321.275	96.75
321.504	93.75
321.733	101.75
321.962	109.75
322.191	87.75
322.42	110.75
322.649	109.75
322.878	102.75
323.108	108.75
323.337	127.75
323.566	107.75
323.795	130.75
324.024	176.75
324.253	303.75
324.482	631.75
324.71	1292.75
324.939	1678.75
325.168	649.75
325.397	212.75
325.626	139.75
325.855	121.75
326.084	107.75
326.313	141.75
326.542	137.75
326.77	188.75
326.999	365.75
327.228	738.75
327.457	1317.75
327.686	1040.75
327.914	300.75
328.143	162.75
328.372	143.75
328.6	118.75
328.829	118.75
329.058	115.75
329.287	115.75
329.515	119.75
329.744	99.75
329.972	103.75
330.201	108.75
330.43	130.75
330.658	107.75
330.887	125.75
331.115	123.75
331.344	115.75
331.572	106.75
331.801	103.75
332.03	89.75
332.258	86.75
332.486	98.75
332.715	85.75
332.943	92.75
333.172	91.75
333.4	95.75
333.629	103.75
333.857	105.75
334.085	107.75
334.314	116.75
334.542	131.75
334.771	119.75
334.999	101.75
335.227	86.75
335.455	97.75
335.684	92.75
335.912	90.75
336.14	102.75
336.369	101.75
336.597	101.75
336.825	104.75
337.053	101.75
337.281	85.75
337.51	94.75
337.738	88.75
337.966	88.75
338.194	93.75
338.422	111.75
338.65	87.75
338.878	98.75
339.106	102.75
339.334	91.75
339.562	89.75
339.79	90.75
340.018	91.75
340.246	107.75
340.474	86.75
340.702	88.75
340.93	95.75
341.158	102.75
341.386	89.75
341.614	88.75
341.842	100.75
342.07	94.75
342.298	79.75
342.526	82.75
342.754	91.75
342.981	76.75
343.209	100.75
343.437	100.75
343.665	81.75
343.893	90.75
344.12	90.75
344.348	109.75
344.576	100.75
344.804	82.75
345.031	97.75
345.259	95.75
345.487	103.75
345.714	95.75
345.942	90.75
346.17	68.75
346.397	116.75
346.625	98.75
346.853	99.75
347.08	101.75
347.308	101.75
347.535	85.75
347.763	91.75
347.99	87.75
348.218	94.75
348.445	100.75
348.673	90.75
348.9	102.75
349.128	94.75
349.355	95.75
349.583	103.75
349.81	83.75
350.037	92.75
350.265	104.75
350.492	98.75
350.72	101.75
350.947	111.75
351.174	98.75
351.402	107.75
351.629	101.75
351.856	100.75
352.083	107.75
352.311	107.75
352.538	108.75
352.765	105.75
352.992	105.75
353.22	122.75
353.447	110.75
353.674	92.75
353.901	95.75
354.128	102.75
354.355	95.75
354.583	95.75
354.81	102.75
355.037	93.75
355.264	109.75
355.491	98.75
355.718	86.75
355.945	82.75
356.172	95.75
356.399	98.75
356.626	96.75
356.853	99.75
357.08	94.75
357.307	82.75
357.534	95.75
357.761	104.75
357.988	103.75
358.215	104.75
358.441	92.75
358.668	95.75
358.895	101.75
359.122	94.75
359.349	87.75
359.576	84.75
359.802	99.75
360.029	101.75
360.256	98.75
360.483	98.75
360.709	96.75
360.936	102.75
361.163	91.75
361.39	95.75
361.616	78.75
361.843	86.75
362.07	100.75
362.296	105.75
362.523	105.75
362.749	92.75
362.976	86.75
363.203	91.75
363.429	84.75
363.656	102.75
363.882	90.75
364.109	90.75
364.335	101.75
364.562	87.75
364.788	99.75
365.015	92.75
365.241	88.75
365.468	86.75
365.694	100.75
365.92	106.75
366.147	87.75
366.373	89.75
366.599	92.75
366.826	94.75
367.052	88.75
367.278	108.75
367.505	80.75
367.731	89.75
367.957	98.75
368.184	77.75
368.41	97.75
368.636	108.75
368.862	126.75
369.089	99.75
369.315	109.75
369.541	87.75
369.767	79.75
369.993	96.75
370.219	91.75
370.445	94.75
370.672	94.75
370.898	100.75
371.124	95.75
371.35	89.75
371.576	90.75
371.802	83.75
372.028	92.75
372.254	104.75
372.48	84.75
372.706	83.75
372.932	103.75
373.158	77.75
373.384	95.75
373.61	90.75
373.835	76.75
374.061	88.75
374.287	111.75
374.513	107.75
374.739	92.75
374.965	104.75
375.191	101.75
375.416	100.75
375.642	89.75
375.868	104.75
376.094	87.75
376.319	86.75
376.545	86.75
376.771	89.75
376.997	83.75
377.222	94.75
377.448	102.75
377.674	84.75
377.899	78.75
378.125	86.75
378.35	97.75
378.576	97.75
378.802	101.75
379.027	109.75
379.253	95.75
379.478	91.75
379.704	94.75
379.929	98.75
380.155	88.75
380.38	98.75
380.606	90.75
380.831	93.75
381.057	107.75
381.282	98.75
381.507	84.75
381.733	109.75
381.958	83.75
382.184	90.75
382.409	99.75
382.634	98.75
382.86	109.75
383.085	108.75
383.31	95.75
383.535	90.75
383.761	110.75
383.986	104.75
384.211	106.75
384.436	107.75
384.662	115.75
384.887	106.75
385.112	125.75
385.337	107.75
385.562	112.75
385.787	107.75
386.013	111.75
386.238	131.75
386.463	106.75
386.688	109.75
386.913	119.75
387.138	102.75
387.363	94.75
387.588	84.75
387.813	98.75
388.038	102.75
388.263	112.75
388.488	101.75
388.713	98.75
388.938	80.75
389.163	89.75
389.387	89.75
389.612	91.75
389.837	97.75
390.062	98.75
390.287	95.75
390.512	93.75
390.736	107.75
390.961	84.75
391.186	86.75
391.411	109.75
391.636	94.75
391.86	79.75
392.085	86.75
392.31	82.75
392.534	82.75
392.759	78.75
392.984	90.75
393.208	98.75
393.433	101.75
393.658	96.75
393.882	79.75
394.107	92.75
394.331	75.75
394.556	107.75
394.78	95.75
395.005	92.75
395.229	86.75
395.454	80.75
395.678	76.75
395.903	96.75
396.127	94.75
396.352	87.75
396.576	82.75
396.801	103.75
397.025	100.75
397.249	83.75
397.474	93.75
397.698	75.75
397.922	100.75
398.147	99.75
398.371	108.75
398.595	87.75
398.82	84.75
399.044	78.75
399.268	78.75
399.492	85.75
399.717	107.75
399.941	103.75
400.165	80.75
400.389	83.75
400.613	97.75
400.837	89.75
401.062	79.75
401.286	84.75
401.51	94.75
401.734	85.75
401.958	98.75
402.182	121.75
402.406	140.75
402.63	117.75
402.854	93.75
403.078	91.75
403.302	89.75
403.526	89.75
403.75	95.75
403.974	95.75
404.198	88.75
404.422	88.75
404.645	98.75
404.869	92.75
405.093	98.75
405.317	87.75
405.541	104.75
405.765	109.75
405.988	118.75
406.212	151.75
406.436	189.75
406.66	128.75
406.883	102.75
407.107	92.75
407.331	99.75
407.555	103.75
407.778	110.75
408.002	94.75
408.226	88.75
408.449	98.75
408.673	104.75
408.896	103.75
409.12	103.75
409.344	87.75
409.567	94.75
409.791	88.75
410.014	102.75
410.238	88.75
410.461	100.75
410.685	100.75
410.908	104.75
411.132	116.75
411.355	95.75
411.578	99.75
411.802	88.75
412.025	99.75
412.249	87.75
412.472	90.75
412.695	108.75
412.919	100.75
413.142	95.75
413.365	106.75
413.589	89.75
413.812	87.75
414.035	87.75
414.258	87.75
414.482	80.75
414.705	88.75
414.928	94.75
415.151	110.75
415.374	84.75
415.597	94.75
415.821	95.75
416.044	93.75
416.267	106.75
416.49	99.75
416.713	94.75
416.936	100.75
417.159	82.75
417.382	84.75
417.605	90.75
417.828	103.75
418.051	100.75
418.274	93.75
418.497	88.75
418.72	107.75
418.943	86.75
419.166	88.75
419.389	79.75
419.611	99.75
419.834	98.75
420.057	92.75
420.28	92.75
420.503	95.75
420.726	76.75
420.948	90.75
421.171	105.75
421.394	80.75
421.617	88.75
421.839	80.75
422.062	92.75
422.285	98.75
422.507	100.75
422.73	104.75
422.953	95.75
423.175	91.75
423.398	83.75
423.621	95.75
423.843	73.75
424.066	95.75
424.288	97.75
424.511	89.75
424.733	100.75
424.956	87.75
425.178	108.75
425.401	108.75
425.623	100.75
425.846	94.75
426.068	98.75
426.291	91.75
426.513	106.75
426.735	99.75
426.958	91.75
427.18	98.75
427.402	107.75
427.625	147.75
427.847	135.75
428.069	111.75
428.292	84.75
428.514	96.75
428.736	96.75
428.958	80.75
429.181	90.75
429.403	77.75
429.625	90.75
429.847	88.75
430.069	102.75
430.292	84.75
430.514	75.75
430.736	92.75
430.958	82.75
431.18	88.75
431.402	92.75
431.624	90.75
431.846	67.75
432.068	79.75
432.29	88.75
432.512	102.75
432.734	103.75
432.956	96.75
433.178	111.75
433.4	92.75
433.622	93.75
433.844	104.75
434.066	89.75
434.287	96.75
434.509	99.75
434.731	92.75
434.953	74.75
435.175	90.75
435.397	89.75
435.618	94.75
435.84	108.75
436.062	102.75
436.284	108.75
436.505	115.75
436.727	101.75
436.949	84.75
437.17	92.75
437.392	96.75
437.614	91.75
437.835	108.75
438.057	94.75
438.278	102.75
438.5	107.75
438.721	125.75
438.943	98.75
439.165	98.75
439.386	93.75
439.608	92.75
439.829	101.75
440.05	119.75
440.272	138.75
440.493	100.75
440.715	106.75
440.936	86.75
441.158	102.75
441.379	90.75
441.6	92.75
441.822	95.75
442.043	87.75
442.264	94.75
442.486	86.75
442.707	100.75
442.928	99.75
443.149	124.75
443.371	140.75
443.592	113.75
443.813	109.75
444.034	111.75
444.255	93.75
444.476	99.75
444.698	89.75
444.919	90.75
445.14	128.75
445.361	116.75
445.582	106.75
445.803	122.75
446.024	121.75
446.245	121.75
446.466	106.75
446.687	98.75
446.908	85.75
447.129	99.75
447.35	98.75
447.571	104.75
447.792	92.75
448.013	113.75
448.234	87.75
448.455	90.75
448.675	98.75
448.896	94.75
449.117	91.75
449.338	92.75
449.559	112.75
449.779	120.75
450	90.75
450.221	85.75
450.442	81.75
450.662	90.75
450.883	94.75
451.104	109.75
451.324	82.75
451.545	102.75
451.766	88.75
451.986	100.75
452.207	93.75
452.428	96.75
452.648	109.75
452.869	108.75
453.089	116.75
453.31	112.75
453.53	91.75
453.751	81.75
453.971	103.75
454.192	106.75
454.412	111.75
454.633	99.75
454.853	93.75
455.073	88.75
455.294	90.75
455.514	93.75
455.734	90.75
455.955	86.75
456.175	88.75
456.395	71.75
456.616	84.75
456.836	90.75
457.056	94.75
457.276	86.75
457.497	78.75
457.717	91.75
457.937	84.75
458.157	93.75
458.377	108.75
458.598	99.75
458.818	124.75
459.038	142.75
459.258	129.75
459.478	92.75
459.698	84.75
459.918	79.75
460.138	94.75
460.358	92.75
460.578	102.75
460.798	83.75
461.018	97.75
461.238	100.75
461.458	83.75
461.678	82.75
461.898	102.75
462.118	88.75
462.338	91.75
462.558	88.75
462.777	91.75
462.997	75.75
463.217	94.75
463.437	108.75
463.657	103.75
463.876	86.75
464.096	80.75
464.316	80.75
464.536	102.75
464.755	94.75
464.975	94.75
465.195	153.75
465.414	130.75
465.634	110.75
465.854	76.75
466.073	84.75
466.293	75.75
466.512	102.75
466.732	88.75
466.951	90.75
467.171	89.75
467.391	96.75
467.61	104.75
467.829	101.75
468.049	100.75
468.268	67.75
468.488	84.75
468.707	101.75
468.927	99.75
469.146	80.75
469.365	86.75
469.585	103.75
469.804	98.75
470.023	107.75
470.243	92.75
470.462	93.75
470.681	116.75
470.901	104.75
471.12	91.75
471.339	106.75
471.558	86.75
471.777	87.75
471.997	87.75
472.216	94.75
472.435	122.75
472.654	75.75
472.873	92.75
473.092	77.75
473.311	82.75
473.53	86.75
473.749	77.75
473.968	85.75
474.187	99.75
474.406	103.75
474.625	86.75
474.844	85.75
475.063	94.75
475.282	106.75
475.501	87.75
475.72	102.75
475.939	86.75
476.158	83.75
476.377	86.75
476.596	90.75
476.814	86.75
477.033	87.75
477.252	88.75
477.471	83.75
477.69	79.75
477.908	80.75
478.127	96.75
478.346	96.75
478.564	86.75
478.783	94.75
479.002	88.75
479.22	79.75
479.439	95.75
479.658	89.75
479.876	100.75
480.095	78.75
480.313	85.75
480.532	100.75
480.751	91.75
480.969	107.75
481.188	156.75
481.406	132.75
481.624	90.75
481.843	92.75
482.061	88.75
482.28	84.75
482.498	98.75
482.717	92.75
482.935	92.75
483.153	104.75
483.372	89.75
483.59	89.75
483.808	82.75
484.027	89.75
484.245	91.75
484.463	92.75
484.681	101.75
484.9	96.75
485.118	108.75
485.336	98.75
485.554	102.75
485.772	102.75
485.99	99.75
486.209	98.75
486.427	107.75
486.645	120.75
486.863	114.75
487.081	103.75
487.299	100.75
487.517	92.75
487.735	92.75
487.953	110.75
488.171	98.75
488.389	93.75
488.607	116.75
488.825	105.75
489.043	93.75
489.261	99.75
489.479	85.75
489.696	112.75
489.914	99.75
490.132	95.75
490.35	102.75
490.568	92.75
490.786	95.75
491.003	90.75
491.221	95.75
491.439	82.75
491.657	97.75
491.874	86.75
492.092	82.75
492.31	90.75
492.527	101.75
492.745	100.75
492.963	98.75
493.18	87.75
493.398	93.75
493.615	102.75
493.833	99.75
494.05	97.75
494.268	106.75
494.485	100.75
494.703	79.75
494.92	98.75
495.138	95.75
495.355	97.75
495.573	99.75
495.79	87.75
496.008	99.75
496.225	87.75
496.442	94.75
496.66	99.75
496.877	90.75
497.094	99.75
497.312	91.75
497.529	91.75
497.746	94.75
497.963	93.75
498.181	88.75
498.398	85.75
498.615	96.75
498.832	92.75
499.049	96.75
499.267	90.75
499.484	102.75
499.701	92.75
499.918	91.75
500.135	93.75
500.352	109.75
500.569	85.75
500.786	94.75
501.003	90.75
501.22	93.75
501.437	87.75
501.654	95.75
501.871	102.75
502.088	94.75
502.305	96.75
502.522	88.75
502.739	92.75
502.956	86.75
503.172	84.75
503.389	105.75
503.606	106.75
503.823	102.75
504.04	87.75
504.256	98.75
504.473	100.75
504.69	89.75
504.907	98.75
505.123	81.75
505.34	93.75
505.557	83.75
505.773	99.75
505.99	95.75
506.207	98.75
506.423	95.75
506.64	79.75
506.856	88.75
507.073	94.75
507.289	101.75
507.506	110.75
507.722	111.75
507.939	102.75
508.155	95.75
508.372	97.75
508.588	84.75
508.805	98.75
509.021	105.75
509.238	94.75
509.454	106.75
509.67	106.75
509.887	113.75
510.103	113.75
510.319	192.75
510.536	627.75
510.752	1870.75
510.968	514.75
511.184	149.75
511.401	118.75
511.617	101.75
511.833	98.75
512.049	93.75
512.265	97.75
512.481	102.75
512.698	103.75
512.914	94.75
513.13	103.75
513.346	92.75
513.562	93.75
513.778	102.75
513.994	102.75
514.21	97.75
514.426	108.75
514.642	130.75
514.858	125.75
