Data from Circ_1982_H10_HRD10591_00056.txt Node
Date: Wed Jan 03 12:30:52 EST 2024
User: Yrep
Spectrometer: HR+D1059
Trigger mode: 1
Integration Time (sec): 1.000000E-1
Scans to average: 1
Electric dark correction enabled: true
Nonlinearity correction enabled: false
Boxcar width: 0
XAxis mode: Wavelengths
Number of Pixels in Spectrum: 2048
>>>>>Begin Spectral Data<<<<<
223.165	-19.94
223.4	-19.94
223.635	-19.94
223.869	-30.94
224.104	-20.94
224.338	-6.94
224.573	-4.94
224.808	-15.94
225.042	-15.94
225.277	-17.94
225.511	-5.94
225.746	18.06
225.98	1.06
226.215	26.06
226.449	16.06
226.683	29.06
226.918	29.06
227.152	20.06
227.387	41.06
227.621	32.06
227.856	34.06
228.09	44.06
228.324	41.06
228.559	62.06
228.793	72.06
229.027	66.06
229.262	67.06
229.496	62.06
229.73	75.06
229.964	90.06
230.199	88.06
230.433	70.06
230.667	68.06
230.901	81.06
231.136	76.06
231.37	78.06
231.604	71.06
231.838	73.06
232.072	77.06
232.306	69.06
232.541	78.06
232.775	90.06
233.009	76.06
233.243	82.06
233.477	68.06
233.711	86.06
233.945	76.06
234.179	88.06
234.413	102.06
234.647	70.06
234.881	79.06
235.115	75.06
235.349	78.06
235.583	79.06
235.817	74.06
236.051	76.06
236.285	84.06
236.519	82.06
236.753	79.06
236.987	78.06
237.221	81.06
237.455	72.06
237.689	92.06
237.922	68.06
238.156	76.06
238.39	66.06
238.624	78.06
238.858	67.06
239.091	69.06
239.325	70.06
239.559	74.06
239.793	60.06
240.027	75.06
240.26	78.06
240.494	74.06
240.728	80.06
240.961	84.06
241.195	65.06
241.429	74.06
241.662	78.06
241.896	70.06
242.13	63.06
242.363	79.06
242.597	74.06
242.83	83.06
243.064	73.06
243.298	72.06
243.531	70.06
243.765	78.06
243.998	88.06
244.232	84.06
244.465	88.06
244.699	91.06
244.932	68.06
245.166	71.06
245.399	83.06
245.633	66.06
245.866	74.06
246.099	72.06
246.333	73.06
246.566	83.06
246.8	75.06
247.033	80.06
247.266	90.06
247.5	69.06
247.733	79.06
247.966	71.06
248.2	86.06
248.433	79.06
248.666	100.06
248.899	89.06
249.133	82.06
249.366	89.06
249.599	87.06
249.832	82.06
250.066	82.06
250.299	85.06
250.532	75.06
250.765	70.06
250.998	82.06
251.231	86.06
251.465	89.06
251.698	76.06
251.931	72.06
252.164	87.06
252.397	73.06
252.63	82.06
252.863	77.06
253.096	91.06
253.329	78.06
253.562	86.06
253.795	75.06
254.028	86.06
254.261	83.06
254.494	73.06
254.727	81.06
254.96	69.06
255.193	71.06
255.426	75.06
255.659	75.06
255.892	95.06
256.124	80.06
256.357	80.06
256.59	99.06
256.823	91.06
257.056	69.06
257.289	67.06
257.521	73.06
257.754	73.06
257.987	78.06
258.22	80.06
258.452	86.06
258.685	70.06
258.918	70.06
259.151	86.06
259.383	80.06
259.616	79.06
259.849	94.06
260.081	85.06
260.314	88.06
260.547	81.06
260.779	91.06
261.012	80.06
261.244	80.06
261.477	85.06
261.71	86.06
261.942	90.06
262.175	100.06
262.407	96.06
262.64	67.06
262.872	71.06
263.105	87.06
263.337	94.06
263.57	72.06
263.802	80.06
264.035	82.06
264.267	81.06
264.499	79.06
264.732	84.06
264.964	78.06
265.197	79.06
265.429	88.06
265.661	90.06
265.894	81.06
266.126	86.06
266.358	80.06
266.591	70.06
266.823	78.06
267.055	98.06
267.287	82.06
267.52	80.06
267.752	92.06
267.984	74.06
268.216	80.06
268.448	85.06
268.681	80.06
268.913	83.06
269.145	82.06
269.377	91.06
269.609	86.06
269.841	90.06
270.073	80.06
270.306	85.06
270.538	79.06
270.77	97.06
271.002	78.06
271.234	76.06
271.466	86.06
271.698	88.06
271.93	97.06
272.162	93.06
272.394	79.06
272.626	81.06
272.858	91.06
273.09	87.06
273.322	80.06
273.553	78.06
273.785	81.06
274.017	74.06
274.249	82.06
274.481	68.06
274.713	67.06
274.945	95.06
275.176	86.06
275.408	80.06
275.64	79.06
275.872	80.06
276.104	91.06
276.335	79.06
276.567	91.06
276.799	97.06
277.031	84.06
277.262	81.06
277.494	89.06
277.726	80.06
277.957	79.06
278.189	81.06
278.421	102.06
278.652	77.06
278.884	80.06
279.115	85.06
279.347	82.06
279.579	91.06
279.81	82.06
280.042	89.06
280.273	79.06
280.505	82.06
280.736	84.06
280.968	82.06
281.199	82.06
281.431	84.06
281.662	94.06
281.894	80.06
282.125	83.06
282.356	110.06
282.588	135.06
282.819	98.06
283.051	88.06
283.282	93.06
283.513	78.06
283.745	79.06
283.976	87.06
284.207	79.06
284.439	70.06
284.67	88.06
284.901	89.06
285.132	96.06
285.364	87.06
285.595	75.06
285.826	94.06
286.057	95.06
286.288	85.06
286.52	80.06
286.751	91.06
286.982	89.06
287.213	82.06
287.444	76.06
287.675	79.06
287.906	78.06
288.138	93.06
288.369	86.06
288.6	75.06
288.831	74.06
289.062	80.06
289.293	86.06
289.524	73.06
289.755	90.06
289.986	81.06
290.217	91.06
290.448	97.06
290.679	89.06
290.91	80.06
291.141	78.06
291.371	86.06
291.602	93.06
291.833	84.06
292.064	82.06
292.295	102.06
292.526	64.06
292.757	86.06
292.987	82.06
293.218	83.06
293.449	82.06
293.68	80.06
293.91	79.06
294.141	87.06
294.372	99.06
294.603	76.06
294.833	89.06
295.064	94.06
295.295	90.06
295.525	82.06
295.756	90.06
295.987	114.06
296.217	119.06
296.448	107.06
296.679	96.06
296.909	88.06
297.14	91.06
297.37	85.06
297.601	81.06
297.831	87.06
298.062	81.06
298.292	89.06
298.523	91.06
298.753	77.06
298.984	91.06
299.214	94.06
299.445	74.06
299.675	78.06
299.905	99.06
300.136	94.06
300.366	90.06
300.597	86.06
300.827	90.06
301.057	89.06
301.288	106.06
301.518	89.06
301.748	99.06
301.979	97.06
302.209	78.06
302.439	75.06
302.669	87.06
302.9	84.06
303.13	90.06
303.36	97.06
303.59	101.06
303.82	94.06
304.051	96.06
304.281	82.06
304.511	90.06
304.741	92.06
304.971	84.06
305.201	89.06
305.431	87.06
305.661	92.06
305.891	88.06
306.121	91.06
306.352	83.06
306.582	87.06
306.812	99.06
307.042	90.06
307.272	83.06
307.502	104.06
307.731	89.06
307.961	95.06
308.191	96.06
308.421	88.06
308.651	95.06
308.881	100.06
309.111	98.06
309.341	101.06
309.571	94.06
309.8	89.06
310.03	82.06
310.26	93.06
310.49	85.06
310.72	92.06
310.949	95.06
311.179	98.06
311.409	99.06
311.639	97.06
311.868	94.06
312.098	98.06
312.328	105.06
312.557	101.06
312.787	98.06
313.017	92.06
313.246	87.06
313.476	82.06
313.706	83.06
313.935	94.06
314.165	95.06
314.394	79.06
314.624	89.06
314.853	91.06
315.083	84.06
315.312	76.06
315.542	104.06
315.771	106.06
316.001	102.06
316.23	81.06
316.46	86.06
316.689	67.06
316.919	100.06
317.148	93.06
317.377	84.06
317.607	75.06
317.836	90.06
318.065	86.06
318.295	90.06
318.524	78.06
318.753	92.06
318.983	85.06
319.212	88.06
319.441	95.06
319.67	107.06
319.9	84.06
320.129	96.06
320.358	87.06
320.587	96.06
320.816	85.06
321.046	91.06
321.275	85.06
321.504	94.06
321.733	98.06
321.962	72.06
322.191	104.06
322.42	103.06
322.649	102.06
322.878	95.06
323.108	101.06
323.337	112.06
323.566	130.06
323.795	122.06
324.024	162.06
324.253	296.06
324.482	574.06
324.71	1148.06
324.939	1456.06
325.168	568.06
325.397	181.06
325.626	134.06
325.855	104.06
326.084	123.06
326.313	121.06
326.542	145.06
326.77	192.06
326.999	341.06
327.228	651.06
327.457	1168.06
327.686	920.06
327.914	287.06
328.143	155.06
328.372	119.06
328.6	110.06
328.829	80.06
329.058	92.06
329.287	111.06
329.515	100.06
329.744	92.06
329.972	104.06
330.201	107.06
330.43	125.06
330.658	123.06
330.887	112.06
331.115	118.06
331.344	102.06
331.572	100.06
331.801	94.06
332.03	87.06
332.258	89.06
332.486	79.06
332.715	91.06
332.943	74.06
333.172	81.06
333.4	90.06
333.629	97.06
333.857	95.06
334.085	111.06
334.314	99.06
334.542	106.06
334.771	102.06
334.999	93.06
335.227	89.06
335.455	83.06
335.684	98.06
335.912	88.06
336.14	104.06
336.369	94.06
336.597	93.06
336.825	90.06
337.053	88.06
337.281	92.06
337.51	91.06
337.738	93.06
337.966	75.06
338.194	92.06
338.422	93.06
338.65	96.06
338.878	99.06
339.106	74.06
339.334	96.06
339.562	78.06
339.79	83.06
340.018	78.06
340.246	89.06
340.474	86.06
340.702	75.06
340.93	94.06
341.158	83.06
341.386	90.06
341.614	97.06
341.842	92.06
342.07	98.06
342.298	97.06
342.526	90.06
342.754	83.06
342.981	78.06
343.209	88.06
343.437	87.06
343.665	95.06
343.893	103.06
344.12	85.06
344.348	84.06
344.576	95.06
344.804	92.06
345.031	91.06
345.259	84.06
345.487	92.06
345.714	100.06
345.942	99.06
346.17	97.06
346.397	103.06
346.625	98.06
346.853	87.06
347.08	99.06
347.308	81.06
347.535	89.06
347.763	84.06
347.99	96.06
348.218	100.06
348.445	104.06
348.673	85.06
348.9	94.06
349.128	105.06
349.355	98.06
349.583	87.06
349.81	107.06
350.037	79.06
350.265	96.06
350.492	90.06
350.72	82.06
350.947	87.06
351.174	99.06
351.402	96.06
351.629	92.06
351.856	89.06
352.083	98.06
352.311	94.06
352.538	93.06
352.765	98.06
352.992	102.06
353.22	109.06
353.447	97.06
353.674	105.06
353.901	95.06
354.128	91.06
354.355	103.06
354.583	94.06
354.81	92.06
355.037	84.06
355.264	94.06
355.491	80.06
355.718	91.06
355.945	89.06
356.172	89.06
356.399	94.06
356.626	100.06
356.853	86.06
357.08	102.06
357.307	93.06
357.534	83.06
357.761	85.06
357.988	90.06
358.215	96.06
358.441	78.06
358.668	92.06
358.895	88.06
359.122	96.06
359.349	79.06
359.576	91.06
359.802	87.06
360.029	101.06
360.256	96.06
360.483	107.06
360.709	86.06
360.936	70.06
361.163	81.06
361.39	96.06
361.616	89.06
361.843	86.06
362.07	78.06
362.296	98.06
362.523	95.06
362.749	85.06
362.976	78.06
363.203	101.06
363.429	87.06
363.656	96.06
363.882	104.06
364.109	105.06
364.335	89.06
364.562	86.06
364.788	84.06
365.015	74.06
365.241	96.06
365.468	100.06
365.694	105.06
365.92	101.06
366.147	82.06
366.373	79.06
366.599	88.06
366.826	79.06
367.052	81.06
367.278	88.06
367.505	77.06
367.731	72.06
367.957	91.06
368.184	83.06
368.41	92.06
368.636	95.06
368.862	93.06
369.089	86.06
369.315	68.06
369.541	73.06
369.767	80.06
369.993	80.06
370.219	68.06
370.445	88.06
370.672	70.06
370.898	93.06
371.124	68.06
371.35	92.06
371.576	90.06
371.802	96.06
372.028	91.06
372.254	93.06
372.48	94.06
372.706	86.06
372.932	87.06
373.158	83.06
373.384	75.06
373.61	90.06
373.835	96.06
374.061	95.06
374.287	80.06
374.513	86.06
374.739	87.06
374.965	72.06
375.191	88.06
375.416	82.06
375.642	91.06
375.868	78.06
376.094	74.06
376.319	79.06
376.545	85.06
376.771	91.06
376.997	86.06
377.222	87.06
377.448	85.06
377.674	79.06
377.899	96.06
378.125	88.06
378.35	87.06
378.576	87.06
378.802	91.06
379.027	92.06
379.253	84.06
379.478	97.06
379.704	84.06
379.929	90.06
380.155	94.06
380.38	76.06
380.606	89.06
380.831	96.06
381.057	81.06
381.282	92.06
381.507	86.06
381.733	86.06
381.958	92.06
382.184	113.06
382.409	96.06
382.634	98.06
382.86	94.06
383.085	95.06
383.31	106.06
383.535	119.06
383.761	97.06
383.986	97.06
384.211	79.06
384.436	86.06
384.662	98.06
384.887	92.06
385.112	99.06
385.337	88.06
385.562	90.06
385.787	93.06
386.013	101.06
386.238	119.06
386.463	96.06
386.688	104.06
386.913	86.06
387.138	99.06
387.363	94.06
387.588	91.06
387.813	95.06
388.038	94.06
388.263	114.06
388.488	114.06
388.713	99.06
388.938	91.06
389.163	91.06
389.387	90.06
389.612	101.06
389.837	88.06
390.062	97.06
390.287	114.06
390.512	80.06
390.736	85.06
390.961	75.06
391.186	96.06
391.411	90.06
391.636	92.06
391.86	71.06
392.085	86.06
392.31	67.06
392.534	76.06
392.759	78.06
392.984	81.06
393.208	97.06
393.433	79.06
393.658	106.06
393.882	79.06
394.107	95.06
394.331	83.06
394.556	96.06
394.78	97.06
395.005	91.06
395.229	79.06
395.454	89.06
395.678	83.06
395.903	88.06
396.127	78.06
396.352	107.06
396.576	79.06
396.801	76.06
397.025	91.06
397.249	98.06
397.474	85.06
397.698	91.06
397.922	87.06
398.147	94.06
398.371	84.06
398.595	85.06
398.82	74.06
399.044	89.06
399.268	88.06
399.492	81.06
399.717	97.06
399.941	87.06
400.165	87.06
400.389	84.06
400.613	83.06
400.837	81.06
401.062	80.06
401.286	90.06
401.51	87.06
401.734	79.06
401.958	81.06
402.182	135.06
402.406	132.06
402.63	114.06
402.854	86.06
403.078	85.06
403.302	91.06
403.526	96.06
403.75	72.06
403.974	81.06
404.198	76.06
404.422	86.06
404.645	97.06
404.869	74.06
405.093	98.06
405.317	92.06
405.541	95.06
405.765	75.06
405.988	102.06
406.212	155.06
406.436	188.06
406.66	115.06
406.883	99.06
407.107	90.06
407.331	94.06
407.555	108.06
407.778	101.06
408.002	94.06
408.226	87.06
408.449	84.06
408.673	80.06
408.896	94.06
409.12	87.06
409.344	101.06
409.567	96.06
409.791	88.06
410.014	99.06
410.238	100.06
410.461	86.06
410.685	89.06
410.908	86.06
411.132	97.06
411.355	94.06
411.578	88.06
411.802	88.06
412.025	90.06
412.249	82.06
412.472	69.06
412.695	85.06
412.919	84.06
413.142	78.06
413.365	79.06
413.589	75.06
413.812	93.06
414.035	100.06
414.258	91.06
414.482	91.06
414.705	93.06
414.928	87.06
415.151	80.06
415.374	79.06
415.597	99.06
415.821	79.06
416.044	90.06
416.267	84.06
416.49	75.06
416.713	94.06
416.936	82.06
417.159	84.06
417.382	93.06
417.605	81.06
417.828	82.06
418.051	75.06
418.274	89.06
418.497	89.06
418.72	97.06
418.943	94.06
419.166	89.06
419.389	100.06
419.611	82.06
419.834	86.06
420.057	90.06
420.28	80.06
420.503	66.06
420.726	91.06
420.948	74.06
421.171	88.06
421.394	89.06
421.617	84.06
421.839	75.06
422.062	78.06
422.285	99.06
422.507	110.06
422.73	93.06
422.953	73.06
423.175	79.06
423.398	89.06
423.621	73.06
423.843	78.06
424.066	78.06
424.288	68.06
424.511	81.06
424.733	98.06
424.956	93.06
425.178	97.06
425.401	79.06
425.623	100.06
425.846	87.06
426.068	76.06
426.291	91.06
426.513	68.06
426.735	78.06
426.958	86.06
427.18	107.06
427.402	105.06
427.625	138.06
427.847	107.06
428.069	94.06
428.292	87.06
428.514	95.06
428.736	99.06
428.958	87.06
429.181	86.06
429.403	79.06
429.625	98.06
429.847	74.06
430.069	86.06
430.292	88.06
430.514	83.06
430.736	94.06
430.958	89.06
431.18	71.06
431.402	80.06
431.624	88.06
431.846	88.06
432.068	86.06
432.29	86.06
432.512	76.06
432.734	95.06
432.956	90.06
433.178	78.06
433.4	95.06
433.622	94.06
433.844	82.06
434.066	86.06
434.287	88.06
434.509	102.06
434.731	81.06
434.953	81.06
435.175	102.06
435.397	83.06
435.618	86.06
435.84	79.06
436.062	103.06
436.284	109.06
436.505	93.06
436.727	95.06
436.949	81.06
437.17	80.06
437.392	92.06
437.614	91.06
437.835	94.06
438.057	99.06
438.278	102.06
438.5	94.06
438.721	100.06
438.943	99.06
439.165	84.06
439.386	78.06
439.608	91.06
439.829	89.06
440.05	108.06
440.272	118.06
440.493	98.06
440.715	88.06
440.936	85.06
441.158	85.06
441.379	90.06
441.6	88.06
441.822	82.06
442.043	76.06
442.264	86.06
442.486	74.06
442.707	87.06
442.928	94.06
443.149	104.06
443.371	106.06
443.592	107.06
443.813	99.06
444.034	108.06
444.255	82.06
444.476	97.06
444.698	91.06
444.919	89.06
445.14	134.06
445.361	112.06
445.582	87.06
445.803	127.06
446.024	109.06
446.245	110.06
446.466	104.06
446.687	86.06
446.908	91.06
447.129	84.06
447.35	85.06
447.571	91.06
447.792	95.06
448.013	102.06
448.234	91.06
448.455	80.06
448.675	124.06
448.896	87.06
449.117	91.06
449.338	107.06
449.559	114.06
449.779	106.06
450	93.06
450.221	92.06
450.442	88.06
450.662	92.06
450.883	91.06
451.104	111.06
451.324	73.06
451.545	83.06
451.766	95.06
451.986	78.06
452.207	100.06
452.428	92.06
452.648	90.06
452.869	83.06
453.089	100.06
453.31	88.06
453.53	74.06
453.751	88.06
453.971	93.06
454.192	94.06
454.412	72.06
454.633	83.06
454.853	91.06
455.073	79.06
455.294	81.06
455.514	101.06
455.734	89.06
455.955	84.06
456.175	84.06
456.395	107.06
456.616	89.06
456.836	78.06
457.056	83.06
457.276	91.06
457.497	82.06
457.717	74.06
457.937	81.06
458.157	89.06
458.377	82.06
458.598	98.06
458.818	118.06
459.038	133.06
459.258	111.06
459.478	84.06
459.698	74.06
459.918	78.06
460.138	80.06
460.358	96.06
460.578	86.06
460.798	99.06
461.018	89.06
461.238	76.06
461.458	87.06
461.678	86.06
461.898	86.06
462.118	82.06
462.338	72.06
462.558	81.06
462.777	75.06
462.997	90.06
463.217	86.06
463.437	68.06
463.657	74.06
463.876	76.06
464.096	88.06
464.316	85.06
464.536	89.06
464.755	79.06
464.975	107.06
465.195	129.06
465.414	124.06
465.634	88.06
465.854	103.06
466.073	81.06
466.293	82.06
466.512	82.06
466.732	84.06
466.951	90.06
467.171	74.06
467.391	88.06
467.61	92.06
467.829	84.06
468.049	95.06
468.268	93.06
468.488	94.06
468.707	87.06
468.927	94.06
469.146	80.06
469.365	76.06
469.585	87.06
469.804	95.06
470.023	84.06
470.243	97.06
470.462	101.06
470.681	103.06
470.901	91.06
471.12	88.06
471.339	82.06
471.558	79.06
471.777	83.06
471.997	84.06
472.216	106.06
472.435	121.06
472.654	86.06
472.873	81.06
473.092	83.06
473.311	79.06
473.53	79.06
473.749	72.06
473.968	88.06
474.187	87.06
474.406	97.06
474.625	98.06
474.844	75.06
475.063	92.06
475.282	78.06
475.501	85.06
475.72	96.06
475.939	82.06
476.158	83.06
476.377	86.06
476.596	79.06
476.814	90.06
477.033	86.06
477.252	79.06
477.471	75.06
477.69	86.06
477.908	86.06
478.127	80.06
478.346	90.06
478.564	92.06
478.783	80.06
479.002	93.06
479.22	66.06
479.439	84.06
479.658	99.06
479.876	93.06
480.095	80.06
480.313	97.06
480.532	83.06
480.751	76.06
480.969	97.06
481.188	162.06
481.406	120.06
481.624	107.06
481.843	66.06
482.061	92.06
482.28	92.06
482.498	107.06
482.717	83.06
482.935	91.06
483.153	93.06
483.372	80.06
483.59	93.06
483.808	82.06
484.027	92.06
484.245	82.06
484.463	94.06
484.681	95.06
484.9	94.06
485.118	100.06
485.336	95.06
485.554	97.06
485.772	102.06
485.99	114.06
486.209	98.06
486.427	90.06
486.645	107.06
486.863	105.06
487.081	95.06
487.299	109.06
487.517	100.06
487.735	114.06
487.953	99.06
488.171	83.06
488.389	92.06
488.607	90.06
488.825	84.06
489.043	94.06
489.261	91.06
489.479	100.06
489.696	87.06
489.914	88.06
490.132	82.06
490.35	93.06
490.568	85.06
490.786	83.06
491.003	97.06
491.221	88.06
491.439	75.06
491.657	84.06
491.874	91.06
492.092	94.06
492.31	99.06
492.527	86.06
492.745	89.06
492.963	83.06
493.18	78.06
493.398	82.06
493.615	100.06
493.833	92.06
494.05	84.06
494.268	79.06
494.485	93.06
494.703	96.06
494.92	82.06
495.138	81.06
495.355	76.06
495.573	95.06
495.79	84.06
496.008	83.06
496.225	83.06
496.442	83.06
496.66	91.06
496.877	78.06
497.094	89.06
497.312	97.06
497.529	92.06
497.746	96.06
497.963	96.06
498.181	103.06
498.398	88.06
498.615	119.06
498.832	100.06
499.049	97.06
499.267	82.06
499.484	95.06
499.701	89.06
499.918	83.06
500.135	87.06
500.352	84.06
500.569	80.06
500.786	116.06
501.003	92.06
501.22	89.06
501.437	104.06
501.654	102.06
501.871	98.06
502.088	90.06
502.305	84.06
502.522	92.06
502.739	79.06
502.956	84.06
503.172	90.06
503.389	91.06
503.606	98.06
503.823	97.06
504.04	83.06
504.256	97.06
504.473	96.06
504.69	111.06
504.907	88.06
505.123	93.06
505.34	92.06
505.557	91.06
505.773	90.06
505.99	83.06
506.207	82.06
506.423	72.06
506.64	85.06
506.856	92.06
507.073	90.06
507.289	83.06
507.506	100.06
507.722	98.06
507.939	89.06
508.155	94.06
508.372	80.06
508.588	100.06
508.805	96.06
509.021	89.06
509.238	86.06
509.454	73.06
509.67	88.06
509.887	100.06
510.103	127.06
510.319	182.06
510.536	562.06
510.752	1609.06
510.968	466.06
511.184	122.06
511.401	98.06
511.617	95.06
511.833	92.06
512.049	90.06
512.265	88.06
512.481	83.06
512.698	105.06
512.914	98.06
513.13	88.06
513.346	88.06
513.562	84.06
513.778	87.06
513.994	92.06
514.21	103.06
514.426	107.06
514.642	114.06
514.858	110.06
515.074	126.06
515.29	321.06
515.506	982.06
515.721	383.06
515.937	135.06
516.153	94.06
516.369	97.06
516.585	96.06
516.801	72.06
517.016	94.06
517.232	87.06
