Data from Circ_1982_H10_HRD10591_00088.txt Node
Date: Wed Jan 03 12:30:58 EST 2024
User: Yrep
Spectrometer: HR+D1059
Trigger mode: 1
Integration Time (sec): 1.000000E-1
Scans to average: 1
Electric dark correction enabled: true
Nonlinearity correction enabled: false
Boxcar width: 0
XAxis mode: Wavelengths
Number of Pixels in Spectrum: 2048
>>>>>Begin Spectral Data<<<<<
223.165	-25.62
223.4	-25.62
223.635	-25.62
223.869	-20.62
224.104	-17.62
224.338	-9.62
224.573	-22.62
224.808	-13.62
225.042	-18.62
225.277	-4.62
225.511	3.38
225.746	6.38
225.98	16.38
226.215	13.38
226.449	5.38
226.683	20.38
226.918	35.38
227.152	32.38
227.387	42.38
227.621	46.38
227.856	50.38
228.09	47.38
228.324	58.38
228.559	35.38
228.793	49.38
229.027	46.38
229.262	76.38
229.496	65.38
229.73	79.38
229.964	87.38
230.199	78.38
230.433	78.38
230.667	74.38
230.901	74.38
231.136	81.38
231.37	82.38
231.604	76.38
231.838	83.38
232.072	79.38
232.306	86.38
232.541	80.38
232.775	89.38
233.009	81.38
233.243	77.38
233.477	90.38
233.711	89.38
233.945	76.38
234.179	81.38
234.413	85.38
234.647	91.38
234.881	81.38
235.115	97.38
235.349	83.38
235.583	81.38
235.817	87.38
236.051	77.38
236.285	70.38
236.519	74.38
236.753	72.38
236.987	91.38
237.221	81.38
237.455	98.38
237.689	85.38
237.922	90.38
238.156	78.38
238.39	79.38
238.624	66.38
238.858	79.38
239.091	75.38
239.325	76.38
239.559	78.38
239.793	78.38
240.027	75.38
240.26	73.38
240.494	88.38
240.728	78.38
240.961	56.38
241.195	74.38
241.429	82.38
241.662	78.38
241.896	95.38
242.13	72.38
242.363	63.38
242.597	86.38
242.83	68.38
243.064	84.38
243.298	78.38
243.531	93.38
243.765	77.38
243.998	74.38
244.232	70.38
244.465	76.38
244.699	81.38
244.932	81.38
245.166	70.38
245.399	91.38
245.633	75.38
245.866	69.38
246.099	67.38
246.333	74.38
246.566	71.38
246.8	78.38
247.033	82.38
247.266	83.38
247.5	93.38
247.733	86.38
247.966	77.38
248.2	75.38
248.433	83.38
248.666	65.38
248.899	65.38
249.133	87.38
249.366	105.38
249.599	73.38
249.832	79.38
250.066	89.38
250.299	73.38
250.532	84.38
250.765	79.38
250.998	80.38
251.231	81.38
251.465	95.38
251.698	92.38
251.931	94.38
252.164	69.38
252.397	74.38
252.63	83.38
252.863	88.38
253.096	85.38
253.329	97.38
253.562	91.38
253.795	72.38
254.028	91.38
254.261	85.38
254.494	72.38
254.727	96.38
254.96	85.38
255.193	69.38
255.426	69.38
255.659	81.38
255.892	97.38
256.124	85.38
256.357	84.38
256.59	67.38
256.823	87.38
257.056	89.38
257.289	74.38
257.521	79.38
257.754	80.38
257.987	76.38
258.22	90.38
258.452	81.38
258.685	81.38
258.918	79.38
259.151	79.38
259.383	75.38
259.616	80.38
259.849	84.38
260.081	90.38
260.314	76.38
260.547	67.38
260.779	77.38
261.012	84.38
261.244	90.38
261.477	81.38
261.71	78.38
261.942	90.38
262.175	100.38
262.407	78.38
262.64	84.38
262.872	97.38
263.105	82.38
263.337	74.38
263.57	82.38
263.802	67.38
264.035	72.38
264.267	75.38
264.499	90.38
264.732	85.38
264.964	79.38
265.197	89.38
265.429	91.38
265.661	110.38
265.894	74.38
266.126	86.38
266.358	86.38
266.591	82.38
266.823	79.38
267.055	87.38
267.287	90.38
267.52	102.38
267.752	84.38
267.984	89.38
268.216	84.38
268.448	91.38
268.681	82.38
268.913	91.38
269.145	77.38
269.377	83.38
269.609	78.38
269.841	82.38
270.073	81.38
270.306	73.38
270.538	73.38
270.77	88.38
271.002	78.38
271.234	88.38
271.466	85.38
271.698	91.38
271.93	77.38
272.162	80.38
272.394	83.38
272.626	89.38
272.858	84.38
273.09	81.38
273.322	57.38
273.553	85.38
273.785	85.38
274.017	78.38
274.249	84.38
274.481	85.38
274.713	93.38
274.945	85.38
275.176	85.38
275.408	85.38
275.64	101.38
275.872	100.38
276.104	91.38
276.335	100.38
276.567	91.38
276.799	103.38
277.031	107.38
277.262	85.38
277.494	89.38
277.726	87.38
277.957	93.38
278.189	82.38
278.421	88.38
278.652	88.38
278.884	82.38
279.115	89.38
279.347	91.38
279.579	88.38
279.81	90.38
280.042	93.38
280.273	88.38
280.505	70.38
280.736	93.38
280.968	94.38
281.199	83.38
281.431	75.38
281.662	72.38
281.894	83.38
282.125	88.38
282.356	115.38
282.588	118.38
282.819	106.38
283.051	79.38
283.282	90.38
283.513	73.38
283.745	90.38
283.976	91.38
284.207	88.38
284.439	85.38
284.67	92.38
284.901	87.38
285.132	83.38
285.364	83.38
285.595	94.38
285.826	83.38
286.057	73.38
286.288	91.38
286.52	79.38
286.751	88.38
286.982	94.38
287.213	90.38
287.444	67.38
287.675	93.38
287.906	76.38
288.138	98.38
288.369	95.38
288.6	85.38
288.831	90.38
289.062	92.38
289.293	91.38
289.524	89.38
289.755	89.38
289.986	97.38
290.217	76.38
290.448	86.38
290.679	72.38
290.91	87.38
291.141	83.38
291.371	93.38
291.602	77.38
291.833	90.38
292.064	78.38
292.295	96.38
292.526	97.38
292.757	86.38
292.987	79.38
293.218	97.38
293.449	95.38
293.68	93.38
293.91	76.38
294.141	92.38
294.372	86.38
294.603	95.38
294.833	93.38
295.064	94.38
295.295	101.38
295.525	83.38
295.756	90.38
295.987	110.38
296.217	126.38
296.448	111.38
296.679	104.38
296.909	98.38
297.14	86.38
297.37	82.38
297.601	89.38
297.831	74.38
298.062	78.38
298.292	75.38
298.523	90.38
298.753	99.38
298.984	99.38
299.214	98.38
299.445	99.38
299.675	107.38
299.905	91.38
300.136	94.38
300.366	71.38
300.597	95.38
300.827	98.38
301.057	96.38
301.288	122.38
301.518	93.38
301.748	92.38
301.979	94.38
302.209	97.38
302.439	91.38
302.669	86.38
302.9	85.38
303.13	100.38
303.36	93.38
303.59	102.38
303.82	94.38
304.051	93.38
304.281	90.38
304.511	95.38
304.741	88.38
304.971	76.38
305.201	86.38
305.431	91.38
305.661	90.38
305.891	94.38
306.121	92.38
306.352	90.38
306.582	100.38
306.812	91.38
307.042	95.38
307.272	97.38
307.502	100.38
307.731	87.38
307.961	94.38
308.191	77.38
308.421	95.38
308.651	97.38
308.881	99.38
309.111	86.38
309.341	85.38
309.571	94.38
309.8	87.38
310.03	97.38
310.26	80.38
310.49	94.38
310.72	106.38
310.949	102.38
311.179	99.38
311.409	104.38
311.639	95.38
311.868	89.38
312.098	104.38
312.328	95.38
312.557	101.38
312.787	115.38
313.017	97.38
313.246	103.38
313.476	87.38
313.706	84.38
313.935	79.38
314.165	87.38
314.394	107.38
314.624	82.38
314.853	87.38
315.083	95.38
315.312	86.38
315.542	97.38
315.771	101.38
316.001	89.38
316.23	92.38
316.46	90.38
316.689	78.38
316.919	107.38
317.148	105.38
317.377	99.38
317.607	95.38
317.836	92.38
318.065	91.38
318.295	78.38
318.524	95.38
318.753	97.38
318.983	90.38
319.212	94.38
319.441	116.38
319.67	100.38
319.9	82.38
320.129	81.38
320.358	85.38
320.587	77.38
320.816	97.38
321.046	102.38
321.275	113.38
321.504	88.38
321.733	94.38
321.962	95.38
322.191	85.38
322.42	95.38
322.649	107.38
322.878	103.38
323.108	105.38
323.337	118.38
323.566	117.38
323.795	140.38
324.024	166.38
324.253	299.38
324.482	662.38
324.71	1333.38
324.939	1739.38
325.168	661.38
325.397	204.38
325.626	124.38
325.855	115.38
326.084	121.38
326.313	120.38
326.542	143.38
326.77	191.38
326.999	386.38
327.228	761.38
327.457	1358.38
327.686	1082.38
327.914	327.38
328.143	171.38
328.372	138.38
328.6	118.38
328.829	117.38
329.058	122.38
329.287	138.38
329.515	112.38
329.744	104.38
329.972	100.38
330.201	107.38
330.43	120.38
330.658	115.38
330.887	126.38
331.115	106.38
331.344	113.38
331.572	104.38
331.801	99.38
332.03	89.38
332.258	95.38
332.486	82.38
332.715	109.38
332.943	93.38
333.172	98.38
333.4	91.38
333.629	106.38
333.857	110.38
334.085	103.38
334.314	109.38
334.542	129.38
334.771	118.38
334.999	105.38
335.227	99.38
335.455	95.38
335.684	98.38
335.912	91.38
336.14	107.38
336.369	105.38
336.597	98.38
336.825	98.38
337.053	76.38
337.281	102.38
337.51	89.38
337.738	102.38
337.966	99.38
338.194	95.38
338.422	95.38
338.65	98.38
338.878	92.38
339.106	91.38
339.334	91.38
339.562	102.38
339.79	97.38
340.018	93.38
340.246	79.38
340.474	90.38
340.702	85.38
340.93	95.38
341.158	95.38
341.386	92.38
341.614	103.38
341.842	100.38
342.07	101.38
342.298	101.38
342.526	90.38
342.754	96.38
342.981	84.38
343.209	85.38
343.437	118.38
343.665	106.38
343.893	89.38
344.12	89.38
344.348	86.38
344.576	84.38
344.804	93.38
345.031	87.38
345.259	105.38
345.487	95.38
345.714	98.38
345.942	91.38
346.17	83.38
346.397	107.38
346.625	91.38
346.853	93.38
347.08	78.38
347.308	86.38
347.535	97.38
347.763	106.38
347.99	95.38
348.218	94.38
348.445	109.38
348.673	90.38
348.9	103.38
349.128	94.38
349.355	105.38
349.583	79.38
349.81	111.38
350.037	91.38
350.265	98.38
350.492	92.38
350.72	108.38
350.947	87.38
351.174	114.38
351.402	96.38
351.629	101.38
351.856	99.38
352.083	95.38
352.311	93.38
352.538	103.38
352.765	106.38
352.992	107.38
353.22	94.38
353.447	92.38
353.674	105.38
353.901	86.38
354.128	101.38
354.355	102.38
354.583	92.38
354.81	98.38
355.037	87.38
355.264	100.38
355.491	89.38
355.718	97.38
355.945	95.38
356.172	106.38
356.399	102.38
356.626	93.38
356.853	93.38
357.08	89.38
357.307	93.38
357.534	102.38
357.761	105.38
357.988	98.38
358.215	99.38
358.441	95.38
358.668	94.38
358.895	93.38
359.122	94.38
359.349	85.38
359.576	91.38
359.802	108.38
360.029	104.38
360.256	92.38
360.483	95.38
360.709	81.38
360.936	104.38
361.163	89.38
361.39	81.38
361.616	91.38
361.843	101.38
362.07	95.38
362.296	92.38
362.523	94.38
362.749	107.38
362.976	91.38
363.203	101.38
363.429	91.38
363.656	99.38
363.882	98.38
364.109	104.38
364.335	109.38
364.562	98.38
364.788	82.38
365.015	109.38
365.241	93.38
365.468	99.38
365.694	95.38
365.92	105.38
366.147	73.38
366.373	97.38
366.599	103.38
366.826	95.38
367.052	90.38
367.278	85.38
367.505	83.38
367.731	103.38
367.957	95.38
368.184	86.38
368.41	85.38
368.636	103.38
368.862	102.38
369.089	76.38
369.315	98.38
369.541	99.38
369.767	99.38
369.993	86.38
370.219	84.38
370.445	84.38
370.672	94.38
370.898	75.38
371.124	81.38
371.35	88.38
371.576	87.38
371.802	85.38
372.028	85.38
372.254	76.38
372.48	90.38
372.706	94.38
372.932	96.38
373.158	86.38
373.384	102.38
373.61	92.38
373.835	94.38
374.061	94.38
374.287	90.38
374.513	89.38
374.739	99.38
374.965	93.38
375.191	105.38
375.416	87.38
375.642	100.38
375.868	84.38
376.094	91.38
376.319	112.38
376.545	99.38
376.771	97.38
376.997	87.38
377.222	83.38
377.448	90.38
377.674	90.38
377.899	94.38
378.125	91.38
378.35	90.38
378.576	102.38
378.802	82.38
379.027	94.38
379.253	95.38
379.478	98.38
379.704	74.38
379.929	90.38
380.155	97.38
380.38	102.38
380.606	93.38
380.831	87.38
381.057	103.38
381.282	93.38
381.507	105.38
381.733	102.38
381.958	87.38
382.184	101.38
382.409	95.38
382.634	91.38
382.86	78.38
383.085	107.38
383.31	97.38
383.535	97.38
383.761	94.38
383.986	99.38
384.211	86.38
384.436	101.38
384.662	97.38
384.887	94.38
385.112	105.38
385.337	99.38
385.562	110.38
385.787	106.38
386.013	111.38
386.238	114.38
386.463	113.38
386.688	113.38
386.913	108.38
387.138	92.38
387.363	98.38
387.588	89.38
387.813	102.38
388.038	110.38
388.263	108.38
388.488	101.38
388.713	97.38
388.938	107.38
389.163	88.38
389.387	91.38
389.612	101.38
389.837	95.38
390.062	89.38
390.287	105.38
390.512	89.38
390.736	105.38
390.961	92.38
391.186	91.38
391.411	93.38
391.636	85.38
391.86	85.38
392.085	104.38
392.31	75.38
392.534	83.38
392.759	92.38
392.984	87.38
393.208	87.38
393.433	97.38
393.658	77.38
393.882	71.38
394.107	80.38
394.331	97.38
394.556	91.38
394.78	90.38
395.005	94.38
395.229	93.38
395.454	93.38
395.678	87.38
395.903	108.38
396.127	89.38
396.352	103.38
396.576	94.38
396.801	98.38
397.025	89.38
397.249	85.38
397.474	101.38
397.698	79.38
397.922	97.38
398.147	95.38
398.371	97.38
398.595	76.38
398.82	85.38
399.044	101.38
399.268	89.38
399.492	79.38
399.717	83.38
399.941	92.38
400.165	93.38
400.389	92.38
400.613	95.38
400.837	95.38
401.062	91.38
401.286	87.38
401.51	94.38
401.734	71.38
401.958	99.38
402.182	116.38
402.406	125.38
402.63	119.38
402.854	92.38
403.078	81.38
403.302	94.38
403.526	85.38
403.75	83.38
403.974	85.38
404.198	101.38
404.422	90.38
404.645	96.38
404.869	93.38
405.093	82.38
405.317	95.38
405.541	102.38
405.765	103.38
405.988	118.38
406.212	151.38
406.436	188.38
406.66	147.38
406.883	95.38
407.107	103.38
407.331	98.38
407.555	99.38
407.778	95.38
408.002	88.38
408.226	75.38
408.449	78.38
408.673	75.38
408.896	106.38
409.12	89.38
409.344	95.38
409.567	90.38
409.791	89.38
410.014	85.38
410.238	97.38
410.461	89.38
410.685	103.38
410.908	106.38
411.132	94.38
411.355	90.38
411.578	94.38
411.802	100.38
412.025	95.38
412.249	85.38
412.472	99.38
412.695	95.38
412.919	91.38
413.142	87.38
413.365	88.38
413.589	84.38
413.812	84.38
414.035	88.38
414.258	101.38
414.482	94.38
414.705	109.38
414.928	106.38
415.151	96.38
415.374	78.38
415.597	87.38
415.821	70.38
416.044	89.38
416.267	99.38
416.49	91.38
416.713	92.38
416.936	83.38
417.159	91.38
417.382	81.38
417.605	93.38
417.828	90.38
418.051	82.38
418.274	86.38
418.497	97.38
418.72	102.38
418.943	93.38
419.166	102.38
419.389	92.38
419.611	92.38
419.834	93.38
420.057	98.38
420.28	98.38
420.503	92.38
420.726	93.38
420.948	105.38
421.171	86.38
421.394	96.38
421.617	99.38
421.839	90.38
422.062	80.38
422.285	97.38
422.507	110.38
422.73	107.38
422.953	98.38
423.175	98.38
423.398	74.38
423.621	84.38
423.843	85.38
424.066	91.38
424.288	97.38
424.511	95.38
424.733	100.38
424.956	99.38
425.178	108.38
425.401	95.38
425.623	97.38
425.846	111.38
426.068	89.38
426.291	84.38
426.513	91.38
426.735	81.38
426.958	93.38
427.18	110.38
427.402	126.38
427.625	153.38
427.847	130.38
428.069	116.38
428.292	95.38
428.514	86.38
428.736	99.38
428.958	101.38
429.181	89.38
429.403	97.38
429.625	100.38
429.847	81.38
430.069	97.38
430.292	91.38
430.514	98.38
430.736	91.38
430.958	85.38
431.18	95.38
431.402	80.38
431.624	95.38
431.846	88.38
432.068	88.38
432.29	95.38
432.512	110.38
432.734	94.38
432.956	96.38
433.178	112.38
433.4	98.38
433.622	87.38
433.844	94.38
434.066	85.38
434.287	99.38
434.509	83.38
434.731	83.38
434.953	77.38
435.175	93.38
435.397	89.38
435.618	86.38
435.84	114.38
436.062	124.38
436.284	118.38
436.505	101.38
436.727	101.38
436.949	92.38
437.17	87.38
437.392	100.38
437.614	94.38
437.835	97.38
438.057	129.38
438.278	109.38
438.5	99.38
438.721	117.38
438.943	103.38
439.165	84.38
439.386	105.38
439.608	95.38
439.829	97.38
440.05	103.38
440.272	126.38
440.493	94.38
440.715	90.38
440.936	79.38
441.158	77.38
441.379	85.38
441.6	97.38
441.822	94.38
442.043	90.38
442.264	100.38
442.486	103.38
442.707	98.38
442.928	105.38
443.149	112.38
443.371	135.38
443.592	111.38
443.813	95.38
444.034	109.38
444.255	93.38
444.476	98.38
444.698	100.38
444.919	92.38
445.14	128.38
445.361	111.38
445.582	101.38
445.803	116.38
446.024	126.38
446.245	128.38
446.466	102.38
446.687	90.38
446.908	85.38
447.129	87.38
447.35	101.38
447.571	92.38
447.792	87.38
448.013	81.38
448.234	86.38
448.455	95.38
448.675	122.38
448.896	105.38
449.117	106.38
449.338	109.38
449.559	108.38
449.779	110.38
450	78.38
450.221	79.38
450.442	94.38
450.662	95.38
450.883	109.38
451.104	111.38
451.324	101.38
451.545	92.38
451.766	102.38
451.986	89.38
452.207	92.38
452.428	86.38
452.648	107.38
452.869	98.38
453.089	94.38
453.31	99.38
453.53	104.38
453.751	91.38
453.971	93.38
454.192	103.38
454.412	91.38
454.633	86.38
454.853	87.38
455.073	79.38
455.294	75.38
455.514	86.38
455.734	94.38
455.955	100.38
456.175	77.38
456.395	85.38
456.616	92.38
456.836	95.38
457.056	93.38
457.276	85.38
457.497	80.38
457.717	83.38
457.937	95.38
458.157	88.38
458.377	75.38
458.598	97.38
458.818	150.38
459.038	151.38
459.258	106.38
459.478	93.38
459.698	90.38
459.918	85.38
460.138	91.38
460.358	81.38
460.578	92.38
460.798	90.38
461.018	79.38
461.238	88.38
461.458	83.38
461.678	89.38
461.898	93.38
462.118	87.38
462.338	88.38
462.558	89.38
462.777	81.38
462.997	60.38
463.217	73.38
463.437	89.38
463.657	74.38
463.876	92.38
464.096	90.38
464.316	84.38
464.536	85.38
464.755	89.38
464.975	97.38
465.195	151.38
465.414	134.38
465.634	95.38
465.854	85.38
466.073	97.38
466.293	86.38
466.512	79.38
466.732	95.38
466.951	74.38
467.171	94.38
467.391	97.38
467.61	89.38
467.829	98.38
468.049	98.38
468.268	101.38
468.488	93.38
468.707	87.38
468.927	96.38
469.146	88.38
469.365	97.38
469.585	94.38
469.804	90.38
470.023	98.38
470.243	85.38
470.462	92.38
470.681	100.38
470.901	87.38
471.12	82.38
471.339	81.38
471.558	86.38
471.777	82.38
471.997	107.38
472.216	117.38
472.435	132.38
472.654	92.38
472.873	98.38
473.092	97.38
473.311	83.38
473.53	89.38
473.749	91.38
473.968	91.38
474.187	101.38
474.406	89.38
474.625	82.38
474.844	83.38
475.063	98.38
475.282	87.38
475.501	78.38
475.72	92.38
475.939	105.38
476.158	96.38
476.377	91.38
476.596	78.38
476.814	92.38
477.033	108.38
477.252	93.38
477.471	98.38
477.69	99.38
477.908	88.38
478.127	94.38
478.346	84.38
478.564	94.38
478.783	93.38
479.002	88.38
479.22	89.38
479.439	99.38
479.658	104.38
479.876	89.38
480.095	81.38
480.313	85.38
480.532	77.38
480.751	82.38
480.969	109.38
481.188	159.38
481.406	149.38
481.624	106.38
481.843	74.38
482.061	83.38
482.28	93.38
482.498	87.38
482.717	106.38
482.935	81.38
483.153	95.38
483.372	102.38
483.59	93.38
483.808	91.38
484.027	76.38
484.245	103.38
484.463	94.38
484.681	85.38
484.9	97.38
485.118	86.38
485.336	98.38
485.554	99.38
485.772	99.38
485.99	98.38
486.209	96.38
486.427	108.38
486.645	90.38
486.863	110.38
487.081	114.38
487.299	96.38
487.517	89.38
487.735	109.38
487.953	92.38
488.171	84.38
488.389	91.38
488.607	104.38
488.825	92.38
489.043	91.38
489.261	84.38
489.479	86.38
489.696	89.38
489.914	100.38
490.132	82.38
490.35	84.38
490.568	97.38
490.786	85.38
491.003	82.38
491.221	93.38
491.439	77.38
491.657	94.38
491.874	83.38
492.092	90.38
492.31	87.38
492.527	92.38
492.745	103.38
492.963	80.38
493.18	94.38
493.398	92.38
493.615	106.38
493.833	94.38
494.05	86.38
494.268	81.38
494.485	88.38
494.703	97.38
494.92	97.38
495.138	98.38
495.355	85.38
495.573	93.38
495.79	86.38
496.008	91.38
496.225	90.38
496.442	84.38
496.66	80.38
496.877	95.38
497.094	94.38
497.312	90.38
497.529	95.38
497.746	87.38
497.963	93.38
498.181	88.38
498.398	97.38
498.615	98.38
498.832	95.38
499.049	89.38
499.267	92.38
499.484	94.38
499.701	75.38
499.918	91.38
500.135	98.38
500.352	102.38
500.569	89.38
500.786	106.38
501.003	86.38
501.22	96.38
501.437	95.38
501.654	95.38
501.871	103.38
502.088	85.38
502.305	79.38
502.522	91.38
502.739	91.38
502.956	95.38
503.172	99.38
503.389	84.38
503.606	118.38
503.823	98.38
504.04	96.38
504.256	82.38
504.473	93.38
504.69	91.38
504.907	98.38
505.123	86.38
505.34	85.38
505.557	83.38
505.773	93.38
505.99	94.38
506.207	99.38
506.423	102.38
506.64	81.38
506.856	89.38
507.073	78.38
507.289	94.38
507.506	100.38
507.722	101.38
507.939	121.38
508.155	93.38
508.372	88.38
508.588	95.38
508.805	106.38
509.021	97.38
509.238	92.38
509.454	99.38
509.67	119.38
509.887	102.38
510.103	138.38
510.319	199.38
510.536	595.38
510.752	1853.38
510.968	507.38
511.184	131.38
511.401	95.38
511.617	93.38
511.833	84.38
512.049	104.38
512.265	106.38
512.481	93.38
512.698	87.38
512.914	78.38
513.13	97.38
513.346	88.38
513.562	91.38
513.778	103.38
513.994	90.38
514.21	96.38
514.426	117.38
514.642	112.38
514.858	116.38
515.074	131.38
515.29	363.38
515.506	1145.38
515.721	411.38
