Data from Circ_1982_H10_HRD10591_00028.txt Node
Date: Wed Jan 03 12:30:46 EST 2024
User: Yrep
Spectrometer: HR+D1059
Trigger mode: 1
Integration Time (sec): 1.000000E-1
Scans to average: 1
Electric dark correction enabled: true
Nonlinearity correction enabled: false
Boxcar width: 0
XAxis mode: Wavelengths
Number of Pixels in Spectrum: 2048
>>>>>Begin Spectral Data<<<<<
223.165	-0.25
223.4	-0.25
223.635	-0.25
223.869	-24.25
224.104	-20.25
224.338	-4.25
224.573	-36.25
224.808	-9.25
225.042	2.75
225.277	-6.25
225.511	0.75
225.746	11.75
225.98	10.75
226.215	16.75
226.449	-1.25
226.683	23.75
226.918	18.75
227.152	16.75
227.387	30.75
227.621	28.75
227.856	44.75
228.09	30.75
228.324	48.75
228.559	60.75
228.793	60.75
229.027	56.75
229.262	54.75
229.496	66.75
229.73	66.75
229.964	90.75
230.199	82.75
230.433	64.75
230.667	82.75
230.901	86.75
231.136	85.75
231.37	87.75
231.604	72.75
231.838	80.75
232.072	72.75
232.306	84.75
232.541	86.75
232.775	67.75
233.009	65.75
233.243	89.75
233.477	76.75
233.711	70.75
233.945	78.75
234.179	70.75
234.413	85.75
234.647	63.75
234.881	62.75
235.115	87.75
235.349	87.75
235.583	81.75
235.817	73.75
236.051	69.75
236.285	63.75
236.519	74.75
236.753	83.75
236.987	90.75
237.221	79.75
237.455	70.75
237.689	80.75
237.922	68.75
238.156	86.75
238.39	73.75
238.624	77.75
238.858	76.75
239.091	75.75
239.325	72.75
239.559	74.75
239.793	75.75
240.027	75.75
240.26	68.75
240.494	82.75
240.728	83.75
240.961	73.75
241.195	83.75
241.429	82.75
241.662	79.75
241.896	64.75
242.13	70.75
242.363	84.75
242.597	86.75
242.83	80.75
243.064	88.75
243.298	86.75
243.531	51.75
243.765	86.75
243.998	69.75
244.232	82.75
244.465	88.75
244.699	74.75
244.932	51.75
245.166	68.75
245.399	79.75
245.633	68.75
245.866	77.75
246.099	74.75
246.333	75.75
246.566	71.75
246.8	82.75
247.033	69.75
247.266	66.75
247.5	63.75
247.733	75.75
247.966	84.75
248.2	85.75
248.433	82.75
248.666	85.75
248.899	77.75
249.133	81.75
249.366	81.75
249.599	89.75
249.832	72.75
250.066	66.75
250.299	70.75
250.532	74.75
250.765	54.75
250.998	90.75
251.231	71.75
251.465	79.75
251.698	81.75
251.931	86.75
252.164	71.75
252.397	75.75
252.63	79.75
252.863	72.75
253.096	68.75
253.329	81.75
253.562	69.75
253.795	73.75
254.028	73.75
254.261	67.75
254.494	80.75
254.727	90.75
254.96	79.75
255.193	84.75
255.426	89.75
255.659	82.75
255.892	90.75
256.124	72.75
256.357	88.75
256.59	81.75
256.823	69.75
257.056	81.75
257.289	68.75
257.521	81.75
257.754	73.75
257.987	82.75
258.22	90.75
258.452	75.75
258.685	98.75
258.918	76.75
259.151	81.75
259.383	88.75
259.616	72.75
259.849	75.75
260.081	69.75
260.314	71.75
260.547	82.75
260.779	84.75
261.012	81.75
261.244	93.75
261.477	96.75
261.71	84.75
261.942	78.75
262.175	94.75
262.407	81.75
262.64	93.75
262.872	67.75
263.105	74.75
263.337	78.75
263.57	78.75
263.802	87.75
264.035	74.75
264.267	58.75
264.499	82.75
264.732	79.75
264.964	67.75
265.197	78.75
265.429	90.75
265.661	69.75
265.894	80.75
266.126	68.75
266.358	70.75
266.591	87.75
266.823	69.75
267.055	82.75
267.287	74.75
267.52	75.75
267.752	76.75
267.984	91.75
268.216	87.75
268.448	88.75
268.681	78.75
268.913	81.75
269.145	78.75
269.377	102.75
269.609	74.75
269.841	67.75
270.073	81.75
270.306	95.75
270.538	72.75
270.77	87.75
271.002	64.75
271.234	78.75
271.466	85.75
271.698	80.75
271.93	87.75
272.162	80.75
272.394	79.75
272.626	76.75
272.858	75.75
273.09	65.75
273.322	95.75
273.553	86.75
273.785	83.75
274.017	82.75
274.249	82.75
274.481	75.75
274.713	62.75
274.945	90.75
275.176	89.75
275.408	84.75
275.64	92.75
275.872	75.75
276.104	68.75
276.335	84.75
276.567	90.75
276.799	103.75
277.031	96.75
277.262	90.75
277.494	88.75
277.726	86.75
277.957	81.75
278.189	86.75
278.421	74.75
278.652	89.75
278.884	90.75
279.115	89.75
279.347	70.75
279.579	78.75
279.81	84.75
280.042	84.75
280.273	90.75
280.505	75.75
280.736	93.75
280.968	91.75
281.199	86.75
281.431	79.75
281.662	63.75
281.894	94.75
282.125	105.75
282.356	90.75
282.588	98.75
282.819	92.75
283.051	100.75
283.282	91.75
283.513	90.75
283.745	92.75
283.976	85.75
284.207	98.75
284.439	77.75
284.67	78.75
284.901	72.75
285.132	75.75
285.364	87.75
285.595	84.75
285.826	78.75
286.057	82.75
286.288	80.75
286.52	79.75
286.751	71.75
286.982	94.75
287.213	91.75
287.444	106.75
287.675	88.75
287.906	85.75
288.138	97.75
288.369	88.75
288.6	83.75
288.831	78.75
289.062	83.75
289.293	75.75
289.524	75.75
289.755	80.75
289.986	78.75
290.217	78.75
290.448	86.75
290.679	80.75
290.91	100.75
291.141	85.75
291.371	84.75
291.602	86.75
291.833	83.75
292.064	89.75
292.295	85.75
292.526	91.75
292.757	72.75
292.987	89.75
293.218	97.75
293.449	84.75
293.68	91.75
293.91	82.75
294.141	83.75
294.372	72.75
294.603	91.75
294.833	88.75
295.064	76.75
295.295	83.75
295.525	89.75
295.756	78.75
295.987	110.75
296.217	108.75
296.448	97.75
296.679	68.75
296.909	89.75
297.14	92.75
297.37	75.75
297.601	94.75
297.831	82.75
298.062	98.75
298.292	92.75
298.523	92.75
298.753	91.75
298.984	86.75
299.214	86.75
299.445	91.75
299.675	81.75
299.905	82.75
300.136	102.75
300.366	82.75
300.597	86.75
300.827	73.75
301.057	93.75
301.288	88.75
301.518	79.75
301.748	92.75
301.979	94.75
302.209	91.75
302.439	74.75
302.669	86.75
302.9	82.75
303.13	73.75
303.36	90.75
303.59	76.75
303.82	100.75
304.051	86.75
304.281	83.75
304.511	96.75
304.741	82.75
304.971	78.75
305.201	90.75
305.431	88.75
305.661	87.75
305.891	83.75
306.121	84.75
306.352	100.75
306.582	96.75
306.812	97.75
307.042	85.75
307.272	96.75
307.502	103.75
307.731	81.75
307.961	94.75
308.191	75.75
308.421	94.75
308.651	75.75
308.881	85.75
309.111	87.75
309.341	99.75
309.571	93.75
309.8	76.75
310.03	94.75
310.26	91.75
310.49	98.75
310.72	96.75
310.949	91.75
311.179	88.75
311.409	91.75
311.639	88.75
311.868	86.75
312.098	92.75
312.328	91.75
312.557	91.75
312.787	112.75
313.017	94.75
313.246	92.75
313.476	95.75
313.706	94.75
313.935	97.75
314.165	97.75
314.394	103.75
314.624	102.75
314.853	75.75
315.083	89.75
315.312	91.75
315.542	86.75
315.771	80.75
316.001	89.75
316.23	82.75
316.46	95.75
316.689	95.75
316.919	105.75
317.148	90.75
317.377	104.75
317.607	85.75
317.836	77.75
318.065	96.75
318.295	76.75
318.524	94.75
318.753	108.75
318.983	87.75
319.212	83.75
319.441	101.75
319.67	90.75
319.9	98.75
320.129	89.75
320.358	94.75
320.587	100.75
320.816	95.75
321.046	99.75
321.275	84.75
321.504	91.75
321.733	97.75
321.962	101.75
322.191	95.75
322.42	108.75
322.649	101.75
322.878	106.75
323.108	98.75
323.337	95.75
323.566	101.75
323.795	129.75
324.024	174.75
324.253	278.75
324.482	565.75
324.71	1098.75
324.939	1433.75
325.168	538.75
325.397	176.75
325.626	146.75
325.855	117.75
326.084	98.75
326.313	108.75
326.542	130.75
326.77	190.75
326.999	337.75
327.228	670.75
327.457	1169.75
327.686	903.75
327.914	270.75
328.143	160.75
328.372	127.75
328.6	120.75
328.829	102.75
329.058	105.75
329.287	108.75
329.515	94.75
329.744	100.75
329.972	92.75
330.201	105.75
330.43	115.75
330.658	120.75
330.887	114.75
331.115	114.75
331.344	97.75
331.572	94.75
331.801	91.75
332.03	84.75
332.258	98.75
332.486	81.75
332.715	96.75
332.943	85.75
333.172	80.75
333.4	90.75
333.629	111.75
333.857	111.75
334.085	100.75
334.314	97.75
334.542	111.75
334.771	119.75
334.999	95.75
335.227	92.75
335.455	90.75
335.684	101.75
335.912	96.75
336.14	94.75
336.369	81.75
336.597	94.75
336.825	97.75
337.053	90.75
337.281	98.75
337.51	74.75
337.738	90.75
337.966	79.75
338.194	89.75
338.422	96.75
338.65	80.75
338.878	99.75
339.106	85.75
339.334	84.75
339.562	86.75
339.79	83.75
340.018	83.75
340.246	80.75
340.474	102.75
340.702	99.75
340.93	102.75
341.158	98.75
341.386	89.75
341.614	94.75
341.842	90.75
342.07	82.75
342.298	97.75
342.526	88.75
342.754	70.75
342.981	87.75
343.209	83.75
343.437	91.75
343.665	90.75
343.893	92.75
344.12	83.75
344.348	90.75
344.576	82.75
344.804	92.75
345.031	88.75
345.259	81.75
345.487	68.75
345.714	70.75
345.942	82.75
346.17	80.75
346.397	100.75
346.625	75.75
346.853	101.75
347.08	87.75
347.308	94.75
347.535	88.75
347.763	89.75
347.99	91.75
348.218	91.75
348.445	108.75
348.673	84.75
348.9	101.75
349.128	93.75
349.355	102.75
349.583	95.75
349.81	78.75
350.037	89.75
350.265	105.75
350.492	90.75
350.72	105.75
350.947	99.75
351.174	101.75
351.402	98.75
351.629	98.75
351.856	98.75
352.083	94.75
352.311	113.75
352.538	102.75
352.765	100.75
352.992	98.75
353.22	98.75
353.447	104.75
353.674	104.75
353.901	92.75
354.128	88.75
354.355	78.75
354.583	92.75
354.81	95.75
355.037	84.75
355.264	98.75
355.491	98.75
355.718	84.75
355.945	84.75
356.172	84.75
356.399	105.75
356.626	96.75
356.853	100.75
357.08	97.75
357.307	89.75
357.534	96.75
357.761	98.75
357.988	86.75
358.215	98.75
358.441	95.75
358.668	86.75
358.895	87.75
359.122	87.75
359.349	90.75
359.576	87.75
359.802	75.75
360.029	102.75
360.256	90.75
360.483	94.75
360.709	70.75
360.936	92.75
361.163	96.75
361.39	84.75
361.616	107.75
361.843	90.75
362.07	85.75
362.296	89.75
362.523	87.75
362.749	87.75
362.976	94.75
363.203	90.75
363.429	62.75
363.656	74.75
363.882	98.75
364.109	95.75
364.335	102.75
364.562	88.75
364.788	97.75
365.015	86.75
365.241	86.75
365.468	87.75
365.694	114.75
365.92	87.75
366.147	80.75
366.373	88.75
366.599	78.75
366.826	102.75
367.052	99.75
367.278	92.75
367.505	82.75
367.731	79.75
367.957	100.75
368.184	91.75
368.41	88.75
368.636	108.75
368.862	99.75
369.089	110.75
369.315	91.75
369.541	88.75
369.767	84.75
369.993	84.75
370.219	91.75
370.445	87.75
370.672	83.75
370.898	82.75
371.124	94.75
371.35	86.75
371.576	79.75
371.802	73.75
372.028	84.75
372.254	86.75
372.48	86.75
372.706	86.75
372.932	91.75
373.158	82.75
373.384	90.75
373.61	83.75
373.835	84.75
374.061	98.75
374.287	96.75
374.513	81.75
374.739	84.75
374.965	95.75
375.191	76.75
375.416	98.75
375.642	84.75
375.868	96.75
376.094	91.75
376.319	101.75
376.545	91.75
376.771	91.75
376.997	95.75
377.222	89.75
377.448	95.75
377.674	94.75
377.899	81.75
378.125	85.75
378.35	82.75
378.576	92.75
378.802	89.75
379.027	92.75
379.253	88.75
379.478	99.75
379.704	111.75
379.929	112.75
380.155	98.75
380.38	87.75
380.606	106.75
380.831	82.75
381.057	106.75
381.282	89.75
381.507	94.75
381.733	84.75
381.958	107.75
382.184	107.75
382.409	86.75
382.634	80.75
382.86	98.75
383.085	96.75
383.31	96.75
383.535	92.75
383.761	101.75
383.986	91.75
384.211	94.75
384.436	113.75
384.662	108.75
384.887	114.75
385.112	108.75
385.337	100.75
385.562	100.75
385.787	100.75
386.013	108.75
386.238	124.75
386.463	94.75
386.688	111.75
386.913	98.75
387.138	105.75
387.363	94.75
387.588	101.75
387.813	93.75
388.038	101.75
388.263	114.75
388.488	109.75
388.713	94.75
388.938	90.75
389.163	93.75
389.387	95.75
389.612	90.75
389.837	85.75
390.062	97.75
390.287	83.75
390.512	97.75
390.736	82.75
390.961	90.75
391.186	102.75
391.411	98.75
391.636	93.75
391.86	93.75
392.085	73.75
392.31	70.75
392.534	88.75
392.759	82.75
392.984	84.75
393.208	93.75
393.433	80.75
393.658	92.75
393.882	90.75
394.107	86.75
394.331	90.75
394.556	91.75
394.78	98.75
395.005	76.75
395.229	85.75
395.454	94.75
395.678	80.75
395.903	79.75
396.127	99.75
396.352	92.75
396.576	82.75
396.801	81.75
397.025	85.75
397.249	75.75
397.474	84.75
397.698	92.75
397.922	78.75
398.147	78.75
398.371	80.75
398.595	87.75
398.82	62.75
399.044	79.75
399.268	82.75
399.492	75.75
399.717	80.75
399.941	96.75
400.165	89.75
400.389	106.75
400.613	88.75
400.837	84.75
401.062	77.75
401.286	78.75
401.51	97.75
401.734	103.75
401.958	95.75
402.182	101.75
402.406	130.75
402.63	103.75
402.854	88.75
403.078	89.75
403.302	90.75
403.526	93.75
403.75	84.75
403.974	90.75
404.198	95.75
404.422	86.75
404.645	74.75
404.869	82.75
405.093	92.75
405.317	98.75
405.541	95.75
405.765	95.75
405.988	106.75
406.212	127.75
406.436	144.75
406.66	106.75
406.883	83.75
407.107	74.75
407.331	96.75
407.555	94.75
407.778	108.75
408.002	96.75
408.226	103.75
408.449	82.75
408.673	102.75
408.896	86.75
409.12	98.75
409.344	91.75
409.567	100.75
409.791	81.75
410.014	84.75
410.238	100.75
410.461	104.75
410.685	98.75
410.908	97.75
411.132	95.75
411.355	105.75
411.578	78.75
411.802	86.75
412.025	88.75
412.249	86.75
412.472	89.75
412.695	91.75
412.919	100.75
413.142	80.75
413.365	82.75
413.589	87.75
413.812	81.75
414.035	92.75
414.258	82.75
414.482	90.75
414.705	84.75
414.928	93.75
415.151	75.75
415.374	91.75
415.597	90.75
415.821	90.75
416.044	96.75
416.267	78.75
416.49	91.75
416.713	96.75
416.936	71.75
417.159	75.75
417.382	76.75
417.605	89.75
417.828	84.75
418.051	101.75
418.274	95.75
418.497	90.75
418.72	101.75
418.943	79.75
419.166	76.75
419.389	96.75
419.611	96.75
419.834	92.75
420.057	91.75
420.28	83.75
420.503	80.75
420.726	101.75
420.948	94.75
421.171	91.75
421.394	81.75
421.617	88.75
421.839	90.75
422.062	92.75
422.285	102.75
422.507	91.75
422.73	110.75
422.953	79.75
423.175	94.75
423.398	94.75
423.621	87.75
423.843	90.75
424.066	70.75
424.288	91.75
424.511	90.75
424.733	78.75
424.956	97.75
425.178	98.75
425.401	89.75
425.623	87.75
425.846	90.75
426.068	91.75
426.291	88.75
426.513	89.75
426.735	84.75
426.958	97.75
427.18	94.75
427.402	115.75
427.625	137.75
427.847	106.75
428.069	101.75
428.292	91.75
428.514	89.75
428.736	75.75
428.958	77.75
429.181	88.75
429.403	95.75
429.625	100.75
429.847	86.75
430.069	86.75
430.292	90.75
430.514	89.75
430.736	83.75
430.958	76.75
431.18	81.75
431.402	92.75
431.624	96.75
431.846	83.75
432.068	78.75
432.29	88.75
432.512	82.75
432.734	67.75
432.956	90.75
433.178	106.75
433.4	86.75
433.622	87.75
433.844	108.75
434.066	99.75
434.287	90.75
434.509	87.75
434.731	73.75
434.953	70.75
435.175	82.75
435.397	90.75
435.618	98.75
435.84	88.75
436.062	105.75
436.284	102.75
436.505	99.75
436.727	89.75
436.949	84.75
437.17	78.75
437.392	82.75
437.614	99.75
437.835	102.75
438.057	113.75
438.278	88.75
438.5	102.75
438.721	88.75
438.943	91.75
439.165	72.75
439.386	81.75
439.608	85.75
439.829	98.75
440.05	94.75
440.272	114.75
440.493	91.75
440.715	74.75
440.936	97.75
441.158	77.75
441.379	81.75
441.6	86.75
441.822	95.75
442.043	92.75
442.264	78.75
442.486	84.75
442.707	101.75
442.928	100.75
443.149	96.75
443.371	103.75
443.592	97.75
443.813	92.75
444.034	99.75
444.255	91.75
444.476	86.75
444.698	82.75
444.919	80.75
445.14	117.75
445.361	116.75
445.582	89.75
445.803	101.75
446.024	103.75
446.245	120.75
446.466	105.75
446.687	87.75
446.908	71.75
447.129	80.75
447.35	90.75
447.571	90.75
447.792	87.75
448.013	94.75
448.234	96.75
448.455	94.75
448.675	106.75
448.896	109.75
449.117	96.75
449.338	105.75
449.559	114.75
449.779	123.75
450	90.75
450.221	72.75
450.442	88.75
450.662	94.75
450.883	100.75
451.104	103.75
451.324	100.75
451.545	79.75
451.766	86.75
451.986	83.75
452.207	83.75
452.428	94.75
452.648	90.75
452.869	94.75
453.089	87.75
453.31	108.75
453.53	80.75
453.751	89.75
453.971	90.75
454.192	95.75
454.412	86.75
454.633	89.75
454.853	83.75
455.073	101.75
455.294	95.75
455.514	88.75
455.734	79.75
455.955	75.75
456.175	84.75
456.395	92.75
456.616	92.75
456.836	81.75
457.056	85.75
457.276	91.75
457.497	90.75
457.717	83.75
457.937	86.75
458.157	86.75
458.377	86.75
458.598	87.75
458.818	110.75
459.038	121.75
459.258	106.75
459.478	83.75
459.698	79.75
459.918	84.75
460.138	68.75
460.358	79.75
460.578	92.75
460.798	86.75
461.018	94.75
461.238	83.75
461.458	85.75
461.678	74.75
461.898	80.75
462.118	82.75
462.338	84.75
462.558	83.75
462.777	96.75
462.997	99.75
463.217	76.75
463.437	72.75
463.657	71.75
463.876	84.75
464.096	75.75
464.316	85.75
464.536	82.75
464.755	84.75
464.975	89.75
465.195	117.75
465.414	121.75
465.634	84.75
465.854	84.75
466.073	87.75
466.293	81.75
466.512	74.75
466.732	68.75
466.951	77.75
467.171	90.75
467.391	84.75
467.61	94.75
467.829	97.75
468.049	91.75
468.268	96.75
468.488	85.75
468.707	67.75
468.927	88.75
469.146	94.75
469.365	89.75
469.585	78.75
469.804	81.75
470.023	92.75
470.243	86.75
470.462	99.75
470.681	94.75
470.901	93.75
471.12	73.75
471.339	71.75
471.558	75.75
471.777	74.75
471.997	83.75
472.216	105.75
472.435	108.75
472.654	86.75
472.873	82.75
473.092	76.75
473.311	100.75
473.53	87.75
473.749	82.75
473.968	70.75
474.187	91.75
474.406	93.75
474.625	81.75
474.844	92.75
475.063	89.75
475.282	92.75
475.501	86.75
475.72	81.75
475.939	93.75
476.158	74.75
476.377	82.75
476.596	74.75
476.814	69.75
477.033	97.75
477.252	86.75
477.471	83.75
477.69	78.75
477.908	75.75
478.127	91.75
478.346	89.75
478.564	84.75
478.783	84.75
479.002	92.75
479.22	92.75
479.439	89.75
479.658	101.75
479.876	81.75
480.095	84.75
480.313	94.75
480.532	83.75
480.751	95.75
480.969	85.75
481.188	138.75
481.406	110.75
481.624	84.75
481.843	85.75
482.061	96.75
482.28	81.75
482.498	82.75
482.717	82.75
482.935	87.75
483.153	101.75
483.372	88.75
483.59	71.75
483.808	82.75
484.027	84.75
484.245	94.75
484.463	88.75
484.681	111.75
484.9	82.75
485.118	86.75
485.336	84.75
485.554	106.75
485.772	104.75
485.99	110.75
486.209	99.75
486.427	100.75
486.645	112.75
486.863	108.75
487.081	104.75
487.299	94.75
487.517	96.75
487.735	93.75
487.953	104.75
488.171	87.75
488.389	94.75
488.607	81.75
488.825	87.75
489.043	100.75
489.261	100.75
489.479	91.75
489.696	86.75
489.914	89.75
490.132	72.75
490.35	82.75
490.568	86.75
490.786	92.75
491.003	94.75
491.221	82.75
491.439	82.75
491.657	80.75
491.874	89.75
492.092	89.75
492.31	89.75
492.527	83.75
492.745	73.75
492.963	74.75
493.18	88.75
493.398	85.75
493.615	110.75
493.833	97.75
494.05	89.75
494.268	100.75
494.485	81.75
494.703	81.75
494.92	80.75
495.138	88.75
495.355	84.75
495.573	103.75
495.79	80.75
496.008	82.75
496.225	90.75
496.442	90.75
496.66	95.75
496.877	90.75
497.094	84.75
497.312	98.75
497.529	90.75
497.746	99.75
497.963	84.75
498.181	82.75
498.398	79.75
498.615	91.75
498.832	102.75
499.049	76.75
499.267	80.75
499.484	95.75
499.701	102.75
499.918	87.75
500.135	86.75
500.352	88.75
500.569	83.75
500.786	83.75
501.003	94.75
501.22	93.75
501.437	94.75
501.654	71.75
501.871	80.75
502.088	97.75
502.305	75.75
502.522	82.75
502.739	88.75
502.956	91.75
503.172	85.75
503.389	82.75
503.606	90.75
503.823	92.75
504.04	88.75
504.256	87.75
504.473	78.75
504.69	85.75
504.907	91.75
505.123	82.75
505.34	81.75
505.557	100.75
505.773	82.75
505.99	96.75
506.207	81.75
506.423	75.75
506.64	90.75
506.856	72.75
507.073	81.75
507.289	85.75
507.506	84.75
507.722	108.75
507.939	113.75
508.155	97.75
508.372	85.75
508.588	85.75
508.805	91.75
509.021	81.75
509.238	99.75
509.454	91.75
509.67	84.75
509.887	95.75
510.103	107.75
510.319	181.75
510.536	518.75
510.752	1522.75
510.968	441.75
511.184	114.75
511.401	90.75
511.617	91.75
511.833	94.75
512.049	82.75
512.265	81.75
512.481	87.75
512.698	91.75
512.914	92.75
513.13	99.75
513.346	94.75
513.562	92.75
513.778	90.75
513.994	90.75
514.21	95.75
514.426	98.75
514.642	104.75
514.858	103.75
515.074	112.75
515.29	287.75
515.506	894.75
515.721	344.75
515.937	127.75
516.153	94.75
516.369	94.75
516.585	83.75
516.801	72.75
517.016	88.75
517.232	87.75
