Data from Circ_1982_H10_HRD10591_00082.txt Node
Date: Wed Jan 03 12:30:57 EST 2024
User: Yrep
Spectrometer: HR+D1059
Trigger mode: 1
Integration Time (sec): 1.000000E-1
Scans to average: 1
Electric dark correction enabled: true
Nonlinearity correction enabled: false
Boxcar width: 0
XAxis mode: Wavelengths
Number of Pixels in Spectrum: 2048
>>>>>Begin Spectral Data<<<<<
223.165	-8.31
223.4	-8.31
223.635	-8.31
223.869	-19.31
224.104	-22.31
224.338	-10.31
224.573	-22.31
224.808	-11.31
225.042	-11.31
225.277	-4.31
225.511	-15.31
225.746	3.69
225.98	11.69
226.215	7.69
226.449	6.69
226.683	33.69
226.918	24.69
227.152	36.69
227.387	41.69
227.621	35.69
227.856	48.69
228.09	53.69
228.324	46.69
228.559	62.69
228.793	69.69
229.027	65.69
229.262	68.69
229.496	79.69
229.73	70.69
229.964	82.69
230.199	80.69
230.433	81.69
230.667	73.69
230.901	75.69
231.136	76.69
231.37	71.69
231.604	71.69
231.838	82.69
232.072	66.69
232.306	73.69
232.541	80.69
232.775	67.69
233.009	91.69
233.243	78.69
233.477	74.69
233.711	89.69
233.945	75.69
234.179	72.69
234.413	73.69
234.647	73.69
234.881	74.69
235.115	83.69
235.349	82.69
235.583	72.69
235.817	67.69
236.051	82.69
236.285	82.69
236.519	78.69
236.753	76.69
236.987	69.69
237.221	88.69
237.455	83.69
237.689	62.69
237.922	83.69
238.156	80.69
238.39	84.69
238.624	67.69
238.858	75.69
239.091	91.69
239.325	66.69
239.559	80.69
239.793	80.69
240.027	64.69
240.26	74.69
240.494	86.69
240.728	66.69
240.961	82.69
241.195	81.69
241.429	77.69
241.662	80.69
241.896	79.69
242.13	86.69
242.363	68.69
242.597	85.69
242.83	60.69
243.064	75.69
243.298	60.69
243.531	78.69
243.765	68.69
243.998	73.69
244.232	69.69
244.465	75.69
244.699	77.69
244.932	71.69
245.166	81.69
245.399	78.69
245.633	80.69
245.866	74.69
246.099	72.69
246.333	68.69
246.566	74.69
246.8	67.69
247.033	68.69
247.266	73.69
247.5	73.69
247.733	96.69
247.966	74.69
248.2	89.69
248.433	73.69
248.666	80.69
248.899	84.69
249.133	82.69
249.366	72.69
249.599	92.69
249.832	74.69
250.066	70.69
250.299	78.69
250.532	77.69
250.765	71.69
250.998	81.69
251.231	87.69
251.465	79.69
251.698	89.69
251.931	86.69
252.164	81.69
252.397	70.69
252.63	58.69
252.863	70.69
253.096	71.69
253.329	66.69
253.562	76.69
253.795	79.69
254.028	82.69
254.261	76.69
254.494	75.69
254.727	93.69
254.96	82.69
255.193	75.69
255.426	58.69
255.659	90.69
255.892	82.69
256.124	92.69
256.357	92.69
256.59	76.69
256.823	78.69
257.056	66.69
257.289	81.69
257.521	80.69
257.754	83.69
257.987	68.69
258.22	92.69
258.452	81.69
258.685	83.69
258.918	74.69
259.151	78.69
259.383	83.69
259.616	82.69
259.849	73.69
260.081	82.69
260.314	79.69
260.547	85.69
260.779	68.69
261.012	75.69
261.244	91.69
261.477	99.69
261.71	90.69
261.942	104.69
262.175	122.69
262.407	75.69
262.64	71.69
262.872	82.69
263.105	75.69
263.337	88.69
263.57	87.69
263.802	76.69
264.035	95.69
264.267	78.69
264.499	70.69
264.732	90.69
264.964	79.69
265.197	86.69
265.429	72.69
265.661	78.69
265.894	85.69
266.126	75.69
266.358	85.69
266.591	78.69
266.823	89.69
267.055	78.69
267.287	85.69
267.52	86.69
267.752	88.69
267.984	82.69
268.216	88.69
268.448	85.69
268.681	84.69
268.913	85.69
269.145	74.69
269.377	78.69
269.609	73.69
269.841	83.69
270.073	76.69
270.306	95.69
270.538	83.69
270.77	79.69
271.002	90.69
271.234	82.69
271.466	88.69
271.698	80.69
271.93	79.69
272.162	78.69
272.394	86.69
272.626	79.69
272.858	88.69
273.09	84.69
273.322	78.69
273.553	74.69
273.785	82.69
274.017	84.69
274.249	86.69
274.481	79.69
274.713	82.69
274.945	73.69
275.176	76.69
275.408	81.69
275.64	89.69
275.872	96.69
276.104	87.69
276.335	91.69
276.567	83.69
276.799	110.69
277.031	97.69
277.262	86.69
277.494	104.69
277.726	74.69
277.957	82.69
278.189	83.69
278.421	83.69
278.652	89.69
278.884	88.69
279.115	78.69
279.347	86.69
279.579	97.69
279.81	74.69
280.042	82.69
280.273	87.69
280.505	80.69
280.736	82.69
280.968	90.69
281.199	84.69
281.431	86.69
281.662	65.69
281.894	100.69
282.125	98.69
282.356	102.69
282.588	106.69
282.819	119.69
283.051	81.69
283.282	74.69
283.513	73.69
283.745	84.69
283.976	91.69
284.207	89.69
284.439	93.69
284.67	78.69
284.901	88.69
285.132	95.69
285.364	91.69
285.595	86.69
285.826	89.69
286.057	85.69
286.288	87.69
286.52	66.69
286.751	95.69
286.982	95.69
287.213	76.69
287.444	85.69
287.675	91.69
287.906	78.69
288.138	90.69
288.369	82.69
288.6	89.69
288.831	76.69
289.062	89.69
289.293	105.69
289.524	99.69
289.755	83.69
289.986	75.69
290.217	86.69
290.448	88.69
290.679	70.69
290.91	76.69
291.141	82.69
291.371	78.69
291.602	90.69
291.833	84.69
292.064	90.69
292.295	78.69
292.526	83.69
292.757	82.69
292.987	91.69
293.218	89.69
293.449	82.69
293.68	89.69
293.91	102.69
294.141	91.69
294.372	85.69
294.603	87.69
294.833	86.69
295.064	74.69
295.295	92.69
295.525	93.69
295.756	87.69
295.987	101.69
296.217	124.69
296.448	119.69
296.679	102.69
296.909	96.69
297.14	90.69
297.37	97.69
297.601	87.69
297.831	72.69
298.062	92.69
298.292	89.69
298.523	80.69
298.753	92.69
298.984	87.69
299.214	75.69
299.445	84.69
299.675	96.69
299.905	94.69
300.136	80.69
300.366	99.69
300.597	82.69
300.827	83.69
301.057	111.69
301.288	88.69
301.518	86.69
301.748	76.69
301.979	97.69
302.209	96.69
302.439	81.69
302.669	90.69
302.9	87.69
303.13	74.69
303.36	87.69
303.59	96.69
303.82	102.69
304.051	102.69
304.281	97.69
304.511	89.69
304.741	93.69
304.971	88.69
305.201	96.69
305.431	79.69
305.661	83.69
305.891	90.69
306.121	82.69
306.352	94.69
306.582	97.69
306.812	83.69
307.042	86.69
307.272	106.69
307.502	96.69
307.731	81.69
307.961	76.69
308.191	83.69
308.421	96.69
308.651	87.69
308.881	88.69
309.111	99.69
309.341	83.69
309.571	87.69
309.8	84.69
310.03	93.69
310.26	96.69
310.49	87.69
310.72	84.69
310.949	95.69
311.179	99.69
311.409	85.69
311.639	96.69
311.868	90.69
312.098	96.69
312.328	87.69
312.557	91.69
312.787	100.69
313.017	98.69
313.246	84.69
313.476	86.69
313.706	95.69
313.935	82.69
314.165	99.69
314.394	95.69
314.624	92.69
314.853	82.69
315.083	107.69
315.312	91.69
315.542	79.69
315.771	95.69
316.001	104.69
316.23	97.69
316.46	83.69
316.689	78.69
316.919	91.69
317.148	91.69
317.377	85.69
317.607	88.69
317.836	92.69
318.065	83.69
318.295	82.69
318.524	88.69
318.753	87.69
318.983	90.69
319.212	100.69
319.441	89.69
319.67	102.69
319.9	79.69
320.129	88.69
320.358	91.69
320.587	94.69
320.816	100.69
321.046	91.69
321.275	87.69
321.504	95.69
321.733	82.69
321.962	93.69
322.191	92.69
322.42	92.69
322.649	95.69
322.878	106.69
323.108	104.69
323.337	112.69
323.566	112.69
323.795	142.69
324.024	175.69
324.253	314.69
324.482	634.69
324.71	1237.69
324.939	1580.69
325.168	606.69
325.397	199.69
325.626	138.69
325.855	107.69
326.084	131.69
326.313	120.69
326.542	133.69
326.77	190.69
326.999	345.69
327.228	702.69
327.457	1249.69
327.686	1011.69
327.914	287.69
328.143	164.69
328.372	140.69
328.6	103.69
328.829	111.69
329.058	118.69
329.287	108.69
329.515	107.69
329.744	96.69
329.972	95.69
330.201	114.69
330.43	127.69
330.658	112.69
330.887	106.69
331.115	116.69
331.344	90.69
331.572	100.69
331.801	98.69
332.03	84.69
332.258	86.69
332.486	83.69
332.715	104.69
332.943	102.69
333.172	98.69
333.4	98.69
333.629	110.69
333.857	112.69
334.085	109.69
334.314	109.69
334.542	125.69
334.771	125.69
334.999	97.69
335.227	86.69
335.455	108.69
335.684	92.69
335.912	85.69
336.14	103.69
336.369	102.69
336.597	91.69
336.825	104.69
337.053	84.69
337.281	88.69
337.51	90.69
337.738	87.69
337.966	95.69
338.194	101.69
338.422	104.69
338.65	106.69
338.878	88.69
339.106	70.69
339.334	89.69
339.562	96.69
339.79	103.69
340.018	99.69
340.246	79.69
340.474	94.69
340.702	78.69
340.93	81.69
341.158	98.69
341.386	90.69
341.614	88.69
341.842	101.69
342.07	85.69
342.298	88.69
342.526	89.69
342.754	74.69
342.981	95.69
343.209	70.69
343.437	98.69
343.665	85.69
343.893	92.69
344.12	95.69
344.348	92.69
344.576	99.69
344.804	71.69
345.031	80.69
345.259	89.69
345.487	94.69
345.714	90.69
345.942	92.69
346.17	90.69
346.397	78.69
346.625	76.69
346.853	87.69
347.08	83.69
347.308	79.69
347.535	97.69
347.763	109.69
347.99	96.69
348.218	86.69
348.445	102.69
348.673	102.69
348.9	103.69
349.128	93.69
349.355	84.69
349.583	83.69
349.81	89.69
350.037	83.69
350.265	96.69
350.492	84.69
350.72	89.69
350.947	110.69
351.174	101.69
351.402	91.69
351.629	98.69
351.856	100.69
352.083	108.69
352.311	108.69
352.538	118.69
352.765	106.69
352.992	112.69
353.22	114.69
353.447	107.69
353.674	90.69
353.901	89.69
354.128	91.69
354.355	115.69
354.583	84.69
354.81	102.69
355.037	91.69
355.264	105.69
355.491	104.69
355.718	87.69
355.945	93.69
356.172	96.69
356.399	104.69
356.626	96.69
356.853	83.69
357.08	103.69
357.307	104.69
357.534	89.69
357.761	89.69
357.988	102.69
358.215	89.69
358.441	84.69
358.668	90.69
358.895	84.69
359.122	89.69
359.349	87.69
359.576	82.69
359.802	106.69
360.029	104.69
360.256	93.69
360.483	92.69
360.709	87.69
360.936	86.69
361.163	90.69
361.39	93.69
361.616	84.69
361.843	94.69
362.07	92.69
362.296	95.69
362.523	79.69
362.749	82.69
362.976	96.69
363.203	89.69
363.429	90.69
363.656	76.69
363.882	70.69
364.109	82.69
364.335	96.69
364.562	79.69
364.788	90.69
365.015	101.69
365.241	87.69
365.468	110.69
365.694	95.69
365.92	82.69
366.147	82.69
366.373	80.69
366.599	85.69
366.826	86.69
367.052	87.69
367.278	91.69
367.505	90.69
367.731	78.69
367.957	81.69
368.184	80.69
368.41	91.69
368.636	105.69
368.862	103.69
369.089	85.69
369.315	90.69
369.541	89.69
369.767	85.69
369.993	88.69
370.219	93.69
370.445	80.69
370.672	72.69
370.898	94.69
371.124	95.69
371.35	86.69
371.576	91.69
371.802	88.69
372.028	92.69
372.254	87.69
372.48	92.69
372.706	79.69
372.932	82.69
373.158	99.69
373.384	97.69
373.61	95.69
373.835	72.69
374.061	92.69
374.287	83.69
374.513	75.69
374.739	92.69
374.965	96.69
375.191	82.69
375.416	72.69
375.642	94.69
375.868	96.69
376.094	74.69
376.319	90.69
376.545	89.69
376.771	83.69
376.997	91.69
377.222	95.69
377.448	90.69
377.674	75.69
377.899	89.69
378.125	71.69
378.35	82.69
378.576	80.69
378.802	88.69
379.027	69.69
379.253	85.69
379.478	90.69
379.704	70.69
379.929	89.69
380.155	74.69
380.38	76.69
380.606	97.69
380.831	103.69
381.057	100.69
381.282	102.69
381.507	100.69
381.733	98.69
381.958	87.69
382.184	94.69
382.409	88.69
382.634	97.69
382.86	88.69
383.085	118.69
383.31	103.69
383.535	102.69
383.761	115.69
383.986	99.69
384.211	93.69
384.436	76.69
384.662	90.69
384.887	96.69
385.112	102.69
385.337	86.69
385.562	98.69
385.787	90.69
386.013	102.69
386.238	106.69
386.463	101.69
386.688	102.69
386.913	108.69
387.138	103.69
387.363	84.69
387.588	105.69
387.813	87.69
388.038	98.69
388.263	97.69
388.488	105.69
388.713	103.69
388.938	96.69
389.163	86.69
389.387	84.69
389.612	86.69
389.837	94.69
390.062	82.69
390.287	78.69
390.512	91.69
390.736	90.69
390.961	89.69
391.186	97.69
391.411	92.69
391.636	88.69
391.86	84.69
392.085	96.69
392.31	89.69
392.534	89.69
392.759	99.69
392.984	82.69
393.208	97.69
393.433	102.69
393.658	103.69
393.882	82.69
394.107	74.69
394.331	88.69
394.556	78.69
394.78	78.69
395.005	95.69
395.229	72.69
395.454	82.69
395.678	95.69
395.903	75.69
396.127	89.69
396.352	91.69
396.576	96.69
396.801	87.69
397.025	82.69
397.249	94.69
397.474	80.69
397.698	81.69
397.922	80.69
398.147	96.69
398.371	90.69
398.595	98.69
398.82	87.69
399.044	89.69
399.268	80.69
399.492	104.69
399.717	81.69
399.941	72.69
400.165	83.69
400.389	95.69
400.613	87.69
400.837	81.69
401.062	84.69
401.286	89.69
401.51	84.69
401.734	92.69
401.958	98.69
402.182	104.69
402.406	137.69
402.63	103.69
402.854	84.69
403.078	90.69
403.302	99.69
403.526	90.69
403.75	82.69
403.974	75.69
404.198	94.69
404.422	89.69
404.645	94.69
404.869	85.69
405.093	94.69
405.317	100.69
405.541	92.69
405.765	82.69
405.988	96.69
406.212	157.69
406.436	195.69
406.66	122.69
406.883	93.69
407.107	90.69
407.331	106.69
407.555	99.69
407.778	97.69
408.002	75.69
408.226	94.69
408.449	74.69
408.673	88.69
408.896	102.69
409.12	103.69
409.344	79.69
409.567	84.69
409.791	88.69
410.014	91.69
410.238	86.69
410.461	88.69
410.685	74.69
410.908	98.69
411.132	97.69
411.355	90.69
411.578	86.69
411.802	83.69
412.025	80.69
412.249	87.69
412.472	100.69
412.695	74.69
412.919	70.69
413.142	84.69
413.365	80.69
413.589	86.69
413.812	95.69
414.035	96.69
414.258	74.69
414.482	90.69
414.705	85.69
414.928	92.69
415.151	95.69
415.374	83.69
415.597	89.69
415.821	82.69
416.044	94.69
416.267	92.69
416.49	76.69
416.713	67.69
416.936	80.69
417.159	86.69
417.382	86.69
417.605	72.69
417.828	95.69
418.051	78.69
418.274	78.69
418.497	88.69
418.72	74.69
418.943	78.69
419.166	97.69
419.389	82.69
419.611	86.69
419.834	78.69
420.057	83.69
420.28	91.69
420.503	72.69
420.726	98.69
420.948	84.69
421.171	97.69
421.394	80.69
421.617	85.69
421.839	85.69
422.062	89.69
422.285	79.69
422.507	107.69
422.73	104.69
422.953	101.69
423.175	90.69
423.398	90.69
423.621	82.69
423.843	75.69
424.066	79.69
424.288	82.69
424.511	99.69
424.733	98.69
424.956	107.69
425.178	109.69
425.401	92.69
425.623	96.69
425.846	98.69
426.068	82.69
426.291	96.69
426.513	83.69
426.735	94.69
426.958	102.69
427.18	94.69
427.402	115.69
427.625	128.69
427.847	122.69
428.069	103.69
428.292	82.69
428.514	91.69
428.736	92.69
428.958	70.69
429.181	80.69
429.403	83.69
429.625	81.69
429.847	96.69
430.069	86.69
430.292	97.69
430.514	95.69
430.736	76.69
430.958	64.69
431.18	99.69
431.402	85.69
431.624	74.69
431.846	75.69
432.068	61.69
432.29	71.69
432.512	76.69
432.734	81.69
432.956	79.69
433.178	95.69
433.4	106.69
433.622	82.69
433.844	86.69
434.066	90.69
434.287	95.69
434.509	83.69
434.731	93.69
434.953	98.69
435.175	83.69
435.397	105.69
435.618	85.69
435.84	91.69
436.062	113.69
436.284	95.69
436.505	85.69
436.727	94.69
436.949	78.69
437.17	82.69
437.392	71.69
437.614	82.69
437.835	96.69
438.057	94.69
438.278	91.69
438.5	104.69
438.721	122.69
438.943	100.69
439.165	86.69
439.386	88.69
439.608	84.69
439.829	97.69
440.05	115.69
440.272	122.69
440.493	96.69
440.715	88.69
440.936	86.69
441.158	90.69
441.379	81.69
441.6	74.69
441.822	79.69
442.043	96.69
442.264	107.69
442.486	96.69
442.707	76.69
442.928	99.69
443.149	107.69
443.371	111.69
443.592	102.69
443.813	94.69
444.034	118.69
444.255	81.69
444.476	78.69
444.698	80.69
444.919	103.69
445.14	118.69
445.361	108.69
445.582	90.69
445.803	114.69
446.024	124.69
446.245	122.69
446.466	96.69
446.687	96.69
446.908	81.69
447.129	82.69
447.35	69.69
447.571	86.69
447.792	87.69
448.013	85.69
448.234	92.69
448.455	89.69
448.675	104.69
448.896	104.69
449.117	85.69
449.338	75.69
449.559	126.69
449.779	100.69
450	100.69
450.221	98.69
450.442	76.69
450.662	84.69
450.883	107.69
451.104	95.69
451.324	72.69
451.545	86.69
451.766	85.69
451.986	92.69
452.207	82.69
452.428	79.69
452.648	82.69
452.869	108.69
453.089	112.69
453.31	104.69
453.53	73.69
453.751	87.69
453.971	86.69
454.192	117.69
454.412	86.69
454.633	89.69
454.853	88.69
455.073	88.69
455.294	83.69
455.514	88.69
455.734	81.69
455.955	74.69
456.175	94.69
456.395	82.69
456.616	74.69
456.836	76.69
457.056	90.69
457.276	80.69
457.497	71.69
457.717	60.69
457.937	88.69
458.157	86.69
458.377	96.69
458.598	93.69
458.818	131.69
459.038	133.69
459.258	107.69
459.478	74.69
459.698	80.69
459.918	72.69
460.138	95.69
460.358	84.69
460.578	74.69
460.798	86.69
461.018	84.69
461.238	82.69
461.458	74.69
461.678	64.69
461.898	74.69
462.118	79.69
462.338	81.69
462.558	73.69
462.777	82.69
462.997	83.69
463.217	100.69
463.437	78.69
463.657	86.69
463.876	79.69
464.096	84.69
464.316	75.69
464.536	89.69
464.755	84.69
464.975	101.69
465.195	135.69
465.414	150.69
465.634	80.69
465.854	76.69
466.073	90.69
466.293	96.69
466.512	90.69
466.732	78.69
466.951	90.69
467.171	84.69
467.391	88.69
467.61	92.69
467.829	93.69
468.049	111.69
468.268	99.69
468.488	89.69
468.707	82.69
468.927	89.69
469.146	79.69
469.365	89.69
469.585	93.69
469.804	95.69
470.023	91.69
470.243	84.69
470.462	96.69
470.681	95.69
470.901	92.69
471.12	74.69
471.339	87.69
471.558	94.69
471.777	93.69
471.997	94.69
472.216	104.69
472.435	126.69
472.654	86.69
472.873	85.69
473.092	74.69
473.311	72.69
473.53	74.69
473.749	74.69
473.968	86.69
474.187	82.69
474.406	73.69
474.625	92.69
474.844	81.69
475.063	79.69
475.282	84.69
475.501	91.69
475.72	70.69
475.939	75.69
476.158	86.69
476.377	70.69
476.596	87.69
476.814	86.69
477.033	98.69
477.252	73.69
477.471	71.69
477.69	81.69
477.908	69.69
478.127	101.69
478.346	90.69
478.564	91.69
478.783	94.69
479.002	94.69
479.22	99.69
479.439	110.69
479.658	84.69
479.876	89.69
480.095	76.69
480.313	92.69
480.532	78.69
480.751	83.69
480.969	127.69
481.188	166.69
481.406	142.69
481.624	104.69
481.843	98.69
482.061	87.69
482.28	83.69
482.498	69.69
482.717	93.69
482.935	82.69
483.153	90.69
483.372	94.69
483.59	96.69
483.808	95.69
484.027	93.69
484.245	84.69
484.463	86.69
484.681	100.69
484.9	85.69
485.118	94.69
485.336	99.69
485.554	94.69
485.772	71.69
485.99	94.69
486.209	98.69
486.427	100.69
486.645	110.69
486.863	113.69
487.081	86.69
487.299	95.69
487.517	94.69
487.735	88.69
487.953	87.69
488.171	105.69
488.389	95.69
488.607	94.69
488.825	95.69
489.043	80.69
489.261	106.69
489.479	94.69
489.696	81.69
489.914	97.69
490.132	94.69
490.35	83.69
490.568	95.69
490.786	96.69
491.003	84.69
491.221	92.69
491.439	92.69
491.657	82.69
491.874	103.69
492.092	71.69
492.31	84.69
492.527	95.69
492.745	90.69
492.963	84.69
493.18	91.69
493.398	91.69
493.615	89.69
493.833	94.69
494.05	91.69
494.268	92.69
494.485	81.69
494.703	100.69
494.92	98.69
495.138	87.69
495.355	87.69
495.573	88.69
495.79	91.69
496.008	71.69
496.225	83.69
496.442	76.69
496.66	78.69
496.877	78.69
497.094	90.69
497.312	89.69
497.529	78.69
497.746	91.69
497.963	82.69
498.181	95.69
498.398	84.69
498.615	103.69
498.832	99.69
499.049	94.69
499.267	90.69
499.484	70.69
499.701	89.69
499.918	90.69
500.135	83.69
500.352	84.69
500.569	104.69
500.786	98.69
501.003	85.69
501.22	99.69
501.437	81.69
501.654	85.69
501.871	88.69
502.088	96.69
502.305	88.69
502.522	93.69
502.739	106.69
502.956	86.69
503.172	97.69
503.389	91.69
503.606	101.69
503.823	83.69
504.04	79.69
504.256	94.69
504.473	100.69
504.69	98.69
504.907	100.69
505.123	86.69
505.34	91.69
505.557	88.69
505.773	90.69
505.99	98.69
506.207	76.69
506.423	90.69
506.64	92.69
506.856	86.69
507.073	70.69
507.289	108.69
507.506	104.69
507.722	95.69
507.939	102.69
508.155	105.69
508.372	87.69
508.588	85.69
508.805	85.69
509.021	94.69
509.238	87.69
509.454	86.69
509.67	100.69
509.887	111.69
510.103	112.69
510.319	193.69
510.536	606.69
510.752	1846.69
510.968	500.69
511.184	125.69
511.401	111.69
511.617	85.69
511.833	71.69
512.049	101.69
512.265	93.69
512.481	97.69
512.698	95.69
512.914	90.69
513.13	86.69
513.346	87.69
513.562	84.69
513.778	102.69
513.994	94.69
514.21	97.69
514.426	101.69
514.642	107.69
514.858	101.69
515.074	144.69
515.29	347.69
515.506	1122.69
515.721	400.69
515.937	136.69
516.153	100.69
516.369	107.69
516.585	101.69
516.801	83.69
