Data from Circ_1982_H10_HRD10591_00001.txt Node
Date: Wed Jan 03 12:30:41 EST 2024
User: Yrep
Spectrometer: HR+D1059
Trigger mode: 1
Integration Time (sec): 1.000000E-1
Scans to average: 1
Electric dark correction enabled: true
Nonlinearity correction enabled: false
Boxcar width: 0
XAxis mode: Wavelengths
Number of Pixels in Spectrum: 2048
>>>>>Begin Spectral Data<<<<<
223.165	-19.44
223.4	-19.44
223.635	-19.44
223.869	-4.44
224.104	-22.44
224.338	-11.44
224.573	-30.44
224.808	-14.44
225.042	4.56
225.277	-12.44
225.511	7.56
225.746	9.56
225.98	8.56
226.215	-13.44
226.449	22.56
226.683	17.56
226.918	25.56
227.152	32.56
227.387	38.56
227.621	55.56
227.856	44.56
228.09	42.56
228.324	61.56
228.559	57.56
228.793	53.56
229.027	63.56
229.262	55.56
229.496	71.56
229.73	72.56
229.964	81.56
230.199	76.56
230.433	77.56
230.667	88.56
230.901	64.56
231.136	78.56
231.37	89.56
231.604	84.56
231.838	88.56
232.072	81.56
232.306	88.56
232.541	76.56
232.775	92.56
233.009	80.56
233.243	76.56
233.477	80.56
233.711	82.56
233.945	82.56
234.179	96.56
234.413	94.56
234.647	72.56
234.881	84.56
235.115	91.56
235.349	82.56
235.583	82.56
235.817	90.56
236.051	81.56
236.285	86.56
236.519	87.56
236.753	84.56
236.987	80.56
237.221	77.56
237.455	100.56
237.689	77.56
237.922	78.56
238.156	82.56
238.39	81.56
238.624	74.56
238.858	78.56
239.091	68.56
239.325	85.56
239.559	85.56
239.793	94.56
240.027	76.56
240.26	64.56
240.494	74.56
240.728	71.56
240.961	71.56
241.195	88.56
241.429	64.56
241.662	73.56
241.896	86.56
242.13	85.56
242.363	66.56
242.597	78.56
242.83	72.56
243.064	76.56
243.298	90.56
243.531	79.56
243.765	86.56
243.998	85.56
244.232	77.56
244.465	89.56
244.699	82.56
244.932	71.56
245.166	84.56
245.399	93.56
245.633	85.56
245.866	80.56
246.099	70.56
246.333	73.56
246.566	81.56
246.8	77.56
247.033	85.56
247.266	65.56
247.5	81.56
247.733	88.56
247.966	84.56
248.2	73.56
248.433	75.56
248.666	89.56
248.899	65.56
249.133	94.56
249.366	91.56
249.599	94.56
249.832	86.56
250.066	96.56
250.299	93.56
250.532	88.56
250.765	92.56
250.998	75.56
251.231	90.56
251.465	89.56
251.698	85.56
251.931	79.56
252.164	89.56
252.397	93.56
252.63	81.56
252.863	95.56
253.096	89.56
253.329	79.56
253.562	83.56
253.795	76.56
254.028	74.56
254.261	79.56
254.494	78.56
254.727	86.56
254.96	92.56
255.193	86.56
255.426	91.56
255.659	84.56
255.892	80.56
256.124	74.56
256.357	91.56
256.59	90.56
256.823	98.56
257.056	96.56
257.289	92.56
257.521	90.56
257.754	86.56
257.987	77.56
258.22	93.56
258.452	78.56
258.685	93.56
258.918	89.56
259.151	80.56
259.383	92.56
259.616	84.56
259.849	89.56
260.081	85.56
260.314	81.56
260.547	85.56
260.779	78.56
261.012	88.56
261.244	76.56
261.477	94.56
261.71	86.56
261.942	104.56
262.175	92.56
262.407	95.56
262.64	90.56
262.872	88.56
263.105	80.56
263.337	81.56
263.57	86.56
263.802	84.56
264.035	98.56
264.267	85.56
264.499	88.56
264.732	89.56
264.964	80.56
265.197	81.56
265.429	79.56
265.661	96.56
265.894	80.56
266.126	94.56
266.358	90.56
266.591	91.56
266.823	93.56
267.055	84.56
267.287	88.56
267.52	87.56
267.752	79.56
267.984	84.56
268.216	87.56
268.448	88.56
268.681	75.56
268.913	96.56
269.145	75.56
269.377	94.56
269.609	92.56
269.841	81.56
270.073	86.56
270.306	93.56
270.538	99.56
270.77	100.56
271.002	98.56
271.234	86.56
271.466	79.56
271.698	85.56
271.93	88.56
272.162	107.56
272.394	93.56
272.626	87.56
272.858	93.56
273.09	94.56
273.322	77.56
273.553	86.56
273.785	88.56
274.017	103.56
274.249	108.56
274.481	91.56
274.713	80.56
274.945	80.56
275.176	101.56
275.408	92.56
275.64	89.56
275.872	90.56
276.104	93.56
276.335	97.56
276.567	87.56
276.799	96.56
277.031	98.56
277.262	78.56
277.494	102.56
277.726	98.56
277.957	89.56
278.189	87.56
278.421	91.56
278.652	80.56
278.884	88.56
279.115	92.56
279.347	87.56
279.579	87.56
279.81	91.56
280.042	85.56
280.273	89.56
280.505	97.56
280.736	91.56
280.968	77.56
281.199	97.56
281.431	101.56
281.662	90.56
281.894	89.56
282.125	92.56
282.356	100.56
282.588	109.56
282.819	102.56
283.051	84.56
283.282	76.56
283.513	81.56
283.745	79.56
283.976	86.56
284.207	81.56
284.439	84.56
284.67	95.56
284.901	96.56
285.132	95.56
285.364	100.56
285.595	84.56
285.826	94.56
286.057	80.56
286.288	81.56
286.52	90.56
286.751	91.56
286.982	101.56
287.213	88.56
287.444	86.56
287.675	77.56
287.906	96.56
288.138	95.56
288.369	101.56
288.6	93.56
288.831	86.56
289.062	96.56
289.293	79.56
289.524	86.56
289.755	94.56
289.986	89.56
290.217	68.56
290.448	90.56
290.679	96.56
290.91	86.56
291.141	86.56
291.371	102.56
291.602	85.56
291.833	95.56
292.064	91.56
292.295	85.56
292.526	88.56
292.757	94.56
292.987	90.56
293.218	98.56
293.449	76.56
293.68	74.56
293.91	83.56
294.141	90.56
294.372	82.56
294.603	103.56
294.833	104.56
295.064	86.56
295.295	91.56
295.525	88.56
295.756	94.56
295.987	104.56
296.217	133.56
296.448	118.56
296.679	102.56
296.909	97.56
297.14	107.56
297.37	92.56
297.601	88.56
297.831	90.56
298.062	96.56
298.292	86.56
298.523	91.56
298.753	102.56
298.984	100.56
299.214	85.56
299.445	87.56
299.675	98.56
299.905	105.56
300.136	93.56
300.366	88.56
300.597	96.56
300.827	90.56
301.057	101.56
301.288	101.56
301.518	84.56
301.748	89.56
301.979	95.56
302.209	89.56
302.439	90.56
302.669	93.56
302.9	92.56
303.13	97.56
303.36	78.56
303.59	89.56
303.82	113.56
304.051	99.56
304.281	89.56
304.511	106.56
304.741	84.56
304.971	78.56
305.201	105.56
305.431	103.56
305.661	94.56
305.891	90.56
306.121	92.56
306.352	95.56
306.582	88.56
306.812	99.56
307.042	84.56
307.272	89.56
307.502	97.56
307.731	95.56
307.961	96.56
308.191	95.56
308.421	93.56
308.651	84.56
308.881	108.56
309.111	98.56
309.341	89.56
309.571	92.56
309.8	101.56
310.03	96.56
310.26	102.56
310.49	108.56
310.72	101.56
310.949	93.56
311.179	82.56
311.409	88.56
311.639	93.56
311.868	109.56
312.098	96.56
312.328	86.56
312.557	88.56
312.787	84.56
313.017	100.56
313.246	93.56
313.476	102.56
313.706	88.56
313.935	92.56
314.165	81.56
314.394	82.56
314.624	109.56
314.853	100.56
315.083	106.56
315.312	91.56
315.542	93.56
315.771	89.56
316.001	88.56
316.23	90.56
316.46	100.56
316.689	80.56
316.919	93.56
317.148	100.56
317.377	106.56
317.607	96.56
317.836	103.56
318.065	100.56
318.295	91.56
318.524	90.56
318.753	102.56
318.983	89.56
319.212	106.56
319.441	106.56
319.67	89.56
319.9	94.56
320.129	117.56
320.358	96.56
320.587	92.56
320.816	103.56
321.046	113.56
321.275	94.56
321.504	102.56
321.733	109.56
321.962	99.56
322.191	97.56
322.42	90.56
322.649	98.56
322.878	80.56
323.108	104.56
323.337	106.56
323.566	117.56
323.795	125.56
324.024	157.56
324.253	311.56
324.482	552.56
324.71	1092.56
324.939	1442.56
325.168	556.56
325.397	196.56
325.626	131.56
325.855	124.56
326.084	123.56
326.313	113.56
326.542	133.56
326.77	191.56
326.999	342.56
327.228	643.56
327.457	1147.56
327.686	917.56
327.914	267.56
328.143	152.56
328.372	142.56
328.6	112.56
328.829	106.56
329.058	118.56
329.287	117.56
329.515	116.56
329.744	111.56
329.972	101.56
330.201	124.56
330.43	100.56
330.658	124.56
330.887	121.56
331.115	105.56
331.344	107.56
331.572	104.56
331.801	92.56
332.03	102.56
332.258	105.56
332.486	87.56
332.715	93.56
332.943	90.56
333.172	100.56
333.4	114.56
333.629	112.56
333.857	95.56
334.085	112.56
334.314	118.56
334.542	108.56
334.771	102.56
334.999	108.56
335.227	110.56
335.455	107.56
335.684	81.56
335.912	99.56
336.14	102.56
336.369	113.56
336.597	97.56
336.825	104.56
337.053	108.56
337.281	94.56
337.51	86.56
337.738	94.56
337.966	96.56
338.194	93.56
338.422	98.56
338.65	98.56
338.878	90.56
339.106	103.56
339.334	90.56
339.562	106.56
339.79	89.56
340.018	108.56
340.246	92.56
340.474	84.56
340.702	98.56
340.93	88.56
341.158	104.56
341.386	101.56
341.614	97.56
341.842	88.56
342.07	95.56
342.298	108.56
342.526	101.56
342.754	85.56
342.981	85.56
343.209	105.56
343.437	97.56
343.665	90.56
343.893	99.56
344.12	101.56
344.348	86.56
344.576	76.56
344.804	101.56
345.031	94.56
345.259	101.56
345.487	104.56
345.714	89.56
345.942	97.56
346.17	97.56
346.397	88.56
346.625	106.56
346.853	96.56
347.08	107.56
347.308	84.56
347.535	103.56
347.763	104.56
347.99	114.56
348.218	118.56
348.445	97.56
348.673	101.56
348.9	98.56
349.128	107.56
349.355	90.56
349.583	98.56
349.81	107.56
350.037	95.56
350.265	99.56
350.492	94.56
350.72	101.56
350.947	106.56
351.174	119.56
351.402	102.56
351.629	98.56
351.856	113.56
352.083	105.56
352.311	112.56
352.538	103.56
352.765	94.56
352.992	106.56
353.22	109.56
353.447	105.56
353.674	113.56
353.901	93.56
354.128	98.56
354.355	104.56
354.583	105.56
354.81	117.56
355.037	99.56
355.264	90.56
355.491	94.56
355.718	100.56
355.945	93.56
356.172	100.56
356.399	98.56
356.626	98.56
356.853	70.56
357.08	96.56
357.307	95.56
357.534	91.56
357.761	84.56
357.988	104.56
358.215	104.56
358.441	108.56
358.668	114.56
358.895	89.56
359.122	90.56
359.349	102.56
359.576	94.56
359.802	101.56
360.029	96.56
360.256	107.56
360.483	105.56
360.709	105.56
360.936	89.56
361.163	95.56
361.39	93.56
361.616	96.56
361.843	107.56
362.07	94.56
362.296	110.56
362.523	102.56
362.749	95.56
362.976	82.56
363.203	104.56
363.429	97.56
363.656	94.56
363.882	89.56
364.109	84.56
364.335	98.56
364.562	93.56
364.788	86.56
365.015	94.56
365.241	91.56
365.468	102.56
365.694	112.56
365.92	90.56
366.147	92.56
366.373	81.56
366.599	94.56
366.826	112.56
367.052	90.56
367.278	89.56
367.505	96.56
367.731	97.56
367.957	82.56
368.184	84.56
368.41	99.56
368.636	114.56
368.862	113.56
369.089	95.56
369.315	106.56
369.541	97.56
369.767	100.56
369.993	91.56
370.219	78.56
370.445	100.56
370.672	86.56
370.898	87.56
371.124	111.56
371.35	92.56
371.576	102.56
371.802	88.56
372.028	80.56
372.254	104.56
372.48	99.56
372.706	88.56
372.932	91.56
373.158	92.56
373.384	94.56
373.61	101.56
373.835	95.56
374.061	102.56
374.287	100.56
374.513	86.56
374.739	102.56
374.965	107.56
375.191	108.56
375.416	102.56
375.642	105.56
375.868	102.56
376.094	87.56
376.319	97.56
376.545	103.56
376.771	108.56
376.997	102.56
377.222	85.56
377.448	92.56
377.674	105.56
377.899	92.56
378.125	100.56
378.35	101.56
378.576	98.56
378.802	89.56
379.027	79.56
379.253	100.56
379.478	94.56
379.704	100.56
379.929	100.56
380.155	101.56
380.38	113.56
380.606	96.56
380.831	92.56
381.057	117.56
381.282	114.56
381.507	117.56
381.733	113.56
381.958	116.56
382.184	107.56
382.409	92.56
382.634	110.56
382.86	106.56
383.085	118.56
383.31	118.56
383.535	98.56
383.761	111.56
383.986	103.56
384.211	108.56
384.436	116.56
384.662	118.56
384.887	132.56
385.112	128.56
385.337	136.56
385.562	113.56
385.787	97.56
386.013	121.56
386.238	132.56
386.463	127.56
386.688	137.56
386.913	112.56
387.138	124.56
387.363	123.56
387.588	109.56
387.813	109.56
388.038	114.56
388.263	147.56
388.488	125.56
388.713	108.56
388.938	111.56
389.163	110.56
389.387	120.56
389.612	86.56
389.837	78.56
390.062	96.56
390.287	96.56
390.512	88.56
390.736	91.56
390.961	101.56
391.186	85.56
391.411	100.56
391.636	96.56
391.86	95.56
392.085	110.56
392.31	106.56
392.534	103.56
392.759	92.56
392.984	89.56
393.208	90.56
393.433	109.56
393.658	95.56
393.882	88.56
394.107	88.56
394.331	87.56
394.556	77.56
394.78	78.56
395.005	91.56
395.229	94.56
395.454	96.56
395.678	90.56
395.903	89.56
396.127	88.56
396.352	96.56
396.576	91.56
396.801	95.56
397.025	109.56
397.249	98.56
397.474	84.56
397.698	78.56
397.922	106.56
398.147	90.56
398.371	96.56
398.595	96.56
398.82	97.56
399.044	99.56
399.268	105.56
399.492	75.56
399.717	79.56
399.941	105.56
400.165	96.56
400.389	93.56
400.613	77.56
400.837	95.56
401.062	81.56
401.286	85.56
401.51	69.56
401.734	83.56
401.958	117.56
402.182	121.56
402.406	139.56
402.63	103.56
402.854	103.56
403.078	59.56
403.302	80.56
403.526	91.56
403.75	88.56
403.974	88.56
404.198	96.56
404.422	86.56
404.645	91.56
404.869	96.56
405.093	93.56
405.317	105.56
405.541	102.56
405.765	104.56
405.988	109.56
406.212	142.56
406.436	183.56
406.66	110.56
406.883	88.56
407.107	108.56
407.331	106.56
407.555	97.56
407.778	97.56
408.002	100.56
408.226	81.56
408.449	86.56
408.673	93.56
408.896	82.56
409.12	108.56
409.344	94.56
409.567	107.56
409.791	108.56
410.014	84.56
410.238	99.56
410.461	87.56
410.685	91.56
410.908	119.56
411.132	100.56
411.355	100.56
411.578	93.56
411.802	97.56
412.025	102.56
412.249	92.56
412.472	90.56
412.695	77.56
412.919	79.56
413.142	87.56
413.365	102.56
413.589	90.56
413.812	89.56
414.035	97.56
414.258	87.56
414.482	104.56
414.705	97.56
414.928	104.56
415.151	104.56
415.374	98.56
415.597	90.56
415.821	104.56
416.044	95.56
416.267	100.56
416.49	90.56
416.713	84.56
416.936	100.56
417.159	95.56
417.382	95.56
417.605	89.56
417.828	106.56
418.051	103.56
418.274	106.56
418.497	101.56
418.72	93.56
418.943	101.56
419.166	89.56
419.389	104.56
419.611	98.56
419.834	89.56
420.057	95.56
420.28	95.56
420.503	87.56
420.726	76.56
420.948	80.56
421.171	107.56
421.394	95.56
421.617	97.56
421.839	110.56
422.062	90.56
422.285	103.56
422.507	100.56
422.73	93.56
422.953	104.56
423.175	98.56
423.398	101.56
423.621	86.56
423.843	87.56
424.066	86.56
424.288	80.56
424.511	79.56
424.733	92.56
424.956	112.56
425.178	113.56
425.401	92.56
425.623	106.56
425.846	103.56
426.068	90.56
426.291	92.56
426.513	92.56
426.735	95.56
426.958	97.56
427.18	106.56
427.402	102.56
427.625	137.56
427.847	108.56
428.069	90.56
428.292	105.56
428.514	92.56
428.736	84.56
428.958	85.56
429.181	90.56
429.403	92.56
429.625	110.56
429.847	92.56
430.069	103.56
430.292	90.56
430.514	81.56
430.736	90.56
430.958	102.56
431.18	91.56
431.402	102.56
431.624	90.56
431.846	95.56
432.068	84.56
432.29	95.56
432.512	98.56
432.734	88.56
432.956	97.56
433.178	101.56
433.4	105.56
433.622	86.56
433.844	92.56
434.066	100.56
434.287	92.56
434.509	93.56
434.731	83.56
434.953	89.56
435.175	88.56
435.397	100.56
435.618	93.56
435.84	96.56
436.062	94.56
436.284	101.56
436.505	101.56
436.727	96.56
436.949	106.56
437.17	94.56
437.392	88.56
437.614	90.56
437.835	105.56
438.057	117.56
438.278	103.56
438.5	103.56
438.721	118.56
438.943	106.56
439.165	103.56
439.386	94.56
439.608	96.56
439.829	100.56
440.05	118.56
440.272	130.56
440.493	94.56
440.715	90.56
440.936	84.56
441.158	86.56
441.379	90.56
441.6	101.56
441.822	86.56
442.043	105.56
442.264	106.56
442.486	100.56
442.707	94.56
442.928	104.56
443.149	116.56
443.371	104.56
443.592	105.56
443.813	108.56
444.034	96.56
444.255	88.56
444.476	79.56
444.698	97.56
444.919	86.56
445.14	141.56
445.361	116.56
445.582	102.56
445.803	127.56
446.024	120.56
446.245	128.56
446.466	93.56
446.687	95.56
446.908	110.56
447.129	93.56
447.35	93.56
447.571	101.56
447.792	94.56
448.013	98.56
448.234	104.56
448.455	86.56
448.675	120.56
448.896	105.56
449.117	120.56
449.338	98.56
449.559	124.56
449.779	125.56
450	113.56
450.221	86.56
450.442	99.56
450.662	94.56
450.883	112.56
451.104	100.56
451.324	109.56
451.545	91.56
451.766	87.56
451.986	92.56
452.207	90.56
452.428	101.56
452.648	91.56
452.869	106.56
453.089	112.56
453.31	89.56
453.53	73.56
453.751	96.56
453.971	96.56
454.192	100.56
454.412	93.56
454.633	97.56
454.853	89.56
455.073	97.56
455.294	87.56
455.514	91.56
455.734	95.56
455.955	86.56
456.175	100.56
456.395	89.56
456.616	97.56
456.836	81.56
457.056	87.56
457.276	87.56
457.497	87.56
457.717	87.56
457.937	98.56
458.157	101.56
458.377	98.56
458.598	105.56
458.818	116.56
459.038	129.56
459.258	112.56
459.478	90.56
459.698	88.56
459.918	92.56
460.138	96.56
460.358	94.56
460.578	91.56
460.798	88.56
461.018	98.56
461.238	93.56
461.458	86.56
461.678	96.56
461.898	92.56
462.118	97.56
462.338	83.56
462.558	86.56
462.777	79.56
462.997	90.56
463.217	94.56
463.437	89.56
463.657	103.56
463.876	65.56
464.096	102.56
464.316	90.56
464.536	93.56
464.755	86.56
464.975	103.56
465.195	141.56
465.414	121.56
465.634	90.56
465.854	91.56
466.073	92.56
466.293	90.56
466.512	97.56
466.732	91.56
466.951	94.56
467.171	81.56
467.391	94.56
467.61	94.56
467.829	93.56
468.049	97.56
468.268	90.56
468.488	95.56
468.707	94.56
468.927	77.56
469.146	89.56
469.365	105.56
469.585	94.56
469.804	100.56
470.023	93.56
470.243	102.56
470.462	85.56
470.681	96.56
470.901	79.56
471.12	89.56
471.339	98.56
471.558	80.56
471.777	84.56
471.997	99.56
472.216	111.56
472.435	119.56
472.654	101.56
472.873	102.56
473.092	90.56
473.311	110.56
473.53	84.56
473.749	84.56
473.968	96.56
474.187	105.56
474.406	84.56
474.625	104.56
474.844	100.56
475.063	91.56
475.282	81.56
475.501	86.56
475.72	93.56
475.939	90.56
476.158	94.56
476.377	94.56
476.596	90.56
476.814	78.56
477.033	102.56
477.252	83.56
477.471	103.56
477.69	93.56
477.908	84.56
478.127	97.56
478.346	104.56
478.564	103.56
478.783	91.56
479.002	92.56
479.22	86.56
479.439	109.56
479.658	92.56
479.876	90.56
480.095	90.56
480.313	100.56
480.532	104.56
480.751	95.56
480.969	111.56
481.188	151.56
481.406	129.56
481.624	101.56
481.843	85.56
482.061	97.56
482.28	97.56
482.498	89.56
482.717	105.56
482.935	96.56
483.153	95.56
483.372	82.56
483.59	102.56
483.808	112.56
484.027	98.56
484.245	94.56
484.463	101.56
484.681	105.56
484.9	94.56
485.118	99.56
485.336	102.56
485.554	101.56
485.772	116.56
485.99	108.56
486.209	110.56
486.427	107.56
486.645	107.56
486.863	101.56
487.081	111.56
487.299	106.56
487.517	92.56
487.735	82.56
487.953	89.56
488.171	98.56
488.389	103.56
488.607	93.56
488.825	97.56
489.043	78.56
489.261	92.56
489.479	87.56
489.696	96.56
489.914	96.56
490.132	97.56
490.35	98.56
490.568	97.56
490.786	93.56
491.003	74.56
491.221	99.56
491.439	93.56
491.657	93.56
491.874	89.56
492.092	93.56
492.31	93.56
492.527	103.56
492.745	101.56
492.963	80.56
493.18	97.56
493.398	96.56
493.615	77.56
493.833	98.56
494.05	97.56
494.268	91.56
494.485	81.56
494.703	89.56
494.92	93.56
495.138	105.56
495.355	94.56
495.573	92.56
495.79	87.56
496.008	102.56
496.225	93.56
496.442	102.56
496.66	92.56
496.877	113.56
497.094	112.56
497.312	120.56
497.529	102.56
497.746	105.56
497.963	99.56
498.181	99.56
498.398	103.56
498.615	113.56
498.832	90.56
499.049	95.56
499.267	98.56
499.484	86.56
499.701	96.56
499.918	97.56
500.135	100.56
500.352	91.56
500.569	89.56
500.786	88.56
501.003	98.56
501.22	97.56
501.437	87.56
501.654	91.56
501.871	102.56
502.088	93.56
502.305	88.56
502.522	70.56
502.739	97.56
502.956	96.56
503.172	98.56
503.389	91.56
503.606	110.56
503.823	85.56
504.04	98.56
504.256	93.56
504.473	111.56
504.69	101.56
504.907	87.56
505.123	101.56
505.34	99.56
505.557	107.56
505.773	100.56
505.99	91.56
506.207	104.56
506.423	88.56
506.64	94.56
506.856	88.56
507.073	111.56
507.289	100.56
507.506	90.56
507.722	112.56
507.939	105.56
508.155	105.56
508.372	101.56
508.588	100.56
508.805	88.56
509.021	107.56
509.238	119.56
509.454	86.56
509.67	93.56
509.887	106.56
510.103	113.56
510.319	166.56
510.536	519.56
510.752	1446.56
510.968	442.56
511.184	122.56
511.401	102.56
511.617	90.56
511.833	95.56
512.049	95.56
512.265	93.56
512.481	92.56
512.698	81.56
512.914	91.56
513.13	103.56
513.346	89.56
513.562	98.56
513.778	105.56
513.994	105.56
