Data from Circ_1982_H10_HRD10591_00006.txt Node
Date: Wed Jan 03 12:30:42 EST 2024
User: Yrep
Spectrometer: HR+D1059
Trigger mode: 1
Integration Time (sec): 1.000000E-1
Scans to average: 1
Electric dark correction enabled: true
Nonlinearity correction enabled: false
Boxcar width: 0
XAxis mode: Wavelengths
Number of Pixels in Spectrum: 2048
>>>>>Begin Spectral Data<<<<<
223.165	-8.06
223.4	-8.06
223.635	-8.06
223.869	-22.06
224.104	-17.06
224.338	-29.06
224.573	-22.06
224.808	-20.06
225.042	-9.06
225.277	-3.06
225.511	5.94
225.746	6.94
225.98	-1.06
226.215	16.94
226.449	17.94
226.683	22.94
226.918	19.94
227.152	40.94
227.387	27.94
227.621	50.94
227.856	39.94
228.09	41.94
228.324	42.94
228.559	55.94
228.793	42.94
229.027	62.94
229.262	78.94
229.496	73.94
229.73	75.94
229.964	85.94
230.199	69.94
230.433	68.94
230.667	66.94
230.901	64.94
231.136	80.94
231.37	90.94
231.604	91.94
231.838	85.94
232.072	81.94
232.306	81.94
232.541	69.94
232.775	82.94
233.009	76.94
233.243	68.94
233.477	82.94
233.711	87.94
233.945	81.94
234.179	91.94
234.413	80.94
234.647	76.94
234.881	80.94
235.115	70.94
235.349	64.94
235.583	80.94
235.817	78.94
236.051	73.94
236.285	76.94
236.519	70.94
236.753	64.94
236.987	72.94
237.221	66.94
237.455	86.94
237.689	80.94
237.922	70.94
238.156	60.94
238.39	82.94
238.624	82.94
238.858	84.94
239.091	87.94
239.325	81.94
239.559	74.94
239.793	73.94
240.027	80.94
240.26	73.94
240.494	80.94
240.728	90.94
240.961	65.94
241.195	78.94
241.429	71.94
241.662	83.94
241.896	91.94
242.13	86.94
242.363	62.94
242.597	78.94
242.83	90.94
243.064	73.94
243.298	76.94
243.531	77.94
243.765	68.94
243.998	67.94
244.232	72.94
244.465	84.94
244.699	71.94
244.932	78.94
245.166	68.94
245.399	80.94
245.633	82.94
245.866	71.94
246.099	59.94
246.333	82.94
246.566	78.94
246.8	70.94
247.033	88.94
247.266	75.94
247.5	75.94
247.733	74.94
247.966	76.94
248.2	86.94
248.433	80.94
248.666	85.94
248.899	84.94
249.133	89.94
249.366	90.94
249.599	88.94
249.832	76.94
250.066	77.94
250.299	75.94
250.532	82.94
250.765	74.94
250.998	71.94
251.231	83.94
251.465	87.94
251.698	76.94
251.931	73.94
252.164	72.94
252.397	67.94
252.63	72.94
252.863	89.94
253.096	82.94
253.329	71.94
253.562	80.94
253.795	69.94
254.028	79.94
254.261	90.94
254.494	77.94
254.727	88.94
254.96	71.94
255.193	80.94
255.426	80.94
255.659	88.94
255.892	84.94
256.124	80.94
256.357	68.94
256.59	73.94
256.823	80.94
257.056	80.94
257.289	73.94
257.521	71.94
257.754	89.94
257.987	72.94
258.22	88.94
258.452	81.94
258.685	63.94
258.918	85.94
259.151	84.94
259.383	78.94
259.616	84.94
259.849	77.94
260.081	91.94
260.314	71.94
260.547	77.94
260.779	87.94
261.012	81.94
261.244	76.94
261.477	90.94
261.71	91.94
261.942	101.94
262.175	87.94
262.407	88.94
262.64	81.94
262.872	80.94
263.105	77.94
263.337	74.94
263.57	73.94
263.802	82.94
264.035	60.94
264.267	72.94
264.499	92.94
264.732	95.94
264.964	77.94
265.197	78.94
265.429	85.94
265.661	84.94
265.894	100.94
266.126	82.94
266.358	90.94
266.591	83.94
266.823	89.94
267.055	79.94
267.287	84.94
267.52	96.94
267.752	78.94
267.984	86.94
268.216	85.94
268.448	91.94
268.681	93.94
268.913	100.94
269.145	65.94
269.377	84.94
269.609	85.94
269.841	77.94
270.073	85.94
270.306	79.94
270.538	67.94
270.77	79.94
271.002	84.94
271.234	68.94
271.466	81.94
271.698	90.94
271.93	92.94
272.162	98.94
272.394	82.94
272.626	89.94
272.858	76.94
273.09	85.94
273.322	82.94
273.553	76.94
273.785	74.94
274.017	83.94
274.249	88.94
274.481	83.94
274.713	77.94
274.945	77.94
275.176	81.94
275.408	81.94
275.64	75.94
275.872	84.94
276.104	90.94
276.335	89.94
276.567	90.94
276.799	87.94
277.031	77.94
277.262	86.94
277.494	94.94
277.726	73.94
277.957	93.94
278.189	71.94
278.421	90.94
278.652	81.94
278.884	89.94
279.115	99.94
279.347	77.94
279.579	92.94
279.81	80.94
280.042	89.94
280.273	74.94
280.505	84.94
280.736	86.94
280.968	92.94
281.199	75.94
281.431	90.94
281.662	80.94
281.894	76.94
282.125	89.94
282.356	96.94
282.588	124.94
282.819	110.94
283.051	98.94
283.282	78.94
283.513	96.94
283.745	80.94
283.976	93.94
284.207	83.94
284.439	68.94
284.67	84.94
284.901	93.94
285.132	91.94
285.364	101.94
285.595	76.94
285.826	79.94
286.057	75.94
286.288	87.94
286.52	91.94
286.751	89.94
286.982	86.94
287.213	92.94
287.444	77.94
287.675	80.94
287.906	101.94
288.138	93.94
288.369	98.94
288.6	93.94
288.831	84.94
289.062	85.94
289.293	98.94
289.524	94.94
289.755	81.94
289.986	86.94
290.217	84.94
290.448	87.94
290.679	89.94
290.91	96.94
291.141	99.94
291.371	83.94
291.602	87.94
291.833	92.94
292.064	89.94
292.295	93.94
292.526	92.94
292.757	99.94
292.987	81.94
293.218	82.94
293.449	83.94
293.68	80.94
293.91	84.94
294.141	80.94
294.372	85.94
294.603	91.94
294.833	87.94
295.064	93.94
295.295	95.94
295.525	81.94
295.756	90.94
295.987	104.94
296.217	117.94
296.448	105.94
296.679	99.94
296.909	99.94
297.14	81.94
297.37	93.94
297.601	85.94
297.831	96.94
298.062	85.94
298.292	82.94
298.523	85.94
298.753	78.94
298.984	88.94
299.214	82.94
299.445	98.94
299.675	108.94
299.905	97.94
300.136	88.94
300.366	92.94
300.597	83.94
300.827	88.94
301.057	92.94
301.288	88.94
301.518	85.94
301.748	92.94
301.979	94.94
302.209	93.94
302.439	97.94
302.669	96.94
302.9	90.94
303.13	88.94
303.36	86.94
303.59	93.94
303.82	103.94
304.051	106.94
304.281	93.94
304.511	82.94
304.741	86.94
304.971	71.94
305.201	90.94
305.431	97.94
305.661	99.94
305.891	88.94
306.121	96.94
306.352	98.94
306.582	101.94
306.812	71.94
307.042	80.94
307.272	96.94
307.502	90.94
307.731	92.94
307.961	82.94
308.191	90.94
308.421	84.94
308.651	91.94
308.881	100.94
309.111	104.94
309.341	100.94
309.571	96.94
309.8	85.94
310.03	99.94
310.26	95.94
310.49	94.94
310.72	97.94
310.949	96.94
311.179	84.94
311.409	90.94
311.639	97.94
311.868	93.94
312.098	98.94
312.328	86.94
312.557	92.94
312.787	108.94
313.017	99.94
313.246	92.94
313.476	92.94
313.706	92.94
313.935	96.94
314.165	93.94
314.394	97.94
314.624	100.94
314.853	87.94
315.083	88.94
315.312	90.94
315.542	87.94
315.771	93.94
316.001	92.94
316.23	93.94
316.46	91.94
316.689	80.94
316.919	91.94
317.148	89.94
317.377	100.94
317.607	90.94
317.836	99.94
318.065	79.94
318.295	92.94
318.524	85.94
318.753	91.94
318.983	86.94
319.212	84.94
319.441	102.94
319.67	97.94
319.9	94.94
320.129	93.94
320.358	84.94
320.587	97.94
320.816	94.94
321.046	94.94
321.275	98.94
321.504	90.94
321.733	90.94
321.962	88.94
322.191	102.94
322.42	110.94
322.649	81.94
322.878	98.94
323.108	107.94
323.337	124.94
323.566	117.94
323.795	128.94
324.024	159.94
324.253	285.94
324.482	560.94
324.71	1147.94
324.939	1458.94
325.168	541.94
325.397	187.94
325.626	128.94
325.855	117.94
326.084	110.94
326.313	125.94
326.542	124.94
326.77	168.94
326.999	327.94
327.228	658.94
327.457	1176.94
327.686	934.94
327.914	273.94
328.143	154.94
328.372	132.94
328.6	106.94
328.829	107.94
329.058	117.94
329.287	116.94
329.515	110.94
329.744	100.94
329.972	98.94
330.201	94.94
330.43	102.94
330.658	113.94
330.887	113.94
331.115	85.94
331.344	88.94
331.572	102.94
331.801	87.94
332.03	86.94
332.258	84.94
332.486	99.94
332.715	96.94
332.943	90.94
333.172	103.94
333.4	95.94
333.629	105.94
333.857	99.94
334.085	93.94
334.314	107.94
334.542	109.94
334.771	115.94
334.999	104.94
335.227	85.94
335.455	94.94
335.684	104.94
335.912	90.94
336.14	101.94
336.369	94.94
336.597	100.94
336.825	97.94
337.053	100.94
337.281	90.94
337.51	94.94
337.738	98.94
337.966	76.94
338.194	88.94
338.422	93.94
338.65	87.94
338.878	76.94
339.106	96.94
339.334	88.94
339.562	96.94
339.79	94.94
340.018	88.94
340.246	88.94
340.474	88.94
340.702	105.94
340.93	85.94
341.158	87.94
341.386	105.94
341.614	86.94
341.842	91.94
342.07	84.94
342.298	96.94
342.526	77.94
342.754	88.94
342.981	80.94
343.209	83.94
343.437	86.94
343.665	89.94
343.893	98.94
344.12	104.94
344.348	89.94
344.576	82.94
344.804	87.94
345.031	93.94
345.259	97.94
345.487	92.94
345.714	85.94
345.942	80.94
346.17	92.94
346.397	86.94
346.625	91.94
346.853	92.94
347.08	109.94
347.308	104.94
347.535	100.94
347.763	98.94
347.99	105.94
348.218	103.94
348.445	103.94
348.673	107.94
348.9	100.94
349.128	100.94
349.355	94.94
349.583	94.94
349.81	88.94
350.037	99.94
350.265	110.94
350.492	94.94
350.72	100.94
350.947	100.94
351.174	95.94
351.402	110.94
351.629	100.94
351.856	99.94
352.083	96.94
352.311	101.94
352.538	103.94
352.765	89.94
352.992	107.94
353.22	106.94
353.447	94.94
353.674	112.94
353.901	92.94
354.128	100.94
354.355	105.94
354.583	115.94
354.81	89.94
355.037	86.94
355.264	86.94
355.491	96.94
355.718	93.94
355.945	99.94
356.172	98.94
356.399	99.94
356.626	108.94
356.853	95.94
357.08	88.94
357.307	92.94
357.534	93.94
357.761	97.94
357.988	91.94
358.215	104.94
358.441	84.94
358.668	94.94
358.895	103.94
359.122	96.94
359.349	104.94
359.576	96.94
359.802	121.94
360.029	111.94
360.256	90.94
360.483	87.94
360.709	92.94
360.936	81.94
361.163	99.94
361.39	107.94
361.616	86.94
361.843	107.94
362.07	102.94
362.296	97.94
362.523	88.94
362.749	98.94
362.976	97.94
363.203	92.94
363.429	105.94
363.656	92.94
363.882	93.94
364.109	96.94
364.335	73.94
364.562	86.94
364.788	106.94
365.015	86.94
365.241	99.94
365.468	108.94
365.694	103.94
365.92	116.94
366.147	78.94
366.373	77.94
366.599	71.94
366.826	86.94
367.052	80.94
367.278	85.94
367.505	95.94
367.731	93.94
367.957	77.94
368.184	82.94
368.41	80.94
368.636	109.94
368.862	100.94
369.089	92.94
369.315	96.94
369.541	96.94
369.767	100.94
369.993	85.94
370.219	91.94
370.445	87.94
370.672	84.94
370.898	73.94
371.124	83.94
371.35	86.94
371.576	76.94
371.802	75.94
372.028	97.94
372.254	92.94
372.48	84.94
372.706	98.94
372.932	86.94
373.158	95.94
373.384	83.94
373.61	107.94
373.835	91.94
374.061	78.94
374.287	88.94
374.513	83.94
374.739	91.94
374.965	73.94
375.191	93.94
375.416	92.94
375.642	86.94
375.868	82.94
376.094	89.94
376.319	87.94
376.545	86.94
376.771	88.94
376.997	98.94
377.222	84.94
377.448	81.94
377.674	92.94
377.899	81.94
378.125	88.94
378.35	93.94
378.576	89.94
378.802	93.94
379.027	87.94
379.253	93.94
379.478	92.94
379.704	107.94
379.929	82.94
380.155	87.94
380.38	102.94
380.606	105.94
380.831	98.94
381.057	105.94
381.282	107.94
381.507	99.94
381.733	108.94
381.958	92.94
382.184	101.94
382.409	97.94
382.634	98.94
382.86	103.94
383.085	112.94
383.31	105.94
383.535	98.94
383.761	109.94
383.986	108.94
384.211	94.94
384.436	104.94
384.662	114.94
384.887	105.94
385.112	111.94
385.337	112.94
385.562	105.94
385.787	120.94
386.013	110.94
386.238	118.94
386.463	107.94
386.688	96.94
386.913	104.94
387.138	121.94
387.363	106.94
387.588	107.94
387.813	122.94
388.038	114.94
388.263	115.94
388.488	113.94
388.713	108.94
388.938	99.94
389.163	88.94
389.387	94.94
389.612	89.94
389.837	96.94
390.062	83.94
390.287	91.94
390.512	84.94
390.736	96.94
390.961	87.94
391.186	93.94
391.411	86.94
391.636	81.94
391.86	82.94
392.085	97.94
392.31	76.94
392.534	82.94
392.759	92.94
392.984	93.94
393.208	98.94
393.433	102.94
393.658	92.94
393.882	76.94
394.107	86.94
394.331	110.94
394.556	99.94
394.78	102.94
395.005	93.94
395.229	87.94
395.454	80.94
395.678	88.94
395.903	97.94
396.127	96.94
396.352	82.94
396.576	88.94
396.801	96.94
397.025	91.94
397.249	91.94
397.474	97.94
397.698	96.94
397.922	77.94
398.147	96.94
398.371	85.94
398.595	87.94
398.82	93.94
399.044	82.94
399.268	75.94
399.492	88.94
399.717	89.94
399.941	84.94
400.165	94.94
400.389	100.94
400.613	93.94
400.837	86.94
401.062	81.94
401.286	84.94
401.51	81.94
401.734	73.94
401.958	92.94
402.182	100.94
402.406	124.94
402.63	108.94
402.854	91.94
403.078	76.94
403.302	96.94
403.526	99.94
403.75	90.94
403.974	77.94
404.198	92.94
404.422	92.94
404.645	87.94
404.869	79.94
405.093	86.94
405.317	96.94
405.541	102.94
405.765	93.94
405.988	113.94
406.212	137.94
406.436	164.94
406.66	129.94
406.883	107.94
407.107	90.94
407.331	99.94
407.555	101.94
407.778	81.94
408.002	102.94
408.226	90.94
408.449	84.94
408.673	82.94
408.896	92.94
409.12	101.94
409.344	91.94
409.567	84.94
409.791	98.94
410.014	97.94
410.238	96.94
410.461	87.94
410.685	100.94
410.908	103.94
411.132	106.94
411.355	92.94
411.578	97.94
411.802	93.94
412.025	99.94
412.249	81.94
412.472	94.94
412.695	82.94
412.919	81.94
413.142	93.94
413.365	95.94
413.589	84.94
413.812	92.94
414.035	83.94
414.258	94.94
414.482	88.94
414.705	69.94
414.928	90.94
415.151	86.94
415.374	97.94
415.597	85.94
415.821	103.94
416.044	97.94
416.267	84.94
416.49	82.94
416.713	99.94
416.936	93.94
417.159	84.94
417.382	94.94
417.605	79.94
417.828	94.94
418.051	71.94
418.274	96.94
418.497	82.94
418.72	83.94
418.943	75.94
419.166	69.94
419.389	104.94
419.611	96.94
419.834	100.94
420.057	91.94
420.28	89.94
420.503	92.94
420.726	75.94
420.948	80.94
421.171	96.94
421.394	92.94
421.617	86.94
421.839	100.94
422.062	86.94
422.285	81.94
422.507	90.94
422.73	102.94
422.953	86.94
423.175	88.94
423.398	92.94
423.621	81.94
423.843	92.94
424.066	96.94
424.288	89.94
424.511	98.94
424.733	90.94
424.956	101.94
425.178	91.94
425.401	94.94
425.623	98.94
425.846	94.94
426.068	80.94
426.291	104.94
426.513	89.94
426.735	91.94
426.958	101.94
427.18	100.94
427.402	114.94
427.625	129.94
427.847	124.94
428.069	100.94
428.292	91.94
428.514	72.94
428.736	88.94
428.958	67.94
429.181	80.94
429.403	86.94
429.625	93.94
429.847	85.94
430.069	89.94
430.292	89.94
430.514	85.94
430.736	93.94
430.958	88.94
431.18	89.94
431.402	85.94
431.624	91.94
431.846	93.94
432.068	99.94
432.29	89.94
432.512	97.94
432.734	97.94
432.956	89.94
433.178	114.94
433.4	82.94
433.622	100.94
433.844	104.94
434.066	82.94
434.287	88.94
434.509	100.94
434.731	93.94
434.953	95.94
435.175	92.94
435.397	95.94
435.618	90.94
435.84	100.94
436.062	109.94
436.284	105.94
436.505	106.94
436.727	108.94
436.949	87.94
437.17	73.94
437.392	94.94
437.614	100.94
437.835	93.94
438.057	108.94
438.278	100.94
438.5	90.94
438.721	112.94
438.943	99.94
439.165	72.94
439.386	78.94
439.608	95.94
439.829	86.94
440.05	96.94
440.272	125.94
440.493	87.94
440.715	90.94
440.936	91.94
441.158	75.94
441.379	86.94
441.6	84.94
441.822	78.94
442.043	88.94
442.264	96.94
442.486	90.94
442.707	89.94
442.928	101.94
443.149	105.94
443.371	115.94
443.592	107.94
443.813	111.94
444.034	97.94
444.255	88.94
444.476	79.94
444.698	107.94
444.919	82.94
445.14	137.94
445.361	114.94
445.582	105.94
445.803	109.94
446.024	89.94
446.245	111.94
446.466	84.94
446.687	69.94
446.908	88.94
447.129	88.94
447.35	67.94
447.571	80.94
447.792	98.94
448.013	101.94
448.234	107.94
448.455	100.94
448.675	102.94
448.896	102.94
449.117	105.94
449.338	98.94
449.559	111.94
449.779	107.94
450	75.94
450.221	85.94
450.442	84.94
450.662	102.94
450.883	93.94
451.104	101.94
451.324	86.94
451.545	96.94
451.766	87.94
451.986	97.94
452.207	101.94
452.428	97.94
452.648	103.94
452.869	101.94
453.089	81.94
453.31	113.94
453.53	87.94
453.751	80.94
453.971	90.94
454.192	96.94
454.412	77.94
454.633	100.94
454.853	93.94
455.073	92.94
455.294	83.94
455.514	100.94
455.734	105.94
455.955	88.94
456.175	87.94
456.395	82.94
456.616	75.94
456.836	80.94
457.056	85.94
457.276	92.94
457.497	70.94
457.717	88.94
457.937	89.94
458.157	82.94
458.377	86.94
458.598	98.94
458.818	126.94
459.038	132.94
459.258	106.94
459.478	75.94
459.698	72.94
459.918	90.94
460.138	76.94
460.358	62.94
460.578	91.94
460.798	76.94
461.018	81.94
461.238	80.94
461.458	84.94
461.678	92.94
461.898	86.94
462.118	93.94
462.338	86.94
462.558	91.94
462.777	97.94
462.997	93.94
463.217	80.94
463.437	94.94
463.657	83.94
463.876	78.94
464.096	75.94
464.316	85.94
464.536	104.94
464.755	93.94
464.975	92.94
465.195	130.94
465.414	129.94
465.634	85.94
465.854	100.94
466.073	77.94
466.293	77.94
466.512	83.94
466.732	81.94
466.951	86.94
467.171	81.94
467.391	85.94
467.61	102.94
467.829	97.94
468.049	102.94
468.268	99.94
468.488	89.94
468.707	76.94
468.927	72.94
469.146	79.94
469.365	90.94
469.585	86.94
469.804	89.94
470.023	74.94
470.243	72.94
470.462	89.94
470.681	92.94
470.901	83.94
471.12	89.94
471.339	74.94
471.558	86.94
471.777	96.94
471.997	103.94
472.216	105.94
472.435	120.94
472.654	91.94
472.873	93.94
473.092	73.94
473.311	83.94
473.53	90.94
473.749	95.94
473.968	91.94
474.187	100.94
474.406	106.94
474.625	102.94
474.844	93.94
475.063	81.94
475.282	88.94
475.501	85.94
475.72	83.94
475.939	89.94
476.158	88.94
476.377	90.94
476.596	83.94
476.814	84.94
477.033	104.94
477.252	84.94
477.471	88.94
477.69	80.94
477.908	86.94
478.127	83.94
478.346	84.94
478.564	93.94
478.783	97.94
479.002	79.94
479.22	73.94
479.439	96.94
479.658	99.94
479.876	84.94
480.095	78.94
480.313	93.94
480.532	88.94
480.751	80.94
480.969	75.94
481.188	152.94
481.406	118.94
481.624	71.94
481.843	98.94
482.061	94.94
482.28	90.94
482.498	98.94
482.717	70.94
482.935	86.94
483.153	85.94
483.372	88.94
483.59	100.94
483.808	92.94
484.027	90.94
484.245	88.94
484.463	101.94
484.681	95.94
484.9	102.94
485.118	96.94
485.336	95.94
485.554	104.94
485.772	81.94
485.99	91.94
486.209	100.94
486.427	90.94
486.645	89.94
486.863	107.94
487.081	84.94
487.299	89.94
487.517	86.94
487.735	92.94
487.953	88.94
488.171	106.94
488.389	82.94
488.607	104.94
488.825	91.94
489.043	94.94
489.261	87.94
489.479	86.94
489.696	79.94
489.914	105.94
490.132	86.94
490.35	77.94
490.568	93.94
490.786	90.94
491.003	86.94
491.221	85.94
491.439	99.94
491.657	87.94
491.874	86.94
492.092	98.94
492.31	91.94
492.527	89.94
492.745	91.94
492.963	81.94
493.18	86.94
493.398	87.94
493.615	91.94
493.833	91.94
494.05	90.94
494.268	83.94
494.485	94.94
494.703	81.94
494.92	87.94
495.138	77.94
495.355	77.94
495.573	91.94
495.79	96.94
496.008	100.94
496.225	88.94
496.442	89.94
496.66	95.94
496.877	90.94
497.094	97.94
497.312	91.94
497.529	96.94
497.746	92.94
497.963	72.94
498.181	74.94
498.398	81.94
498.615	110.94
498.832	97.94
499.049	96.94
499.267	97.94
499.484	93.94
499.701	97.94
499.918	83.94
500.135	89.94
500.352	106.94
500.569	88.94
500.786	90.94
501.003	102.94
501.22	88.94
501.437	85.94
501.654	88.94
501.871	93.94
502.088	78.94
502.305	89.94
502.522	90.94
502.739	96.94
502.956	89.94
503.172	84.94
503.389	84.94
503.606	90.94
503.823	83.94
504.04	84.94
504.256	94.94
504.473	95.94
504.69	83.94
504.907	102.94
505.123	80.94
505.34	97.94
505.557	94.94
505.773	100.94
505.99	83.94
506.207	81.94
506.423	80.94
506.64	87.94
506.856	102.94
507.073	93.94
507.289	82.94
507.506	84.94
507.722	95.94
507.939	113.94
508.155	97.94
508.372	80.94
508.588	93.94
508.805	95.94
509.021	100.94
509.238	110.94
509.454	97.94
509.67	89.94
509.887	104.94
510.103	105.94
510.319	174.94
510.536	546.94
510.752	1565.94
510.968	447.94
511.184	130.94
511.401	98.94
511.617	65.94
511.833	84.94
512.049	90.94
512.265	82.94
512.481	76.94
512.698	100.94
512.914	94.94
513.13	91.94
513.346	73.94
513.562	94.94
513.778	85.94
513.994	94.94
514.21	92.94
514.426	120.94
514.642	105.94
514.858	107.94
515.074	133.94
515.29	326.94
515.506	907.94
515.721	361.94
515.937	148.94
516.153	107.94
516.369	88.94
