Data from Circ_1982_H10_HRD10591_00098.txt Node
Date: Wed Jan 03 12:31:00 EST 2024
User: Yrep
Spectrometer: HR+D1059
Trigger mode: 1
Integration Time (sec): 1.000000E-1
Scans to average: 1
Electric dark correction enabled: true
Nonlinearity correction enabled: false
Boxcar width: 0
XAxis mode: Wavelengths
Number of Pixels in Spectrum: 2048
>>>>>Begin Spectral Data<<<<<
223.165	-12.81
223.4	-12.81
223.635	-12.81
223.869	-3.81
224.104	-22.81
224.338	-24.81
224.573	-17.81
224.808	-12.81
225.042	-5.81
225.277	-2.81
225.511	-3.81
225.746	1.19
225.98	4.19
226.215	12.19
226.449	23.19
226.683	24.19
226.918	17.19
227.152	25.19
227.387	39.19
227.621	22.19
227.856	47.19
228.09	38.19
228.324	53.19
228.559	61.19
228.793	58.19
229.027	85.19
229.262	71.19
229.496	69.19
229.73	75.19
229.964	75.19
230.199	82.19
230.433	76.19
230.667	66.19
230.901	65.19
231.136	76.19
231.37	68.19
231.604	80.19
231.838	85.19
232.072	73.19
232.306	66.19
232.541	78.19
232.775	70.19
233.009	63.19
233.243	76.19
233.477	71.19
233.711	79.19
233.945	76.19
234.179	84.19
234.413	79.19
234.647	82.19
234.881	85.19
235.115	79.19
235.349	79.19
235.583	63.19
235.817	76.19
236.051	67.19
236.285	79.19
236.519	67.19
236.753	59.19
236.987	84.19
237.221	91.19
237.455	79.19
237.689	80.19
237.922	87.19
238.156	79.19
238.39	60.19
238.624	75.19
238.858	65.19
239.091	71.19
239.325	71.19
239.559	70.19
239.793	87.19
240.027	85.19
240.26	72.19
240.494	81.19
240.728	79.19
240.961	61.19
241.195	79.19
241.429	81.19
241.662	81.19
241.896	59.19
242.13	67.19
242.363	54.19
242.597	61.19
242.83	73.19
243.064	69.19
243.298	60.19
243.531	72.19
243.765	67.19
243.998	87.19
244.232	66.19
244.465	73.19
244.699	62.19
244.932	78.19
245.166	76.19
245.399	75.19
245.633	92.19
245.866	63.19
246.099	79.19
246.333	75.19
246.566	83.19
246.8	83.19
247.033	72.19
247.266	77.19
247.5	82.19
247.733	59.19
247.966	79.19
248.2	77.19
248.433	80.19
248.666	84.19
248.899	61.19
249.133	76.19
249.366	85.19
249.599	89.19
249.832	80.19
250.066	80.19
250.299	66.19
250.532	71.19
250.765	63.19
250.998	86.19
251.231	81.19
251.465	70.19
251.698	71.19
251.931	82.19
252.164	79.19
252.397	76.19
252.63	81.19
252.863	67.19
253.096	65.19
253.329	69.19
253.562	68.19
253.795	85.19
254.028	79.19
254.261	84.19
254.494	77.19
254.727	90.19
254.96	61.19
255.193	83.19
255.426	71.19
255.659	88.19
255.892	83.19
256.124	83.19
256.357	71.19
256.59	77.19
256.823	79.19
257.056	77.19
257.289	78.19
257.521	85.19
257.754	84.19
257.987	79.19
258.22	76.19
258.452	82.19
258.685	76.19
258.918	74.19
259.151	88.19
259.383	82.19
259.616	74.19
259.849	72.19
260.081	86.19
260.314	87.19
260.547	78.19
260.779	69.19
261.012	91.19
261.244	69.19
261.477	77.19
261.71	77.19
261.942	107.19
262.175	110.19
262.407	97.19
262.64	94.19
262.872	84.19
263.105	62.19
263.337	76.19
263.57	86.19
263.802	67.19
264.035	56.19
264.267	78.19
264.499	75.19
264.732	87.19
264.964	88.19
265.197	71.19
265.429	70.19
265.661	75.19
265.894	61.19
266.126	82.19
266.358	73.19
266.591	80.19
266.823	81.19
267.055	70.19
267.287	75.19
267.52	76.19
267.752	80.19
267.984	90.19
268.216	80.19
268.448	87.19
268.681	86.19
268.913	91.19
269.145	79.19
269.377	75.19
269.609	77.19
269.841	71.19
270.073	91.19
270.306	81.19
270.538	83.19
270.77	73.19
271.002	73.19
271.234	81.19
271.466	62.19
271.698	78.19
271.93	84.19
272.162	82.19
272.394	81.19
272.626	76.19
272.858	72.19
273.09	84.19
273.322	68.19
273.553	81.19
273.785	73.19
274.017	78.19
274.249	86.19
274.481	82.19
274.713	94.19
274.945	73.19
275.176	85.19
275.408	91.19
275.64	82.19
275.872	76.19
276.104	93.19
276.335	99.19
276.567	93.19
276.799	96.19
277.031	74.19
277.262	87.19
277.494	79.19
277.726	73.19
277.957	84.19
278.189	81.19
278.421	80.19
278.652	76.19
278.884	81.19
279.115	83.19
279.347	85.19
279.579	79.19
279.81	86.19
280.042	80.19
280.273	77.19
280.505	90.19
280.736	80.19
280.968	90.19
281.199	65.19
281.431	80.19
281.662	79.19
281.894	88.19
282.125	79.19
282.356	104.19
282.588	114.19
282.819	99.19
283.051	100.19
283.282	86.19
283.513	84.19
283.745	68.19
283.976	72.19
284.207	76.19
284.439	79.19
284.67	82.19
284.901	88.19
285.132	79.19
285.364	85.19
285.595	78.19
285.826	80.19
286.057	85.19
286.288	88.19
286.52	80.19
286.751	66.19
286.982	80.19
287.213	77.19
287.444	83.19
287.675	87.19
287.906	89.19
288.138	80.19
288.369	77.19
288.6	80.19
288.831	79.19
289.062	76.19
289.293	82.19
289.524	72.19
289.755	69.19
289.986	85.19
290.217	83.19
290.448	69.19
290.679	79.19
290.91	93.19
291.141	64.19
291.371	83.19
291.602	82.19
291.833	96.19
292.064	77.19
292.295	81.19
292.526	76.19
292.757	83.19
292.987	85.19
293.218	92.19
293.449	97.19
293.68	76.19
293.91	70.19
294.141	87.19
294.372	92.19
294.603	81.19
294.833	69.19
295.064	80.19
295.295	78.19
295.525	94.19
295.756	84.19
295.987	111.19
296.217	139.19
296.448	108.19
296.679	74.19
296.909	69.19
297.14	78.19
297.37	74.19
297.601	81.19
297.831	78.19
298.062	75.19
298.292	89.19
298.523	71.19
298.753	93.19
298.984	96.19
299.214	90.19
299.445	85.19
299.675	88.19
299.905	87.19
300.136	98.19
300.366	81.19
300.597	85.19
300.827	80.19
301.057	93.19
301.288	94.19
301.518	90.19
301.748	88.19
301.979	94.19
302.209	78.19
302.439	76.19
302.669	83.19
302.9	91.19
303.13	89.19
303.36	85.19
303.59	70.19
303.82	84.19
304.051	83.19
304.281	69.19
304.511	79.19
304.741	83.19
304.971	89.19
305.201	83.19
305.431	79.19
305.661	83.19
305.891	88.19
306.121	91.19
306.352	102.19
306.582	114.19
306.812	73.19
307.042	94.19
307.272	98.19
307.502	87.19
307.731	92.19
307.961	85.19
308.191	85.19
308.421	73.19
308.651	88.19
308.881	84.19
309.111	91.19
309.341	91.19
309.571	84.19
309.8	87.19
310.03	81.19
310.26	87.19
310.49	88.19
310.72	88.19
310.949	98.19
311.179	104.19
311.409	97.19
311.639	87.19
311.868	89.19
312.098	84.19
312.328	87.19
312.557	91.19
312.787	95.19
313.017	110.19
313.246	95.19
313.476	77.19
313.706	88.19
313.935	93.19
314.165	76.19
314.394	98.19
314.624	98.19
314.853	90.19
315.083	86.19
315.312	87.19
315.542	99.19
315.771	91.19
316.001	78.19
316.23	71.19
316.46	85.19
316.689	77.19
316.919	73.19
317.148	87.19
317.377	88.19
317.607	96.19
317.836	88.19
318.065	95.19
318.295	91.19
318.524	80.19
318.753	84.19
318.983	82.19
319.212	87.19
319.441	85.19
319.67	102.19
319.9	84.19
320.129	90.19
320.358	64.19
320.587	93.19
320.816	80.19
321.046	94.19
321.275	93.19
321.504	88.19
321.733	92.19
321.962	104.19
322.191	87.19
322.42	83.19
322.649	98.19
322.878	91.19
323.108	101.19
323.337	98.19
323.566	105.19
323.795	129.19
324.024	162.19
324.253	275.19
324.482	566.19
324.71	1133.19
324.939	1461.19
325.168	582.19
325.397	189.19
325.626	131.19
325.855	105.19
326.084	118.19
326.313	108.19
326.542	123.19
326.77	187.19
326.999	337.19
327.228	632.19
327.457	1156.19
327.686	936.19
327.914	281.19
328.143	165.19
328.372	134.19
328.6	105.19
328.829	93.19
329.058	105.19
329.287	109.19
329.515	117.19
329.744	99.19
329.972	100.19
330.201	104.19
330.43	120.19
330.658	110.19
330.887	125.19
331.115	121.19
331.344	96.19
331.572	79.19
331.801	77.19
332.03	92.19
332.258	94.19
332.486	87.19
332.715	84.19
332.943	100.19
333.172	94.19
333.4	95.19
333.629	119.19
333.857	104.19
334.085	107.19
334.314	96.19
334.542	137.19
334.771	105.19
334.999	96.19
335.227	102.19
335.455	83.19
335.684	85.19
335.912	80.19
336.14	101.19
336.369	83.19
336.597	79.19
336.825	101.19
337.053	79.19
337.281	84.19
337.51	84.19
337.738	89.19
337.966	81.19
338.194	82.19
338.422	89.19
338.65	71.19
338.878	89.19
339.106	84.19
339.334	99.19
339.562	83.19
339.79	70.19
340.018	75.19
340.246	81.19
340.474	98.19
340.702	83.19
340.93	92.19
341.158	89.19
341.386	94.19
341.614	95.19
341.842	84.19
342.07	96.19
342.298	91.19
342.526	78.19
342.754	75.19
342.981	76.19
343.209	70.19
343.437	91.19
343.665	86.19
343.893	81.19
344.12	94.19
344.348	84.19
344.576	88.19
344.804	81.19
345.031	78.19
345.259	89.19
345.487	84.19
345.714	90.19
345.942	91.19
346.17	85.19
346.397	84.19
346.625	92.19
346.853	71.19
347.08	95.19
347.308	97.19
347.535	88.19
347.763	101.19
347.99	79.19
348.218	93.19
348.445	93.19
348.673	77.19
348.9	86.19
349.128	95.19
349.355	83.19
349.583	86.19
349.81	80.19
350.037	89.19
350.265	83.19
350.492	84.19
350.72	94.19
350.947	94.19
351.174	92.19
351.402	87.19
351.629	99.19
351.856	96.19
352.083	102.19
352.311	91.19
352.538	85.19
352.765	99.19
352.992	104.19
353.22	100.19
353.447	80.19
353.674	96.19
353.901	93.19
354.128	87.19
354.355	84.19
354.583	93.19
354.81	89.19
355.037	87.19
355.264	93.19
355.491	79.19
355.718	80.19
355.945	84.19
356.172	86.19
356.399	93.19
356.626	88.19
356.853	87.19
357.08	73.19
357.307	81.19
357.534	87.19
357.761	81.19
357.988	104.19
358.215	96.19
358.441	70.19
358.668	93.19
358.895	72.19
359.122	79.19
359.349	85.19
359.576	84.19
359.802	86.19
360.029	95.19
360.256	86.19
360.483	78.19
360.709	81.19
360.936	90.19
361.163	77.19
361.39	92.19
361.616	83.19
361.843	76.19
362.07	91.19
362.296	88.19
362.523	87.19
362.749	81.19
362.976	82.19
363.203	87.19
363.429	89.19
363.656	91.19
363.882	91.19
364.109	82.19
364.335	88.19
364.562	61.19
364.788	79.19
365.015	87.19
365.241	87.19
365.468	101.19
365.694	83.19
365.92	80.19
366.147	91.19
366.373	81.19
366.599	85.19
366.826	79.19
367.052	73.19
367.278	96.19
367.505	87.19
367.731	106.19
367.957	81.19
368.184	70.19
368.41	104.19
368.636	101.19
368.862	105.19
369.089	96.19
369.315	84.19
369.541	89.19
369.767	87.19
369.993	72.19
370.219	81.19
370.445	87.19
370.672	85.19
370.898	91.19
371.124	92.19
371.35	78.19
371.576	79.19
371.802	91.19
372.028	92.19
372.254	73.19
372.48	76.19
372.706	75.19
372.932	84.19
373.158	81.19
373.384	69.19
373.61	87.19
373.835	89.19
374.061	79.19
374.287	76.19
374.513	64.19
374.739	88.19
374.965	88.19
375.191	90.19
375.416	71.19
375.642	77.19
375.868	73.19
376.094	87.19
376.319	81.19
376.545	83.19
376.771	95.19
376.997	83.19
377.222	93.19
377.448	80.19
377.674	85.19
377.899	92.19
378.125	81.19
378.35	86.19
378.576	86.19
378.802	69.19
379.027	79.19
379.253	77.19
379.478	70.19
379.704	82.19
379.929	85.19
380.155	75.19
380.38	73.19
380.606	79.19
380.831	91.19
381.057	80.19
381.282	94.19
381.507	93.19
381.733	102.19
381.958	91.19
382.184	93.19
382.409	84.19
382.634	95.19
382.86	88.19
383.085	82.19
383.31	102.19
383.535	91.19
383.761	92.19
383.986	86.19
384.211	83.19
384.436	95.19
384.662	94.19
384.887	89.19
385.112	94.19
385.337	88.19
385.562	97.19
385.787	88.19
386.013	97.19
386.238	103.19
386.463	93.19
386.688	113.19
386.913	92.19
387.138	84.19
387.363	86.19
387.588	98.19
387.813	90.19
388.038	95.19
388.263	104.19
388.488	92.19
388.713	96.19
388.938	82.19
389.163	72.19
389.387	91.19
389.612	81.19
389.837	91.19
390.062	77.19
390.287	79.19
390.512	84.19
390.736	92.19
390.961	77.19
391.186	94.19
391.411	84.19
391.636	86.19
391.86	77.19
392.085	89.19
392.31	83.19
392.534	75.19
392.759	77.19
392.984	96.19
393.208	72.19
393.433	79.19
393.658	85.19
393.882	78.19
394.107	68.19
394.331	77.19
394.556	79.19
394.78	79.19
395.005	78.19
395.229	84.19
395.454	90.19
395.678	93.19
395.903	74.19
396.127	63.19
396.352	82.19
396.576	71.19
396.801	76.19
397.025	83.19
397.249	77.19
397.474	78.19
397.698	75.19
397.922	73.19
398.147	87.19
398.371	83.19
398.595	88.19
398.82	89.19
399.044	83.19
399.268	81.19
399.492	72.19
399.717	83.19
399.941	87.19
400.165	70.19
400.389	102.19
400.613	77.19
400.837	76.19
401.062	88.19
401.286	82.19
401.51	83.19
401.734	92.19
401.958	90.19
402.182	97.19
402.406	117.19
402.63	105.19
402.854	82.19
403.078	87.19
403.302	87.19
403.526	88.19
403.75	65.19
403.974	65.19
404.198	87.19
404.422	95.19
404.645	84.19
404.869	92.19
405.093	91.19
405.317	86.19
405.541	99.19
405.765	88.19
405.988	90.19
406.212	126.19
406.436	168.19
406.66	126.19
406.883	81.19
407.107	87.19
407.331	99.19
407.555	87.19
407.778	85.19
408.002	75.19
408.226	69.19
408.449	89.19
408.673	72.19
408.896	81.19
409.12	77.19
409.344	96.19
409.567	79.19
409.791	88.19
410.014	92.19
410.238	84.19
410.461	81.19
410.685	80.19
410.908	78.19
411.132	88.19
411.355	97.19
411.578	82.19
411.802	72.19
412.025	84.19
412.249	85.19
412.472	88.19
412.695	91.19
412.919	96.19
413.142	97.19
413.365	79.19
413.589	83.19
413.812	70.19
414.035	77.19
414.258	67.19
414.482	75.19
414.705	78.19
414.928	76.19
415.151	89.19
415.374	87.19
415.597	93.19
415.821	85.19
416.044	81.19
416.267	88.19
416.49	85.19
416.713	92.19
416.936	81.19
417.159	67.19
417.382	86.19
417.605	77.19
417.828	89.19
418.051	84.19
418.274	72.19
418.497	96.19
418.72	87.19
418.943	77.19
419.166	86.19
419.389	85.19
419.611	77.19
419.834	81.19
420.057	86.19
420.28	67.19
420.503	82.19
420.726	73.19
420.948	87.19
421.171	105.19
421.394	97.19
421.617	77.19
421.839	89.19
422.062	75.19
422.285	93.19
422.507	80.19
422.73	98.19
422.953	85.19
423.175	87.19
423.398	76.19
423.621	95.19
423.843	89.19
424.066	65.19
424.288	87.19
424.511	71.19
424.733	85.19
424.956	82.19
425.178	103.19
425.401	102.19
425.623	88.19
425.846	72.19
426.068	87.19
426.291	81.19
426.513	93.19
426.735	76.19
426.958	95.19
427.18	79.19
427.402	110.19
427.625	143.19
427.847	103.19
428.069	110.19
428.292	86.19
428.514	75.19
428.736	72.19
428.958	83.19
429.181	79.19
429.403	76.19
429.625	84.19
429.847	80.19
430.069	82.19
430.292	88.19
430.514	72.19
430.736	77.19
430.958	80.19
431.18	73.19
431.402	104.19
431.624	84.19
431.846	80.19
432.068	82.19
432.29	88.19
432.512	79.19
432.734	81.19
432.956	82.19
433.178	92.19
433.4	77.19
433.622	83.19
433.844	69.19
434.066	93.19
434.287	80.19
434.509	87.19
434.731	99.19
434.953	79.19
435.175	77.19
435.397	81.19
435.618	88.19
435.84	91.19
436.062	105.19
436.284	107.19
436.505	83.19
436.727	108.19
436.949	89.19
437.17	80.19
437.392	89.19
437.614	88.19
437.835	93.19
438.057	111.19
438.278	91.19
438.5	98.19
438.721	107.19
438.943	100.19
439.165	91.19
439.386	73.19
439.608	80.19
439.829	95.19
440.05	105.19
440.272	128.19
440.493	88.19
440.715	85.19
440.936	80.19
441.158	88.19
441.379	84.19
441.6	84.19
441.822	77.19
442.043	90.19
442.264	96.19
442.486	81.19
442.707	90.19
442.928	95.19
443.149	92.19
443.371	100.19
443.592	96.19
443.813	95.19
444.034	88.19
444.255	90.19
444.476	83.19
444.698	85.19
444.919	97.19
445.14	104.19
445.361	91.19
445.582	103.19
445.803	110.19
446.024	109.19
446.245	137.19
446.466	96.19
446.687	89.19
446.908	89.19
447.129	92.19
447.35	77.19
447.571	84.19
447.792	85.19
448.013	82.19
448.234	89.19
448.455	96.19
448.675	107.19
448.896	100.19
449.117	93.19
449.338	80.19
449.559	100.19
449.779	111.19
450	71.19
450.221	88.19
450.442	85.19
450.662	87.19
450.883	97.19
451.104	83.19
451.324	79.19
451.545	73.19
451.766	79.19
451.986	79.19
452.207	84.19
452.428	83.19
452.648	89.19
452.869	97.19
453.089	104.19
453.31	89.19
453.53	82.19
453.751	88.19
453.971	83.19
454.192	93.19
454.412	80.19
454.633	91.19
454.853	87.19
455.073	76.19
455.294	86.19
455.514	85.19
455.734	83.19
455.955	88.19
456.175	78.19
456.395	77.19
456.616	79.19
456.836	71.19
457.056	89.19
457.276	59.19
457.497	73.19
457.717	70.19
457.937	68.19
458.157	77.19
458.377	87.19
458.598	100.19
458.818	117.19
459.038	129.19
459.258	102.19
459.478	85.19
459.698	83.19
459.918	97.19
460.138	87.19
460.358	77.19
460.578	82.19
460.798	83.19
461.018	84.19
461.238	93.19
461.458	89.19
461.678	84.19
461.898	91.19
462.118	77.19
462.338	86.19
462.558	90.19
462.777	92.19
462.997	83.19
463.217	77.19
463.437	80.19
463.657	78.19
463.876	69.19
464.096	78.19
464.316	80.19
464.536	62.19
464.755	63.19
464.975	87.19
465.195	136.19
465.414	131.19
465.634	94.19
465.854	95.19
466.073	100.19
466.293	82.19
466.512	87.19
466.732	76.19
466.951	92.19
467.171	102.19
467.391	83.19
467.61	103.19
467.829	97.19
468.049	88.19
468.268	102.19
468.488	69.19
468.707	69.19
468.927	83.19
469.146	75.19
469.365	73.19
469.585	87.19
469.804	92.19
470.023	87.19
470.243	83.19
470.462	87.19
470.681	88.19
470.901	91.19
471.12	70.19
471.339	92.19
471.558	90.19
471.777	85.19
471.997	83.19
472.216	96.19
472.435	119.19
472.654	77.19
472.873	82.19
473.092	87.19
473.311	77.19
473.53	94.19
473.749	86.19
473.968	86.19
474.187	89.19
474.406	97.19
474.625	89.19
474.844	91.19
475.063	79.19
475.282	80.19
475.501	70.19
475.72	87.19
475.939	81.19
476.158	83.19
476.377	83.19
476.596	76.19
476.814	75.19
477.033	84.19
477.252	88.19
477.471	73.19
477.69	88.19
477.908	80.19
478.127	84.19
478.346	85.19
478.564	87.19
478.783	99.19
479.002	81.19
479.22	83.19
479.439	93.19
479.658	96.19
479.876	82.19
480.095	79.19
480.313	76.19
480.532	80.19
480.751	66.19
480.969	119.19
481.188	166.19
481.406	139.19
481.624	100.19
481.843	81.19
482.061	73.19
482.28	76.19
482.498	79.19
482.717	83.19
482.935	94.19
483.153	92.19
483.372	90.19
483.59	90.19
483.808	86.19
484.027	69.19
484.245	71.19
484.463	81.19
484.681	95.19
484.9	86.19
485.118	83.19
485.336	92.19
485.554	87.19
485.772	92.19
485.99	100.19
486.209	92.19
486.427	98.19
486.645	111.19
486.863	100.19
487.081	89.19
487.299	87.19
487.517	97.19
487.735	88.19
487.953	87.19
488.171	76.19
488.389	97.19
488.607	87.19
488.825	68.19
489.043	70.19
489.261	86.19
489.479	72.19
489.696	76.19
489.914	83.19
490.132	75.19
490.35	78.19
490.568	75.19
490.786	91.19
491.003	101.19
491.221	87.19
491.439	94.19
491.657	73.19
491.874	82.19
492.092	91.19
492.31	83.19
492.527	88.19
492.745	85.19
492.963	93.19
493.18	89.19
493.398	75.19
493.615	80.19
493.833	93.19
494.05	92.19
494.268	86.19
494.485	81.19
494.703	89.19
494.92	99.19
495.138	93.19
495.355	88.19
495.573	81.19
495.79	76.19
496.008	95.19
496.225	81.19
496.442	92.19
496.66	91.19
496.877	82.19
497.094	91.19
497.312	79.19
497.529	92.19
497.746	68.19
497.963	81.19
498.181	81.19
498.398	94.19
498.615	98.19
498.832	92.19
499.049	72.19
499.267	91.19
499.484	81.19
499.701	89.19
499.918	86.19
500.135	84.19
500.352	78.19
500.569	94.19
500.786	83.19
501.003	85.19
501.22	91.19
501.437	76.19
501.654	90.19
501.871	79.19
502.088	80.19
502.305	90.19
502.522	95.19
502.739	89.19
502.956	84.19
503.172	91.19
503.389	83.19
503.606	90.19
503.823	81.19
504.04	89.19
504.256	82.19
504.473	81.19
504.69	79.19
504.907	83.19
505.123	77.19
505.34	87.19
505.557	89.19
505.773	81.19
505.99	87.19
506.207	79.19
506.423	89.19
506.64	94.19
506.856	84.19
507.073	87.19
507.289	100.19
507.506	93.19
507.722	103.19
507.939	106.19
508.155	92.19
508.372	88.19
508.588	83.19
508.805	88.19
509.021	98.19
509.238	101.19
509.454	90.19
509.67	78.19
509.887	101.19
510.103	119.19
510.319	191.19
510.536	608.19
510.752	1790.19
510.968	486.19
511.184	133.19
511.401	91.19
511.617	92.19
511.833	96.19
512.049	94.19
512.265	81.19
512.481	87.19
512.698	79.19
512.914	67.19
513.13	96.19
513.346	81.19
513.562	73.19
513.778	98.19
513.994	95.19
514.21	87.19
514.426	93.19
514.642	111.19
514.858	108.19
515.074	141.19
515.29	351.19
515.506	1048.19
515.721	392.19
515.937	123.19
516.153	98.19
516.369	85.19
516.585	94.19
516.801	83.19
517.016	93.19
517.232	81.19
517.448	87.19
517.664	74.19
517.879	86.19
518.095	87.19
