Data from Circ_1982_H10_HRD10591_00022.txt Node
Date: Wed Jan 03 12:30:45 EST 2024
User: Yrep
Spectrometer: HR+D1059
Trigger mode: 1
Integration Time (sec): 1.000000E-1
Scans to average: 1
Electric dark correction enabled: true
Nonlinearity correction enabled: false
Boxcar width: 0
XAxis mode: Wavelengths
Number of Pixels in Spectrum: 2048
>>>>>Begin Spectral Data<<<<<
223.165	-28.75
223.4	-28.75
223.635	-28.75
223.869	-18.75
224.104	-10.75
224.338	-4.75
224.573	-10.75
224.808	-2.75
225.042	-8.75
225.277	-10.75
225.511	-10.75
225.746	2.25
225.98	1.25
226.215	17.25
226.449	22.25
226.683	25.25
226.918	20.25
227.152	18.25
227.387	43.25
227.621	54.25
227.856	36.25
228.09	51.25
228.324	57.25
228.559	55.25
228.793	61.25
229.027	53.25
229.262	71.25
229.496	67.25
229.73	84.25
229.964	76.25
230.199	78.25
230.433	66.25
230.667	69.25
230.901	89.25
231.136	78.25
231.37	81.25
231.604	85.25
231.838	65.25
232.072	89.25
232.306	77.25
232.541	77.25
232.775	75.25
233.009	87.25
233.243	86.25
233.477	72.25
233.711	77.25
233.945	94.25
234.179	85.25
234.413	74.25
234.647	90.25
234.881	71.25
235.115	98.25
235.349	80.25
235.583	86.25
235.817	76.25
236.051	81.25
236.285	87.25
236.519	86.25
236.753	71.25
236.987	74.25
237.221	88.25
237.455	63.25
237.689	68.25
237.922	75.25
238.156	75.25
238.39	80.25
238.624	73.25
238.858	76.25
239.091	70.25
239.325	70.25
239.559	78.25
239.793	77.25
240.027	76.25
240.26	79.25
240.494	46.25
240.728	65.25
240.961	74.25
241.195	87.25
241.429	91.25
241.662	89.25
241.896	64.25
242.13	73.25
242.363	82.25
242.597	79.25
242.83	78.25
243.064	76.25
243.298	73.25
243.531	76.25
243.765	78.25
243.998	90.25
244.232	85.25
244.465	83.25
244.699	79.25
244.932	60.25
245.166	66.25
245.399	68.25
245.633	86.25
245.866	81.25
246.099	85.25
246.333	74.25
246.566	77.25
246.8	64.25
247.033	78.25
247.266	82.25
247.5	85.25
247.733	62.25
247.966	79.25
248.2	89.25
248.433	88.25
248.666	101.25
248.899	88.25
249.133	77.25
249.366	83.25
249.599	92.25
249.832	98.25
250.066	89.25
250.299	82.25
250.532	71.25
250.765	84.25
250.998	98.25
251.231	74.25
251.465	73.25
251.698	76.25
251.931	74.25
252.164	86.25
252.397	90.25
252.63	75.25
252.863	77.25
253.096	74.25
253.329	91.25
253.562	74.25
253.795	92.25
254.028	69.25
254.261	78.25
254.494	75.25
254.727	85.25
254.96	93.25
255.193	87.25
255.426	70.25
255.659	82.25
255.892	73.25
256.124	80.25
256.357	74.25
256.59	82.25
256.823	83.25
257.056	73.25
257.289	73.25
257.521	93.25
257.754	87.25
257.987	78.25
258.22	87.25
258.452	91.25
258.685	75.25
258.918	74.25
259.151	82.25
259.383	89.25
259.616	85.25
259.849	85.25
260.081	95.25
260.314	82.25
260.547	94.25
260.779	80.25
261.012	67.25
261.244	75.25
261.477	79.25
261.71	74.25
261.942	104.25
262.175	105.25
262.407	96.25
262.64	79.25
262.872	95.25
263.105	66.25
263.337	74.25
263.57	79.25
263.802	94.25
264.035	84.25
264.267	93.25
264.499	76.25
264.732	85.25
264.964	85.25
265.197	86.25
265.429	82.25
265.661	88.25
265.894	88.25
266.126	77.25
266.358	84.25
266.591	85.25
266.823	77.25
267.055	72.25
267.287	78.25
267.52	92.25
267.752	79.25
267.984	87.25
268.216	93.25
268.448	96.25
268.681	88.25
268.913	86.25
269.145	70.25
269.377	89.25
269.609	85.25
269.841	88.25
270.073	95.25
270.306	95.25
270.538	91.25
270.77	87.25
271.002	88.25
271.234	92.25
271.466	82.25
271.698	81.25
271.93	86.25
272.162	93.25
272.394	92.25
272.626	83.25
272.858	99.25
273.09	81.25
273.322	90.25
273.553	86.25
273.785	91.25
274.017	82.25
274.249	88.25
274.481	96.25
274.713	88.25
274.945	93.25
275.176	85.25
275.408	77.25
275.64	97.25
275.872	93.25
276.104	92.25
276.335	96.25
276.567	97.25
276.799	89.25
277.031	83.25
277.262	84.25
277.494	85.25
277.726	93.25
277.957	84.25
278.189	98.25
278.421	93.25
278.652	79.25
278.884	92.25
279.115	105.25
279.347	83.25
279.579	97.25
279.81	91.25
280.042	84.25
280.273	92.25
280.505	96.25
280.736	91.25
280.968	95.25
281.199	86.25
281.431	75.25
281.662	86.25
281.894	85.25
282.125	94.25
282.356	117.25
282.588	116.25
282.819	101.25
283.051	95.25
283.282	94.25
283.513	90.25
283.745	95.25
283.976	94.25
284.207	84.25
284.439	89.25
284.67	90.25
284.901	79.25
285.132	81.25
285.364	86.25
285.595	76.25
285.826	83.25
286.057	90.25
286.288	77.25
286.52	89.25
286.751	87.25
286.982	94.25
287.213	87.25
287.444	84.25
287.675	87.25
287.906	92.25
288.138	89.25
288.369	87.25
288.6	94.25
288.831	106.25
289.062	97.25
289.293	86.25
289.524	93.25
289.755	61.25
289.986	92.25
290.217	91.25
290.448	94.25
290.679	91.25
290.91	92.25
291.141	76.25
291.371	92.25
291.602	87.25
291.833	92.25
292.064	88.25
292.295	88.25
292.526	75.25
292.757	101.25
292.987	98.25
293.218	91.25
293.449	89.25
293.68	86.25
293.91	84.25
294.141	83.25
294.372	85.25
294.603	104.25
294.833	77.25
295.064	93.25
295.295	99.25
295.525	95.25
295.756	100.25
295.987	118.25
296.217	123.25
296.448	117.25
296.679	100.25
296.909	83.25
297.14	110.25
297.37	97.25
297.601	89.25
297.831	94.25
298.062	78.25
298.292	84.25
298.523	91.25
298.753	95.25
298.984	91.25
299.214	83.25
299.445	100.25
299.675	95.25
299.905	87.25
300.136	85.25
300.366	91.25
300.597	94.25
300.827	96.25
301.057	98.25
301.288	99.25
301.518	102.25
301.748	97.25
301.979	99.25
302.209	86.25
302.439	86.25
302.669	83.25
302.9	95.25
303.13	96.25
303.36	89.25
303.59	98.25
303.82	78.25
304.051	84.25
304.281	95.25
304.511	94.25
304.741	104.25
304.971	107.25
305.201	90.25
305.431	93.25
305.661	94.25
305.891	91.25
306.121	93.25
306.352	95.25
306.582	100.25
306.812	89.25
307.042	89.25
307.272	100.25
307.502	86.25
307.731	95.25
307.961	75.25
308.191	76.25
308.421	78.25
308.651	95.25
308.881	102.25
309.111	90.25
309.341	86.25
309.571	96.25
309.8	89.25
310.03	97.25
310.26	89.25
310.49	98.25
310.72	94.25
310.949	106.25
311.179	89.25
311.409	80.25
311.639	94.25
311.868	83.25
312.098	91.25
312.328	97.25
312.557	97.25
312.787	99.25
313.017	99.25
313.246	108.25
313.476	93.25
313.706	110.25
313.935	98.25
314.165	91.25
314.394	104.25
314.624	85.25
314.853	89.25
315.083	99.25
315.312	91.25
315.542	103.25
315.771	101.25
316.001	79.25
316.23	89.25
316.46	103.25
316.689	94.25
316.919	96.25
317.148	87.25
317.377	90.25
317.607	87.25
317.836	88.25
318.065	74.25
318.295	87.25
318.524	89.25
318.753	85.25
318.983	82.25
319.212	101.25
319.441	99.25
319.67	95.25
319.9	87.25
320.129	92.25
320.358	90.25
320.587	89.25
320.816	96.25
321.046	105.25
321.275	100.25
321.504	85.25
321.733	96.25
321.962	103.25
322.191	105.25
322.42	99.25
322.649	108.25
322.878	99.25
323.108	101.25
323.337	98.25
323.566	139.25
323.795	127.25
324.024	159.25
324.253	297.25
324.482	579.25
324.71	1109.25
324.939	1403.25
325.168	551.25
325.397	195.25
325.626	140.25
325.855	99.25
326.084	99.25
326.313	117.25
326.542	126.25
326.77	185.25
326.999	341.25
327.228	648.25
327.457	1156.25
327.686	941.25
327.914	270.25
328.143	154.25
328.372	126.25
328.6	103.25
328.829	95.25
329.058	109.25
329.287	101.25
329.515	105.25
329.744	106.25
329.972	118.25
330.201	100.25
330.43	111.25
330.658	114.25
330.887	132.25
331.115	103.25
331.344	99.25
331.572	99.25
331.801	103.25
332.03	83.25
332.258	81.25
332.486	97.25
332.715	95.25
332.943	97.25
333.172	92.25
333.4	87.25
333.629	97.25
333.857	117.25
334.085	98.25
334.314	105.25
334.542	96.25
334.771	106.25
334.999	97.25
335.227	91.25
335.455	89.25
335.684	99.25
335.912	99.25
336.14	105.25
336.369	105.25
336.597	91.25
336.825	93.25
337.053	89.25
337.281	97.25
337.51	93.25
337.738	89.25
337.966	86.25
338.194	93.25
338.422	82.25
338.65	98.25
338.878	92.25
339.106	89.25
339.334	96.25
339.562	86.25
339.79	94.25
340.018	101.25
340.246	85.25
340.474	92.25
340.702	100.25
340.93	99.25
341.158	89.25
341.386	111.25
341.614	97.25
341.842	98.25
342.07	87.25
342.298	95.25
342.526	76.25
342.754	91.25
342.981	101.25
343.209	79.25
343.437	99.25
343.665	91.25
343.893	86.25
344.12	90.25
344.348	85.25
344.576	87.25
344.804	95.25
345.031	88.25
345.259	86.25
345.487	83.25
345.714	99.25
345.942	87.25
346.17	93.25
346.397	99.25
346.625	84.25
346.853	93.25
347.08	81.25
347.308	100.25
347.535	97.25
347.763	97.25
347.99	95.25
348.218	103.25
348.445	90.25
348.673	98.25
348.9	94.25
349.128	95.25
349.355	81.25
349.583	82.25
349.81	99.25
350.037	90.25
350.265	86.25
350.492	87.25
350.72	97.25
350.947	101.25
351.174	97.25
351.402	106.25
351.629	102.25
351.856	98.25
352.083	95.25
352.311	101.25
352.538	110.25
352.765	112.25
352.992	107.25
353.22	110.25
353.447	106.25
353.674	100.25
353.901	108.25
354.128	86.25
354.355	93.25
354.583	93.25
354.81	98.25
355.037	92.25
355.264	108.25
355.491	114.25
355.718	93.25
355.945	92.25
356.172	101.25
356.399	86.25
356.626	118.25
356.853	84.25
357.08	88.25
357.307	90.25
357.534	106.25
357.761	86.25
357.988	105.25
358.215	99.25
358.441	92.25
358.668	96.25
358.895	90.25
359.122	86.25
359.349	87.25
359.576	93.25
359.802	95.25
360.029	93.25
360.256	94.25
360.483	97.25
360.709	97.25
360.936	101.25
361.163	82.25
361.39	95.25
361.616	79.25
361.843	90.25
362.07	93.25
362.296	87.25
362.523	90.25
362.749	86.25
362.976	81.25
363.203	85.25
363.429	92.25
363.656	109.25
363.882	96.25
364.109	91.25
364.335	92.25
364.562	100.25
364.788	100.25
365.015	92.25
365.241	105.25
365.468	94.25
365.694	100.25
365.92	81.25
366.147	90.25
366.373	95.25
366.599	95.25
366.826	102.25
367.052	100.25
367.278	87.25
367.505	89.25
367.731	106.25
367.957	93.25
368.184	73.25
368.41	86.25
368.636	89.25
368.862	103.25
369.089	102.25
369.315	101.25
369.541	91.25
369.767	78.25
369.993	91.25
370.219	73.25
370.445	90.25
370.672	99.25
370.898	100.25
371.124	99.25
371.35	110.25
371.576	90.25
371.802	105.25
372.028	99.25
372.254	85.25
372.48	86.25
372.706	85.25
372.932	92.25
373.158	87.25
373.384	94.25
373.61	108.25
373.835	90.25
374.061	94.25
374.287	84.25
374.513	81.25
374.739	94.25
374.965	94.25
375.191	97.25
375.416	90.25
375.642	81.25
375.868	98.25
376.094	96.25
376.319	95.25
376.545	87.25
376.771	97.25
376.997	96.25
377.222	91.25
377.448	101.25
377.674	87.25
377.899	85.25
378.125	78.25
378.35	105.25
378.576	76.25
378.802	78.25
379.027	91.25
379.253	105.25
379.478	95.25
379.704	98.25
379.929	106.25
380.155	97.25
380.38	107.25
380.606	94.25
380.831	113.25
381.057	102.25
381.282	98.25
381.507	93.25
381.733	108.25
381.958	104.25
382.184	108.25
382.409	97.25
382.634	90.25
382.86	103.25
383.085	104.25
383.31	95.25
383.535	105.25
383.761	97.25
383.986	107.25
384.211	93.25
384.436	100.25
384.662	103.25
384.887	103.25
385.112	96.25
385.337	124.25
385.562	99.25
385.787	107.25
386.013	113.25
386.238	109.25
386.463	106.25
386.688	112.25
386.913	112.25
387.138	93.25
387.363	104.25
387.588	93.25
387.813	102.25
388.038	107.25
388.263	115.25
388.488	106.25
388.713	98.25
388.938	101.25
389.163	87.25
389.387	89.25
389.612	96.25
389.837	87.25
390.062	100.25
390.287	102.25
390.512	98.25
390.736	87.25
390.961	86.25
391.186	107.25
391.411	113.25
391.636	98.25
391.86	78.25
392.085	70.25
392.31	90.25
392.534	74.25
392.759	97.25
392.984	86.25
393.208	82.25
393.433	94.25
393.658	101.25
393.882	89.25
394.107	80.25
394.331	83.25
394.556	93.25
394.78	89.25
395.005	98.25
395.229	97.25
395.454	83.25
395.678	85.25
395.903	83.25
396.127	84.25
396.352	78.25
396.576	76.25
396.801	82.25
397.025	83.25
397.249	92.25
397.474	93.25
397.698	82.25
397.922	91.25
398.147	85.25
398.371	86.25
398.595	87.25
398.82	71.25
399.044	98.25
399.268	95.25
399.492	91.25
399.717	102.25
399.941	92.25
400.165	93.25
400.389	100.25
400.613	89.25
400.837	91.25
401.062	90.25
401.286	89.25
401.51	84.25
401.734	83.25
401.958	93.25
402.182	102.25
402.406	116.25
402.63	102.25
402.854	76.25
403.078	101.25
403.302	87.25
403.526	92.25
403.75	99.25
403.974	102.25
404.198	70.25
404.422	71.25
404.645	84.25
404.869	93.25
405.093	85.25
405.317	92.25
405.541	83.25
405.765	92.25
405.988	108.25
406.212	134.25
406.436	153.25
406.66	129.25
406.883	89.25
407.107	88.25
407.331	99.25
407.555	93.25
407.778	87.25
408.002	95.25
408.226	87.25
408.449	86.25
408.673	99.25
408.896	88.25
409.12	93.25
409.344	97.25
409.567	87.25
409.791	94.25
410.014	107.25
410.238	86.25
410.461	99.25
410.685	98.25
410.908	100.25
411.132	94.25
411.355	109.25
411.578	82.25
411.802	85.25
412.025	95.25
412.249	98.25
412.472	108.25
412.695	102.25
412.919	95.25
413.142	96.25
413.365	91.25
413.589	83.25
413.812	88.25
414.035	99.25
414.258	98.25
414.482	103.25
414.705	95.25
414.928	93.25
415.151	94.25
415.374	103.25
415.597	97.25
415.821	98.25
416.044	101.25
416.267	78.25
416.49	85.25
416.713	88.25
416.936	93.25
417.159	87.25
417.382	107.25
417.605	72.25
417.828	91.25
418.051	97.25
418.274	93.25
418.497	78.25
418.72	76.25
418.943	100.25
419.166	101.25
419.389	98.25
419.611	95.25
419.834	92.25
420.057	94.25
420.28	92.25
420.503	100.25
420.726	91.25
420.948	100.25
421.171	75.25
421.394	79.25
421.617	92.25
421.839	93.25
422.062	78.25
422.285	92.25
422.507	95.25
422.73	96.25
422.953	92.25
423.175	85.25
423.398	95.25
423.621	98.25
423.843	76.25
424.066	86.25
424.288	91.25
424.511	91.25
424.733	93.25
424.956	99.25
425.178	96.25
425.401	88.25
425.623	102.25
425.846	84.25
426.068	82.25
426.291	86.25
426.513	88.25
426.735	90.25
426.958	89.25
427.18	94.25
427.402	127.25
427.625	136.25
427.847	115.25
428.069	110.25
428.292	75.25
428.514	83.25
428.736	70.25
428.958	90.25
429.181	83.25
429.403	78.25
429.625	71.25
429.847	84.25
430.069	84.25
430.292	78.25
430.514	70.25
430.736	91.25
430.958	85.25
431.18	92.25
431.402	88.25
431.624	90.25
431.846	82.25
432.068	94.25
432.29	103.25
432.512	86.25
432.734	85.25
432.956	94.25
433.178	100.25
433.4	91.25
433.622	99.25
433.844	86.25
434.066	84.25
434.287	88.25
434.509	95.25
434.731	88.25
434.953	99.25
435.175	81.25
435.397	85.25
435.618	89.25
435.84	107.25
436.062	107.25
436.284	98.25
436.505	98.25
436.727	93.25
436.949	91.25
437.17	78.25
437.392	86.25
437.614	85.25
437.835	97.25
438.057	102.25
438.278	107.25
438.5	102.25
438.721	115.25
438.943	106.25
439.165	96.25
439.386	87.25
439.608	95.25
439.829	93.25
440.05	114.25
440.272	109.25
440.493	95.25
440.715	86.25
440.936	83.25
441.158	74.25
441.379	98.25
441.6	74.25
441.822	97.25
442.043	97.25
442.264	100.25
442.486	109.25
442.707	97.25
442.928	99.25
443.149	103.25
443.371	109.25
443.592	97.25
443.813	103.25
444.034	103.25
444.255	93.25
444.476	89.25
444.698	101.25
444.919	98.25
445.14	139.25
445.361	111.25
445.582	94.25
445.803	119.25
446.024	112.25
446.245	108.25
446.466	96.25
446.687	84.25
446.908	101.25
447.129	77.25
447.35	73.25
447.571	94.25
447.792	93.25
448.013	86.25
448.234	91.25
448.455	107.25
448.675	92.25
448.896	107.25
449.117	95.25
449.338	95.25
449.559	120.25
449.779	102.25
450	100.25
450.221	82.25
450.442	81.25
450.662	95.25
450.883	94.25
451.104	98.25
451.324	87.25
451.545	83.25
451.766	93.25
451.986	83.25
452.207	89.25
452.428	86.25
452.648	98.25
452.869	99.25
453.089	105.25
453.31	91.25
453.53	89.25
453.751	83.25
453.971	101.25
454.192	99.25
454.412	97.25
454.633	83.25
454.853	88.25
455.073	91.25
455.294	89.25
455.514	94.25
455.734	82.25
455.955	94.25
456.175	86.25
456.395	88.25
456.616	95.25
456.836	85.25
457.056	83.25
457.276	74.25
457.497	69.25
457.717	73.25
457.937	90.25
458.157	90.25
458.377	93.25
458.598	114.25
458.818	119.25
459.038	121.25
459.258	92.25
459.478	74.25
459.698	84.25
459.918	87.25
460.138	79.25
460.358	88.25
460.578	74.25
460.798	87.25
461.018	101.25
461.238	73.25
461.458	94.25
461.678	99.25
461.898	85.25
462.118	78.25
462.338	84.25
462.558	84.25
462.777	77.25
462.997	90.25
463.217	87.25
463.437	79.25
463.657	97.25
463.876	89.25
464.096	86.25
464.316	90.25
464.536	90.25
464.755	93.25
464.975	92.25
465.195	130.25
465.414	114.25
465.634	87.25
465.854	96.25
466.073	90.25
466.293	90.25
466.512	105.25
466.732	72.25
466.951	79.25
467.171	86.25
467.391	97.25
467.61	93.25
467.829	100.25
468.049	108.25
468.268	108.25
468.488	92.25
468.707	73.25
468.927	93.25
469.146	75.25
469.365	81.25
469.585	105.25
469.804	92.25
470.023	94.25
470.243	89.25
470.462	92.25
470.681	86.25
470.901	94.25
471.12	91.25
471.339	87.25
471.558	85.25
471.777	81.25
471.997	99.25
472.216	102.25
472.435	116.25
472.654	81.25
472.873	85.25
473.092	83.25
473.311	94.25
473.53	85.25
473.749	86.25
473.968	84.25
474.187	103.25
474.406	81.25
474.625	76.25
474.844	90.25
475.063	92.25
475.282	86.25
475.501	75.25
475.72	101.25
475.939	94.25
476.158	83.25
476.377	75.25
476.596	76.25
476.814	89.25
477.033	100.25
477.252	87.25
477.471	91.25
477.69	91.25
477.908	81.25
478.127	106.25
478.346	103.25
478.564	74.25
478.783	91.25
479.002	81.25
479.22	91.25
479.439	94.25
479.658	101.25
479.876	92.25
480.095	99.25
480.313	93.25
480.532	97.25
480.751	98.25
480.969	109.25
481.188	138.25
481.406	121.25
481.624	104.25
481.843	96.25
482.061	82.25
482.28	92.25
482.498	88.25
482.717	85.25
482.935	97.25
483.153	103.25
483.372	89.25
483.59	91.25
483.808	97.25
484.027	88.25
484.245	96.25
484.463	98.25
484.681	97.25
484.9	88.25
485.118	106.25
485.336	105.25
485.554	99.25
485.772	101.25
485.99	91.25
486.209	105.25
486.427	103.25
486.645	104.25
486.863	96.25
487.081	101.25
487.299	107.25
487.517	100.25
487.735	103.25
487.953	80.25
488.171	93.25
488.389	96.25
488.607	86.25
488.825	95.25
489.043	91.25
489.261	85.25
489.479	84.25
489.696	87.25
489.914	66.25
490.132	84.25
490.35	83.25
490.568	86.25
490.786	90.25
491.003	94.25
491.221	85.25
491.439	87.25
491.657	97.25
491.874	109.25
492.092	96.25
492.31	103.25
492.527	74.25
492.745	76.25
492.963	91.25
493.18	95.25
493.398	93.25
493.615	96.25
493.833	68.25
494.05	94.25
494.268	105.25
494.485	94.25
494.703	99.25
494.92	90.25
495.138	88.25
495.355	84.25
495.573	81.25
495.79	79.25
496.008	88.25
496.225	81.25
496.442	79.25
496.66	94.25
496.877	86.25
497.094	93.25
497.312	78.25
497.529	99.25
497.746	92.25
497.963	83.25
498.181	91.25
498.398	98.25
498.615	109.25
498.832	85.25
499.049	98.25
499.267	99.25
499.484	96.25
499.701	97.25
499.918	85.25
500.135	93.25
500.352	85.25
500.569	86.25
500.786	91.25
501.003	87.25
501.22	96.25
501.437	91.25
501.654	79.25
501.871	83.25
502.088	88.25
502.305	94.25
502.522	106.25
502.739	97.25
502.956	81.25
503.172	82.25
503.389	110.25
503.606	89.25
503.823	91.25
504.04	86.25
504.256	89.25
504.473	83.25
504.69	87.25
504.907	85.25
505.123	87.25
505.34	82.25
505.557	97.25
505.773	87.25
505.99	73.25
506.207	92.25
506.423	99.25
506.64	99.25
506.856	86.25
507.073	93.25
507.289	87.25
507.506	104.25
507.722	106.25
507.939	94.25
508.155	87.25
508.372	87.25
508.588	114.25
508.805	83.25
509.021	91.25
509.238	107.25
509.454	87.25
509.67	95.25
509.887	104.25
510.103	111.25
510.319	171.25
510.536	519.25
510.752	1465.25
510.968	423.25
511.184	128.25
511.401	98.25
511.617	88.25
511.833	89.25
512.049	101.25
512.265	78.25
512.481	95.25
512.698	89.25
512.914	68.25
513.13	103.25
513.346	98.25
513.562	94.25
513.778	96.25
513.994	95.25
514.21	87.25
514.426	101.25
514.642	97.25
514.858	82.25
515.074	125.25
515.29	274.25
515.506	843.25
515.721	341.25
515.937	121.25
516.153	99.25
516.369	95.25
