Data from Circ_1982_H10_HRD10591_00037.txt Node
Date: Wed Jan 03 12:30:48 EST 2024
User: Yrep
Spectrometer: HR+D1059
Trigger mode: 1
Integration Time (sec): 1.000000E-1
Scans to average: 1
Electric dark correction enabled: true
Nonlinearity correction enabled: false
Boxcar width: 0
XAxis mode: Wavelengths
Number of Pixels in Spectrum: 2048
>>>>>Begin Spectral Data<<<<<
223.165	-9.88
223.4	-9.88
223.635	-9.88
223.869	-9.88
224.104	-17.88
224.338	-29.88
224.573	-13.88
224.808	-10.88
225.042	-12.88
225.277	-2.88
225.511	5.12
225.746	1.12
225.98	11.12
226.215	6.12
226.449	27.12
226.683	25.12
226.918	17.12
227.152	15.12
227.387	45.12
227.621	22.12
227.856	45.12
228.09	59.12
228.324	49.12
228.559	65.12
228.793	62.12
229.027	60.12
229.262	69.12
229.496	55.12
229.73	68.12
229.964	86.12
230.199	82.12
230.433	71.12
230.667	72.12
230.901	71.12
231.136	86.12
231.37	86.12
231.604	77.12
231.838	84.12
232.072	82.12
232.306	83.12
232.541	78.12
232.775	82.12
233.009	72.12
233.243	96.12
233.477	92.12
233.711	83.12
233.945	75.12
234.179	82.12
234.413	75.12
234.647	72.12
234.881	88.12
235.115	61.12
235.349	92.12
235.583	85.12
235.817	70.12
236.051	74.12
236.285	80.12
236.519	67.12
236.753	69.12
236.987	68.12
237.221	73.12
237.455	73.12
237.689	73.12
237.922	78.12
238.156	80.12
238.39	72.12
238.624	75.12
238.858	75.12
239.091	74.12
239.325	84.12
239.559	75.12
239.793	76.12
240.027	89.12
240.26	80.12
240.494	70.12
240.728	74.12
240.961	73.12
241.195	86.12
241.429	92.12
241.662	86.12
241.896	69.12
242.13	73.12
242.363	65.12
242.597	72.12
242.83	68.12
243.064	80.12
243.298	80.12
243.531	83.12
243.765	84.12
243.998	77.12
244.232	81.12
244.465	83.12
244.699	80.12
244.932	73.12
245.166	83.12
245.399	77.12
245.633	71.12
245.866	86.12
246.099	84.12
246.333	68.12
246.566	74.12
246.8	81.12
247.033	73.12
247.266	62.12
247.5	71.12
247.733	89.12
247.966	83.12
248.2	74.12
248.433	72.12
248.666	71.12
248.899	68.12
249.133	77.12
249.366	77.12
249.599	84.12
249.832	76.12
250.066	95.12
250.299	81.12
250.532	86.12
250.765	81.12
250.998	82.12
251.231	82.12
251.465	80.12
251.698	89.12
251.931	80.12
252.164	101.12
252.397	85.12
252.63	69.12
252.863	84.12
253.096	78.12
253.329	78.12
253.562	94.12
253.795	70.12
254.028	84.12
254.261	73.12
254.494	85.12
254.727	86.12
254.96	72.12
255.193	75.12
255.426	80.12
255.659	85.12
255.892	80.12
256.124	80.12
256.357	73.12
256.59	81.12
256.823	95.12
257.056	70.12
257.289	80.12
257.521	82.12
257.754	93.12
257.987	78.12
258.22	70.12
258.452	72.12
258.685	73.12
258.918	87.12
259.151	91.12
259.383	94.12
259.616	76.12
259.849	84.12
260.081	82.12
260.314	76.12
260.547	89.12
260.779	79.12
261.012	74.12
261.244	81.12
261.477	83.12
261.71	86.12
261.942	98.12
262.175	96.12
262.407	90.12
262.64	72.12
262.872	60.12
263.105	94.12
263.337	91.12
263.57	82.12
263.802	77.12
264.035	88.12
264.267	86.12
264.499	81.12
264.732	83.12
264.964	81.12
265.197	78.12
265.429	88.12
265.661	83.12
265.894	89.12
266.126	66.12
266.358	96.12
266.591	77.12
266.823	74.12
267.055	84.12
267.287	80.12
267.52	75.12
267.752	89.12
267.984	72.12
268.216	72.12
268.448	85.12
268.681	86.12
268.913	73.12
269.145	80.12
269.377	64.12
269.609	71.12
269.841	99.12
270.073	73.12
270.306	89.12
270.538	96.12
270.77	96.12
271.002	89.12
271.234	88.12
271.466	83.12
271.698	86.12
271.93	92.12
272.162	71.12
272.394	75.12
272.626	98.12
272.858	89.12
273.09	76.12
273.322	80.12
273.553	73.12
273.785	94.12
274.017	76.12
274.249	98.12
274.481	84.12
274.713	88.12
274.945	77.12
275.176	75.12
275.408	91.12
275.64	82.12
275.872	87.12
276.104	86.12
276.335	82.12
276.567	98.12
276.799	91.12
277.031	97.12
277.262	80.12
277.494	101.12
277.726	106.12
277.957	81.12
278.189	88.12
278.421	77.12
278.652	80.12
278.884	74.12
279.115	92.12
279.347	101.12
279.579	82.12
279.81	80.12
280.042	92.12
280.273	88.12
280.505	73.12
280.736	69.12
280.968	96.12
281.199	92.12
281.431	86.12
281.662	89.12
281.894	91.12
282.125	86.12
282.356	92.12
282.588	112.12
282.819	96.12
283.051	97.12
283.282	80.12
283.513	80.12
283.745	92.12
283.976	84.12
284.207	93.12
284.439	82.12
284.67	83.12
284.901	92.12
285.132	97.12
285.364	88.12
285.595	82.12
285.826	93.12
286.057	92.12
286.288	90.12
286.52	88.12
286.751	98.12
286.982	88.12
287.213	86.12
287.444	90.12
287.675	76.12
287.906	77.12
288.138	75.12
288.369	87.12
288.6	94.12
288.831	99.12
289.062	88.12
289.293	84.12
289.524	83.12
289.755	82.12
289.986	86.12
290.217	87.12
290.448	90.12
290.679	82.12
290.91	82.12
291.141	100.12
291.371	91.12
291.602	89.12
291.833	76.12
292.064	73.12
292.295	90.12
292.526	102.12
292.757	80.12
292.987	98.12
293.218	96.12
293.449	97.12
293.68	87.12
293.91	98.12
294.141	107.12
294.372	88.12
294.603	92.12
294.833	81.12
295.064	93.12
295.295	81.12
295.525	75.12
295.756	92.12
295.987	89.12
296.217	105.12
296.448	97.12
296.679	101.12
296.909	91.12
297.14	84.12
297.37	93.12
297.601	86.12
297.831	99.12
298.062	85.12
298.292	87.12
298.523	88.12
298.753	91.12
298.984	101.12
299.214	86.12
299.445	96.12
299.675	81.12
299.905	86.12
300.136	78.12
300.366	77.12
300.597	88.12
300.827	83.12
301.057	94.12
301.288	91.12
301.518	87.12
301.748	92.12
301.979	99.12
302.209	94.12
302.439	81.12
302.669	84.12
302.9	95.12
303.13	90.12
303.36	90.12
303.59	87.12
303.82	114.12
304.051	84.12
304.281	105.12
304.511	84.12
304.741	92.12
304.971	92.12
305.201	99.12
305.431	93.12
305.661	85.12
305.891	104.12
306.121	88.12
306.352	94.12
306.582	99.12
306.812	106.12
307.042	77.12
307.272	91.12
307.502	100.12
307.731	98.12
307.961	74.12
308.191	106.12
308.421	104.12
308.651	94.12
308.881	102.12
309.111	103.12
309.341	86.12
309.571	101.12
309.8	95.12
310.03	90.12
310.26	103.12
310.49	96.12
310.72	90.12
310.949	93.12
311.179	86.12
311.409	92.12
311.639	99.12
311.868	90.12
312.098	91.12
312.328	81.12
312.557	96.12
312.787	81.12
313.017	91.12
313.246	97.12
313.476	98.12
313.706	105.12
313.935	96.12
314.165	88.12
314.394	101.12
314.624	96.12
314.853	95.12
315.083	99.12
315.312	94.12
315.542	88.12
315.771	89.12
316.001	88.12
316.23	97.12
316.46	96.12
316.689	90.12
316.919	82.12
317.148	86.12
317.377	93.12
317.607	93.12
317.836	89.12
318.065	88.12
318.295	88.12
318.524	86.12
318.753	95.12
318.983	91.12
319.212	89.12
319.441	90.12
319.67	114.12
319.9	95.12
320.129	99.12
320.358	88.12
320.587	93.12
320.816	89.12
321.046	95.12
321.275	100.12
321.504	86.12
321.733	104.12
321.962	98.12
322.191	108.12
322.42	95.12
322.649	104.12
322.878	114.12
323.108	100.12
323.337	113.12
323.566	109.12
323.795	128.12
324.024	151.12
324.253	272.12
324.482	537.12
324.71	1055.12
324.939	1322.12
325.168	529.12
325.397	173.12
325.626	120.12
325.855	118.12
326.084	117.12
326.313	105.12
326.542	121.12
326.77	174.12
326.999	318.12
327.228	619.12
327.457	1079.12
327.686	859.12
327.914	256.12
328.143	150.12
328.372	137.12
328.6	116.12
328.829	106.12
329.058	107.12
329.287	102.12
329.515	94.12
329.744	90.12
329.972	105.12
330.201	97.12
330.43	103.12
330.658	104.12
330.887	115.12
331.115	100.12
331.344	81.12
331.572	108.12
331.801	96.12
332.03	97.12
332.258	91.12
332.486	86.12
332.715	86.12
332.943	82.12
333.172	96.12
333.4	84.12
333.629	97.12
333.857	107.12
334.085	96.12
334.314	99.12
334.542	113.12
334.771	112.12
334.999	90.12
335.227	99.12
335.455	102.12
335.684	95.12
335.912	109.12
336.14	105.12
336.369	85.12
336.597	94.12
336.825	84.12
337.053	101.12
337.281	96.12
337.51	101.12
337.738	106.12
337.966	105.12
338.194	93.12
338.422	85.12
338.65	73.12
338.878	76.12
339.106	97.12
339.334	102.12
339.562	86.12
339.79	87.12
340.018	92.12
340.246	88.12
340.474	84.12
340.702	91.12
340.93	100.12
341.158	102.12
341.386	99.12
341.614	101.12
341.842	108.12
342.07	99.12
342.298	100.12
342.526	108.12
342.754	77.12
342.981	99.12
343.209	89.12
343.437	107.12
343.665	88.12
343.893	89.12
344.12	97.12
344.348	92.12
344.576	82.12
344.804	89.12
345.031	95.12
345.259	93.12
345.487	98.12
345.714	85.12
345.942	90.12
346.17	93.12
346.397	80.12
346.625	88.12
346.853	98.12
347.08	86.12
347.308	102.12
347.535	88.12
347.763	97.12
347.99	97.12
348.218	101.12
348.445	89.12
348.673	87.12
348.9	88.12
349.128	95.12
349.355	98.12
349.583	104.12
349.81	109.12
350.037	93.12
350.265	94.12
350.492	84.12
350.72	98.12
350.947	106.12
351.174	107.12
351.402	116.12
351.629	97.12
351.856	93.12
352.083	90.12
352.311	94.12
352.538	109.12
352.765	90.12
352.992	99.12
353.22	99.12
353.447	97.12
353.674	98.12
353.901	105.12
354.128	91.12
354.355	94.12
354.583	104.12
354.81	105.12
355.037	100.12
355.264	91.12
355.491	75.12
355.718	94.12
355.945	100.12
356.172	94.12
356.399	98.12
356.626	107.12
356.853	92.12
357.08	92.12
357.307	91.12
357.534	100.12
357.761	108.12
357.988	96.12
358.215	100.12
358.441	83.12
358.668	81.12
358.895	101.12
359.122	90.12
359.349	92.12
359.576	80.12
359.802	94.12
360.029	118.12
360.256	89.12
360.483	95.12
360.709	99.12
360.936	108.12
361.163	98.12
361.39	100.12
361.616	109.12
361.843	98.12
362.07	90.12
362.296	88.12
362.523	75.12
362.749	91.12
362.976	82.12
363.203	84.12
363.429	86.12
363.656	94.12
363.882	85.12
364.109	95.12
364.335	90.12
364.562	99.12
364.788	92.12
365.015	92.12
365.241	81.12
365.468	94.12
365.694	100.12
365.92	77.12
366.147	89.12
366.373	82.12
366.599	83.12
366.826	95.12
367.052	93.12
367.278	94.12
367.505	90.12
367.731	91.12
367.957	93.12
368.184	85.12
368.41	93.12
368.636	94.12
368.862	90.12
369.089	100.12
369.315	82.12
369.541	88.12
369.767	106.12
369.993	87.12
370.219	74.12
370.445	84.12
370.672	86.12
370.898	73.12
371.124	80.12
371.35	94.12
371.576	95.12
371.802	82.12
372.028	91.12
372.254	96.12
372.48	71.12
372.706	78.12
372.932	82.12
373.158	90.12
373.384	82.12
373.61	70.12
373.835	88.12
374.061	88.12
374.287	89.12
374.513	80.12
374.739	86.12
374.965	95.12
375.191	107.12
375.416	96.12
375.642	98.12
375.868	89.12
376.094	86.12
376.319	90.12
376.545	79.12
376.771	84.12
376.997	93.12
377.222	74.12
377.448	94.12
377.674	93.12
377.899	82.12
378.125	97.12
378.35	103.12
378.576	113.12
378.802	97.12
379.027	92.12
379.253	95.12
379.478	93.12
379.704	101.12
379.929	100.12
380.155	86.12
380.38	67.12
380.606	88.12
380.831	94.12
381.057	93.12
381.282	91.12
381.507	94.12
381.733	100.12
381.958	96.12
382.184	96.12
382.409	93.12
382.634	104.12
382.86	111.12
383.085	98.12
383.31	115.12
383.535	93.12
383.761	94.12
383.986	96.12
384.211	109.12
384.436	92.12
384.662	97.12
384.887	96.12
385.112	109.12
385.337	100.12
385.562	96.12
385.787	93.12
386.013	97.12
386.238	106.12
386.463	97.12
386.688	108.12
386.913	100.12
387.138	104.12
387.363	99.12
387.588	106.12
387.813	101.12
388.038	110.12
388.263	112.12
388.488	105.12
388.713	85.12
388.938	83.12
389.163	96.12
389.387	97.12
389.612	108.12
389.837	93.12
390.062	82.12
390.287	101.12
390.512	88.12
390.736	96.12
390.961	90.12
391.186	85.12
391.411	91.12
391.636	102.12
391.86	89.12
392.085	81.12
392.31	92.12
392.534	81.12
392.759	75.12
392.984	96.12
393.208	99.12
393.433	97.12
393.658	89.12
393.882	86.12
394.107	86.12
394.331	101.12
394.556	89.12
394.78	79.12
395.005	80.12
395.229	86.12
395.454	84.12
395.678	100.12
395.903	89.12
396.127	91.12
396.352	89.12
396.576	84.12
396.801	100.12
397.025	73.12
397.249	94.12
397.474	101.12
397.698	90.12
397.922	94.12
398.147	77.12
398.371	92.12
398.595	77.12
398.82	91.12
399.044	92.12
399.268	77.12
399.492	93.12
399.717	92.12
399.941	70.12
400.165	91.12
400.389	88.12
400.613	88.12
400.837	89.12
401.062	80.12
401.286	88.12
401.51	85.12
401.734	94.12
401.958	92.12
402.182	110.12
402.406	116.12
402.63	94.12
402.854	82.12
403.078	83.12
403.302	84.12
403.526	90.12
403.75	93.12
403.974	84.12
404.198	77.12
404.422	77.12
404.645	92.12
404.869	89.12
405.093	99.12
405.317	81.12
405.541	96.12
405.765	92.12
405.988	100.12
406.212	137.12
406.436	156.12
406.66	139.12
406.883	97.12
407.107	69.12
407.331	89.12
407.555	77.12
407.778	85.12
408.002	98.12
408.226	93.12
408.449	85.12
408.673	92.12
408.896	86.12
409.12	85.12
409.344	95.12
409.567	90.12
409.791	97.12
410.014	92.12
410.238	105.12
410.461	83.12
410.685	89.12
410.908	90.12
411.132	99.12
411.355	95.12
411.578	76.12
411.802	80.12
412.025	87.12
412.249	73.12
412.472	87.12
412.695	96.12
412.919	78.12
413.142	93.12
413.365	99.12
413.589	93.12
413.812	93.12
414.035	89.12
414.258	81.12
414.482	103.12
414.705	102.12
414.928	93.12
415.151	100.12
415.374	97.12
415.597	93.12
415.821	78.12
416.044	84.12
416.267	81.12
416.49	86.12
416.713	92.12
416.936	99.12
417.159	92.12
417.382	85.12
417.605	91.12
417.828	71.12
418.051	102.12
418.274	80.12
418.497	72.12
418.72	81.12
418.943	82.12
419.166	96.12
419.389	92.12
419.611	84.12
419.834	86.12
420.057	90.12
420.28	81.12
420.503	81.12
420.726	85.12
420.948	81.12
421.171	77.12
421.394	88.12
421.617	88.12
421.839	90.12
422.062	73.12
422.285	92.12
422.507	86.12
422.73	99.12
422.953	89.12
423.175	99.12
423.398	100.12
423.621	85.12
423.843	78.12
424.066	78.12
424.288	81.12
424.511	88.12
424.733	98.12
424.956	84.12
425.178	86.12
425.401	101.12
425.623	104.12
425.846	84.12
426.068	86.12
426.291	76.12
426.513	93.12
426.735	98.12
426.958	83.12
427.18	96.12
427.402	110.12
427.625	113.12
427.847	108.12
428.069	105.12
428.292	86.12
428.514	86.12
428.736	81.12
428.958	77.12
429.181	80.12
429.403	84.12
429.625	90.12
429.847	80.12
430.069	98.12
430.292	82.12
430.514	85.12
430.736	90.12
430.958	75.12
431.18	85.12
431.402	93.12
431.624	89.12
431.846	84.12
432.068	80.12
432.29	82.12
432.512	75.12
432.734	80.12
432.956	87.12
433.178	91.12
433.4	119.12
433.622	85.12
433.844	83.12
434.066	78.12
434.287	86.12
434.509	86.12
434.731	93.12
434.953	75.12
435.175	85.12
435.397	106.12
435.618	97.12
435.84	92.12
436.062	96.12
436.284	103.12
436.505	83.12
436.727	83.12
436.949	93.12
437.17	86.12
437.392	84.12
437.614	99.12
437.835	102.12
438.057	92.12
438.278	99.12
438.5	77.12
438.721	99.12
438.943	99.12
439.165	87.12
439.386	98.12
439.608	84.12
439.829	95.12
440.05	96.12
440.272	118.12
440.493	98.12
440.715	88.12
440.936	86.12
441.158	82.12
441.379	82.12
441.6	89.12
441.822	77.12
442.043	101.12
442.264	98.12
442.486	94.12
442.707	78.12
442.928	102.12
443.149	107.12
443.371	96.12
443.592	90.12
443.813	90.12
444.034	100.12
444.255	98.12
444.476	87.12
444.698	87.12
444.919	87.12
445.14	123.12
445.361	115.12
445.582	110.12
445.803	105.12
446.024	121.12
446.245	112.12
446.466	109.12
446.687	83.12
446.908	88.12
447.129	84.12
447.35	90.12
447.571	99.12
447.792	80.12
448.013	99.12
448.234	89.12
448.455	90.12
448.675	91.12
448.896	103.12
449.117	96.12
449.338	88.12
449.559	104.12
449.779	101.12
450	82.12
450.221	86.12
450.442	81.12
450.662	84.12
450.883	83.12
451.104	101.12
451.324	86.12
451.545	86.12
451.766	105.12
451.986	78.12
452.207	98.12
452.428	99.12
452.648	99.12
452.869	93.12
453.089	94.12
453.31	87.12
453.53	92.12
453.751	74.12
453.971	98.12
454.192	92.12
454.412	83.12
454.633	86.12
454.853	88.12
455.073	88.12
455.294	91.12
455.514	94.12
455.734	85.12
455.955	89.12
456.175	90.12
456.395	85.12
456.616	94.12
456.836	93.12
457.056	91.12
457.276	67.12
457.497	84.12
457.717	86.12
457.937	89.12
458.157	88.12
458.377	93.12
458.598	84.12
458.818	117.12
459.038	120.12
459.258	96.12
459.478	84.12
459.698	75.12
459.918	80.12
460.138	96.12
460.358	104.12
460.578	83.12
460.798	80.12
461.018	73.12
461.238	85.12
461.458	92.12
461.678	73.12
461.898	74.12
462.118	85.12
462.338	75.12
462.558	98.12
462.777	80.12
462.997	80.12
463.217	82.12
463.437	101.12
463.657	85.12
463.876	85.12
464.096	90.12
464.316	83.12
464.536	92.12
464.755	81.12
464.975	90.12
465.195	124.12
465.414	117.12
465.634	86.12
465.854	82.12
466.073	81.12
466.293	99.12
466.512	92.12
466.732	75.12
466.951	78.12
467.171	73.12
467.391	80.12
467.61	96.12
467.829	88.12
468.049	100.12
468.268	102.12
468.488	85.12
468.707	80.12
468.927	91.12
469.146	81.12
469.365	91.12
469.585	86.12
469.804	101.12
470.023	84.12
470.243	89.12
470.462	94.12
470.681	103.12
470.901	78.12
471.12	81.12
471.339	76.12
471.558	75.12
471.777	73.12
471.997	94.12
472.216	115.12
472.435	120.12
472.654	96.12
472.873	99.12
473.092	69.12
473.311	91.12
473.53	86.12
473.749	101.12
473.968	97.12
474.187	97.12
474.406	98.12
474.625	82.12
474.844	94.12
475.063	78.12
475.282	76.12
475.501	76.12
475.72	96.12
475.939	94.12
476.158	97.12
476.377	89.12
476.596	91.12
476.814	78.12
477.033	83.12
477.252	96.12
477.471	94.12
477.69	81.12
477.908	97.12
478.127	77.12
478.346	80.12
478.564	90.12
478.783	86.12
479.002	86.12
479.22	94.12
479.439	87.12
479.658	97.12
479.876	76.12
480.095	97.12
480.313	77.12
480.532	100.12
480.751	91.12
480.969	102.12
481.188	158.12
481.406	121.12
481.624	82.12
481.843	88.12
482.061	77.12
482.28	91.12
482.498	73.12
482.717	80.12
482.935	80.12
483.153	93.12
483.372	90.12
483.59	77.12
483.808	91.12
484.027	78.12
484.245	95.12
484.463	95.12
484.681	100.12
484.9	85.12
485.118	84.12
485.336	95.12
485.554	98.12
485.772	89.12
485.99	99.12
486.209	113.12
486.427	112.12
486.645	110.12
486.863	107.12
487.081	102.12
487.299	104.12
487.517	103.12
487.735	73.12
487.953	76.12
488.171	97.12
488.389	94.12
488.607	96.12
488.825	92.12
489.043	80.12
489.261	89.12
489.479	103.12
489.696	108.12
489.914	92.12
490.132	85.12
490.35	75.12
490.568	72.12
490.786	87.12
491.003	95.12
491.221	91.12
491.439	72.12
491.657	88.12
491.874	85.12
492.092	103.12
492.31	93.12
492.527	105.12
492.745	97.12
492.963	89.12
493.18	89.12
493.398	92.12
493.615	88.12
493.833	100.12
494.05	82.12
494.268	89.12
494.485	95.12
494.703	89.12
494.92	82.12
495.138	103.12
495.355	95.12
495.573	99.12
495.79	96.12
496.008	85.12
496.225	80.12
496.442	89.12
496.66	88.12
496.877	99.12
497.094	89.12
497.312	88.12
497.529	87.12
497.746	88.12
497.963	74.12
498.181	90.12
498.398	88.12
498.615	106.12
498.832	87.12
499.049	92.12
499.267	82.12
499.484	100.12
499.701	81.12
499.918	109.12
500.135	80.12
500.352	91.12
500.569	100.12
500.786	91.12
501.003	89.12
501.22	91.12
501.437	85.12
501.654	83.12
501.871	99.12
502.088	92.12
502.305	81.12
502.522	86.12
502.739	89.12
502.956	92.12
503.172	97.12
503.389	97.12
503.606	91.12
503.823	93.12
504.04	93.12
504.256	85.12
504.473	85.12
504.69	103.12
504.907	90.12
505.123	88.12
505.34	75.12
505.557	91.12
505.773	85.12
505.99	89.12
506.207	95.12
506.423	88.12
506.64	98.12
506.856	83.12
507.073	85.12
507.289	83.12
507.506	92.12
507.722	90.12
507.939	85.12
508.155	90.12
508.372	98.12
508.588	102.12
508.805	87.12
509.021	74.12
509.238	101.12
509.454	91.12
509.67	95.12
509.887	101.12
510.103	118.12
510.319	161.12
510.536	501.12
510.752	1376.12
510.968	397.12
511.184	123.12
511.401	92.12
511.617	107.12
511.833	82.12
512.049	88.12
512.265	88.12
512.481	102.12
512.698	87.12
512.914	86.12
513.13	98.12
513.346	88.12
513.562	70.12
513.778	91.12
513.994	84.12
514.21	88.12
514.426	106.12
514.642	110.12
514.858	115.12
515.074	126.12
515.29	281.12
515.506	818.12
515.721	329.12
515.937	114.12
516.153	106.12
516.369	97.12
516.585	94.12
516.801	104.12
