Data from Circ_1982_H10_HRD10591_00046.txt Node
Date: Wed Jan 03 12:30:50 EST 2024
User: Yrep
Spectrometer: HR+D1059
Trigger mode: 1
Integration Time (sec): 1.000000E-1
Scans to average: 1
Electric dark correction enabled: true
Nonlinearity correction enabled: false
Boxcar width: 0
XAxis mode: Wavelengths
Number of Pixels in Spectrum: 2048
>>>>>Begin Spectral Data<<<<<
223.165	-9.31
223.4	-9.31
223.635	-9.31
223.869	-16.31
224.104	-35.31
224.338	-10.31
224.573	-13.31
224.808	-24.31
225.042	-15.31
225.277	8.69
225.511	-21.31
225.746	-5.31
225.98	9.69
226.215	12.69
226.449	28.69
226.683	28.69
226.918	32.69
227.152	29.69
227.387	37.69
227.621	26.69
227.856	42.69
228.09	52.69
228.324	53.69
228.559	63.69
228.793	64.69
229.027	63.69
229.262	60.69
229.496	76.69
229.73	73.69
229.964	67.69
230.199	65.69
230.433	50.69
230.667	77.69
230.901	78.69
231.136	71.69
231.37	71.69
231.604	78.69
231.838	84.69
232.072	71.69
232.306	85.69
232.541	90.69
232.775	86.69
233.009	90.69
233.243	78.69
233.477	69.69
233.711	92.69
233.945	76.69
234.179	81.69
234.413	80.69
234.647	79.69
234.881	69.69
235.115	85.69
235.349	70.69
235.583	73.69
235.817	72.69
236.051	76.69
236.285	73.69
236.519	64.69
236.753	67.69
236.987	69.69
237.221	72.69
237.455	86.69
237.689	71.69
237.922	93.69
238.156	67.69
238.39	79.69
238.624	77.69
238.858	73.69
239.091	70.69
239.325	85.69
239.559	79.69
239.793	66.69
240.027	78.69
240.26	77.69
240.494	79.69
240.728	73.69
240.961	68.69
241.195	64.69
241.429	77.69
241.662	72.69
241.896	71.69
242.13	71.69
242.363	69.69
242.597	69.69
242.83	69.69
243.064	69.69
243.298	66.69
243.531	74.69
243.765	67.69
243.998	77.69
244.232	74.69
244.465	85.69
244.699	86.69
244.932	85.69
245.166	85.69
245.399	77.69
245.633	82.69
245.866	62.69
246.099	60.69
246.333	72.69
246.566	68.69
246.8	65.69
247.033	84.69
247.266	60.69
247.5	73.69
247.733	73.69
247.966	67.69
248.2	88.69
248.433	80.69
248.666	67.69
248.899	68.69
249.133	73.69
249.366	86.69
249.599	99.69
249.832	86.69
250.066	94.69
250.299	80.69
250.532	76.69
250.765	84.69
250.998	81.69
251.231	74.69
251.465	72.69
251.698	76.69
251.931	66.69
252.164	62.69
252.397	76.69
252.63	70.69
252.863	76.69
253.096	65.69
253.329	85.69
253.562	76.69
253.795	72.69
254.028	84.69
254.261	73.69
254.494	82.69
254.727	95.69
254.96	90.69
255.193	70.69
255.426	64.69
255.659	66.69
255.892	79.69
256.124	66.69
256.357	96.69
256.59	92.69
256.823	80.69
257.056	72.69
257.289	70.69
257.521	81.69
257.754	74.69
257.987	86.69
258.22	82.69
258.452	72.69
258.685	76.69
258.918	83.69
259.151	84.69
259.383	93.69
259.616	85.69
259.849	72.69
260.081	88.69
260.314	84.69
260.547	81.69
260.779	66.69
261.012	90.69
261.244	82.69
261.477	81.69
261.71	95.69
261.942	86.69
262.175	90.69
262.407	83.69
262.64	89.69
262.872	83.69
263.105	84.69
263.337	80.69
263.57	71.69
263.802	81.69
264.035	70.69
264.267	82.69
264.499	78.69
264.732	76.69
264.964	80.69
265.197	95.69
265.429	92.69
265.661	82.69
265.894	82.69
266.126	77.69
266.358	83.69
266.591	78.69
266.823	80.69
267.055	72.69
267.287	69.69
267.52	68.69
267.752	78.69
267.984	84.69
268.216	78.69
268.448	84.69
268.681	76.69
268.913	90.69
269.145	89.69
269.377	71.69
269.609	81.69
269.841	68.69
270.073	69.69
270.306	88.69
270.538	77.69
270.77	102.69
271.002	95.69
271.234	84.69
271.466	83.69
271.698	84.69
271.93	73.69
272.162	93.69
272.394	87.69
272.626	69.69
272.858	76.69
273.09	82.69
273.322	82.69
273.553	91.69
273.785	80.69
274.017	65.69
274.249	81.69
274.481	85.69
274.713	87.69
274.945	86.69
275.176	96.69
275.408	86.69
275.64	66.69
275.872	74.69
276.104	65.69
276.335	87.69
276.567	93.69
276.799	95.69
277.031	78.69
277.262	83.69
277.494	74.69
277.726	85.69
277.957	93.69
278.189	82.69
278.421	78.69
278.652	68.69
278.884	82.69
279.115	86.69
279.347	72.69
279.579	82.69
279.81	77.69
280.042	82.69
280.273	81.69
280.505	79.69
280.736	88.69
280.968	80.69
281.199	83.69
281.431	77.69
281.662	87.69
281.894	91.69
282.125	89.69
282.356	107.69
282.588	112.69
282.819	95.69
283.051	86.69
283.282	80.69
283.513	87.69
283.745	88.69
283.976	73.69
284.207	74.69
284.439	90.69
284.67	79.69
284.901	85.69
285.132	103.69
285.364	84.69
285.595	90.69
285.826	78.69
286.057	89.69
286.288	81.69
286.52	99.69
286.751	86.69
286.982	81.69
287.213	85.69
287.444	81.69
287.675	87.69
287.906	85.69
288.138	70.69
288.369	85.69
288.6	92.69
288.831	88.69
289.062	89.69
289.293	93.69
289.524	80.69
289.755	76.69
289.986	81.69
290.217	70.69
290.448	85.69
290.679	80.69
290.91	82.69
291.141	79.69
291.371	80.69
291.602	78.69
291.833	79.69
292.064	93.69
292.295	72.69
292.526	73.69
292.757	92.69
292.987	90.69
293.218	86.69
293.449	88.69
293.68	82.69
293.91	82.69
294.141	84.69
294.372	85.69
294.603	83.69
294.833	68.69
295.064	76.69
295.295	79.69
295.525	98.69
295.756	101.69
295.987	104.69
296.217	126.69
296.448	100.69
296.679	89.69
296.909	92.69
297.14	82.69
297.37	87.69
297.601	73.69
297.831	84.69
298.062	89.69
298.292	100.69
298.523	73.69
298.753	84.69
298.984	88.69
299.214	93.69
299.445	68.69
299.675	84.69
299.905	80.69
300.136	88.69
300.366	69.69
300.597	81.69
300.827	95.69
301.057	89.69
301.288	82.69
301.518	78.69
301.748	83.69
301.979	107.69
302.209	88.69
302.439	87.69
302.669	89.69
302.9	100.69
303.13	94.69
303.36	85.69
303.59	89.69
303.82	94.69
304.051	73.69
304.281	90.69
304.511	99.69
304.741	85.69
304.971	82.69
305.201	76.69
305.431	84.69
305.661	100.69
305.891	93.69
306.121	85.69
306.352	98.69
306.582	88.69
306.812	80.69
307.042	84.69
307.272	85.69
307.502	96.69
307.731	97.69
307.961	80.69
308.191	82.69
308.421	88.69
308.651	85.69
308.881	82.69
309.111	88.69
309.341	80.69
309.571	84.69
309.8	88.69
310.03	90.69
310.26	87.69
310.49	86.69
310.72	86.69
310.949	87.69
311.179	78.69
311.409	88.69
311.639	95.69
311.868	92.69
312.098	79.69
312.328	66.69
312.557	78.69
312.787	90.69
313.017	96.69
313.246	92.69
313.476	82.69
313.706	95.69
313.935	84.69
314.165	92.69
314.394	91.69
314.624	96.69
314.853	99.69
315.083	88.69
315.312	109.69
315.542	93.69
315.771	97.69
316.001	84.69
316.23	78.69
316.46	79.69
316.689	85.69
316.919	101.69
317.148	94.69
317.377	97.69
317.607	88.69
317.836	89.69
318.065	93.69
318.295	84.69
318.524	94.69
318.753	84.69
318.983	80.69
319.212	94.69
319.441	93.69
319.67	92.69
319.9	105.69
320.129	95.69
320.358	88.69
320.587	70.69
320.816	94.69
321.046	92.69
321.275	88.69
321.504	88.69
321.733	90.69
321.962	89.69
322.191	94.69
322.42	84.69
322.649	95.69
322.878	111.69
323.108	100.69
323.337	116.69
323.566	107.69
323.795	120.69
324.024	170.69
324.253	297.69
324.482	560.69
324.71	1148.69
324.939	1508.69
325.168	560.69
325.397	198.69
325.626	125.69
325.855	104.69
326.084	95.69
326.313	102.69
326.542	126.69
326.77	178.69
326.999	340.69
327.228	696.69
327.457	1204.69
327.686	948.69
327.914	280.69
328.143	166.69
328.372	116.69
328.6	114.69
328.829	85.69
329.058	113.69
329.287	113.69
329.515	111.69
329.744	97.69
329.972	89.69
330.201	93.69
330.43	113.69
330.658	112.69
330.887	115.69
331.115	103.69
331.344	81.69
331.572	99.69
331.801	88.69
332.03	97.69
332.258	92.69
332.486	90.69
332.715	79.69
332.943	85.69
333.172	84.69
333.4	86.69
333.629	93.69
333.857	94.69
334.085	94.69
334.314	99.69
334.542	114.69
334.771	126.69
334.999	92.69
335.227	93.69
335.455	85.69
335.684	91.69
335.912	100.69
336.14	98.69
336.369	88.69
336.597	88.69
336.825	81.69
337.053	86.69
337.281	87.69
337.51	87.69
337.738	88.69
337.966	101.69
338.194	85.69
338.422	94.69
338.65	79.69
338.878	83.69
339.106	82.69
339.334	82.69
339.562	88.69
339.79	85.69
340.018	94.69
340.246	89.69
340.474	97.69
340.702	84.69
340.93	91.69
341.158	87.69
341.386	93.69
341.614	82.69
341.842	102.69
342.07	90.69
342.298	94.69
342.526	82.69
342.754	76.69
342.981	68.69
343.209	91.69
343.437	94.69
343.665	90.69
343.893	73.69
344.12	81.69
344.348	96.69
344.576	85.69
344.804	86.69
345.031	94.69
345.259	81.69
345.487	86.69
345.714	82.69
345.942	80.69
346.17	86.69
346.397	91.69
346.625	73.69
346.853	80.69
347.08	74.69
347.308	95.69
347.535	95.69
347.763	92.69
347.99	88.69
348.218	99.69
348.445	97.69
348.673	101.69
348.9	85.69
349.128	94.69
349.355	101.69
349.583	93.69
349.81	96.69
350.037	105.69
350.265	93.69
350.492	93.69
350.72	81.69
350.947	85.69
351.174	93.69
351.402	105.69
351.629	84.69
351.856	78.69
352.083	94.69
352.311	92.69
352.538	104.69
352.765	101.69
352.992	104.69
353.22	100.69
353.447	84.69
353.674	88.69
353.901	110.69
354.128	102.69
354.355	96.69
354.583	78.69
354.81	77.69
355.037	99.69
355.264	87.69
355.491	85.69
355.718	85.69
355.945	99.69
356.172	89.69
356.399	88.69
356.626	105.69
356.853	76.69
357.08	92.69
357.307	89.69
357.534	91.69
357.761	85.69
357.988	87.69
358.215	96.69
358.441	88.69
358.668	96.69
358.895	73.69
359.122	80.69
359.349	100.69
359.576	87.69
359.802	102.69
360.029	86.69
360.256	88.69
360.483	80.69
360.709	74.69
360.936	91.69
361.163	92.69
361.39	89.69
361.616	78.69
361.843	99.69
362.07	84.69
362.296	86.69
362.523	80.69
362.749	77.69
362.976	97.69
363.203	84.69
363.429	79.69
363.656	100.69
363.882	82.69
364.109	84.69
364.335	89.69
364.562	79.69
364.788	81.69
365.015	82.69
365.241	96.69
365.468	88.69
365.694	86.69
365.92	81.69
366.147	87.69
366.373	80.69
366.599	82.69
366.826	81.69
367.052	98.69
367.278	87.69
367.505	104.69
367.731	94.69
367.957	100.69
368.184	104.69
368.41	93.69
368.636	78.69
368.862	95.69
369.089	101.69
369.315	93.69
369.541	99.69
369.767	82.69
369.993	79.69
370.219	79.69
370.445	94.69
370.672	73.69
370.898	77.69
371.124	78.69
371.35	95.69
371.576	86.69
371.802	81.69
372.028	93.69
372.254	67.69
372.48	70.69
372.706	87.69
372.932	96.69
373.158	92.69
373.384	84.69
373.61	78.69
373.835	98.69
374.061	85.69
374.287	82.69
374.513	85.69
374.739	76.69
374.965	82.69
375.191	82.69
375.416	91.69
375.642	92.69
375.868	88.69
376.094	89.69
376.319	85.69
376.545	92.69
376.771	90.69
376.997	78.69
377.222	90.69
377.448	78.69
377.674	82.69
377.899	87.69
378.125	86.69
378.35	82.69
378.576	84.69
378.802	93.69
379.027	69.69
379.253	93.69
379.478	78.69
379.704	88.69
379.929	76.69
380.155	81.69
380.38	81.69
380.606	65.69
380.831	95.69
381.057	98.69
381.282	94.69
381.507	96.69
381.733	87.69
381.958	90.69
382.184	92.69
382.409	96.69
382.634	97.69
382.86	97.69
383.085	97.69
383.31	81.69
383.535	77.69
383.761	94.69
383.986	100.69
384.211	99.69
384.436	90.69
384.662	93.69
384.887	93.69
385.112	111.69
385.337	96.69
385.562	103.69
385.787	106.69
386.013	93.69
386.238	109.69
386.463	94.69
386.688	113.69
386.913	103.69
387.138	99.69
387.363	97.69
387.588	100.69
387.813	116.69
388.038	106.69
388.263	108.69
388.488	92.69
388.713	72.69
388.938	91.69
389.163	80.69
389.387	87.69
389.612	87.69
389.837	85.69
390.062	81.69
390.287	84.69
390.512	72.69
390.736	89.69
390.961	96.69
391.186	87.69
391.411	97.69
391.636	87.69
391.86	82.69
392.085	73.69
392.31	86.69
392.534	85.69
392.759	88.69
392.984	95.69
393.208	76.69
393.433	82.69
393.658	91.69
393.882	96.69
394.107	81.69
394.331	69.69
394.556	73.69
394.78	92.69
395.005	88.69
395.229	83.69
395.454	74.69
395.678	82.69
395.903	88.69
396.127	86.69
396.352	82.69
396.576	72.69
396.801	82.69
397.025	76.69
397.249	79.69
397.474	88.69
397.698	74.69
397.922	74.69
398.147	83.69
398.371	83.69
398.595	85.69
398.82	81.69
399.044	68.69
399.268	96.69
399.492	68.69
399.717	103.69
399.941	88.69
400.165	85.69
400.389	86.69
400.613	88.69
400.837	78.69
401.062	82.69
401.286	90.69
401.51	71.69
401.734	94.69
401.958	93.69
402.182	107.69
402.406	126.69
402.63	95.69
402.854	85.69
403.078	85.69
403.302	74.69
403.526	85.69
403.75	74.69
403.974	80.69
404.198	70.69
404.422	81.69
404.645	81.69
404.869	107.69
405.093	92.69
405.317	84.69
405.541	89.69
405.765	88.69
405.988	105.69
406.212	132.69
406.436	176.69
406.66	109.69
406.883	98.69
407.107	98.69
407.331	88.69
407.555	96.69
407.778	102.69
408.002	81.69
408.226	69.69
408.449	80.69
408.673	78.69
408.896	87.69
409.12	80.69
409.344	82.69
409.567	76.69
409.791	84.69
410.014	99.69
410.238	96.69
410.461	88.69
410.685	92.69
410.908	92.69
411.132	97.69
411.355	82.69
411.578	97.69
411.802	89.69
412.025	84.69
412.249	81.69
412.472	93.69
412.695	98.69
412.919	112.69
413.142	85.69
413.365	86.69
413.589	71.69
413.812	85.69
414.035	83.69
414.258	102.69
414.482	78.69
414.705	68.69
414.928	93.69
415.151	85.69
415.374	88.69
415.597	80.69
415.821	81.69
416.044	81.69
416.267	82.69
416.49	75.69
416.713	84.69
416.936	97.69
417.159	93.69
417.382	87.69
417.605	95.69
417.828	87.69
418.051	81.69
418.274	71.69
418.497	84.69
418.72	84.69
418.943	77.69
419.166	85.69
419.389	90.69
419.611	92.69
419.834	88.69
420.057	85.69
420.28	81.69
420.503	71.69
420.726	87.69
420.948	81.69
421.171	87.69
421.394	93.69
421.617	90.69
421.839	89.69
422.062	92.69
422.285	89.69
422.507	98.69
422.73	89.69
422.953	94.69
423.175	96.69
423.398	84.69
423.621	86.69
423.843	86.69
424.066	92.69
424.288	97.69
424.511	80.69
424.733	90.69
424.956	88.69
425.178	95.69
425.401	82.69
425.623	88.69
425.846	85.69
426.068	88.69
426.291	74.69
426.513	79.69
426.735	90.69
426.958	80.69
427.18	93.69
427.402	121.69
427.625	128.69
427.847	120.69
428.069	98.69
428.292	83.69
428.514	92.69
428.736	68.69
428.958	81.69
429.181	94.69
429.403	82.69
429.625	80.69
429.847	100.69
430.069	109.69
430.292	92.69
430.514	80.69
430.736	72.69
430.958	81.69
431.18	81.69
431.402	84.69
431.624	77.69
431.846	88.69
432.068	88.69
432.29	68.69
432.512	83.69
432.734	99.69
432.956	89.69
433.178	88.69
433.4	96.69
433.622	85.69
433.844	83.69
434.066	84.69
434.287	85.69
434.509	84.69
434.731	85.69
434.953	91.69
435.175	78.69
435.397	89.69
435.618	86.69
435.84	99.69
436.062	107.69
436.284	107.69
436.505	93.69
436.727	109.69
436.949	71.69
437.17	89.69
437.392	81.69
437.614	94.69
437.835	83.69
438.057	101.69
438.278	89.69
438.5	106.69
438.721	112.69
438.943	94.69
439.165	84.69
439.386	84.69
439.608	80.69
439.829	92.69
440.05	115.69
440.272	113.69
440.493	87.69
440.715	71.69
440.936	92.69
441.158	93.69
441.379	88.69
441.6	84.69
441.822	69.69
442.043	78.69
442.264	102.69
442.486	85.69
442.707	91.69
442.928	87.69
443.149	117.69
443.371	104.69
443.592	93.69
443.813	99.69
444.034	91.69
444.255	72.69
444.476	78.69
444.698	80.69
444.919	82.69
445.14	124.69
445.361	114.69
445.582	104.69
445.803	108.69
446.024	118.69
446.245	105.69
446.466	87.69
446.687	94.69
446.908	84.69
447.129	81.69
447.35	68.69
447.571	88.69
447.792	84.69
448.013	94.69
448.234	104.69
448.455	100.69
448.675	103.69
448.896	103.69
449.117	86.69
449.338	105.69
449.559	126.69
449.779	108.69
450	74.69
450.221	84.69
450.442	76.69
450.662	80.69
450.883	115.69
451.104	108.69
451.324	89.69
451.545	87.69
451.766	81.69
451.986	83.69
452.207	88.69
452.428	82.69
452.648	89.69
452.869	106.69
453.089	106.69
453.31	93.69
453.53	88.69
453.751	84.69
453.971	97.69
454.192	109.69
454.412	85.69
454.633	92.69
454.853	83.69
455.073	78.69
455.294	78.69
455.514	85.69
455.734	82.69
455.955	82.69
456.175	86.69
456.395	81.69
456.616	75.69
456.836	81.69
457.056	65.69
457.276	77.69
457.497	77.69
457.717	93.69
457.937	94.69
458.157	85.69
458.377	83.69
458.598	75.69
458.818	120.69
459.038	129.69
459.258	97.69
459.478	85.69
459.698	90.69
459.918	97.69
460.138	89.69
460.358	97.69
460.578	82.69
460.798	86.69
461.018	85.69
461.238	76.69
461.458	81.69
461.678	81.69
461.898	94.69
462.118	94.69
462.338	106.69
462.558	82.69
462.777	84.69
462.997	86.69
463.217	71.69
463.437	70.69
463.657	77.69
463.876	88.69
464.096	92.69
464.316	78.69
464.536	96.69
464.755	93.69
464.975	97.69
465.195	131.69
465.414	130.69
465.634	89.69
465.854	77.69
466.073	87.69
466.293	86.69
466.512	86.69
466.732	71.69
466.951	78.69
467.171	91.69
467.391	85.69
467.61	85.69
467.829	87.69
468.049	102.69
468.268	100.69
468.488	81.69
468.707	84.69
468.927	87.69
469.146	72.69
469.365	90.69
469.585	95.69
469.804	80.69
470.023	85.69
470.243	84.69
470.462	93.69
470.681	78.69
470.901	68.69
471.12	88.69
471.339	79.69
471.558	81.69
471.777	85.69
471.997	83.69
472.216	126.69
472.435	135.69
472.654	94.69
472.873	85.69
473.092	78.69
473.311	72.69
473.53	84.69
473.749	93.69
473.968	92.69
474.187	105.69
474.406	102.69
474.625	78.69
474.844	80.69
475.063	98.69
475.282	83.69
475.501	82.69
475.72	75.69
475.939	89.69
476.158	82.69
476.377	92.69
476.596	85.69
476.814	81.69
477.033	90.69
477.252	85.69
477.471	78.69
477.69	93.69
477.908	81.69
478.127	81.69
478.346	80.69
478.564	93.69
478.783	81.69
479.002	85.69
479.22	89.69
479.439	97.69
479.658	95.69
479.876	89.69
480.095	82.69
480.313	96.69
480.532	75.69
480.751	89.69
480.969	102.69
481.188	159.69
481.406	127.69
481.624	102.69
481.843	81.69
482.061	87.69
482.28	85.69
482.498	86.69
482.717	75.69
482.935	92.69
483.153	98.69
483.372	94.69
483.59	76.69
483.808	93.69
484.027	97.69
484.245	95.69
484.463	86.69
484.681	81.69
484.9	80.69
485.118	97.69
485.336	91.69
485.554	93.69
485.772	81.69
485.99	97.69
486.209	103.69
486.427	92.69
486.645	121.69
486.863	112.69
487.081	93.69
487.299	98.69
487.517	95.69
487.735	85.69
487.953	92.69
488.171	92.69
488.389	95.69
488.607	85.69
488.825	82.69
489.043	99.69
489.261	92.69
489.479	91.69
489.696	84.69
489.914	77.69
490.132	88.69
490.35	65.69
490.568	82.69
490.786	84.69
491.003	68.69
491.221	80.69
491.439	90.69
491.657	90.69
491.874	80.69
492.092	94.69
492.31	82.69
492.527	92.69
492.745	84.69
492.963	88.69
493.18	89.69
493.398	93.69
493.615	95.69
493.833	89.69
494.05	79.69
494.268	89.69
494.485	76.69
494.703	89.69
494.92	98.69
495.138	92.69
495.355	84.69
495.573	87.69
495.79	94.69
496.008	89.69
496.225	88.69
496.442	76.69
496.66	84.69
496.877	90.69
497.094	93.69
497.312	86.69
497.529	97.69
497.746	93.69
497.963	99.69
498.181	81.69
498.398	100.69
498.615	102.69
498.832	84.69
499.049	81.69
499.267	92.69
499.484	88.69
499.701	95.69
499.918	111.69
500.135	84.69
500.352	94.69
500.569	89.69
500.786	84.69
501.003	86.69
501.22	93.69
501.437	81.69
501.654	94.69
501.871	102.69
502.088	86.69
502.305	85.69
502.522	71.69
502.739	94.69
502.956	71.69
503.172	95.69
503.389	96.69
503.606	84.69
503.823	89.69
504.04	88.69
504.256	104.69
504.473	77.69
504.69	83.69
504.907	109.69
505.123	100.69
505.34	84.69
505.557	89.69
505.773	76.69
505.99	80.69
506.207	81.69
506.423	88.69
506.64	90.69
506.856	96.69
507.073	90.69
507.289	94.69
507.506	101.69
507.722	92.69
507.939	105.69
508.155	85.69
508.372	93.69
508.588	85.69
508.805	91.69
509.021	80.69
509.238	92.69
509.454	75.69
509.67	102.69
509.887	93.69
510.103	114.69
510.319	171.69
510.536	573.69
510.752	1607.69
510.968	450.69
511.184	134.69
511.401	95.69
511.617	83.69
511.833	92.69
512.049	93.69
512.265	80.69
512.481	95.69
512.698	94.69
512.914	81.69
513.13	90.69
513.346	87.69
513.562	94.69
513.778	92.69
513.994	107.69
514.21	98.69
514.426	107.69
514.642	113.69
514.858	89.69
515.074	122.69
515.29	316.69
515.506	990.69
515.721	374.69
515.937	124.69
516.153	81.69
516.369	86.69
516.585	94.69
516.801	86.69
517.016	89.69
517.232	83.69
517.448	82.69
517.664	86.69
