Data from Circ_1982_H10_HRD10591_00075.txt Node
Date: Wed Jan 03 12:30:56 EST 2024
User: Yrep
Spectrometer: HR+D1059
Trigger mode: 1
Integration Time (sec): 1.000000E-1
Scans to average: 1
Electric dark correction enabled: true
Nonlinearity correction enabled: false
Boxcar width: 0
XAxis mode: Wavelengths
Number of Pixels in Spectrum: 2048
>>>>>Begin Spectral Data<<<<<
223.165	-8.69
223.4	-8.69
223.635	-8.69
223.869	-24.69
224.104	-20.69
224.338	-11.69
224.573	-18.69
224.808	-5.69
225.042	-11.69
225.277	-22.69
225.511	-0.69
225.746	11.31
225.98	15.31
226.215	4.31
226.449	29.31
226.683	18.31
226.918	19.31
227.152	27.31
227.387	41.31
227.621	36.31
227.856	37.31
228.09	27.31
228.324	57.31
228.559	51.31
228.793	57.31
229.027	64.31
229.262	50.31
229.496	66.31
229.73	82.31
229.964	82.31
230.199	91.31
230.433	65.31
230.667	81.31
230.901	62.31
231.136	74.31
231.37	74.31
231.604	74.31
231.838	78.31
232.072	83.31
232.306	76.31
232.541	77.31
232.775	86.31
233.009	77.31
233.243	68.31
233.477	81.31
233.711	84.31
233.945	94.31
234.179	66.31
234.413	69.31
234.647	77.31
234.881	79.31
235.115	82.31
235.349	81.31
235.583	77.31
235.817	60.31
236.051	76.31
236.285	63.31
236.519	65.31
236.753	77.31
236.987	66.31
237.221	74.31
237.455	79.31
237.689	73.31
237.922	74.31
238.156	78.31
238.39	75.31
238.624	83.31
238.858	82.31
239.091	87.31
239.325	69.31
239.559	87.31
239.793	81.31
240.027	65.31
240.26	73.31
240.494	73.31
240.728	65.31
240.961	60.31
241.195	61.31
241.429	67.31
241.662	71.31
241.896	77.31
242.13	89.31
242.363	63.31
242.597	78.31
242.83	69.31
243.064	71.31
243.298	77.31
243.531	75.31
243.765	65.31
243.998	75.31
244.232	99.31
244.465	81.31
244.699	86.31
244.932	77.31
245.166	66.31
245.399	87.31
245.633	75.31
245.866	79.31
246.099	93.31
246.333	82.31
246.566	75.31
246.8	75.31
247.033	73.31
247.266	82.31
247.5	77.31
247.733	70.31
247.966	88.31
248.2	75.31
248.433	72.31
248.666	71.31
248.899	90.31
249.133	72.31
249.366	110.31
249.599	89.31
249.832	89.31
250.066	77.31
250.299	77.31
250.532	77.31
250.765	74.31
250.998	77.31
251.231	81.31
251.465	78.31
251.698	68.31
251.931	56.31
252.164	81.31
252.397	74.31
252.63	78.31
252.863	93.31
253.096	80.31
253.329	93.31
253.562	88.31
253.795	67.31
254.028	86.31
254.261	79.31
254.494	76.31
254.727	85.31
254.96	77.31
255.193	78.31
255.426	74.31
255.659	72.31
255.892	79.31
256.124	68.31
256.357	83.31
256.59	75.31
256.823	68.31
257.056	81.31
257.289	70.31
257.521	79.31
257.754	87.31
257.987	80.31
258.22	66.31
258.452	87.31
258.685	79.31
258.918	77.31
259.151	80.31
259.383	74.31
259.616	71.31
259.849	72.31
260.081	81.31
260.314	79.31
260.547	73.31
260.779	77.31
261.012	81.31
261.244	94.31
261.477	78.31
261.71	85.31
261.942	112.31
262.175	99.31
262.407	80.31
262.64	74.31
262.872	75.31
263.105	91.31
263.337	89.31
263.57	74.31
263.802	83.31
264.035	81.31
264.267	73.31
264.499	76.31
264.732	78.31
264.964	70.31
265.197	79.31
265.429	90.31
265.661	79.31
265.894	83.31
266.126	80.31
266.358	86.31
266.591	100.31
266.823	98.31
267.055	81.31
267.287	88.31
267.52	89.31
267.752	59.31
267.984	89.31
268.216	63.31
268.448	85.31
268.681	80.31
268.913	87.31
269.145	72.31
269.377	82.31
269.609	72.31
269.841	79.31
270.073	84.31
270.306	91.31
270.538	72.31
270.77	67.31
271.002	85.31
271.234	72.31
271.466	77.31
271.698	85.31
271.93	82.31
272.162	69.31
272.394	82.31
272.626	75.31
272.858	82.31
273.09	85.31
273.322	78.31
273.553	71.31
273.785	64.31
274.017	75.31
274.249	79.31
274.481	81.31
274.713	78.31
274.945	69.31
275.176	83.31
275.408	85.31
275.64	80.31
275.872	99.31
276.104	77.31
276.335	79.31
276.567	89.31
276.799	97.31
277.031	93.31
277.262	77.31
277.494	78.31
277.726	95.31
277.957	87.31
278.189	91.31
278.421	85.31
278.652	84.31
278.884	67.31
279.115	77.31
279.347	81.31
279.579	83.31
279.81	77.31
280.042	87.31
280.273	84.31
280.505	87.31
280.736	80.31
280.968	87.31
281.199	81.31
281.431	67.31
281.662	82.31
281.894	72.31
282.125	75.31
282.356	103.31
282.588	112.31
282.819	97.31
283.051	80.31
283.282	90.31
283.513	79.31
283.745	89.31
283.976	88.31
284.207	83.31
284.439	72.31
284.67	72.31
284.901	82.31
285.132	71.31
285.364	79.31
285.595	83.31
285.826	86.31
286.057	83.31
286.288	79.31
286.52	87.31
286.751	82.31
286.982	83.31
287.213	79.31
287.444	68.31
287.675	75.31
287.906	93.31
288.138	87.31
288.369	87.31
288.6	67.31
288.831	85.31
289.062	85.31
289.293	86.31
289.524	89.31
289.755	89.31
289.986	68.31
290.217	85.31
290.448	81.31
290.679	93.31
290.91	89.31
291.141	91.31
291.371	79.31
291.602	88.31
291.833	76.31
292.064	81.31
292.295	69.31
292.526	85.31
292.757	83.31
292.987	83.31
293.218	72.31
293.449	71.31
293.68	82.31
293.91	78.31
294.141	88.31
294.372	83.31
294.603	72.31
294.833	77.31
295.064	79.31
295.295	88.31
295.525	81.31
295.756	103.31
295.987	95.31
296.217	113.31
296.448	104.31
296.679	75.31
296.909	93.31
297.14	99.31
297.37	90.31
297.601	97.31
297.831	79.31
298.062	77.31
298.292	77.31
298.523	88.31
298.753	77.31
298.984	77.31
299.214	94.31
299.445	93.31
299.675	95.31
299.905	83.31
300.136	94.31
300.366	78.31
300.597	85.31
300.827	106.31
301.057	87.31
301.288	99.31
301.518	90.31
301.748	104.31
301.979	98.31
302.209	81.31
302.439	77.31
302.669	92.31
302.9	74.31
303.13	85.31
303.36	98.31
303.59	86.31
303.82	103.31
304.051	93.31
304.281	89.31
304.511	74.31
304.741	77.31
304.971	85.31
305.201	85.31
305.431	81.31
305.661	77.31
305.891	102.31
306.121	92.31
306.352	93.31
306.582	102.31
306.812	86.31
307.042	84.31
307.272	94.31
307.502	101.31
307.731	94.31
307.961	85.31
308.191	77.31
308.421	90.31
308.651	87.31
308.881	89.31
309.111	98.31
309.341	92.31
309.571	88.31
309.8	93.31
310.03	95.31
310.26	93.31
310.49	89.31
310.72	99.31
310.949	92.31
311.179	85.31
311.409	87.31
311.639	94.31
311.868	95.31
312.098	93.31
312.328	97.31
312.557	103.31
312.787	92.31
313.017	104.31
313.246	93.31
313.476	86.31
313.706	83.31
313.935	95.31
314.165	103.31
314.394	88.31
314.624	93.31
314.853	89.31
315.083	94.31
315.312	91.31
315.542	106.31
315.771	83.31
316.001	84.31
316.23	93.31
316.46	94.31
316.689	75.31
316.919	90.31
317.148	98.31
317.377	82.31
317.607	102.31
317.836	84.31
318.065	88.31
318.295	96.31
318.524	73.31
318.753	97.31
318.983	92.31
319.212	87.31
319.441	97.31
319.67	102.31
319.9	83.31
320.129	88.31
320.358	75.31
320.587	85.31
320.816	91.31
321.046	80.31
321.275	81.31
321.504	91.31
321.733	80.31
321.962	94.31
322.191	80.31
322.42	105.31
322.649	96.31
322.878	103.31
323.108	100.31
323.337	89.31
323.566	103.31
323.795	126.31
324.024	163.31
324.253	308.31
324.482	602.31
324.71	1157.31
324.939	1498.31
325.168	562.31
325.397	190.31
325.626	118.31
325.855	116.31
326.084	100.31
326.313	103.31
326.542	127.31
326.77	198.31
326.999	337.31
327.228	713.31
327.457	1181.31
327.686	949.31
327.914	264.31
328.143	163.31
328.372	127.31
328.6	111.31
328.829	100.31
329.058	109.31
329.287	95.31
329.515	93.31
329.744	95.31
329.972	110.31
330.201	113.31
330.43	99.31
330.658	122.31
330.887	107.31
331.115	103.31
331.344	95.31
331.572	99.31
331.801	83.31
332.03	94.31
332.258	113.31
332.486	87.31
332.715	90.31
332.943	83.31
333.172	87.31
333.4	78.31
333.629	113.31
333.857	100.31
334.085	109.31
334.314	117.31
334.542	112.31
334.771	109.31
334.999	101.31
335.227	97.31
335.455	87.31
335.684	90.31
335.912	90.31
336.14	103.31
336.369	94.31
336.597	85.31
336.825	85.31
337.053	91.31
337.281	91.31
337.51	111.31
337.738	94.31
337.966	83.31
338.194	92.31
338.422	84.31
338.65	100.31
338.878	73.31
339.106	91.31
339.334	89.31
339.562	81.31
339.79	87.31
340.018	77.31
340.246	93.31
340.474	90.31
340.702	90.31
340.93	70.31
341.158	84.31
341.386	84.31
341.614	82.31
341.842	94.31
342.07	83.31
342.298	87.31
342.526	73.31
342.754	87.31
342.981	69.31
343.209	70.31
343.437	92.31
343.665	91.31
343.893	96.31
344.12	88.31
344.348	81.31
344.576	87.31
344.804	77.31
345.031	91.31
345.259	77.31
345.487	95.31
345.714	101.31
345.942	86.31
346.17	99.31
346.397	89.31
346.625	87.31
346.853	94.31
347.08	79.31
347.308	101.31
347.535	79.31
347.763	87.31
347.99	87.31
348.218	101.31
348.445	84.31
348.673	79.31
348.9	84.31
349.128	87.31
349.355	89.31
349.583	86.31
349.81	80.31
350.037	90.31
350.265	81.31
350.492	90.31
350.72	80.31
350.947	99.31
351.174	107.31
351.402	99.31
351.629	99.31
351.856	99.31
352.083	102.31
352.311	103.31
352.538	99.31
352.765	98.31
352.992	104.31
353.22	96.31
353.447	92.31
353.674	95.31
353.901	100.31
354.128	95.31
354.355	90.31
354.583	104.31
354.81	94.31
355.037	91.31
355.264	102.31
355.491	94.31
355.718	90.31
355.945	100.31
356.172	90.31
356.399	95.31
356.626	93.31
356.853	72.31
357.08	99.31
357.307	83.31
357.534	88.31
357.761	83.31
357.988	82.31
358.215	94.31
358.441	84.31
358.668	97.31
358.895	86.31
359.122	78.31
359.349	84.31
359.576	94.31
359.802	86.31
360.029	83.31
360.256	99.31
360.483	94.31
360.709	74.31
360.936	81.31
361.163	87.31
361.39	87.31
361.616	81.31
361.843	93.31
362.07	94.31
362.296	81.31
362.523	100.31
362.749	90.31
362.976	72.31
363.203	81.31
363.429	80.31
363.656	95.31
363.882	90.31
364.109	84.31
364.335	78.31
364.562	83.31
364.788	78.31
365.015	84.31
365.241	80.31
365.468	93.31
365.694	87.31
365.92	86.31
366.147	99.31
366.373	89.31
366.599	85.31
366.826	93.31
367.052	83.31
367.278	85.31
367.505	79.31
367.731	97.31
367.957	88.31
368.184	84.31
368.41	106.31
368.636	92.31
368.862	111.31
369.089	94.31
369.315	96.31
369.541	77.31
369.767	87.31
369.993	80.31
370.219	97.31
370.445	77.31
370.672	74.31
370.898	69.31
371.124	88.31
371.35	86.31
371.576	78.31
371.802	88.31
372.028	89.31
372.254	82.31
372.48	82.31
372.706	73.31
372.932	91.31
373.158	92.31
373.384	89.31
373.61	84.31
373.835	72.31
374.061	79.31
374.287	89.31
374.513	82.31
374.739	91.31
374.965	99.31
375.191	81.31
375.416	93.31
375.642	87.31
375.868	89.31
376.094	89.31
376.319	91.31
376.545	83.31
376.771	93.31
376.997	79.31
377.222	69.31
377.448	77.31
377.674	81.31
377.899	74.31
378.125	92.31
378.35	80.31
378.576	94.31
378.802	92.31
379.027	89.31
379.253	78.31
379.478	67.31
379.704	96.31
379.929	90.31
380.155	88.31
380.38	81.31
380.606	94.31
380.831	92.31
381.057	94.31
381.282	99.31
381.507	81.31
381.733	90.31
381.958	84.31
382.184	94.31
382.409	89.31
382.634	87.31
382.86	94.31
383.085	91.31
383.31	90.31
383.535	89.31
383.761	104.31
383.986	106.31
384.211	89.31
384.436	91.31
384.662	82.31
384.887	86.31
385.112	102.31
385.337	97.31
385.562	86.31
385.787	105.31
386.013	104.31
386.238	93.31
386.463	109.31
386.688	102.31
386.913	86.31
387.138	80.31
387.363	90.31
387.588	98.31
387.813	94.31
388.038	93.31
388.263	106.31
388.488	95.31
388.713	99.31
388.938	90.31
389.163	81.31
389.387	85.31
389.612	81.31
389.837	98.31
390.062	101.31
390.287	85.31
390.512	79.31
390.736	77.31
390.961	87.31
391.186	86.31
391.411	77.31
391.636	94.31
391.86	77.31
392.085	95.31
392.31	80.31
392.534	99.31
392.759	78.31
392.984	87.31
393.208	83.31
393.433	93.31
393.658	98.31
393.882	77.31
394.107	83.31
394.331	90.31
394.556	90.31
394.78	94.31
395.005	78.31
395.229	80.31
395.454	83.31
395.678	71.31
395.903	84.31
396.127	87.31
396.352	82.31
396.576	82.31
396.801	83.31
397.025	75.31
397.249	93.31
397.474	96.31
397.698	83.31
397.922	64.31
398.147	85.31
398.371	85.31
398.595	79.31
398.82	90.31
399.044	81.31
399.268	84.31
399.492	87.31
399.717	96.31
399.941	85.31
400.165	109.31
400.389	95.31
400.613	85.31
400.837	91.31
401.062	79.31
401.286	88.31
401.51	91.31
401.734	82.31
401.958	101.31
402.182	134.31
402.406	126.31
402.63	94.31
402.854	93.31
403.078	81.31
403.302	89.31
403.526	103.31
403.75	90.31
403.974	81.31
404.198	76.31
404.422	91.31
404.645	90.31
404.869	83.31
405.093	85.31
405.317	86.31
405.541	104.31
405.765	73.31
405.988	103.31
406.212	136.31
406.436	177.31
406.66	105.31
406.883	87.31
407.107	95.31
407.331	90.31
407.555	85.31
407.778	94.31
408.002	92.31
408.226	77.31
408.449	81.31
408.673	63.31
408.896	81.31
409.12	96.31
409.344	89.31
409.567	79.31
409.791	82.31
410.014	91.31
410.238	89.31
410.461	96.31
410.685	73.31
410.908	105.31
411.132	101.31
411.355	80.31
411.578	94.31
411.802	83.31
412.025	92.31
412.249	82.31
412.472	94.31
412.695	78.31
412.919	73.31
413.142	87.31
413.365	89.31
413.589	73.31
413.812	86.31
414.035	90.31
414.258	85.31
414.482	82.31
414.705	90.31
414.928	74.31
415.151	96.31
415.374	81.31
415.597	85.31
415.821	89.31
416.044	91.31
416.267	70.31
416.49	78.31
416.713	86.31
416.936	85.31
417.159	99.31
417.382	98.31
417.605	89.31
417.828	95.31
418.051	72.31
418.274	80.31
418.497	93.31
418.72	69.31
418.943	81.31
419.166	92.31
419.389	88.31
419.611	91.31
419.834	96.31
420.057	90.31
420.28	86.31
420.503	78.31
420.726	85.31
420.948	73.31
421.171	79.31
421.394	98.31
421.617	93.31
421.839	87.31
422.062	96.31
422.285	85.31
422.507	90.31
422.73	91.31
422.953	78.31
423.175	88.31
423.398	89.31
423.621	88.31
423.843	90.31
424.066	81.31
424.288	77.31
424.511	77.31
424.733	84.31
424.956	83.31
425.178	114.31
425.401	83.31
425.623	94.31
425.846	89.31
426.068	90.31
426.291	81.31
426.513	96.31
426.735	75.31
426.958	74.31
427.18	97.31
427.402	112.31
427.625	125.31
427.847	120.31
428.069	105.31
428.292	84.31
428.514	77.31
428.736	87.31
428.958	100.31
429.181	82.31
429.403	81.31
429.625	84.31
429.847	85.31
430.069	91.31
430.292	94.31
430.514	73.31
430.736	84.31
430.958	89.31
431.18	81.31
431.402	98.31
431.624	90.31
431.846	100.31
432.068	89.31
432.29	94.31
432.512	83.31
432.734	81.31
432.956	70.31
433.178	93.31
433.4	93.31
433.622	89.31
433.844	91.31
434.066	82.31
434.287	56.31
434.509	92.31
434.731	77.31
434.953	86.31
435.175	97.31
435.397	83.31
435.618	96.31
435.84	89.31
436.062	104.31
436.284	99.31
436.505	101.31
436.727	95.31
436.949	88.31
437.17	87.31
437.392	90.31
437.614	89.31
437.835	97.31
438.057	110.31
438.278	94.31
438.5	102.31
438.721	104.31
438.943	98.31
439.165	89.31
439.386	81.31
439.608	71.31
439.829	106.31
440.05	90.31
440.272	113.31
440.493	95.31
440.715	99.31
440.936	97.31
441.158	93.31
441.379	89.31
441.6	91.31
441.822	93.31
442.043	88.31
442.264	89.31
442.486	103.31
442.707	87.31
442.928	98.31
443.149	118.31
443.371	113.31
443.592	89.31
443.813	110.31
444.034	98.31
444.255	87.31
444.476	78.31
444.698	87.31
444.919	72.31
445.14	127.31
445.361	111.31
445.582	91.31
445.803	99.31
446.024	122.31
446.245	112.31
446.466	91.31
446.687	84.31
446.908	72.31
447.129	88.31
447.35	81.31
447.571	89.31
447.792	87.31
448.013	97.31
448.234	91.31
448.455	96.31
448.675	93.31
448.896	109.31
449.117	104.31
449.338	87.31
449.559	112.31
449.779	104.31
450	89.31
450.221	78.31
450.442	74.31
450.662	99.31
450.883	104.31
451.104	111.31
451.324	95.31
451.545	91.31
451.766	66.31
451.986	74.31
452.207	88.31
452.428	88.31
452.648	105.31
452.869	93.31
453.089	80.31
453.31	93.31
453.53	88.31
453.751	82.31
453.971	101.31
454.192	93.31
454.412	89.31
454.633	83.31
454.853	77.31
455.073	82.31
455.294	93.31
455.514	98.31
455.734	70.31
455.955	78.31
456.175	89.31
456.395	81.31
456.616	91.31
456.836	82.31
457.056	78.31
457.276	80.31
457.497	90.31
457.717	83.31
457.937	67.31
458.157	73.31
458.377	79.31
458.598	103.31
458.818	103.31
459.038	125.31
459.258	100.31
459.478	87.31
459.698	87.31
459.918	91.31
460.138	87.31
460.358	86.31
460.578	82.31
460.798	86.31
461.018	81.31
461.238	89.31
461.458	104.31
461.678	73.31
461.898	81.31
462.118	93.31
462.338	80.31
462.558	85.31
462.777	90.31
462.997	104.31
463.217	89.31
463.437	90.31
463.657	88.31
463.876	76.31
464.096	71.31
464.316	84.31
464.536	96.31
464.755	81.31
464.975	91.31
465.195	123.31
465.414	122.31
465.634	92.31
465.854	91.31
466.073	66.31
466.293	75.31
466.512	98.31
466.732	99.31
466.951	86.31
467.171	93.31
467.391	91.31
467.61	80.31
467.829	89.31
468.049	88.31
468.268	93.31
468.488	88.31
468.707	85.31
468.927	81.31
469.146	91.31
469.365	84.31
469.585	90.31
469.804	100.31
470.023	80.31
470.243	91.31
470.462	84.31
470.681	95.31
470.901	88.31
471.12	81.31
471.339	62.31
471.558	84.31
471.777	96.31
471.997	91.31
472.216	104.31
472.435	123.31
472.654	90.31
472.873	87.31
473.092	75.31
473.311	79.31
473.53	77.31
473.749	88.31
473.968	93.31
474.187	97.31
474.406	86.31
474.625	74.31
474.844	87.31
475.063	89.31
475.282	86.31
475.501	89.31
475.72	91.31
475.939	91.31
476.158	84.31
476.377	89.31
476.596	84.31
476.814	79.31
477.033	83.31
477.252	99.31
477.471	92.31
477.69	82.31
477.908	87.31
478.127	105.31
478.346	81.31
478.564	90.31
478.783	91.31
479.002	81.31
479.22	83.31
479.439	91.31
479.658	93.31
479.876	90.31
480.095	79.31
480.313	99.31
480.532	98.31
480.751	104.31
480.969	111.31
481.188	173.31
481.406	120.31
481.624	91.31
481.843	101.31
482.061	85.31
482.28	84.31
482.498	84.31
482.717	83.31
482.935	93.31
483.153	82.31
483.372	87.31
483.59	88.31
483.808	101.31
484.027	101.31
484.245	85.31
484.463	90.31
484.681	102.31
484.9	91.31
485.118	97.31
485.336	92.31
485.554	98.31
485.772	96.31
485.99	102.31
486.209	92.31
486.427	105.31
486.645	91.31
486.863	102.31
487.081	98.31
487.299	102.31
487.517	83.31
487.735	91.31
487.953	108.31
488.171	102.31
488.389	90.31
488.607	103.31
488.825	86.31
489.043	88.31
489.261	94.31
489.479	86.31
489.696	91.31
489.914	79.31
490.132	87.31
490.35	92.31
490.568	85.31
490.786	81.31
491.003	79.31
491.221	84.31
491.439	76.31
491.657	78.31
491.874	91.31
492.092	69.31
492.31	84.31
492.527	95.31
492.745	95.31
492.963	85.31
493.18	84.31
493.398	81.31
493.615	101.31
493.833	105.31
494.05	81.31
494.268	90.31
494.485	77.31
494.703	74.31
494.92	85.31
495.138	72.31
495.355	92.31
495.573	81.31
495.79	95.31
496.008	89.31
496.225	85.31
496.442	93.31
496.66	87.31
496.877	91.31
497.094	91.31
497.312	90.31
497.529	78.31
497.746	89.31
497.963	94.31
498.181	87.31
498.398	95.31
498.615	94.31
498.832	93.31
499.049	90.31
499.267	104.31
499.484	98.31
499.701	111.31
499.918	73.31
500.135	75.31
500.352	93.31
500.569	83.31
500.786	81.31
501.003	91.31
501.22	85.31
501.437	88.31
501.654	93.31
501.871	102.31
502.088	81.31
502.305	83.31
502.522	81.31
502.739	88.31
502.956	91.31
503.172	95.31
503.389	94.31
503.606	83.31
503.823	113.31
504.04	79.31
504.256	75.31
504.473	77.31
504.69	91.31
504.907	97.31
505.123	81.31
505.34	83.31
505.557	85.31
505.773	89.31
505.99	91.31
506.207	85.31
506.423	71.31
506.64	86.31
506.856	83.31
507.073	100.31
507.289	90.31
507.506	93.31
507.722	116.31
507.939	104.31
508.155	103.31
508.372	89.31
508.588	80.31
508.805	88.31
509.021	91.31
509.238	95.31
509.454	85.31
509.67	81.31
509.887	106.31
510.103	109.31
510.319	177.31
510.536	575.31
510.752	1700.31
510.968	491.31
511.184	131.31
511.401	117.31
511.617	90.31
511.833	86.31
512.049	100.31
512.265	91.31
512.481	86.31
512.698	85.31
512.914	90.31
513.13	100.31
513.346	84.31
513.562	93.31
513.778	98.31
513.994	91.31
514.21	105.31
514.426	110.31
514.642	107.31
514.858	116.31
515.074	138.31
515.29	316.31
515.506	973.31
515.721	391.31
515.937	128.31
516.153	116.31
516.369	97.31
516.585	81.31
516.801	85.31
517.016	81.31
517.232	86.31
517.448	99.31
