Data from Circ_1982_H10_HRD10591_00090.txt Node
Date: Wed Jan 03 12:30:59 EST 2024
User: Yrep
Spectrometer: HR+D1059
Trigger mode: 1
Integration Time (sec): 1.000000E-1
Scans to average: 1
Electric dark correction enabled: true
Nonlinearity correction enabled: false
Boxcar width: 0
XAxis mode: Wavelengths
Number of Pixels in Spectrum: 2048
>>>>>Begin Spectral Data<<<<<
223.165	-19
223.4	-19
223.635	-19
223.869	-28
224.104	-11
224.338	-16
224.573	-13
224.808	-6
225.042	4
225.277	-12
225.511	1
225.746	8
225.98	5
226.215	5
226.449	7
226.683	25
226.918	20
227.152	30
227.387	37
227.621	43
227.856	47
228.09	61
228.324	50
228.559	52
228.793	58
229.027	57
229.262	75
229.496	71
229.73	66
229.964	83
230.199	67
230.433	73
230.667	87
230.901	90
231.136	83
231.37	67
231.604	83
231.838	74
232.072	88
232.306	80
232.541	89
232.775	80
233.009	88
233.243	83
233.477	84
233.711	83
233.945	69
234.179	90
234.413	75
234.647	78
234.881	75
235.115	93
235.349	77
235.583	80
235.817	70
236.051	68
236.285	77
236.519	73
236.753	76
236.987	66
237.221	86
237.455	82
237.689	83
237.922	75
238.156	76
238.39	74
238.624	78
238.858	75
239.091	79
239.325	95
239.559	72
239.793	69
240.027	73
240.26	68
240.494	72
240.728	75
240.961	79
241.195	86
241.429	77
241.662	74
241.896	86
242.13	83
242.363	69
242.597	85
242.83	75
243.064	80
243.298	92
243.531	66
243.765	74
243.998	84
244.232	72
244.465	75
244.699	83
244.932	69
245.166	92
245.399	84
245.633	72
245.866	80
246.099	87
246.333	78
246.566	77
246.8	83
247.033	85
247.266	77
247.5	84
247.733	86
247.966	81
248.2	68
248.433	88
248.666	94
248.899	76
249.133	85
249.366	100
249.599	99
249.832	97
250.066	90
250.299	71
250.532	75
250.765	73
250.998	69
251.231	75
251.465	81
251.698	73
251.931	80
252.164	78
252.397	64
252.63	80
252.863	77
253.096	81
253.329	96
253.562	87
253.795	92
254.028	95
254.261	92
254.494	59
254.727	80
254.96	78
255.193	82
255.426	76
255.659	86
255.892	77
256.124	69
256.357	71
256.59	78
256.823	91
257.056	87
257.289	91
257.521	76
257.754	72
257.987	72
258.22	76
258.452	85
258.685	80
258.918	85
259.151	84
259.383	71
259.616	83
259.849	90
260.081	93
260.314	85
260.547	84
260.779	83
261.012	71
261.244	80
261.477	92
261.71	100
261.942	113
262.175	101
262.407	105
262.64	90
262.872	86
263.105	77
263.337	86
263.57	93
263.802	87
264.035	84
264.267	72
264.499	74
264.732	74
264.964	85
265.197	70
265.429	88
265.661	75
265.894	93
266.126	73
266.358	89
266.591	84
266.823	84
267.055	70
267.287	82
267.52	80
267.752	89
267.984	80
268.216	87
268.448	77
268.681	72
268.913	86
269.145	76
269.377	84
269.609	86
269.841	89
270.073	85
270.306	94
270.538	81
270.77	83
271.002	79
271.234	91
271.466	75
271.698	76
271.93	72
272.162	84
272.394	85
272.626	88
272.858	80
273.09	77
273.322	80
273.553	68
273.785	100
274.017	98
274.249	88
274.481	80
274.713	87
274.945	71
275.176	95
275.408	77
275.64	70
275.872	80
276.104	91
276.335	80
276.567	102
276.799	114
277.031	92
277.262	92
277.494	80
277.726	92
277.957	77
278.189	86
278.421	86
278.652	75
278.884	73
279.115	68
279.347	84
279.579	89
279.81	67
280.042	70
280.273	84
280.505	81
280.736	77
280.968	99
281.199	78
281.431	85
281.662	99
281.894	88
282.125	91
282.356	115
282.588	113
282.819	104
283.051	99
283.282	84
283.513	89
283.745	86
283.976	84
284.207	87
284.439	87
284.67	85
284.901	87
285.132	90
285.364	86
285.595	88
285.826	82
286.057	74
286.288	80
286.52	95
286.751	78
286.982	86
287.213	85
287.444	92
287.675	86
287.906	90
288.138	89
288.369	98
288.6	91
288.831	80
289.062	90
289.293	80
289.524	77
289.755	93
289.986	83
290.217	92
290.448	84
290.679	82
290.91	87
291.141	92
291.371	86
291.602	93
291.833	90
292.064	94
292.295	92
292.526	85
292.757	76
292.987	93
293.218	89
293.449	72
293.68	96
293.91	69
294.141	104
294.372	90
294.603	96
294.833	91
295.064	93
295.295	90
295.525	84
295.756	91
295.987	107
296.217	132
296.448	120
296.679	98
296.909	84
297.14	96
297.37	97
297.601	104
297.831	82
298.062	81
298.292	69
298.523	103
298.753	88
298.984	92
299.214	84
299.445	94
299.675	94
299.905	95
300.136	84
300.366	101
300.597	103
300.827	72
301.057	100
301.288	107
301.518	86
301.748	88
301.979	101
302.209	83
302.439	77
302.669	96
302.9	104
303.13	96
303.36	99
303.59	96
303.82	115
304.051	87
304.281	104
304.511	81
304.741	90
304.971	82
305.201	85
305.431	80
305.661	84
305.891	91
306.121	93
306.352	95
306.582	108
306.812	105
307.042	84
307.272	105
307.502	98
307.731	89
307.961	84
308.191	100
308.421	95
308.651	94
308.881	89
309.111	88
309.341	94
309.571	95
309.8	77
310.03	86
310.26	80
310.49	100
310.72	102
310.949	85
311.179	87
311.409	85
311.639	88
311.868	99
312.098	110
312.328	104
312.557	86
312.787	84
313.017	109
313.246	110
313.476	89
313.706	105
313.935	96
314.165	99
314.394	101
314.624	96
314.853	105
315.083	94
315.312	88
315.542	107
315.771	92
316.001	75
316.23	88
316.46	89
316.689	101
316.919	98
317.148	89
317.377	97
317.607	100
317.836	91
318.065	98
318.295	75
318.524	83
318.753	92
318.983	97
319.212	102
319.441	110
319.67	114
319.9	92
320.129	106
320.358	93
320.587	92
320.816	87
321.046	103
321.275	94
321.504	85
321.733	93
321.962	114
322.191	94
322.42	89
322.649	107
322.878	107
323.108	123
323.337	122
323.566	108
323.795	110
324.024	160
324.253	313
324.482	643
324.71	1204
324.939	1622
325.168	616
325.397	205
325.626	135
325.855	123
326.084	118
326.313	118
326.542	133
326.77	200
326.999	373
327.228	724
327.457	1304
327.686	1000
327.914	282
328.143	170
328.372	144
328.6	128
328.829	94
329.058	123
329.287	103
329.515	109
329.744	92
329.972	109
330.201	119
330.43	132
330.658	114
330.887	123
331.115	119
331.344	83
331.572	98
331.801	108
332.03	85
332.258	98
332.486	81
332.715	84
332.943	100
333.172	101
333.4	105
333.629	105
333.857	115
334.085	104
334.314	117
334.542	133
334.771	131
334.999	101
335.227	90
335.455	73
335.684	94
335.912	89
336.14	94
336.369	102
336.597	100
336.825	103
337.053	80
337.281	91
337.51	89
337.738	84
337.966	102
338.194	86
338.422	89
338.65	105
338.878	91
339.106	98
339.334	101
339.562	99
339.79	103
340.018	90
340.246	82
340.474	88
340.702	101
340.93	99
341.158	99
341.386	96
341.614	89
341.842	95
342.07	100
342.298	93
342.526	84
342.754	86
342.981	97
343.209	92
343.437	86
343.665	86
343.893	100
344.12	92
344.348	92
344.576	87
344.804	102
345.031	104
345.259	96
345.487	100
345.714	110
345.942	94
346.17	90
346.397	85
346.625	108
346.853	88
347.08	101
347.308	101
347.535	105
347.763	93
347.99	93
348.218	95
348.445	90
348.673	96
348.9	100
349.128	107
349.355	99
349.583	75
349.81	101
350.037	84
350.265	101
350.492	93
350.72	92
350.947	90
351.174	109
351.402	100
351.629	104
351.856	108
352.083	99
352.311	100
352.538	115
352.765	108
352.992	100
353.22	116
353.447	108
353.674	112
353.901	92
354.128	71
354.355	82
354.583	93
354.81	96
355.037	91
355.264	90
355.491	85
355.718	101
355.945	106
356.172	98
356.399	102
356.626	84
356.853	92
357.08	86
357.307	78
357.534	104
357.761	106
357.988	93
358.215	97
358.441	84
358.668	92
358.895	94
359.122	93
359.349	96
359.576	88
359.802	93
360.029	112
360.256	102
360.483	97
360.709	93
360.936	94
361.163	100
361.39	86
361.616	92
361.843	88
362.07	93
362.296	88
362.523	82
362.749	90
362.976	91
363.203	102
363.429	102
363.656	75
363.882	90
364.109	84
364.335	99
364.562	88
364.788	90
365.015	88
365.241	92
365.468	108
365.694	109
365.92	88
366.147	93
366.373	99
366.599	78
366.826	93
367.052	98
367.278	92
367.505	103
367.731	92
367.957	92
368.184	87
368.41	90
368.636	110
368.862	114
369.089	104
369.315	98
369.541	85
369.767	82
369.993	89
370.219	100
370.445	94
370.672	84
370.898	92
371.124	74
371.35	78
371.576	83
371.802	74
372.028	61
372.254	81
372.48	86
372.706	79
372.932	84
373.158	110
373.384	82
373.61	87
373.835	99
374.061	92
374.287	88
374.513	100
374.739	95
374.965	83
375.191	104
375.416	102
375.642	100
375.868	96
376.094	74
376.319	106
376.545	104
376.771	85
376.997	99
377.222	94
377.448	94
377.674	87
377.899	81
378.125	94
378.35	93
378.576	94
378.802	101
379.027	92
379.253	102
379.478	81
379.704	89
379.929	96
380.155	86
380.38	94
380.606	101
380.831	99
381.057	88
381.282	88
381.507	91
381.733	93
381.958	100
382.184	104
382.409	87
382.634	100
382.86	108
383.085	105
383.31	101
383.535	101
383.761	99
383.986	102
384.211	78
384.436	105
384.662	80
384.887	95
385.112	103
385.337	100
385.562	96
385.787	114
386.013	99
386.238	105
386.463	96
386.688	105
386.913	111
387.138	99
387.363	101
387.588	105
387.813	112
388.038	100
388.263	97
388.488	89
388.713	84
388.938	90
389.163	91
389.387	83
389.612	83
389.837	87
390.062	91
390.287	82
390.512	85
390.736	84
390.961	86
391.186	82
391.411	93
391.636	97
391.86	80
392.085	74
392.31	74
392.534	76
392.759	100
392.984	91
393.208	91
393.433	91
393.658	89
393.882	76
394.107	92
394.331	93
394.556	84
394.78	85
395.005	100
395.229	85
395.454	94
395.678	88
395.903	84
396.127	93
396.352	88
396.576	76
396.801	75
397.025	81
397.249	82
397.474	90
397.698	90
397.922	74
398.147	73
398.371	96
398.595	90
398.82	86
399.044	72
399.268	90
399.492	83
399.717	92
399.941	101
400.165	105
400.389	86
400.613	73
400.837	84
401.062	88
401.286	84
401.51	85
401.734	95
401.958	89
402.182	114
402.406	145
402.63	119
402.854	94
403.078	99
403.302	87
403.526	88
403.75	86
403.974	89
404.198	90
404.422	93
404.645	84
404.869	91
405.093	92
405.317	91
405.541	93
405.765	118
405.988	115
406.212	152
406.436	178
406.66	126
406.883	97
407.107	98
407.331	83
407.555	94
407.778	99
408.002	91
408.226	94
408.449	81
408.673	87
408.896	95
409.12	99
409.344	83
409.567	92
409.791	105
410.014	96
410.238	88
410.461	97
410.685	95
410.908	98
411.132	94
411.355	105
411.578	73
411.802	99
412.025	89
412.249	80
412.472	93
412.695	78
412.919	70
413.142	104
413.365	91
413.589	84
413.812	92
414.035	98
414.258	104
414.482	100
414.705	86
414.928	80
415.151	86
415.374	102
415.597	83
415.821	82
416.044	76
416.267	84
416.49	97
416.713	91
416.936	94
417.159	94
417.382	87
417.605	74
417.828	86
418.051	105
418.274	98
418.497	90
418.72	90
418.943	91
419.166	86
419.389	75
419.611	80
419.834	84
420.057	97
420.28	71
420.503	100
420.726	85
420.948	87
421.171	88
421.394	88
421.617	75
421.839	77
422.062	87
422.285	93
422.507	98
422.73	108
422.953	94
423.175	94
423.398	99
423.621	79
423.843	76
424.066	84
424.288	85
424.511	82
424.733	91
424.956	98
425.178	93
425.401	96
425.623	99
425.846	88
426.068	98
426.291	82
426.513	80
426.735	94
426.958	86
427.18	105
427.402	119
427.625	140
427.847	119
428.069	104
428.292	79
428.514	86
428.736	94
428.958	88
429.181	91
429.403	88
429.625	107
429.847	74
430.069	91
430.292	98
430.514	80
430.736	86
430.958	87
431.18	74
431.402	104
431.624	87
431.846	86
432.068	83
432.29	92
432.512	94
432.734	95
432.956	82
433.178	89
433.4	95
433.622	78
433.844	90
434.066	88
434.287	89
434.509	91
434.731	107
434.953	91
435.175	76
435.397	88
435.618	93
435.84	97
436.062	115
436.284	125
436.505	88
436.727	93
436.949	89
437.17	90
437.392	82
437.614	90
437.835	103
438.057	102
438.278	103
438.5	102
438.721	103
438.943	100
439.165	84
439.386	84
439.608	90
439.829	90
440.05	105
440.272	121
440.493	91
440.715	98
440.936	83
441.158	86
441.379	76
441.6	86
441.822	96
442.043	90
442.264	106
442.486	94
442.707	100
442.928	102
443.149	117
443.371	116
443.592	102
443.813	89
444.034	94
444.255	73
444.476	81
444.698	80
444.919	92
445.14	108
445.361	114
445.582	96
445.803	124
446.024	125
446.245	132
446.466	101
446.687	90
446.908	81
447.129	91
447.35	100
447.571	96
447.792	91
448.013	96
448.234	93
448.455	110
448.675	97
448.896	103
449.117	96
449.338	101
449.559	118
449.779	115
450	86
450.221	89
450.442	81
450.662	84
450.883	110
451.104	99
451.324	100
451.545	88
451.766	96
451.986	87
452.207	81
452.428	76
452.648	79
452.869	105
453.089	84
453.31	99
453.53	96
453.751	88
453.971	89
454.192	107
454.412	90
454.633	80
454.853	96
455.073	85
455.294	73
455.514	97
455.734	81
455.955	98
456.175	99
456.395	87
456.616	83
456.836	83
457.056	97
457.276	89
457.497	88
457.717	82
457.937	91
458.157	80
458.377	86
458.598	100
458.818	126
459.038	136
459.258	107
459.478	101
459.698	83
459.918	80
460.138	87
460.358	86
460.578	80
460.798	96
461.018	100
461.238	94
461.458	93
461.678	82
461.898	92
462.118	77
462.338	73
462.558	98
462.777	90
462.997	92
463.217	86
463.437	77
463.657	90
463.876	74
464.096	70
464.316	96
464.536	97
464.755	106
464.975	106
465.195	134
465.414	123
465.634	98
465.854	96
466.073	84
466.293	94
466.512	81
466.732	89
466.951	83
467.171	91
467.391	98
467.61	86
467.829	90
468.049	103
468.268	93
468.488	85
468.707	88
468.927	102
469.146	87
469.365	98
469.585	80
469.804	88
470.023	110
470.243	92
470.462	96
470.681	104
470.901	78
471.12	78
471.339	69
471.558	97
471.777	81
471.997	93
472.216	110
472.435	127
472.654	98
472.873	93
473.092	98
473.311	92
473.53	96
473.749	98
473.968	86
474.187	91
474.406	87
474.625	98
474.844	73
475.063	84
475.282	84
475.501	91
475.72	82
475.939	86
476.158	85
476.377	74
476.596	90
476.814	85
477.033	110
477.252	88
477.471	84
477.69	94
477.908	88
478.127	96
478.346	94
478.564	88
478.783	98
479.002	87
479.22	91
479.439	120
479.658	93
479.876	93
480.095	88
480.313	77
480.532	84
480.751	89
480.969	121
481.188	167
481.406	139
481.624	92
481.843	101
482.061	86
482.28	90
482.498	96
482.717	100
482.935	95
483.153	91
483.372	104
483.59	86
483.808	97
484.027	85
484.245	92
484.463	96
484.681	105
484.9	88
485.118	92
485.336	88
485.554	89
485.772	106
485.99	105
486.209	102
486.427	113
486.645	113
486.863	112
487.081	105
487.299	94
487.517	109
487.735	84
487.953	90
488.171	97
488.389	94
488.607	99
488.825	105
489.043	93
489.261	82
489.479	78
489.696	92
489.914	86
490.132	102
490.35	89
490.568	84
490.786	88
491.003	94
491.221	80
491.439	95
491.657	87
491.874	72
492.092	73
492.31	97
492.527	97
492.745	100
492.963	89
493.18	92
493.398	100
493.615	93
493.833	96
494.05	105
494.268	85
494.485	91
494.703	97
494.92	96
495.138	100
495.355	85
495.573	92
495.79	96
496.008	83
496.225	90
496.442	91
496.66	110
496.877	96
497.094	96
497.312	82
497.529	74
497.746	88
497.963	91
498.181	95
498.398	90
498.615	118
498.832	108
499.049	94
499.267	103
499.484	89
499.701	84
499.918	94
500.135	102
500.352	97
500.569	71
500.786	93
501.003	85
501.22	84
501.437	96
501.654	85
501.871	101
502.088	94
502.305	83
502.522	98
502.739	98
502.956	90
503.172	88
503.389	94
503.606	96
503.823	90
504.04	92
504.256	88
504.473	82
504.69	99
504.907	80
505.123	84
505.34	83
505.557	103
505.773	92
505.99	78
506.207	85
506.423	77
506.64	71
506.856	98
507.073	93
507.289	108
507.506	93
507.722	104
507.939	118
508.155	88
508.372	90
508.588	90
508.805	91
509.021	85
509.238	88
509.454	87
509.67	105
509.887	102
510.103	108
510.319	204
510.536	596
510.752	1836
510.968	523
511.184	138
511.401	90
511.617	107
511.833	92
512.049	102
512.265	102
512.481	100
512.698	74
512.914	84
513.13	97
513.346	84
513.562	77
513.778	96
513.994	107
514.21	107
514.426	117
514.642	108
514.858	107
515.074	168
515.29	349
515.506	1086
515.721	392
515.937	129
516.153	98
516.369	98
516.585	95
516.801	96
517.016	106
517.232	89
517.448	100
517.664	93
517.879	102
518.095	82
518.311	86
518.527	90
518.742	108
518.958	98
519.173	73
519.389	82
519.605	90
519.82	83
520.036	100
520.251	109
520.467	93
520.682	105
520.898	90
521.113	108
521.329	123
521.544	167
521.76	439
521.975	1800
522.19	1090
522.406	242
522.621	106
522.836	84
523.052	88
523.267	102
523.482	94
523.698	98
523.913	109
524.128	88
524.343	102
524.559	109
524.774	86
524.989	85
525.204	101
525.419	85
525.634	96
525.849	82
526.064	109
526.28	90
526.495	78
526.71	93
526.925	100
527.14	81
527.355	106
527.57	86
527.785	97
527.999	85
528.214	80
528.429	97
528.644	85
528.859	78
529.074	87
529.289	125
529.503	135
529.718	89
529.933	76
530.148	117
530.363	98
530.577	93
530.792	100
531.007	81
531.221	88
531.436	90
531.651	81
531.865	70
532.08	70
532.295	89
532.509	86
532.724	99
532.938	85
533.153	90
533.367	90
533.582	108
533.796	94
534.011	84
534.225	92
534.44	92
534.654	91
534.868	89
535.083	84
535.297	91
535.511	97
535.726	110
535.94	93
536.154	94
536.369	98
536.583	83
536.797	80
537.011	83
537.225	92
537.44	96
537.654	94
537.868	93
538.082	84
538.296	102
538.51	104
538.724	77
538.938	85
539.153	97
539.367	101
539.581	102
539.795	88
540.009	86
540.222	90
540.436	96
540.65	86
540.864	88
541.078	80
541.292	89
541.506	84
541.72	95
541.934	88
542.147	91
542.361	84
542.575	86
542.789	85
543.002	98
543.216	80
543.43	97
543.644	94
543.857	94
544.071	89
544.285	108
544.498	87
544.712	90
544.925	102
545.139	75
545.352	98
545.566	89
545.779	91
545.993	94
546.206	98
546.42	82
546.633	101
546.847	82
547.06	85
547.274	87
547.487	86
547.7	85
547.914	78
548.127	88
548.34	82
548.554	91
548.767	101
548.98	104
549.193	94
549.407	104
549.62	101
549.833	81
550.046	91
550.259	84
550.473	84
550.686	81
550.899	75
551.112	86
551.325	76
551.538	90
551.751	94
551.964	87
552.177	95
552.39	92
552.603	91
552.816	92
553.029	101
553.242	97
553.455	101
553.667	105
553.88	99
554.093	104
554.306	89
554.519	89
554.732	97
554.944	95
555.157	81
555.37	81
555.583	98
555.795	96
556.008	85
556.221	88
556.433	108
556.646	94
556.859	102
557.071	92
557.284	91
557.496	94
557.709	75
557.921	91
558.134	79
558.346	79
558.559	89
558.771	89
558.984	88
559.196	84
559.409	88
559.621	91
559.833	93
560.046	87
560.258	78
560.47	92
560.683	94
560.895	93
561.107	87
561.32	94
561.532	89
561.744	77
561.956	98
562.168	75
562.381	85
562.593	100
562.805	96
563.017	88
563.229	94
563.441	82
563.653	92
563.865	78
564.077	84
564.289	82
564.501	84
564.713	98
564.925	96
565.137	95
565.349	83
565.561	86
565.773	93
565.985	71
566.197	66
566.408	86
566.62	89
566.832	98
567.044	87
567.255	94
567.467	93
567.679	80
567.891	73
568.102	94
568.314	80
568.526	76
568.737	93
568.949	85
569.161	82
569.372	87
569.584	97
569.795	84
570.007	121
570.218	217
570.43	111
570.641	109
570.853	88
571.064	86
571.276	81
571.487	97
571.698	88
571.91	86
572.121	93
572.333	90
572.544	84
572.755	76
572.966	74
573.178	88
573.389	84
573.6	83
573.811	98
574.023	96
574.234	81
574.445	94
574.656	84
574.867	90
575.078	87
575.289	94
575.501	88
575.712	77
575.923	89
576.134	82
576.345	82
576.556	94
576.767	83
576.978	87
577.188	92
577.399	90
577.61	100
577.821	92
578.032	106
578.243	237
578.454	594
578.665	176
578.875	99
579.086	92
579.297	109
579.508	81
579.718	94
579.929	107
580.14	86
580.35	80
580.561	88
580.772	78
580.982	88
581.193	82
581.403	91
581.614	90
581.825	99
582.035	91
582.246	80
582.456	83
582.667	98
582.877	86
583.087	110
583.298	88
583.508	92
583.719	95
583.929	98
584.139	99
584.35	95
584.56	102
