Data from Circ_1982_H10_HRD10591_00005.txt Node
Date: Wed Jan 03 12:30:42 EST 2024
User: Yrep
Spectrometer: HR+D1059
Trigger mode: 1
Integration Time (sec): 1.000000E-1
Scans to average: 1
Electric dark correction enabled: true
Nonlinearity correction enabled: false
Boxcar width: 0
XAxis mode: Wavelengths
Number of Pixels in Spectrum: 2048
>>>>>Begin Spectral Data<<<<<
223.165	-6.81
223.4	-6.81
223.635	-6.81
223.869	-13.81
224.104	-1.81
224.338	-18.81
224.573	-19.81
224.808	-15.81
225.042	-6.81
225.277	-10.81
225.511	-7.81
225.746	5.19
225.98	1.19
226.215	11.19
226.449	18.19
226.683	16.19
226.918	15.19
227.152	35.19
227.387	32.19
227.621	35.19
227.856	55.19
228.09	49.19
228.324	57.19
228.559	64.19
228.793	81.19
229.027	84.19
229.262	79.19
229.496	73.19
229.73	90.19
229.964	79.19
230.199	82.19
230.433	84.19
230.667	80.19
230.901	86.19
231.136	89.19
231.37	86.19
231.604	82.19
231.838	105.19
232.072	90.19
232.306	87.19
232.541	88.19
232.775	81.19
233.009	86.19
233.243	80.19
233.477	97.19
233.711	97.19
233.945	77.19
234.179	84.19
234.413	89.19
234.647	87.19
234.881	85.19
235.115	78.19
235.349	69.19
235.583	79.19
235.817	89.19
236.051	82.19
236.285	88.19
236.519	80.19
236.753	95.19
236.987	71.19
237.221	90.19
237.455	78.19
237.689	84.19
237.922	65.19
238.156	79.19
238.39	87.19
238.624	73.19
238.858	71.19
239.091	90.19
239.325	84.19
239.559	77.19
239.793	89.19
240.027	87.19
240.26	75.19
240.494	59.19
240.728	76.19
240.961	80.19
241.195	85.19
241.429	79.19
241.662	81.19
241.896	77.19
242.13	75.19
242.363	79.19
242.597	84.19
242.83	88.19
243.064	71.19
243.298	73.19
243.531	92.19
243.765	74.19
243.998	77.19
244.232	95.19
244.465	89.19
244.699	90.19
244.932	91.19
245.166	65.19
245.399	89.19
245.633	74.19
245.866	73.19
246.099	87.19
246.333	77.19
246.566	80.19
246.8	87.19
247.033	60.19
247.266	68.19
247.5	67.19
247.733	77.19
247.966	96.19
248.2	103.19
248.433	100.19
248.666	76.19
248.899	77.19
249.133	110.19
249.366	104.19
249.599	94.19
249.832	86.19
250.066	95.19
250.299	87.19
250.532	91.19
250.765	89.19
250.998	76.19
251.231	77.19
251.465	86.19
251.698	71.19
251.931	83.19
252.164	75.19
252.397	80.19
252.63	77.19
252.863	80.19
253.096	64.19
253.329	79.19
253.562	83.19
253.795	92.19
254.028	81.19
254.261	85.19
254.494	74.19
254.727	81.19
254.96	93.19
255.193	92.19
255.426	82.19
255.659	82.19
255.892	83.19
256.124	72.19
256.357	74.19
256.59	92.19
256.823	97.19
257.056	78.19
257.289	70.19
257.521	74.19
257.754	88.19
257.987	80.19
258.22	80.19
258.452	92.19
258.685	81.19
258.918	78.19
259.151	88.19
259.383	88.19
259.616	90.19
259.849	85.19
260.081	82.19
260.314	77.19
260.547	93.19
260.779	93.19
261.012	92.19
261.244	93.19
261.477	94.19
261.71	99.19
261.942	91.19
262.175	106.19
262.407	98.19
262.64	84.19
262.872	85.19
263.105	90.19
263.337	92.19
263.57	98.19
263.802	93.19
264.035	80.19
264.267	90.19
264.499	100.19
264.732	88.19
264.964	83.19
265.197	96.19
265.429	79.19
265.661	90.19
265.894	88.19
266.126	84.19
266.358	89.19
266.591	97.19
266.823	95.19
267.055	76.19
267.287	90.19
267.52	100.19
267.752	101.19
267.984	90.19
268.216	86.19
268.448	81.19
268.681	88.19
268.913	90.19
269.145	85.19
269.377	97.19
269.609	72.19
269.841	88.19
270.073	103.19
270.306	95.19
270.538	96.19
270.77	97.19
271.002	98.19
271.234	72.19
271.466	78.19
271.698	89.19
271.93	87.19
272.162	93.19
272.394	86.19
272.626	93.19
272.858	84.19
273.09	100.19
273.322	90.19
273.553	92.19
273.785	100.19
274.017	96.19
274.249	104.19
274.481	84.19
274.713	80.19
274.945	88.19
275.176	86.19
275.408	86.19
275.64	91.19
275.872	101.19
276.104	75.19
276.335	91.19
276.567	95.19
276.799	104.19
277.031	99.19
277.262	100.19
277.494	86.19
277.726	82.19
277.957	88.19
278.189	82.19
278.421	89.19
278.652	103.19
278.884	84.19
279.115	76.19
279.347	95.19
279.579	102.19
279.81	86.19
280.042	86.19
280.273	94.19
280.505	96.19
280.736	97.19
280.968	84.19
281.199	100.19
281.431	105.19
281.662	102.19
281.894	97.19
282.125	112.19
282.356	123.19
282.588	125.19
282.819	107.19
283.051	90.19
283.282	95.19
283.513	99.19
283.745	79.19
283.976	95.19
284.207	89.19
284.439	85.19
284.67	90.19
284.901	91.19
285.132	90.19
285.364	89.19
285.595	99.19
285.826	111.19
286.057	87.19
286.288	94.19
286.52	95.19
286.751	78.19
286.982	80.19
287.213	102.19
287.444	94.19
287.675	99.19
287.906	94.19
288.138	78.19
288.369	101.19
288.6	94.19
288.831	88.19
289.062	95.19
289.293	93.19
289.524	100.19
289.755	91.19
289.986	86.19
290.217	86.19
290.448	93.19
290.679	103.19
290.91	96.19
291.141	81.19
291.371	98.19
291.602	106.19
291.833	97.19
292.064	97.19
292.295	101.19
292.526	87.19
292.757	92.19
292.987	100.19
293.218	104.19
293.449	96.19
293.68	95.19
293.91	92.19
294.141	98.19
294.372	89.19
294.603	86.19
294.833	97.19
295.064	92.19
295.295	112.19
295.525	111.19
295.756	93.19
295.987	94.19
296.217	127.19
296.448	112.19
296.679	100.19
296.909	96.19
297.14	95.19
297.37	98.19
297.601	90.19
297.831	96.19
298.062	94.19
298.292	90.19
298.523	90.19
298.753	93.19
298.984	93.19
299.214	88.19
299.445	75.19
299.675	96.19
299.905	102.19
300.136	94.19
300.366	104.19
300.597	92.19
300.827	88.19
301.057	99.19
301.288	91.19
301.518	94.19
301.748	87.19
301.979	100.19
302.209	86.19
302.439	98.19
302.669	85.19
302.9	94.19
303.13	84.19
303.36	90.19
303.59	99.19
303.82	110.19
304.051	111.19
304.281	88.19
304.511	99.19
304.741	96.19
304.971	81.19
305.201	99.19
305.431	108.19
305.661	93.19
305.891	84.19
306.121	88.19
306.352	101.19
306.582	100.19
306.812	87.19
307.042	93.19
307.272	114.19
307.502	94.19
307.731	88.19
307.961	81.19
308.191	93.19
308.421	96.19
308.651	95.19
308.881	80.19
309.111	84.19
309.341	106.19
309.571	97.19
309.8	84.19
310.03	98.19
310.26	97.19
310.49	96.19
310.72	90.19
310.949	105.19
311.179	112.19
311.409	88.19
311.639	110.19
311.868	105.19
312.098	100.19
312.328	92.19
312.557	92.19
312.787	102.19
313.017	90.19
313.246	96.19
313.476	104.19
313.706	89.19
313.935	100.19
314.165	97.19
314.394	103.19
314.624	100.19
314.853	90.19
315.083	101.19
315.312	88.19
315.542	89.19
315.771	91.19
316.001	95.19
316.23	92.19
316.46	91.19
316.689	89.19
316.919	102.19
317.148	100.19
317.377	96.19
317.607	90.19
317.836	92.19
318.065	96.19
318.295	77.19
318.524	94.19
318.753	105.19
318.983	100.19
319.212	104.19
319.441	98.19
319.67	112.19
319.9	104.19
320.129	94.19
320.358	92.19
320.587	88.19
320.816	112.19
321.046	113.19
321.275	96.19
321.504	112.19
321.733	99.19
321.962	101.19
322.191	104.19
322.42	105.19
322.649	107.19
322.878	83.19
323.108	101.19
323.337	121.19
323.566	125.19
323.795	127.19
324.024	189.19
324.253	306.19
324.482	598.19
324.71	1216.19
324.939	1600.19
325.168	610.19
325.397	209.19
325.626	127.19
325.855	118.19
326.084	121.19
326.313	118.19
326.542	147.19
326.77	184.19
326.999	335.19
327.228	717.19
327.457	1260.19
327.686	997.19
327.914	310.19
328.143	159.19
328.372	131.19
328.6	130.19
328.829	113.19
329.058	122.19
329.287	119.19
329.515	113.19
329.744	127.19
329.972	102.19
330.201	114.19
330.43	119.19
330.658	113.19
330.887	130.19
331.115	103.19
331.344	88.19
331.572	107.19
331.801	106.19
332.03	89.19
332.258	106.19
332.486	111.19
332.715	96.19
332.943	94.19
333.172	113.19
333.4	109.19
333.629	101.19
333.857	116.19
334.085	110.19
334.314	97.19
334.542	121.19
334.771	128.19
334.999	110.19
335.227	105.19
335.455	86.19
335.684	109.19
335.912	91.19
336.14	105.19
336.369	85.19
336.597	113.19
336.825	109.19
337.053	75.19
337.281	93.19
337.51	88.19
337.738	105.19
337.966	96.19
338.194	105.19
338.422	97.19
338.65	99.19
338.878	96.19
339.106	100.19
339.334	110.19
339.562	95.19
339.79	92.19
340.018	90.19
340.246	93.19
340.474	87.19
340.702	87.19
340.93	100.19
341.158	105.19
341.386	103.19
341.614	92.19
341.842	97.19
342.07	113.19
342.298	99.19
342.526	103.19
342.754	93.19
342.981	89.19
343.209	89.19
343.437	101.19
343.665	98.19
343.893	109.19
344.12	90.19
344.348	94.19
344.576	102.19
344.804	96.19
345.031	94.19
345.259	90.19
345.487	94.19
345.714	96.19
345.942	112.19
346.17	101.19
346.397	93.19
346.625	90.19
346.853	88.19
347.08	102.19
347.308	90.19
347.535	103.19
347.763	101.19
347.99	106.19
348.218	113.19
348.445	101.19
348.673	97.19
348.9	101.19
349.128	111.19
349.355	103.19
349.583	80.19
349.81	92.19
350.037	91.19
350.265	104.19
350.492	76.19
350.72	94.19
350.947	106.19
351.174	96.19
351.402	95.19
351.629	115.19
351.856	111.19
352.083	108.19
352.311	124.19
352.538	114.19
352.765	112.19
352.992	119.19
353.22	108.19
353.447	95.19
353.674	102.19
353.901	110.19
354.128	98.19
354.355	118.19
354.583	101.19
354.81	98.19
355.037	104.19
355.264	103.19
355.491	105.19
355.718	92.19
355.945	110.19
356.172	96.19
356.399	108.19
356.626	105.19
356.853	104.19
357.08	105.19
357.307	96.19
357.534	88.19
357.761	97.19
357.988	95.19
358.215	104.19
358.441	118.19
358.668	105.19
358.895	104.19
359.122	98.19
359.349	93.19
359.576	85.19
359.802	100.19
360.029	113.19
360.256	100.19
360.483	98.19
360.709	100.19
360.936	108.19
361.163	99.19
361.39	102.19
361.616	93.19
361.843	88.19
362.07	88.19
362.296	108.19
362.523	90.19
362.749	98.19
362.976	84.19
363.203	97.19
363.429	94.19
363.656	100.19
363.882	95.19
364.109	108.19
364.335	102.19
364.562	93.19
364.788	76.19
365.015	89.19
365.241	102.19
365.468	125.19
365.694	97.19
365.92	102.19
366.147	95.19
366.373	102.19
366.599	96.19
366.826	92.19
367.052	92.19
367.278	89.19
367.505	89.19
367.731	104.19
367.957	95.19
368.184	96.19
368.41	95.19
368.636	99.19
368.862	107.19
369.089	112.19
369.315	85.19
369.541	94.19
369.767	82.19
369.993	108.19
370.219	97.19
370.445	90.19
370.672	104.19
370.898	103.19
371.124	80.19
371.35	85.19
371.576	88.19
371.802	112.19
372.028	95.19
372.254	79.19
372.48	103.19
372.706	96.19
372.932	92.19
373.158	92.19
373.384	87.19
373.61	105.19
373.835	104.19
374.061	101.19
374.287	98.19
374.513	98.19
374.739	95.19
374.965	100.19
375.191	94.19
375.416	100.19
375.642	110.19
375.868	93.19
376.094	86.19
376.319	96.19
376.545	101.19
376.771	94.19
376.997	102.19
377.222	98.19
377.448	94.19
377.674	108.19
377.899	100.19
378.125	94.19
378.35	112.19
378.576	98.19
378.802	102.19
379.027	100.19
379.253	111.19
379.478	79.19
379.704	101.19
379.929	95.19
380.155	110.19
380.38	97.19
380.606	100.19
380.831	106.19
381.057	115.19
381.282	108.19
381.507	106.19
381.733	104.19
381.958	113.19
382.184	95.19
382.409	96.19
382.634	112.19
382.86	113.19
383.085	108.19
383.31	131.19
383.535	104.19
383.761	104.19
383.986	108.19
384.211	105.19
384.436	105.19
384.662	119.19
384.887	124.19
385.112	122.19
385.337	118.19
385.562	133.19
385.787	110.19
386.013	121.19
386.238	132.19
386.463	111.19
386.688	135.19
386.913	126.19
387.138	125.19
387.363	109.19
387.588	104.19
387.813	110.19
388.038	120.19
388.263	136.19
388.488	119.19
388.713	102.19
388.938	94.19
389.163	113.19
389.387	112.19
389.612	87.19
389.837	76.19
390.062	97.19
390.287	92.19
390.512	105.19
390.736	100.19
390.961	96.19
391.186	96.19
391.411	97.19
391.636	99.19
391.86	93.19
392.085	88.19
392.31	86.19
392.534	101.19
392.759	97.19
392.984	103.19
393.208	108.19
393.433	113.19
393.658	111.19
393.882	96.19
394.107	95.19
394.331	89.19
394.556	90.19
394.78	89.19
395.005	96.19
395.229	88.19
395.454	103.19
395.678	93.19
395.903	90.19
396.127	94.19
396.352	92.19
396.576	85.19
396.801	90.19
397.025	101.19
397.249	92.19
397.474	106.19
397.698	95.19
397.922	86.19
398.147	89.19
398.371	100.19
398.595	95.19
398.82	92.19
399.044	101.19
399.268	81.19
399.492	111.19
399.717	87.19
399.941	91.19
400.165	108.19
400.389	105.19
400.613	88.19
400.837	106.19
401.062	93.19
401.286	75.19
401.51	97.19
401.734	76.19
401.958	103.19
402.182	123.19
402.406	128.19
402.63	100.19
402.854	102.19
403.078	88.19
403.302	84.19
403.526	88.19
403.75	93.19
403.974	102.19
404.198	98.19
404.422	98.19
404.645	96.19
404.869	92.19
405.093	102.19
405.317	71.19
405.541	96.19
405.765	85.19
405.988	117.19
406.212	157.19
406.436	204.19
406.66	120.19
406.883	92.19
407.107	92.19
407.331	98.19
407.555	116.19
407.778	102.19
408.002	97.19
408.226	102.19
408.449	92.19
408.673	101.19
408.896	97.19
409.12	96.19
409.344	82.19
409.567	89.19
409.791	87.19
410.014	101.19
410.238	94.19
410.461	102.19
410.685	91.19
410.908	116.19
411.132	111.19
411.355	96.19
411.578	98.19
411.802	87.19
412.025	103.19
412.249	80.19
412.472	75.19
412.695	106.19
412.919	91.19
413.142	94.19
413.365	89.19
413.589	95.19
413.812	97.19
414.035	97.19
414.258	98.19
414.482	101.19
414.705	89.19
414.928	90.19
415.151	94.19
415.374	94.19
415.597	95.19
415.821	106.19
416.044	101.19
416.267	87.19
416.49	94.19
416.713	98.19
416.936	88.19
417.159	104.19
417.382	82.19
417.605	94.19
417.828	110.19
418.051	92.19
418.274	94.19
418.497	90.19
418.72	94.19
418.943	80.19
419.166	76.19
419.389	93.19
419.611	86.19
419.834	101.19
420.057	90.19
420.28	66.19
420.503	93.19
420.726	99.19
420.948	97.19
421.171	97.19
421.394	95.19
421.617	97.19
421.839	97.19
422.062	105.19
422.285	102.19
422.507	96.19
422.73	93.19
422.953	90.19
423.175	91.19
423.398	78.19
423.621	106.19
423.843	90.19
424.066	90.19
424.288	104.19
424.511	93.19
424.733	98.19
424.956	106.19
425.178	88.19
425.401	92.19
425.623	117.19
425.846	93.19
426.068	99.19
426.291	94.19
426.513	78.19
426.735	98.19
426.958	78.19
427.18	102.19
427.402	131.19
427.625	139.19
427.847	118.19
428.069	109.19
428.292	90.19
428.514	110.19
428.736	101.19
428.958	82.19
429.181	88.19
429.403	82.19
429.625	87.19
429.847	98.19
430.069	108.19
430.292	90.19
430.514	92.19
430.736	85.19
430.958	88.19
431.18	93.19
431.402	94.19
431.624	90.19
431.846	90.19
432.068	80.19
432.29	98.19
432.512	91.19
432.734	95.19
432.956	89.19
433.178	90.19
433.4	87.19
433.622	96.19
433.844	85.19
434.066	106.19
434.287	103.19
434.509	84.19
434.731	91.19
434.953	96.19
435.175	88.19
435.397	86.19
435.618	111.19
435.84	110.19
436.062	117.19
436.284	105.19
436.505	85.19
436.727	100.19
436.949	104.19
437.17	97.19
437.392	100.19
437.614	107.19
437.835	98.19
438.057	117.19
438.278	100.19
438.5	88.19
438.721	128.19
438.943	92.19
439.165	89.19
439.386	79.19
439.608	86.19
439.829	104.19
440.05	121.19
440.272	118.19
440.493	94.19
440.715	88.19
440.936	74.19
441.158	85.19
441.379	104.19
441.6	89.19
441.822	85.19
442.043	102.19
442.264	101.19
442.486	106.19
442.707	109.19
442.928	98.19
443.149	113.19
443.371	123.19
443.592	86.19
443.813	109.19
444.034	113.19
444.255	85.19
444.476	85.19
444.698	94.19
444.919	92.19
445.14	123.19
445.361	112.19
445.582	113.19
445.803	109.19
446.024	125.19
446.245	114.19
446.466	86.19
446.687	80.19
446.908	96.19
447.129	92.19
447.35	92.19
447.571	88.19
447.792	89.19
448.013	89.19
448.234	105.19
448.455	81.19
448.675	112.19
448.896	117.19
449.117	128.19
449.338	89.19
449.559	121.19
449.779	130.19
450	93.19
450.221	84.19
450.442	96.19
450.662	90.19
450.883	108.19
451.104	111.19
451.324	88.19
451.545	93.19
451.766	84.19
451.986	81.19
452.207	91.19
452.428	84.19
452.648	112.19
452.869	98.19
453.089	98.19
453.31	117.19
453.53	97.19
453.751	85.19
453.971	104.19
454.192	102.19
454.412	99.19
454.633	102.19
454.853	101.19
455.073	94.19
455.294	84.19
455.514	101.19
455.734	87.19
455.955	82.19
456.175	82.19
456.395	84.19
456.616	86.19
456.836	95.19
457.056	91.19
457.276	82.19
457.497	88.19
457.717	98.19
457.937	90.19
458.157	98.19
458.377	96.19
458.598	101.19
458.818	128.19
459.038	128.19
459.258	118.19
459.478	95.19
459.698	98.19
459.918	82.19
460.138	75.19
460.358	91.19
460.578	91.19
460.798	103.19
461.018	83.19
461.238	90.19
461.458	87.19
461.678	78.19
461.898	96.19
462.118	77.19
462.338	82.19
462.558	97.19
462.777	75.19
462.997	102.19
463.217	77.19
463.437	97.19
463.657	78.19
463.876	90.19
464.096	84.19
464.316	93.19
464.536	86.19
464.755	110.19
464.975	95.19
465.195	148.19
465.414	150.19
465.634	110.19
465.854	96.19
466.073	101.19
466.293	92.19
466.512	84.19
466.732	95.19
466.951	100.19
467.171	75.19
467.391	89.19
467.61	95.19
467.829	88.19
468.049	103.19
468.268	95.19
468.488	85.19
468.707	97.19
468.927	109.19
469.146	100.19
469.365	100.19
469.585	87.19
469.804	96.19
470.023	106.19
470.243	88.19
470.462	92.19
470.681	114.19
470.901	99.19
471.12	79.19
471.339	77.19
471.558	94.19
471.777	87.19
471.997	83.19
472.216	103.19
472.435	109.19
472.654	106.19
472.873	95.19
473.092	104.19
473.311	91.19
473.53	94.19
473.749	86.19
473.968	92.19
474.187	105.19
474.406	95.19
474.625	82.19
474.844	80.19
475.063	81.19
475.282	96.19
475.501	85.19
475.72	90.19
475.939	85.19
476.158	91.19
476.377	84.19
476.596	78.19
476.814	100.19
477.033	90.19
477.252	88.19
477.471	94.19
477.69	94.19
477.908	91.19
478.127	96.19
478.346	85.19
478.564	95.19
478.783	106.19
479.002	104.19
479.22	97.19
479.439	94.19
479.658	113.19
479.876	96.19
480.095	93.19
480.313	95.19
480.532	94.19
480.751	89.19
480.969	114.19
481.188	161.19
481.406	129.19
481.624	78.19
481.843	94.19
482.061	84.19
482.28	102.19
482.498	96.19
482.717	88.19
482.935	86.19
483.153	85.19
483.372	95.19
483.59	90.19
483.808	101.19
484.027	91.19
484.245	101.19
484.463	100.19
484.681	96.19
484.9	106.19
485.118	96.19
485.336	103.19
485.554	108.19
485.772	110.19
485.99	103.19
486.209	118.19
486.427	113.19
486.645	114.19
486.863	117.19
487.081	106.19
487.299	91.19
487.517	95.19
487.735	94.19
487.953	93.19
488.171	94.19
488.389	93.19
488.607	114.19
488.825	96.19
489.043	101.19
489.261	98.19
489.479	92.19
489.696	92.19
489.914	95.19
490.132	80.19
490.35	86.19
490.568	110.19
490.786	103.19
491.003	86.19
491.221	97.19
491.439	100.19
491.657	82.19
491.874	104.19
492.092	97.19
492.31	81.19
492.527	93.19
492.745	100.19
492.963	82.19
493.18	92.19
493.398	104.19
493.615	105.19
493.833	98.19
494.05	97.19
494.268	99.19
494.485	90.19
494.703	102.19
494.92	95.19
495.138	92.19
495.355	86.19
495.573	93.19
495.79	79.19
496.008	109.19
496.225	96.19
496.442	80.19
496.66	109.19
496.877	88.19
497.094	88.19
497.312	97.19
497.529	88.19
497.746	88.19
497.963	95.19
498.181	92.19
498.398	110.19
498.615	100.19
498.832	110.19
499.049	89.19
499.267	96.19
499.484	77.19
499.701	109.19
499.918	91.19
500.135	97.19
500.352	81.19
500.569	95.19
500.786	92.19
501.003	96.19
501.22	100.19
501.437	110.19
501.654	82.19
501.871	97.19
502.088	88.19
502.305	83.19
502.522	87.19
502.739	88.19
502.956	105.19
503.172	88.19
503.389	99.19
503.606	88.19
503.823	105.19
504.04	93.19
504.256	80.19
504.473	91.19
504.69	92.19
504.907	101.19
505.123	94.19
505.34	88.19
505.557	84.19
505.773	116.19
505.99	88.19
506.207	102.19
506.423	105.19
506.64	84.19
506.856	96.19
507.073	98.19
507.289	100.19
507.506	107.19
507.722	100.19
507.939	106.19
508.155	77.19
508.372	94.19
508.588	94.19
508.805	87.19
509.021	104.19
509.238	98.19
509.454	106.19
509.67	95.19
509.887	100.19
510.103	128.19
510.319	187.19
510.536	561.19
510.752	1662.19
510.968	474.19
511.184	139.19
511.401	104.19
511.617	104.19
511.833	97.19
512.049	87.19
512.265	81.19
512.481	95.19
512.698	106.19
512.914	96.19
513.13	105.19
513.346	92.19
513.562	97.19
513.778	96.19
