Data from Circ_1982_H10_HRD10591_00004.txt Node
Date: Wed Jan 03 12:30:42 EST 2024
User: Yrep
Spectrometer: HR+D1059
Trigger mode: 1
Integration Time (sec): 1.000000E-1
Scans to average: 1
Electric dark correction enabled: true
Nonlinearity correction enabled: false
Boxcar width: 0
XAxis mode: Wavelengths
Number of Pixels in Spectrum: 2048
>>>>>Begin Spectral Data<<<<<
223.165	-13.5
223.4	-13.5
223.635	-13.5
223.869	-20.5
224.104	-32.5
224.338	-29.5
224.573	-17.5
224.808	-21.5
225.042	11.5
225.277	-3.5
225.511	13.5
225.746	-9.5
225.98	10.5
226.215	16.5
226.449	15.5
226.683	23.5
226.918	22.5
227.152	34.5
227.387	35.5
227.621	37.5
227.856	39.5
228.09	37.5
228.324	48.5
228.559	50.5
228.793	46.5
229.027	46.5
229.262	45.5
229.496	70.5
229.73	67.5
229.964	73.5
230.199	79.5
230.433	72.5
230.667	77.5
230.901	62.5
231.136	74.5
231.37	80.5
231.604	84.5
231.838	73.5
232.072	59.5
232.306	80.5
232.541	65.5
232.775	61.5
233.009	77.5
233.243	70.5
233.477	65.5
233.711	78.5
233.945	86.5
234.179	77.5
234.413	92.5
234.647	75.5
234.881	69.5
235.115	74.5
235.349	71.5
235.583	82.5
235.817	68.5
236.051	86.5
236.285	71.5
236.519	77.5
236.753	77.5
236.987	79.5
237.221	67.5
237.455	79.5
237.689	75.5
237.922	74.5
238.156	67.5
238.39	71.5
238.624	73.5
238.858	88.5
239.091	66.5
239.325	79.5
239.559	74.5
239.793	66.5
240.027	76.5
240.26	85.5
240.494	75.5
240.728	79.5
240.961	79.5
241.195	67.5
241.429	77.5
241.662	68.5
241.896	80.5
242.13	86.5
242.363	77.5
242.597	85.5
242.83	80.5
243.064	80.5
243.298	76.5
243.531	74.5
243.765	91.5
243.998	71.5
244.232	74.5
244.465	82.5
244.699	75.5
244.932	79.5
245.166	76.5
245.399	65.5
245.633	75.5
245.866	80.5
246.099	67.5
246.333	77.5
246.566	86.5
246.8	91.5
247.033	73.5
247.266	67.5
247.5	68.5
247.733	67.5
247.966	80.5
248.2	77.5
248.433	70.5
248.666	72.5
248.899	82.5
249.133	95.5
249.366	70.5
249.599	89.5
249.832	86.5
250.066	86.5
250.299	83.5
250.532	74.5
250.765	77.5
250.998	77.5
251.231	80.5
251.465	83.5
251.698	82.5
251.931	86.5
252.164	79.5
252.397	83.5
252.63	85.5
252.863	77.5
253.096	87.5
253.329	72.5
253.562	74.5
253.795	82.5
254.028	77.5
254.261	72.5
254.494	81.5
254.727	67.5
254.96	77.5
255.193	75.5
255.426	70.5
255.659	72.5
255.892	74.5
256.124	68.5
256.357	80.5
256.59	75.5
256.823	72.5
257.056	82.5
257.289	81.5
257.521	74.5
257.754	79.5
257.987	77.5
258.22	85.5
258.452	95.5
258.685	78.5
258.918	66.5
259.151	69.5
259.383	83.5
259.616	62.5
259.849	82.5
260.081	70.5
260.314	87.5
260.547	79.5
260.779	67.5
261.012	71.5
261.244	86.5
261.477	79.5
261.71	92.5
261.942	106.5
262.175	107.5
262.407	74.5
262.64	80.5
262.872	81.5
263.105	81.5
263.337	88.5
263.57	76.5
263.802	71.5
264.035	73.5
264.267	61.5
264.499	80.5
264.732	72.5
264.964	85.5
265.197	92.5
265.429	78.5
265.661	84.5
265.894	71.5
266.126	92.5
266.358	85.5
266.591	82.5
266.823	95.5
267.055	81.5
267.287	89.5
267.52	75.5
267.752	82.5
267.984	85.5
268.216	99.5
268.448	86.5
268.681	86.5
268.913	83.5
269.145	82.5
269.377	75.5
269.609	63.5
269.841	90.5
270.073	87.5
270.306	93.5
270.538	81.5
270.77	77.5
271.002	79.5
271.234	74.5
271.466	71.5
271.698	77.5
271.93	89.5
272.162	86.5
272.394	86.5
272.626	99.5
272.858	90.5
273.09	86.5
273.322	83.5
273.553	71.5
273.785	78.5
274.017	78.5
274.249	87.5
274.481	83.5
274.713	85.5
274.945	89.5
275.176	83.5
275.408	86.5
275.64	80.5
275.872	84.5
276.104	86.5
276.335	89.5
276.567	93.5
276.799	99.5
277.031	91.5
277.262	87.5
277.494	82.5
277.726	77.5
277.957	91.5
278.189	70.5
278.421	85.5
278.652	80.5
278.884	82.5
279.115	86.5
279.347	76.5
279.579	80.5
279.81	76.5
280.042	78.5
280.273	81.5
280.505	73.5
280.736	93.5
280.968	66.5
281.199	101.5
281.431	69.5
281.662	85.5
281.894	85.5
282.125	103.5
282.356	110.5
282.588	110.5
282.819	99.5
283.051	86.5
283.282	72.5
283.513	81.5
283.745	81.5
283.976	86.5
284.207	73.5
284.439	77.5
284.67	75.5
284.901	87.5
285.132	83.5
285.364	84.5
285.595	93.5
285.826	82.5
286.057	87.5
286.288	72.5
286.52	85.5
286.751	79.5
286.982	83.5
287.213	79.5
287.444	90.5
287.675	79.5
287.906	75.5
288.138	86.5
288.369	90.5
288.6	93.5
288.831	69.5
289.062	81.5
289.293	79.5
289.524	95.5
289.755	90.5
289.986	84.5
290.217	81.5
290.448	78.5
290.679	91.5
290.91	88.5
291.141	75.5
291.371	90.5
291.602	84.5
291.833	86.5
292.064	83.5
292.295	85.5
292.526	90.5
292.757	85.5
292.987	83.5
293.218	75.5
293.449	88.5
293.68	89.5
293.91	75.5
294.141	84.5
294.372	82.5
294.603	71.5
294.833	83.5
295.064	68.5
295.295	83.5
295.525	98.5
295.756	102.5
295.987	99.5
296.217	119.5
296.448	105.5
296.679	100.5
296.909	77.5
297.14	89.5
297.37	95.5
297.601	78.5
297.831	76.5
298.062	100.5
298.292	71.5
298.523	75.5
298.753	91.5
298.984	90.5
299.214	86.5
299.445	90.5
299.675	85.5
299.905	98.5
300.136	75.5
300.366	99.5
300.597	83.5
300.827	87.5
301.057	91.5
301.288	83.5
301.518	75.5
301.748	86.5
301.979	104.5
302.209	90.5
302.439	86.5
302.669	90.5
302.9	89.5
303.13	88.5
303.36	101.5
303.59	87.5
303.82	108.5
304.051	91.5
304.281	81.5
304.511	83.5
304.741	87.5
304.971	81.5
305.201	79.5
305.431	79.5
305.661	84.5
305.891	82.5
306.121	89.5
306.352	97.5
306.582	90.5
306.812	107.5
307.042	93.5
307.272	91.5
307.502	92.5
307.731	82.5
307.961	83.5
308.191	89.5
308.421	77.5
308.651	82.5
308.881	93.5
309.111	74.5
309.341	100.5
309.571	75.5
309.8	76.5
310.03	93.5
310.26	81.5
310.49	92.5
310.72	89.5
310.949	97.5
311.179	94.5
311.409	84.5
311.639	91.5
311.868	93.5
312.098	122.5
312.328	92.5
312.557	101.5
312.787	91.5
313.017	93.5
313.246	99.5
313.476	85.5
313.706	98.5
313.935	91.5
314.165	94.5
314.394	85.5
314.624	90.5
314.853	101.5
315.083	86.5
315.312	99.5
315.542	80.5
315.771	85.5
316.001	83.5
316.23	86.5
316.46	85.5
316.689	81.5
316.919	78.5
317.148	89.5
317.377	74.5
317.607	89.5
317.836	83.5
318.065	90.5
318.295	99.5
318.524	86.5
318.753	89.5
318.983	79.5
319.212	93.5
319.441	99.5
319.67	89.5
319.9	89.5
320.129	97.5
320.358	92.5
320.587	86.5
320.816	95.5
321.046	78.5
321.275	91.5
321.504	79.5
321.733	87.5
321.962	96.5
322.191	92.5
322.42	100.5
322.649	101.5
322.878	101.5
323.108	95.5
323.337	113.5
323.566	103.5
323.795	136.5
324.024	152.5
324.253	303.5
324.482	575.5
324.71	1204.5
324.939	1568.5
325.168	609.5
325.397	189.5
325.626	124.5
325.855	124.5
326.084	122.5
326.313	118.5
326.542	129.5
326.77	196.5
326.999	338.5
327.228	661.5
327.457	1194.5
327.686	979.5
327.914	289.5
328.143	167.5
328.372	124.5
328.6	102.5
328.829	81.5
329.058	121.5
329.287	122.5
329.515	93.5
329.744	106.5
329.972	103.5
330.201	99.5
330.43	111.5
330.658	112.5
330.887	115.5
331.115	120.5
331.344	95.5
331.572	107.5
331.801	117.5
332.03	84.5
332.258	80.5
332.486	104.5
332.715	89.5
332.943	80.5
333.172	89.5
333.4	98.5
333.629	94.5
333.857	103.5
334.085	96.5
334.314	107.5
334.542	119.5
334.771	106.5
334.999	88.5
335.227	85.5
335.455	97.5
335.684	93.5
335.912	74.5
336.14	102.5
336.369	85.5
336.597	94.5
336.825	94.5
337.053	82.5
337.281	85.5
337.51	91.5
337.738	88.5
337.966	89.5
338.194	99.5
338.422	111.5
338.65	89.5
338.878	104.5
339.106	90.5
339.334	84.5
339.562	95.5
339.79	79.5
340.018	86.5
340.246	87.5
340.474	106.5
340.702	96.5
340.93	74.5
341.158	97.5
341.386	91.5
341.614	82.5
341.842	89.5
342.07	91.5
342.298	88.5
342.526	93.5
342.754	71.5
342.981	89.5
343.209	87.5
343.437	83.5
343.665	80.5
343.893	84.5
344.12	73.5
344.348	92.5
344.576	67.5
344.804	90.5
345.031	88.5
345.259	95.5
345.487	91.5
345.714	103.5
345.942	93.5
346.17	73.5
346.397	106.5
346.625	94.5
346.853	92.5
347.08	78.5
347.308	96.5
347.535	78.5
347.763	73.5
347.99	97.5
348.218	93.5
348.445	100.5
348.673	86.5
348.9	93.5
349.128	85.5
349.355	86.5
349.583	81.5
349.81	96.5
350.037	96.5
350.265	104.5
350.492	113.5
350.72	98.5
350.947	102.5
351.174	105.5
351.402	118.5
351.629	103.5
351.856	84.5
352.083	93.5
352.311	95.5
352.538	95.5
352.765	93.5
352.992	95.5
353.22	96.5
353.447	87.5
353.674	93.5
353.901	95.5
354.128	85.5
354.355	90.5
354.583	102.5
354.81	102.5
355.037	89.5
355.264	90.5
355.491	77.5
355.718	87.5
355.945	108.5
356.172	96.5
356.399	93.5
356.626	90.5
356.853	94.5
357.08	96.5
357.307	87.5
357.534	81.5
357.761	102.5
357.988	93.5
358.215	105.5
358.441	94.5
358.668	98.5
358.895	87.5
359.122	90.5
359.349	91.5
359.576	83.5
359.802	103.5
360.029	95.5
360.256	102.5
360.483	98.5
360.709	70.5
360.936	95.5
361.163	67.5
361.39	89.5
361.616	83.5
361.843	103.5
362.07	97.5
362.296	72.5
362.523	87.5
362.749	74.5
362.976	83.5
363.203	79.5
363.429	83.5
363.656	75.5
363.882	83.5
364.109	86.5
364.335	99.5
364.562	86.5
364.788	78.5
365.015	97.5
365.241	94.5
365.468	107.5
365.694	116.5
365.92	88.5
366.147	81.5
366.373	94.5
366.599	94.5
366.826	94.5
367.052	88.5
367.278	85.5
367.505	80.5
367.731	89.5
367.957	76.5
368.184	85.5
368.41	95.5
368.636	97.5
368.862	112.5
369.089	97.5
369.315	80.5
369.541	86.5
369.767	82.5
369.993	72.5
370.219	85.5
370.445	93.5
370.672	86.5
370.898	86.5
371.124	81.5
371.35	95.5
371.576	89.5
371.802	86.5
372.028	100.5
372.254	95.5
372.48	91.5
372.706	85.5
372.932	95.5
373.158	79.5
373.384	90.5
373.61	90.5
373.835	93.5
374.061	89.5
374.287	101.5
374.513	103.5
374.739	82.5
374.965	88.5
375.191	77.5
375.416	87.5
375.642	96.5
375.868	84.5
376.094	104.5
376.319	88.5
376.545	80.5
376.771	94.5
376.997	101.5
377.222	88.5
377.448	91.5
377.674	96.5
377.899	104.5
378.125	100.5
378.35	96.5
378.576	100.5
378.802	83.5
379.027	105.5
379.253	98.5
379.478	88.5
379.704	101.5
379.929	101.5
380.155	99.5
380.38	83.5
380.606	99.5
380.831	96.5
381.057	105.5
381.282	90.5
381.507	101.5
381.733	94.5
381.958	87.5
382.184	89.5
382.409	102.5
382.634	98.5
382.86	85.5
383.085	83.5
383.31	112.5
383.535	105.5
383.761	94.5
383.986	97.5
384.211	112.5
384.436	100.5
384.662	102.5
384.887	118.5
385.112	115.5
385.337	114.5
385.562	115.5
385.787	112.5
386.013	102.5
386.238	112.5
386.463	122.5
386.688	100.5
386.913	102.5
387.138	126.5
387.363	111.5
387.588	99.5
387.813	125.5
388.038	107.5
388.263	118.5
388.488	114.5
388.713	97.5
388.938	90.5
389.163	105.5
389.387	95.5
389.612	101.5
389.837	86.5
390.062	83.5
390.287	98.5
390.512	89.5
390.736	94.5
390.961	91.5
391.186	91.5
391.411	99.5
391.636	94.5
391.86	95.5
392.085	85.5
392.31	89.5
392.534	87.5
392.759	72.5
392.984	81.5
393.208	79.5
393.433	107.5
393.658	98.5
393.882	88.5
394.107	86.5
394.331	93.5
394.556	80.5
394.78	104.5
395.005	87.5
395.229	87.5
395.454	84.5
395.678	85.5
395.903	80.5
396.127	105.5
396.352	88.5
396.576	84.5
396.801	82.5
397.025	99.5
397.249	78.5
397.474	93.5
397.698	100.5
397.922	71.5
398.147	97.5
398.371	101.5
398.595	78.5
398.82	89.5
399.044	90.5
399.268	91.5
399.492	88.5
399.717	81.5
399.941	83.5
400.165	85.5
400.389	89.5
400.613	83.5
400.837	79.5
401.062	87.5
401.286	83.5
401.51	93.5
401.734	87.5
401.958	91.5
402.182	113.5
402.406	139.5
402.63	108.5
402.854	84.5
403.078	83.5
403.302	94.5
403.526	73.5
403.75	82.5
403.974	83.5
404.198	80.5
404.422	80.5
404.645	87.5
404.869	83.5
405.093	84.5
405.317	87.5
405.541	93.5
405.765	95.5
405.988	102.5
406.212	133.5
406.436	188.5
406.66	122.5
406.883	98.5
407.107	76.5
407.331	92.5
407.555	78.5
407.778	97.5
408.002	74.5
408.226	91.5
408.449	82.5
408.673	93.5
408.896	75.5
409.12	89.5
409.344	83.5
409.567	93.5
409.791	88.5
410.014	100.5
410.238	86.5
410.461	90.5
410.685	87.5
410.908	73.5
411.132	90.5
411.355	95.5
411.578	95.5
411.802	77.5
412.025	87.5
412.249	94.5
412.472	90.5
412.695	83.5
412.919	97.5
413.142	86.5
413.365	77.5
413.589	86.5
413.812	85.5
414.035	95.5
414.258	95.5
414.482	85.5
414.705	86.5
414.928	89.5
415.151	94.5
415.374	87.5
415.597	96.5
415.821	93.5
416.044	91.5
416.267	76.5
416.49	81.5
416.713	94.5
416.936	90.5
417.159	102.5
417.382	82.5
417.605	78.5
417.828	96.5
418.051	102.5
418.274	86.5
418.497	72.5
418.72	79.5
418.943	85.5
419.166	91.5
419.389	81.5
419.611	74.5
419.834	79.5
420.057	97.5
420.28	82.5
420.503	87.5
420.726	92.5
420.948	97.5
421.171	98.5
421.394	90.5
421.617	90.5
421.839	101.5
422.062	77.5
422.285	98.5
422.507	94.5
422.73	109.5
422.953	94.5
423.175	94.5
423.398	90.5
423.621	69.5
423.843	83.5
424.066	80.5
424.288	98.5
424.511	94.5
424.733	98.5
424.956	89.5
425.178	95.5
425.401	93.5
425.623	95.5
425.846	75.5
426.068	72.5
426.291	72.5
426.513	88.5
426.735	89.5
426.958	96.5
427.18	99.5
427.402	124.5
427.625	145.5
427.847	110.5
428.069	93.5
428.292	97.5
428.514	81.5
428.736	94.5
428.958	77.5
429.181	75.5
429.403	96.5
429.625	89.5
429.847	78.5
430.069	102.5
430.292	85.5
430.514	64.5
430.736	86.5
430.958	81.5
431.18	72.5
431.402	79.5
431.624	83.5
431.846	90.5
432.068	91.5
432.29	98.5
432.512	81.5
432.734	90.5
432.956	89.5
433.178	88.5
433.4	93.5
433.622	91.5
433.844	101.5
434.066	90.5
434.287	98.5
434.509	88.5
434.731	84.5
434.953	89.5
435.175	91.5
435.397	89.5
435.618	90.5
435.84	104.5
436.062	99.5
436.284	97.5
436.505	85.5
436.727	97.5
436.949	90.5
437.17	96.5
437.392	92.5
437.614	93.5
437.835	96.5
438.057	107.5
438.278	107.5
438.5	112.5
438.721	119.5
438.943	103.5
439.165	90.5
439.386	93.5
439.608	88.5
439.829	96.5
440.05	91.5
440.272	119.5
440.493	95.5
440.715	79.5
440.936	71.5
441.158	82.5
441.379	83.5
441.6	93.5
441.822	87.5
442.043	87.5
442.264	85.5
442.486	96.5
442.707	70.5
442.928	109.5
443.149	110.5
443.371	99.5
443.592	94.5
443.813	95.5
444.034	94.5
444.255	75.5
444.476	79.5
444.698	92.5
444.919	83.5
445.14	126.5
445.361	123.5
445.582	105.5
445.803	114.5
446.024	115.5
446.245	107.5
446.466	82.5
446.687	77.5
446.908	93.5
447.129	99.5
447.35	83.5
447.571	97.5
447.792	80.5
448.013	84.5
448.234	90.5
448.455	89.5
448.675	112.5
448.896	105.5
449.117	87.5
449.338	96.5
449.559	116.5
449.779	107.5
450	85.5
450.221	86.5
450.442	83.5
450.662	86.5
450.883	83.5
451.104	109.5
451.324	88.5
451.545	82.5
451.766	87.5
451.986	79.5
452.207	87.5
452.428	81.5
452.648	87.5
452.869	86.5
453.089	115.5
453.31	116.5
453.53	95.5
453.751	86.5
453.971	86.5
454.192	97.5
454.412	87.5
454.633	82.5
454.853	79.5
455.073	81.5
455.294	85.5
455.514	87.5
455.734	75.5
455.955	85.5
456.175	79.5
456.395	81.5
456.616	90.5
456.836	80.5
457.056	82.5
457.276	73.5
457.497	80.5
457.717	89.5
457.937	91.5
458.157	88.5
458.377	91.5
458.598	99.5
458.818	119.5
459.038	131.5
459.258	98.5
459.478	77.5
459.698	82.5
459.918	92.5
460.138	78.5
460.358	79.5
460.578	85.5
460.798	86.5
461.018	85.5
461.238	87.5
461.458	75.5
461.678	74.5
461.898	90.5
462.118	78.5
462.338	82.5
462.558	70.5
462.777	82.5
462.997	93.5
463.217	83.5
463.437	93.5
463.657	86.5
463.876	67.5
464.096	83.5
464.316	79.5
464.536	100.5
464.755	93.5
464.975	101.5
465.195	137.5
465.414	135.5
465.634	94.5
465.854	88.5
466.073	72.5
466.293	83.5
466.512	94.5
466.732	91.5
466.951	91.5
467.171	93.5
467.391	113.5
467.61	94.5
467.829	83.5
468.049	86.5
468.268	85.5
468.488	94.5
468.707	75.5
468.927	74.5
469.146	80.5
469.365	97.5
469.585	78.5
469.804	86.5
470.023	92.5
470.243	89.5
470.462	99.5
470.681	90.5
470.901	79.5
471.12	85.5
471.339	91.5
471.558	72.5
471.777	96.5
471.997	93.5
472.216	102.5
472.435	119.5
472.654	92.5
472.873	90.5
473.092	72.5
473.311	76.5
473.53	82.5
473.749	76.5
473.968	87.5
474.187	102.5
474.406	86.5
474.625	86.5
474.844	77.5
475.063	85.5
475.282	75.5
475.501	93.5
475.72	89.5
475.939	88.5
476.158	77.5
476.377	86.5
476.596	85.5
476.814	98.5
477.033	81.5
477.252	50.5
477.471	98.5
477.69	85.5
477.908	89.5
478.127	90.5
478.346	97.5
478.564	83.5
478.783	73.5
479.002	92.5
479.22	98.5
479.439	106.5
479.658	75.5
479.876	85.5
480.095	82.5
480.313	95.5
480.532	73.5
480.751	80.5
480.969	106.5
481.188	150.5
481.406	115.5
481.624	85.5
481.843	80.5
482.061	81.5
482.28	83.5
482.498	70.5
482.717	77.5
482.935	87.5
483.153	90.5
483.372	93.5
483.59	70.5
483.808	89.5
484.027	86.5
484.245	97.5
484.463	94.5
484.681	85.5
484.9	95.5
485.118	111.5
485.336	86.5
485.554	89.5
485.772	106.5
485.99	103.5
486.209	106.5
486.427	96.5
486.645	98.5
486.863	109.5
487.081	100.5
487.299	101.5
487.517	99.5
487.735	90.5
487.953	83.5
488.171	89.5
488.389	98.5
488.607	103.5
488.825	92.5
489.043	103.5
489.261	90.5
489.479	81.5
489.696	79.5
489.914	102.5
490.132	91.5
490.35	80.5
490.568	90.5
490.786	78.5
491.003	90.5
491.221	102.5
491.439	92.5
491.657	100.5
491.874	87.5
492.092	87.5
492.31	95.5
492.527	83.5
492.745	92.5
492.963	89.5
493.18	80.5
493.398	102.5
493.615	93.5
493.833	89.5
494.05	79.5
494.268	77.5
494.485	86.5
494.703	91.5
494.92	79.5
495.138	81.5
495.355	80.5
495.573	87.5
495.79	88.5
496.008	101.5
496.225	79.5
496.442	81.5
496.66	99.5
496.877	88.5
497.094	77.5
497.312	99.5
497.529	82.5
497.746	93.5
497.963	77.5
498.181	85.5
498.398	86.5
498.615	107.5
498.832	103.5
499.049	96.5
499.267	93.5
499.484	82.5
499.701	91.5
499.918	95.5
500.135	83.5
500.352	81.5
500.569	92.5
500.786	89.5
501.003	70.5
501.22	73.5
501.437	87.5
501.654	88.5
501.871	98.5
502.088	94.5
502.305	93.5
502.522	94.5
502.739	80.5
502.956	90.5
503.172	85.5
503.389	87.5
503.606	84.5
503.823	92.5
504.04	93.5
504.256	85.5
504.473	93.5
504.69	93.5
504.907	81.5
505.123	91.5
505.34	100.5
505.557	85.5
505.773	92.5
505.99	87.5
506.207	88.5
506.423	98.5
506.64	96.5
506.856	86.5
507.073	71.5
507.289	93.5
507.506	90.5
507.722	93.5
507.939	97.5
508.155	76.5
508.372	88.5
508.588	95.5
508.805	105.5
509.021	103.5
509.238	98.5
509.454	89.5
509.67	91.5
509.887	94.5
510.103	115.5
510.319	184.5
510.536	601.5
510.752	1861.5
510.968	500.5
511.184	148.5
511.401	100.5
511.617	98.5
511.833	96.5
512.049	73.5
512.265	85.5
512.481	90.5
512.698	83.5
512.914	89.5
513.13	88.5
513.346	98.5
513.562	90.5
513.778	93.5
513.994	102.5
514.21	91.5
514.426	110.5
514.642	120.5
514.858	105.5
515.074	144.5
515.29	361.5
515.506	1089.5
515.721	382.5
515.937	105.5
516.153	96.5
516.369	81.5
516.585	112.5
516.801	83.5
517.016	77.5
517.232	82.5
517.448	87.5
517.664	96.5
517.879	83.5
518.095	90.5
518.311	88.5
518.527	96.5
518.742	99.5
518.958	81.5
519.173	105.5
519.389	101.5
519.605	89.5
519.82	86.5
520.036	89.5
520.251	108.5
520.467	107.5
520.682	86.5
520.898	106.5
521.113	102.5
521.329	102.5
521.544	181.5
521.76	461.5
521.975	1790.5
522.19	1082.5
522.406	245.5
522.621	103.5
522.836	98.5
523.052	83.5
523.267	69.5
523.482	81.5
523.698	95.5
523.913	101.5
524.128	97.5
524.343	66.5
524.559	86.5
524.774	95.5
524.989	102.5
525.204	102.5
525.419	112.5
525.634	93.5
525.849	103.5
526.064	85.5
526.28	83.5
526.495	75.5
526.71	93.5
526.925	83.5
527.14	86.5
527.355	86.5
527.57	66.5
527.785	85.5
527.999	81.5
528.214	89.5
528.429	98.5
528.644	79.5
528.859	89.5
529.074	93.5
529.289	112.5
529.503	137.5
529.718	105.5
529.933	85.5
530.148	89.5
530.363	97.5
530.577	82.5
530.792	88.5
531.007	84.5
531.221	88.5
531.436	84.5
531.651	86.5
531.865	82.5
532.08	96.5
532.295	99.5
532.509	97.5
532.724	99.5
532.938	102.5
533.153	83.5
533.367	93.5
533.582	95.5
533.796	90.5
534.011	95.5
534.225	94.5
534.44	77.5
534.654	96.5
534.868	81.5
535.083	83.5
535.297	89.5
535.511	79.5
535.726	95.5
535.94	87.5
536.154	85.5
536.369	81.5
536.583	97.5
536.797	91.5
