Data from Circ_1982_H10_HRD10591_00065.txt Node
Date: Wed Jan 03 12:30:54 EST 2024
User: Yrep
Spectrometer: HR+D1059
Trigger mode: 1
Integration Time (sec): 1.000000E-1
Scans to average: 1
Electric dark correction enabled: true
Nonlinearity correction enabled: false
Boxcar width: 0
XAxis mode: Wavelengths
Number of Pixels in Spectrum: 2048
>>>>>Begin Spectral Data<<<<<
223.165	-21.75
223.4	-21.75
223.635	-21.75
223.869	-8.75
224.104	-17.75
224.338	-17.75
224.573	-6.75
224.808	-24.75
225.042	-5.75
225.277	-13.75
225.511	0.25
225.746	1.25
225.98	-0.75
226.215	11.25
226.449	18.25
226.683	23.25
226.918	27.25
227.152	36.25
227.387	27.25
227.621	40.25
227.856	43.25
228.09	39.25
228.324	40.25
228.559	47.25
228.793	64.25
229.027	54.25
229.262	78.25
229.496	70.25
229.73	67.25
229.964	78.25
230.199	73.25
230.433	79.25
230.667	78.25
230.901	74.25
231.136	76.25
231.37	82.25
231.604	68.25
231.838	84.25
232.072	72.25
232.306	86.25
232.541	75.25
232.775	77.25
233.009	72.25
233.243	80.25
233.477	92.25
233.711	91.25
233.945	82.25
234.179	78.25
234.413	87.25
234.647	78.25
234.881	86.25
235.115	75.25
235.349	77.25
235.583	75.25
235.817	80.25
236.051	90.25
236.285	82.25
236.519	73.25
236.753	73.25
236.987	75.25
237.221	73.25
237.455	84.25
237.689	73.25
237.922	81.25
238.156	99.25
238.39	82.25
238.624	82.25
238.858	57.25
239.091	72.25
239.325	83.25
239.559	52.25
239.793	75.25
240.027	80.25
240.26	72.25
240.494	84.25
240.728	78.25
240.961	72.25
241.195	78.25
241.429	74.25
241.662	80.25
241.896	74.25
242.13	72.25
242.363	74.25
242.597	80.25
242.83	65.25
243.064	71.25
243.298	82.25
243.531	82.25
243.765	74.25
243.998	71.25
244.232	64.25
244.465	97.25
244.699	76.25
244.932	83.25
245.166	69.25
245.399	75.25
245.633	73.25
245.866	78.25
246.099	73.25
246.333	76.25
246.566	67.25
246.8	75.25
247.033	102.25
247.266	80.25
247.5	74.25
247.733	70.25
247.966	79.25
248.2	78.25
248.433	84.25
248.666	74.25
248.899	80.25
249.133	69.25
249.366	75.25
249.599	95.25
249.832	66.25
250.066	78.25
250.299	87.25
250.532	75.25
250.765	76.25
250.998	85.25
251.231	76.25
251.465	83.25
251.698	87.25
251.931	89.25
252.164	78.25
252.397	78.25
252.63	81.25
252.863	77.25
253.096	73.25
253.329	81.25
253.562	80.25
253.795	79.25
254.028	93.25
254.261	88.25
254.494	90.25
254.727	80.25
254.96	67.25
255.193	83.25
255.426	78.25
255.659	71.25
255.892	73.25
256.124	74.25
256.357	87.25
256.59	79.25
256.823	84.25
257.056	87.25
257.289	89.25
257.521	71.25
257.754	76.25
257.987	81.25
258.22	80.25
258.452	74.25
258.685	74.25
258.918	75.25
259.151	79.25
259.383	92.25
259.616	88.25
259.849	85.25
260.081	70.25
260.314	93.25
260.547	84.25
260.779	90.25
261.012	76.25
261.244	75.25
261.477	84.25
261.71	84.25
261.942	89.25
262.175	87.25
262.407	86.25
262.64	73.25
262.872	70.25
263.105	86.25
263.337	89.25
263.57	71.25
263.802	74.25
264.035	78.25
264.267	82.25
264.499	64.25
264.732	78.25
264.964	80.25
265.197	70.25
265.429	74.25
265.661	95.25
265.894	80.25
266.126	88.25
266.358	83.25
266.591	92.25
266.823	94.25
267.055	86.25
267.287	82.25
267.52	70.25
267.752	82.25
267.984	86.25
268.216	90.25
268.448	82.25
268.681	78.25
268.913	99.25
269.145	65.25
269.377	81.25
269.609	80.25
269.841	68.25
270.073	90.25
270.306	94.25
270.538	72.25
270.77	82.25
271.002	89.25
271.234	81.25
271.466	87.25
271.698	85.25
271.93	85.25
272.162	80.25
272.394	72.25
272.626	74.25
272.858	90.25
273.09	87.25
273.322	79.25
273.553	90.25
273.785	80.25
274.017	98.25
274.249	71.25
274.481	84.25
274.713	83.25
274.945	76.25
275.176	82.25
275.408	89.25
275.64	82.25
275.872	79.25
276.104	87.25
276.335	75.25
276.567	85.25
276.799	88.25
277.031	86.25
277.262	99.25
277.494	82.25
277.726	84.25
277.957	79.25
278.189	83.25
278.421	72.25
278.652	93.25
278.884	75.25
279.115	77.25
279.347	82.25
279.579	91.25
279.81	88.25
280.042	86.25
280.273	73.25
280.505	103.25
280.736	71.25
280.968	76.25
281.199	82.25
281.431	68.25
281.662	86.25
281.894	80.25
282.125	88.25
282.356	91.25
282.588	114.25
282.819	96.25
283.051	96.25
283.282	88.25
283.513	98.25
283.745	95.25
283.976	94.25
284.207	88.25
284.439	73.25
284.67	72.25
284.901	91.25
285.132	72.25
285.364	78.25
285.595	85.25
285.826	86.25
286.057	94.25
286.288	75.25
286.52	76.25
286.751	84.25
286.982	92.25
287.213	75.25
287.444	83.25
287.675	94.25
287.906	97.25
288.138	87.25
288.369	96.25
288.6	94.25
288.831	75.25
289.062	92.25
289.293	84.25
289.524	80.25
289.755	82.25
289.986	82.25
290.217	85.25
290.448	86.25
290.679	79.25
290.91	69.25
291.141	100.25
291.371	82.25
291.602	89.25
291.833	80.25
292.064	101.25
292.295	90.25
292.526	89.25
292.757	97.25
292.987	98.25
293.218	94.25
293.449	87.25
293.68	82.25
293.91	82.25
294.141	86.25
294.372	80.25
294.603	82.25
294.833	95.25
295.064	86.25
295.295	90.25
295.525	87.25
295.756	83.25
295.987	98.25
296.217	128.25
296.448	112.25
296.679	95.25
296.909	91.25
297.14	78.25
297.37	89.25
297.601	86.25
297.831	90.25
298.062	101.25
298.292	97.25
298.523	91.25
298.753	89.25
298.984	75.25
299.214	76.25
299.445	87.25
299.675	86.25
299.905	89.25
300.136	91.25
300.366	95.25
300.597	88.25
300.827	92.25
301.057	88.25
301.288	91.25
301.518	95.25
301.748	86.25
301.979	94.25
302.209	83.25
302.439	82.25
302.669	69.25
302.9	89.25
303.13	90.25
303.36	89.25
303.59	89.25
303.82	103.25
304.051	87.25
304.281	89.25
304.511	101.25
304.741	94.25
304.971	87.25
305.201	87.25
305.431	70.25
305.661	97.25
305.891	94.25
306.121	78.25
306.352	112.25
306.582	93.25
306.812	82.25
307.042	81.25
307.272	68.25
307.502	84.25
307.731	86.25
307.961	85.25
308.191	98.25
308.421	78.25
308.651	80.25
308.881	93.25
309.111	86.25
309.341	92.25
309.571	75.25
309.8	84.25
310.03	98.25
310.26	99.25
310.49	90.25
310.72	90.25
310.949	92.25
311.179	75.25
311.409	75.25
311.639	95.25
311.868	94.25
312.098	91.25
312.328	89.25
312.557	98.25
312.787	86.25
313.017	96.25
313.246	102.25
313.476	81.25
313.706	75.25
313.935	91.25
314.165	88.25
314.394	89.25
314.624	90.25
314.853	104.25
315.083	87.25
315.312	73.25
315.542	91.25
315.771	96.25
316.001	102.25
316.23	97.25
316.46	96.25
316.689	83.25
316.919	97.25
317.148	97.25
317.377	85.25
317.607	75.25
317.836	80.25
318.065	99.25
318.295	94.25
318.524	86.25
318.753	92.25
318.983	87.25
319.212	103.25
319.441	78.25
319.67	82.25
319.9	92.25
320.129	101.25
320.358	88.25
320.587	99.25
320.816	100.25
321.046	90.25
321.275	97.25
321.504	97.25
321.733	92.25
321.962	85.25
322.191	87.25
322.42	90.25
322.649	98.25
322.878	93.25
323.108	109.25
323.337	104.25
323.566	119.25
323.795	132.25
324.024	160.25
324.253	282.25
324.482	548.25
324.71	1106.25
324.939	1440.25
325.168	556.25
325.397	201.25
325.626	127.25
325.855	110.25
326.084	101.25
326.313	120.25
326.542	115.25
326.77	177.25
326.999	323.25
327.228	647.25
327.457	1156.25
327.686	898.25
327.914	262.25
328.143	166.25
328.372	113.25
328.6	105.25
328.829	95.25
329.058	107.25
329.287	92.25
329.515	108.25
329.744	91.25
329.972	87.25
330.201	106.25
330.43	94.25
330.658	104.25
330.887	111.25
331.115	105.25
331.344	87.25
331.572	98.25
331.801	90.25
332.03	95.25
332.258	96.25
332.486	92.25
332.715	91.25
332.943	80.25
333.172	86.25
333.4	72.25
333.629	90.25
333.857	98.25
334.085	102.25
334.314	114.25
334.542	107.25
334.771	100.25
334.999	89.25
335.227	97.25
335.455	91.25
335.684	87.25
335.912	95.25
336.14	94.25
336.369	88.25
336.597	92.25
336.825	92.25
337.053	94.25
337.281	97.25
337.51	82.25
337.738	73.25
337.966	83.25
338.194	81.25
338.422	97.25
338.65	83.25
338.878	94.25
339.106	82.25
339.334	79.25
339.562	88.25
339.79	84.25
340.018	78.25
340.246	92.25
340.474	92.25
340.702	85.25
340.93	95.25
341.158	93.25
341.386	98.25
341.614	80.25
341.842	84.25
342.07	78.25
342.298	99.25
342.526	85.25
342.754	94.25
342.981	87.25
343.209	94.25
343.437	104.25
343.665	94.25
343.893	95.25
344.12	86.25
344.348	90.25
344.576	84.25
344.804	80.25
345.031	97.25
345.259	80.25
345.487	87.25
345.714	91.25
345.942	88.25
346.17	84.25
346.397	92.25
346.625	83.25
346.853	90.25
347.08	97.25
347.308	96.25
347.535	108.25
347.763	83.25
347.99	91.25
348.218	96.25
348.445	99.25
348.673	88.25
348.9	75.25
349.128	94.25
349.355	90.25
349.583	92.25
349.81	84.25
350.037	79.25
350.265	94.25
350.492	89.25
350.72	90.25
350.947	98.25
351.174	102.25
351.402	99.25
351.629	94.25
351.856	99.25
352.083	92.25
352.311	106.25
352.538	93.25
352.765	97.25
352.992	97.25
353.22	103.25
353.447	103.25
353.674	91.25
353.901	87.25
354.128	79.25
354.355	75.25
354.583	95.25
354.81	106.25
355.037	94.25
355.264	90.25
355.491	85.25
355.718	90.25
355.945	98.25
356.172	102.25
356.399	96.25
356.626	98.25
356.853	91.25
357.08	91.25
357.307	95.25
357.534	108.25
357.761	101.25
357.988	92.25
358.215	97.25
358.441	104.25
358.668	85.25
358.895	96.25
359.122	82.25
359.349	100.25
359.576	82.25
359.802	72.25
360.029	99.25
360.256	94.25
360.483	107.25
360.709	75.25
360.936	75.25
361.163	86.25
361.39	81.25
361.616	89.25
361.843	82.25
362.07	71.25
362.296	97.25
362.523	87.25
362.749	92.25
362.976	80.25
363.203	87.25
363.429	83.25
363.656	86.25
363.882	88.25
364.109	95.25
364.335	90.25
364.562	82.25
364.788	84.25
365.015	91.25
365.241	74.25
365.468	90.25
365.694	88.25
365.92	94.25
366.147	92.25
366.373	88.25
366.599	92.25
366.826	79.25
367.052	99.25
367.278	86.25
367.505	94.25
367.731	90.25
367.957	80.25
368.184	70.25
368.41	96.25
368.636	92.25
368.862	104.25
369.089	106.25
369.315	97.25
369.541	82.25
369.767	85.25
369.993	94.25
370.219	84.25
370.445	83.25
370.672	95.25
370.898	83.25
371.124	80.25
371.35	72.25
371.576	104.25
371.802	82.25
372.028	84.25
372.254	88.25
372.48	74.25
372.706	84.25
372.932	82.25
373.158	71.25
373.384	84.25
373.61	99.25
373.835	89.25
374.061	82.25
374.287	92.25
374.513	85.25
374.739	82.25
374.965	87.25
375.191	84.25
375.416	93.25
375.642	73.25
375.868	100.25
376.094	87.25
376.319	101.25
376.545	105.25
376.771	99.25
376.997	82.25
377.222	86.25
377.448	79.25
377.674	82.25
377.899	100.25
378.125	95.25
378.35	89.25
378.576	84.25
378.802	104.25
379.027	86.25
379.253	83.25
379.478	99.25
379.704	88.25
379.929	82.25
380.155	82.25
380.38	72.25
380.606	88.25
380.831	94.25
381.057	89.25
381.282	91.25
381.507	73.25
381.733	79.25
381.958	91.25
382.184	86.25
382.409	99.25
382.634	102.25
382.86	95.25
383.085	88.25
383.31	96.25
383.535	97.25
383.761	87.25
383.986	98.25
384.211	101.25
384.436	97.25
384.662	92.25
384.887	94.25
385.112	114.25
385.337	92.25
385.562	111.25
385.787	92.25
386.013	104.25
386.238	108.25
386.463	118.25
386.688	102.25
386.913	94.25
387.138	105.25
387.363	84.25
387.588	109.25
387.813	94.25
388.038	94.25
388.263	99.25
388.488	86.25
388.713	98.25
388.938	97.25
389.163	79.25
389.387	122.25
389.612	92.25
389.837	92.25
390.062	96.25
390.287	102.25
390.512	103.25
390.736	89.25
390.961	78.25
391.186	90.25
391.411	84.25
391.636	89.25
391.86	85.25
392.085	100.25
392.31	68.25
392.534	82.25
392.759	94.25
392.984	84.25
393.208	86.25
393.433	91.25
393.658	78.25
393.882	87.25
394.107	86.25
394.331	84.25
394.556	81.25
394.78	93.25
395.005	89.25
395.229	82.25
395.454	88.25
395.678	78.25
395.903	83.25
396.127	94.25
396.352	77.25
396.576	89.25
396.801	90.25
397.025	80.25
397.249	81.25
397.474	89.25
397.698	71.25
397.922	82.25
398.147	83.25
398.371	96.25
398.595	88.25
398.82	79.25
399.044	82.25
399.268	89.25
399.492	90.25
399.717	82.25
399.941	94.25
400.165	96.25
400.389	97.25
400.613	89.25
400.837	78.25
401.062	84.25
401.286	96.25
401.51	96.25
401.734	89.25
401.958	101.25
402.182	96.25
402.406	132.25
402.63	94.25
402.854	84.25
403.078	80.25
403.302	74.25
403.526	78.25
403.75	86.25
403.974	96.25
404.198	75.25
404.422	81.25
404.645	83.25
404.869	67.25
405.093	82.25
405.317	96.25
405.541	91.25
405.765	107.25
405.988	95.25
406.212	136.25
406.436	164.25
406.66	103.25
406.883	100.25
407.107	104.25
407.331	84.25
407.555	77.25
407.778	93.25
408.002	90.25
408.226	90.25
408.449	90.25
408.673	83.25
408.896	100.25
409.12	87.25
409.344	98.25
409.567	75.25
409.791	91.25
410.014	102.25
410.238	79.25
410.461	101.25
410.685	93.25
410.908	102.25
411.132	91.25
411.355	87.25
411.578	90.25
411.802	87.25
412.025	97.25
412.249	94.25
412.472	100.25
412.695	89.25
412.919	82.25
413.142	81.25
413.365	85.25
413.589	77.25
413.812	88.25
414.035	82.25
414.258	99.25
414.482	94.25
414.705	89.25
414.928	94.25
415.151	97.25
415.374	91.25
415.597	92.25
415.821	85.25
416.044	92.25
416.267	73.25
416.49	101.25
416.713	71.25
416.936	73.25
417.159	84.25
417.382	79.25
417.605	100.25
417.828	96.25
418.051	85.25
418.274	86.25
418.497	91.25
418.72	101.25
418.943	75.25
419.166	83.25
419.389	85.25
419.611	91.25
419.834	81.25
420.057	78.25
420.28	84.25
420.503	94.25
420.726	82.25
420.948	76.25
421.171	80.25
421.394	96.25
421.617	91.25
421.839	83.25
422.062	91.25
422.285	82.25
422.507	102.25
422.73	105.25
422.953	91.25
423.175	86.25
423.398	94.25
423.621	98.25
423.843	89.25
424.066	95.25
424.288	88.25
424.511	77.25
424.733	100.25
424.956	78.25
425.178	94.25
425.401	96.25
425.623	103.25
425.846	92.25
426.068	75.25
426.291	86.25
426.513	72.25
426.735	85.25
426.958	76.25
427.18	89.25
427.402	120.25
427.625	134.25
427.847	95.25
428.069	98.25
428.292	82.25
428.514	75.25
428.736	106.25
428.958	79.25
429.181	76.25
429.403	84.25
429.625	77.25
429.847	81.25
430.069	98.25
430.292	94.25
430.514	67.25
430.736	74.25
430.958	84.25
431.18	78.25
431.402	88.25
431.624	85.25
431.846	84.25
432.068	80.25
432.29	82.25
432.512	87.25
432.734	84.25
432.956	90.25
433.178	92.25
433.4	92.25
433.622	88.25
433.844	72.25
434.066	96.25
434.287	96.25
434.509	81.25
434.731	92.25
434.953	80.25
435.175	93.25
435.397	90.25
435.618	91.25
435.84	95.25
436.062	114.25
436.284	100.25
436.505	95.25
436.727	110.25
436.949	84.25
437.17	85.25
437.392	73.25
437.614	87.25
437.835	99.25
438.057	104.25
438.278	99.25
438.5	98.25
438.721	113.25
438.943	100.25
439.165	91.25
439.386	97.25
439.608	86.25
439.829	97.25
440.05	120.25
440.272	102.25
440.493	92.25
440.715	88.25
440.936	87.25
441.158	88.25
441.379	84.25
441.6	84.25
441.822	89.25
442.043	94.25
442.264	98.25
442.486	89.25
442.707	105.25
442.928	98.25
443.149	109.25
443.371	106.25
443.592	98.25
443.813	94.25
444.034	96.25
444.255	92.25
444.476	87.25
444.698	83.25
444.919	87.25
445.14	107.25
445.361	118.25
445.582	98.25
445.803	116.25
446.024	134.25
446.245	112.25
446.466	100.25
446.687	92.25
446.908	82.25
447.129	78.25
447.35	93.25
447.571	99.25
447.792	84.25
448.013	96.25
448.234	103.25
448.455	92.25
448.675	95.25
448.896	98.25
449.117	82.25
449.338	108.25
449.559	120.25
449.779	106.25
450	78.25
450.221	82.25
450.442	84.25
450.662	89.25
450.883	76.25
451.104	107.25
451.324	90.25
451.545	94.25
451.766	88.25
451.986	94.25
452.207	90.25
452.428	68.25
452.648	87.25
452.869	94.25
453.089	94.25
453.31	103.25
453.53	87.25
453.751	74.25
453.971	96.25
454.192	100.25
454.412	98.25
454.633	86.25
454.853	93.25
455.073	99.25
455.294	95.25
455.514	85.25
455.734	91.25
455.955	83.25
456.175	63.25
456.395	86.25
456.616	84.25
456.836	82.25
457.056	89.25
457.276	89.25
457.497	89.25
457.717	67.25
457.937	77.25
458.157	74.25
458.377	96.25
458.598	96.25
458.818	117.25
459.038	119.25
459.258	100.25
459.478	84.25
459.698	68.25
459.918	82.25
460.138	89.25
460.358	81.25
460.578	72.25
460.798	88.25
461.018	83.25
461.238	75.25
461.458	82.25
461.678	81.25
461.898	88.25
462.118	83.25
462.338	75.25
462.558	92.25
462.777	95.25
462.997	64.25
463.217	84.25
463.437	96.25
463.657	91.25
463.876	70.25
464.096	93.25
464.316	88.25
464.536	87.25
464.755	92.25
464.975	99.25
465.195	117.25
465.414	115.25
465.634	83.25
465.854	79.25
466.073	100.25
466.293	86.25
466.512	89.25
466.732	96.25
466.951	97.25
467.171	97.25
467.391	91.25
467.61	95.25
467.829	89.25
468.049	88.25
468.268	87.25
468.488	84.25
468.707	80.25
468.927	72.25
469.146	74.25
469.365	82.25
469.585	93.25
469.804	100.25
470.023	94.25
470.243	91.25
470.462	86.25
470.681	103.25
470.901	76.25
471.12	76.25
471.339	81.25
471.558	76.25
471.777	89.25
471.997	88.25
472.216	101.25
472.435	122.25
472.654	78.25
472.873	94.25
473.092	75.25
473.311	100.25
473.53	78.25
473.749	83.25
473.968	90.25
474.187	113.25
474.406	100.25
474.625	81.25
474.844	91.25
475.063	95.25
475.282	74.25
475.501	92.25
475.72	85.25
475.939	82.25
476.158	87.25
476.377	81.25
476.596	94.25
476.814	87.25
477.033	78.25
477.252	65.25
477.471	84.25
477.69	74.25
477.908	82.25
478.127	91.25
478.346	84.25
478.564	70.25
478.783	82.25
479.002	87.25
479.22	71.25
479.439	82.25
479.658	91.25
479.876	83.25
480.095	72.25
480.313	92.25
480.532	85.25
480.751	88.25
480.969	102.25
481.188	157.25
481.406	120.25
481.624	84.25
481.843	86.25
482.061	104.25
482.28	79.25
482.498	96.25
482.717	88.25
482.935	80.25
483.153	96.25
483.372	100.25
483.59	100.25
483.808	91.25
484.027	76.25
484.245	90.25
484.463	110.25
484.681	102.25
484.9	95.25
485.118	86.25
485.336	103.25
485.554	102.25
485.772	87.25
485.99	102.25
486.209	112.25
486.427	112.25
486.645	106.25
486.863	91.25
487.081	98.25
487.299	105.25
487.517	102.25
487.735	98.25
487.953	94.25
488.171	88.25
488.389	95.25
488.607	90.25
488.825	84.25
489.043	95.25
489.261	84.25
489.479	75.25
489.696	94.25
489.914	94.25
490.132	85.25
490.35	95.25
490.568	97.25
490.786	74.25
491.003	80.25
491.221	81.25
491.439	89.25
491.657	98.25
491.874	86.25
492.092	91.25
492.31	88.25
492.527	90.25
492.745	98.25
492.963	87.25
493.18	92.25
493.398	83.25
493.615	96.25
493.833	97.25
494.05	87.25
494.268	90.25
494.485	93.25
494.703	78.25
494.92	92.25
495.138	89.25
495.355	92.25
495.573	81.25
495.79	97.25
496.008	114.25
496.225	89.25
496.442	90.25
496.66	94.25
496.877	92.25
497.094	84.25
497.312	79.25
497.529	89.25
497.746	72.25
497.963	92.25
498.181	78.25
498.398	91.25
498.615	102.25
498.832	104.25
499.049	95.25
499.267	92.25
499.484	87.25
499.701	79.25
499.918	88.25
500.135	96.25
500.352	88.25
500.569	84.25
500.786	83.25
501.003	84.25
501.22	89.25
501.437	93.25
501.654	88.25
501.871	90.25
502.088	88.25
502.305	92.25
502.522	94.25
502.739	80.25
502.956	83.25
503.172	87.25
503.389	90.25
503.606	96.25
503.823	91.25
504.04	88.25
504.256	87.25
504.473	82.25
504.69	97.25
504.907	82.25
505.123	92.25
505.34	86.25
505.557	95.25
505.773	82.25
505.99	90.25
506.207	86.25
506.423	95.25
506.64	90.25
506.856	98.25
507.073	95.25
507.289	93.25
507.506	86.25
507.722	120.25
507.939	96.25
508.155	81.25
508.372	88.25
508.588	99.25
508.805	96.25
509.021	104.25
509.238	88.25
509.454	89.25
509.67	105.25
509.887	99.25
510.103	105.25
510.319	186.25
510.536	512.25
510.752	1475.25
510.968	450.25
511.184	135.25
511.401	98.25
511.617	108.25
511.833	103.25
512.049	82.25
512.265	83.25
512.481	88.25
512.698	88.25
512.914	86.25
513.13	87.25
513.346	91.25
513.562	95.25
513.778	86.25
513.994	67.25
514.21	88.25
514.426	95.25
514.642	111.25
514.858	98.25
515.074	134.25
515.29	316.25
515.506	877.25
515.721	337.25
515.937	122.25
516.153	92.25
516.369	91.25
516.585	92.25
516.801	92.25
517.016	105.25
517.232	100.25
517.448	78.25
