Data from Circ_1982_H10_HRD10591_00053.txt Node
Date: Wed Jan 03 12:30:51 EST 2024
User: Yrep
Spectrometer: HR+D1059
Trigger mode: 1
Integration Time (sec): 1.000000E-1
Scans to average: 1
Electric dark correction enabled: true
Nonlinearity correction enabled: false
Boxcar width: 0
XAxis mode: Wavelengths
Number of Pixels in Spectrum: 2048
>>>>>Begin Spectral Data<<<<<
223.165	-19.25
223.4	-19.25
223.635	-19.25
223.869	-5.25
224.104	-12.25
224.338	-22.25
224.573	-4.25
224.808	-29.25
225.042	0.75
225.277	-14.25
225.511	-0.25
225.746	2.75
225.98	5.75
226.215	29.75
226.449	22.75
226.683	5.75
226.918	13.75
227.152	25.75
227.387	32.75
227.621	33.75
227.856	55.75
228.09	57.75
228.324	39.75
228.559	59.75
228.793	56.75
229.027	58.75
229.262	72.75
229.496	72.75
229.73	75.75
229.964	84.75
230.199	71.75
230.433	74.75
230.667	76.75
230.901	76.75
231.136	83.75
231.37	77.75
231.604	76.75
231.838	89.75
232.072	74.75
232.306	80.75
232.541	76.75
232.775	99.75
233.009	83.75
233.243	88.75
233.477	66.75
233.711	65.75
233.945	77.75
234.179	83.75
234.413	93.75
234.647	82.75
234.881	84.75
235.115	87.75
235.349	84.75
235.583	81.75
235.817	79.75
236.051	79.75
236.285	84.75
236.519	82.75
236.753	83.75
236.987	68.75
237.221	80.75
237.455	74.75
237.689	66.75
237.922	62.75
238.156	64.75
238.39	70.75
238.624	76.75
238.858	67.75
239.091	77.75
239.325	73.75
239.559	83.75
239.793	72.75
240.027	82.75
240.26	88.75
240.494	79.75
240.728	60.75
240.961	64.75
241.195	73.75
241.429	69.75
241.662	65.75
241.896	76.75
242.13	68.75
242.363	78.75
242.597	69.75
242.83	67.75
243.064	76.75
243.298	81.75
243.531	67.75
243.765	80.75
243.998	88.75
244.232	83.75
244.465	82.75
244.699	75.75
244.932	76.75
245.166	84.75
245.399	71.75
245.633	85.75
245.866	71.75
246.099	76.75
246.333	90.75
246.566	77.75
246.8	82.75
247.033	85.75
247.266	70.75
247.5	74.75
247.733	84.75
247.966	76.75
248.2	88.75
248.433	70.75
248.666	98.75
248.899	62.75
249.133	67.75
249.366	76.75
249.599	87.75
249.832	80.75
250.066	84.75
250.299	79.75
250.532	76.75
250.765	77.75
250.998	66.75
251.231	88.75
251.465	80.75
251.698	67.75
251.931	84.75
252.164	81.75
252.397	78.75
252.63	90.75
252.863	81.75
253.096	84.75
253.329	86.75
253.562	78.75
253.795	91.75
254.028	86.75
254.261	89.75
254.494	86.75
254.727	82.75
254.96	77.75
255.193	77.75
255.426	88.75
255.659	82.75
255.892	85.75
256.124	89.75
256.357	97.75
256.59	92.75
256.823	66.75
257.056	82.75
257.289	81.75
257.521	85.75
257.754	85.75
257.987	57.75
258.22	85.75
258.452	84.75
258.685	82.75
258.918	83.75
259.151	74.75
259.383	83.75
259.616	75.75
259.849	86.75
260.081	84.75
260.314	85.75
260.547	76.75
260.779	92.75
261.012	83.75
261.244	68.75
261.477	84.75
261.71	76.75
261.942	89.75
262.175	106.75
262.407	84.75
262.64	73.75
262.872	91.75
263.105	94.75
263.337	89.75
263.57	96.75
263.802	78.75
264.035	84.75
264.267	82.75
264.499	67.75
264.732	75.75
264.964	77.75
265.197	96.75
265.429	74.75
265.661	95.75
265.894	77.75
266.126	72.75
266.358	78.75
266.591	73.75
266.823	80.75
267.055	84.75
267.287	78.75
267.52	84.75
267.752	89.75
267.984	83.75
268.216	79.75
268.448	78.75
268.681	85.75
268.913	73.75
269.145	91.75
269.377	92.75
269.609	81.75
269.841	81.75
270.073	72.75
270.306	88.75
270.538	81.75
270.77	90.75
271.002	86.75
271.234	91.75
271.466	77.75
271.698	73.75
271.93	89.75
272.162	72.75
272.394	94.75
272.626	80.75
272.858	97.75
273.09	81.75
273.322	86.75
273.553	101.75
273.785	90.75
274.017	85.75
274.249	90.75
274.481	89.75
274.713	92.75
274.945	88.75
275.176	90.75
275.408	85.75
275.64	76.75
275.872	86.75
276.104	90.75
276.335	64.75
276.567	95.75
276.799	88.75
277.031	102.75
277.262	92.75
277.494	76.75
277.726	103.75
277.957	84.75
278.189	74.75
278.421	103.75
278.652	96.75
278.884	82.75
279.115	80.75
279.347	84.75
279.579	101.75
279.81	95.75
280.042	76.75
280.273	91.75
280.505	82.75
280.736	77.75
280.968	98.75
281.199	81.75
281.431	88.75
281.662	92.75
281.894	89.75
282.125	92.75
282.356	90.75
282.588	118.75
282.819	109.75
283.051	87.75
283.282	90.75
283.513	102.75
283.745	99.75
283.976	91.75
284.207	84.75
284.439	90.75
284.67	78.75
284.901	87.75
285.132	79.75
285.364	92.75
285.595	83.75
285.826	86.75
286.057	89.75
286.288	85.75
286.52	86.75
286.751	77.75
286.982	86.75
287.213	86.75
287.444	90.75
287.675	72.75
287.906	87.75
288.138	85.75
288.369	88.75
288.6	91.75
288.831	77.75
289.062	73.75
289.293	75.75
289.524	73.75
289.755	76.75
289.986	84.75
290.217	84.75
290.448	80.75
290.679	74.75
290.91	91.75
291.141	82.75
291.371	96.75
291.602	76.75
291.833	88.75
292.064	89.75
292.295	88.75
292.526	83.75
292.757	80.75
292.987	90.75
293.218	85.75
293.449	83.75
293.68	83.75
293.91	76.75
294.141	96.75
294.372	82.75
294.603	92.75
294.833	93.75
295.064	98.75
295.295	88.75
295.525	86.75
295.756	95.75
295.987	100.75
296.217	114.75
296.448	108.75
296.679	98.75
296.909	85.75
297.14	99.75
297.37	99.75
297.601	101.75
297.831	98.75
298.062	82.75
298.292	84.75
298.523	85.75
298.753	87.75
298.984	97.75
299.214	92.75
299.445	93.75
299.675	89.75
299.905	98.75
300.136	81.75
300.366	85.75
300.597	86.75
300.827	92.75
301.057	97.75
301.288	100.75
301.518	84.75
301.748	98.75
301.979	104.75
302.209	91.75
302.439	78.75
302.669	80.75
302.9	92.75
303.13	97.75
303.36	92.75
303.59	92.75
303.82	103.75
304.051	91.75
304.281	83.75
304.511	88.75
304.741	89.75
304.971	87.75
305.201	87.75
305.431	87.75
305.661	89.75
305.891	84.75
306.121	83.75
306.352	98.75
306.582	94.75
306.812	103.75
307.042	85.75
307.272	90.75
307.502	100.75
307.731	93.75
307.961	80.75
308.191	100.75
308.421	93.75
308.651	104.75
308.881	98.75
309.111	101.75
309.341	104.75
309.571	84.75
309.8	88.75
310.03	93.75
310.26	99.75
310.49	101.75
310.72	108.75
310.949	106.75
311.179	76.75
311.409	87.75
311.639	98.75
311.868	87.75
312.098	88.75
312.328	100.75
312.557	101.75
312.787	89.75
313.017	88.75
313.246	106.75
313.476	86.75
313.706	84.75
313.935	87.75
314.165	93.75
314.394	83.75
314.624	90.75
314.853	90.75
315.083	83.75
315.312	90.75
315.542	108.75
315.771	92.75
316.001	89.75
316.23	100.75
316.46	94.75
316.689	99.75
316.919	86.75
317.148	93.75
317.377	97.75
317.607	93.75
317.836	89.75
318.065	84.75
318.295	90.75
318.524	77.75
318.753	89.75
318.983	94.75
319.212	85.75
319.441	93.75
319.67	96.75
319.9	90.75
320.129	86.75
320.358	99.75
320.587	88.75
320.816	88.75
321.046	100.75
321.275	85.75
321.504	88.75
321.733	88.75
321.962	93.75
322.191	92.75
322.42	97.75
322.649	102.75
322.878	97.75
323.108	110.75
323.337	110.75
323.566	133.75
323.795	123.75
324.024	155.75
324.253	278.75
324.482	567.75
324.71	1106.75
324.939	1440.75
325.168	522.75
325.397	193.75
325.626	146.75
325.855	103.75
326.084	112.75
326.313	121.75
326.542	123.75
326.77	188.75
326.999	314.75
327.228	613.75
327.457	1133.75
327.686	906.75
327.914	264.75
328.143	157.75
328.372	125.75
328.6	111.75
328.829	115.75
329.058	101.75
329.287	117.75
329.515	115.75
329.744	103.75
329.972	105.75
330.201	98.75
330.43	107.75
330.658	115.75
330.887	119.75
331.115	104.75
331.344	98.75
331.572	94.75
331.801	106.75
332.03	109.75
332.258	98.75
332.486	92.75
332.715	105.75
332.943	87.75
333.172	94.75
333.4	90.75
333.629	101.75
333.857	110.75
334.085	123.75
334.314	104.75
334.542	123.75
334.771	133.75
334.999	106.75
335.227	88.75
335.455	93.75
335.684	90.75
335.912	98.75
336.14	102.75
336.369	100.75
336.597	89.75
336.825	106.75
337.053	92.75
337.281	88.75
337.51	84.75
337.738	112.75
337.966	94.75
338.194	104.75
338.422	82.75
338.65	84.75
338.878	100.75
339.106	89.75
339.334	94.75
339.562	91.75
339.79	101.75
340.018	80.75
340.246	82.75
340.474	94.75
340.702	87.75
340.93	88.75
341.158	103.75
341.386	88.75
341.614	88.75
341.842	81.75
342.07	94.75
342.298	88.75
342.526	101.75
342.754	92.75
342.981	96.75
343.209	77.75
343.437	100.75
343.665	77.75
343.893	103.75
344.12	96.75
344.348	101.75
344.576	84.75
344.804	80.75
345.031	93.75
345.259	92.75
345.487	101.75
345.714	99.75
345.942	90.75
346.17	89.75
346.397	102.75
346.625	94.75
346.853	69.75
347.08	95.75
347.308	107.75
347.535	78.75
347.763	95.75
347.99	91.75
348.218	93.75
348.445	108.75
348.673	84.75
348.9	100.75
349.128	107.75
349.355	94.75
349.583	93.75
349.81	87.75
350.037	98.75
350.265	97.75
350.492	78.75
350.72	108.75
350.947	93.75
351.174	106.75
351.402	102.75
351.629	100.75
351.856	96.75
352.083	106.75
352.311	95.75
352.538	116.75
352.765	109.75
352.992	109.75
353.22	93.75
353.447	108.75
353.674	94.75
353.901	93.75
354.128	100.75
354.355	98.75
354.583	98.75
354.81	102.75
355.037	98.75
355.264	100.75
355.491	95.75
355.718	83.75
355.945	90.75
356.172	99.75
356.399	85.75
356.626	98.75
356.853	94.75
357.08	103.75
357.307	90.75
357.534	94.75
357.761	91.75
357.988	84.75
358.215	94.75
358.441	101.75
358.668	82.75
358.895	91.75
359.122	84.75
359.349	88.75
359.576	88.75
359.802	92.75
360.029	110.75
360.256	106.75
360.483	105.75
360.709	88.75
360.936	98.75
361.163	80.75
361.39	84.75
361.616	88.75
361.843	82.75
362.07	95.75
362.296	94.75
362.523	85.75
362.749	88.75
362.976	98.75
363.203	93.75
363.429	88.75
363.656	103.75
363.882	78.75
364.109	82.75
364.335	104.75
364.562	80.75
364.788	88.75
365.015	91.75
365.241	91.75
365.468	105.75
365.694	93.75
365.92	89.75
366.147	86.75
366.373	74.75
366.599	96.75
366.826	87.75
367.052	98.75
367.278	103.75
367.505	104.75
367.731	95.75
367.957	112.75
368.184	99.75
368.41	89.75
368.636	97.75
368.862	98.75
369.089	94.75
369.315	93.75
369.541	85.75
369.767	107.75
369.993	94.75
370.219	97.75
370.445	86.75
370.672	92.75
370.898	87.75
371.124	95.75
371.35	92.75
371.576	84.75
371.802	92.75
372.028	92.75
372.254	96.75
372.48	77.75
372.706	85.75
372.932	81.75
373.158	82.75
373.384	92.75
373.61	106.75
373.835	96.75
374.061	90.75
374.287	90.75
374.513	88.75
374.739	89.75
374.965	75.75
375.191	102.75
375.416	76.75
375.642	88.75
375.868	96.75
376.094	89.75
376.319	84.75
376.545	89.75
376.771	93.75
376.997	89.75
377.222	78.75
377.448	94.75
377.674	87.75
377.899	92.75
378.125	98.75
378.35	76.75
378.576	105.75
378.802	85.75
379.027	104.75
379.253	96.75
379.478	89.75
379.704	88.75
379.929	89.75
380.155	76.75
380.38	101.75
380.606	82.75
380.831	96.75
381.057	94.75
381.282	98.75
381.507	101.75
381.733	88.75
381.958	99.75
382.184	102.75
382.409	90.75
382.634	109.75
382.86	95.75
383.085	100.75
383.31	87.75
383.535	108.75
383.761	96.75
383.986	100.75
384.211	88.75
384.436	88.75
384.662	85.75
384.887	108.75
385.112	110.75
385.337	102.75
385.562	91.75
385.787	105.75
386.013	108.75
386.238	97.75
386.463	104.75
386.688	110.75
386.913	116.75
387.138	94.75
387.363	106.75
387.588	96.75
387.813	104.75
388.038	104.75
388.263	129.75
388.488	109.75
388.713	95.75
388.938	102.75
389.163	93.75
389.387	98.75
389.612	100.75
389.837	92.75
390.062	91.75
390.287	102.75
390.512	98.75
390.736	104.75
390.961	98.75
391.186	97.75
391.411	92.75
391.636	95.75
391.86	71.75
392.085	91.75
392.31	89.75
392.534	89.75
392.759	92.75
392.984	80.75
393.208	89.75
393.433	86.75
393.658	104.75
393.882	81.75
394.107	95.75
394.331	86.75
394.556	78.75
394.78	70.75
395.005	96.75
395.229	86.75
395.454	102.75
395.678	79.75
395.903	78.75
396.127	79.75
396.352	97.75
396.576	90.75
396.801	85.75
397.025	85.75
397.249	93.75
397.474	94.75
397.698	93.75
397.922	81.75
398.147	88.75
398.371	104.75
398.595	70.75
398.82	64.75
399.044	93.75
399.268	84.75
399.492	89.75
399.717	99.75
399.941	89.75
400.165	86.75
400.389	96.75
400.613	84.75
400.837	77.75
401.062	82.75
401.286	96.75
401.51	89.75
401.734	88.75
401.958	82.75
402.182	111.75
402.406	127.75
402.63	102.75
402.854	84.75
403.078	81.75
403.302	98.75
403.526	86.75
403.75	85.75
403.974	96.75
404.198	80.75
404.422	85.75
404.645	83.75
404.869	98.75
405.093	98.75
405.317	89.75
405.541	95.75
405.765	98.75
405.988	117.75
406.212	152.75
406.436	162.75
406.66	117.75
406.883	96.75
407.107	92.75
407.331	101.75
407.555	99.75
407.778	95.75
408.002	90.75
408.226	90.75
408.449	89.75
408.673	85.75
408.896	87.75
409.12	84.75
409.344	83.75
409.567	105.75
409.791	76.75
410.014	88.75
410.238	92.75
410.461	96.75
410.685	109.75
410.908	106.75
411.132	94.75
411.355	88.75
411.578	92.75
411.802	96.75
412.025	100.75
412.249	98.75
412.472	85.75
412.695	86.75
412.919	88.75
413.142	99.75
413.365	87.75
413.589	84.75
413.812	73.75
414.035	83.75
414.258	93.75
414.482	70.75
414.705	73.75
414.928	80.75
415.151	90.75
415.374	98.75
415.597	88.75
415.821	101.75
416.044	75.75
416.267	80.75
416.49	91.75
416.713	90.75
416.936	83.75
417.159	91.75
417.382	85.75
417.605	86.75
417.828	82.75
418.051	92.75
418.274	88.75
418.497	94.75
418.72	73.75
418.943	94.75
419.166	81.75
419.389	88.75
419.611	80.75
419.834	87.75
420.057	84.75
420.28	88.75
420.503	69.75
420.726	88.75
420.948	98.75
421.171	75.75
421.394	84.75
421.617	74.75
421.839	84.75
422.062	83.75
422.285	85.75
422.507	90.75
422.73	108.75
422.953	87.75
423.175	82.75
423.398	97.75
423.621	92.75
423.843	84.75
424.066	77.75
424.288	89.75
424.511	75.75
424.733	92.75
424.956	88.75
425.178	89.75
425.401	93.75
425.623	95.75
425.846	85.75
426.068	89.75
426.291	108.75
426.513	88.75
426.735	105.75
426.958	85.75
427.18	89.75
427.402	105.75
427.625	131.75
427.847	115.75
428.069	104.75
428.292	76.75
428.514	85.75
428.736	86.75
428.958	102.75
429.181	84.75
429.403	91.75
429.625	88.75
429.847	70.75
430.069	83.75
430.292	90.75
430.514	86.75
430.736	85.75
430.958	92.75
431.18	90.75
431.402	96.75
431.624	86.75
431.846	91.75
432.068	92.75
432.29	91.75
432.512	92.75
432.734	69.75
432.956	108.75
433.178	96.75
433.4	89.75
433.622	96.75
433.844	92.75
434.066	96.75
434.287	79.75
434.509	86.75
434.731	80.75
434.953	82.75
435.175	85.75
435.397	80.75
435.618	75.75
435.84	105.75
436.062	119.75
436.284	95.75
436.505	105.75
436.727	85.75
436.949	96.75
437.17	84.75
437.392	81.75
437.614	86.75
437.835	102.75
438.057	105.75
438.278	103.75
438.5	84.75
438.721	105.75
438.943	80.75
439.165	96.75
439.386	86.75
439.608	86.75
439.829	93.75
440.05	97.75
440.272	116.75
440.493	96.75
440.715	76.75
440.936	100.75
441.158	76.75
441.379	102.75
441.6	82.75
441.822	78.75
442.043	88.75
442.264	96.75
442.486	98.75
442.707	100.75
442.928	94.75
443.149	100.75
443.371	99.75
443.592	108.75
443.813	86.75
444.034	107.75
444.255	77.75
444.476	80.75
444.698	88.75
444.919	85.75
445.14	124.75
445.361	109.75
445.582	104.75
445.803	104.75
446.024	100.75
446.245	114.75
446.466	100.75
446.687	85.75
446.908	93.75
447.129	93.75
447.35	84.75
447.571	91.75
447.792	95.75
448.013	80.75
448.234	90.75
448.455	88.75
448.675	104.75
448.896	97.75
449.117	91.75
449.338	83.75
449.559	118.75
449.779	125.75
450	95.75
450.221	107.75
450.442	85.75
450.662	84.75
450.883	92.75
451.104	90.75
451.324	86.75
451.545	92.75
451.766	92.75
451.986	85.75
452.207	91.75
452.428	82.75
452.648	94.75
452.869	102.75
453.089	108.75
453.31	107.75
453.53	71.75
453.751	76.75
453.971	76.75
454.192	101.75
454.412	82.75
454.633	82.75
454.853	89.75
455.073	90.75
455.294	96.75
455.514	88.75
455.734	78.75
455.955	76.75
456.175	72.75
456.395	83.75
456.616	89.75
456.836	95.75
457.056	100.75
457.276	98.75
457.497	91.75
457.717	90.75
457.937	70.75
458.157	73.75
458.377	81.75
458.598	88.75
458.818	109.75
459.038	136.75
459.258	97.75
459.478	85.75
459.698	96.75
459.918	92.75
460.138	95.75
460.358	92.75
460.578	93.75
460.798	92.75
461.018	83.75
461.238	82.75
461.458	86.75
461.678	85.75
461.898	77.75
462.118	78.75
462.338	69.75
462.558	93.75
462.777	78.75
462.997	72.75
463.217	92.75
463.437	80.75
463.657	86.75
463.876	82.75
464.096	90.75
464.316	104.75
464.536	95.75
464.755	71.75
464.975	107.75
465.195	130.75
465.414	124.75
465.634	98.75
465.854	105.75
466.073	77.75
466.293	87.75
466.512	93.75
466.732	74.75
466.951	77.75
467.171	75.75
467.391	69.75
467.61	90.75
467.829	88.75
468.049	90.75
468.268	114.75
468.488	86.75
468.707	93.75
468.927	84.75
469.146	93.75
469.365	80.75
469.585	89.75
469.804	93.75
470.023	95.75
470.243	87.75
470.462	109.75
470.681	113.75
470.901	88.75
471.12	90.75
471.339	76.75
471.558	89.75
471.777	86.75
471.997	84.75
472.216	98.75
472.435	111.75
472.654	97.75
472.873	79.75
473.092	94.75
473.311	93.75
473.53	82.75
473.749	92.75
473.968	88.75
474.187	89.75
474.406	82.75
474.625	90.75
474.844	71.75
475.063	90.75
475.282	76.75
475.501	82.75
475.72	87.75
475.939	83.75
476.158	96.75
476.377	97.75
476.596	87.75
476.814	88.75
477.033	86.75
477.252	97.75
477.471	92.75
477.69	84.75
477.908	76.75
478.127	73.75
478.346	86.75
478.564	82.75
478.783	102.75
479.002	89.75
479.22	85.75
479.439	87.75
479.658	93.75
479.876	76.75
480.095	84.75
480.313	91.75
480.532	100.75
480.751	86.75
480.969	116.75
481.188	168.75
481.406	138.75
481.624	91.75
481.843	86.75
482.061	70.75
482.28	89.75
482.498	91.75
482.717	96.75
482.935	87.75
483.153	82.75
483.372	90.75
483.59	98.75
483.808	91.75
484.027	73.75
484.245	104.75
484.463	100.75
484.681	101.75
484.9	94.75
485.118	95.75
485.336	82.75
485.554	91.75
485.772	97.75
485.99	92.75
486.209	96.75
486.427	101.75
486.645	104.75
486.863	105.75
487.081	99.75
487.299	115.75
487.517	92.75
487.735	89.75
487.953	92.75
488.171	96.75
488.389	94.75
488.607	94.75
488.825	96.75
489.043	76.75
489.261	84.75
489.479	86.75
489.696	89.75
489.914	81.75
490.132	89.75
490.35	86.75
490.568	79.75
490.786	88.75
491.003	94.75
491.221	89.75
491.439	85.75
491.657	80.75
491.874	100.75
492.092	102.75
492.31	79.75
492.527	93.75
492.745	69.75
492.963	91.75
493.18	86.75
493.398	86.75
493.615	93.75
493.833	93.75
494.05	91.75
494.268	86.75
494.485	96.75
494.703	83.75
494.92	80.75
495.138	86.75
495.355	78.75
495.573	86.75
495.79	98.75
496.008	91.75
496.225	95.75
496.442	86.75
496.66	84.75
496.877	93.75
497.094	102.75
497.312	91.75
497.529	86.75
497.746	98.75
497.963	86.75
498.181	86.75
498.398	99.75
498.615	101.75
498.832	103.75
499.049	96.75
499.267	86.75
499.484	95.75
499.701	92.75
499.918	84.75
500.135	77.75
500.352	92.75
500.569	88.75
500.786	84.75
501.003	74.75
501.22	81.75
501.437	91.75
501.654	103.75
501.871	97.75
502.088	93.75
502.305	90.75
502.522	82.75
502.739	84.75
502.956	82.75
503.172	90.75
503.389	90.75
503.606	92.75
503.823	98.75
504.04	93.75
504.256	74.75
504.473	72.75
504.69	84.75
504.907	88.75
505.123	84.75
505.34	89.75
505.557	97.75
505.773	77.75
505.99	86.75
506.207	86.75
506.423	83.75
506.64	98.75
506.856	85.75
507.073	72.75
507.289	90.75
507.506	104.75
507.722	95.75
507.939	104.75
508.155	93.75
508.372	88.75
508.588	94.75
508.805	86.75
509.021	91.75
509.238	98.75
509.454	96.75
509.67	88.75
509.887	87.75
510.103	110.75
510.319	175.75
510.536	547.75
510.752	1548.75
510.968	446.75
511.184	122.75
511.401	106.75
511.617	93.75
511.833	80.75
512.049	85.75
512.265	93.75
512.481	94.75
512.698	90.75
512.914	101.75
513.13	89.75
513.346	76.75
513.562	90.75
513.778	79.75
513.994	100.75
514.21	96.75
514.426	99.75
514.642	104.75
514.858	93.75
515.074	132.75
515.29	300.75
515.506	900.75
515.721	351.75
515.937	107.75
516.153	104.75
516.369	95.75
516.585	98.75
