Data from Circ_1982_H10_HRD10591_00008.txt Node
Date: Wed Jan 03 12:30:42 EST 2024
User: Yrep
Spectrometer: HR+D1059
Trigger mode: 1
Integration Time (sec): 1.000000E-1
Scans to average: 1
Electric dark correction enabled: true
Nonlinearity correction enabled: false
Boxcar width: 0
XAxis mode: Wavelengths
Number of Pixels in Spectrum: 2048
>>>>>Begin Spectral Data<<<<<
223.165	-34.44
223.4	-34.44
223.635	-34.44
223.869	-8.44
224.104	-11.44
224.338	-13.44
224.573	-20.44
224.808	-15.44
225.042	-7.44
225.277	-17.44
225.511	4.56
225.746	8.56
225.98	16.56
226.215	10.56
226.449	16.56
226.683	35.56
226.918	15.56
227.152	20.56
227.387	23.56
227.621	37.56
227.856	39.56
228.09	50.56
228.324	45.56
228.559	39.56
228.793	62.56
229.027	59.56
229.262	71.56
229.496	65.56
229.73	75.56
229.964	73.56
230.199	74.56
230.433	86.56
230.667	88.56
230.901	73.56
231.136	78.56
231.37	75.56
231.604	71.56
231.838	75.56
232.072	89.56
232.306	91.56
232.541	75.56
232.775	69.56
233.009	78.56
233.243	84.56
233.477	78.56
233.711	84.56
233.945	80.56
234.179	69.56
234.413	88.56
234.647	87.56
234.881	84.56
235.115	80.56
235.349	66.56
235.583	86.56
235.817	82.56
236.051	82.56
236.285	86.56
236.519	68.56
236.753	73.56
236.987	68.56
237.221	82.56
237.455	88.56
237.689	71.56
237.922	80.56
238.156	81.56
238.39	79.56
238.624	70.56
238.858	85.56
239.091	84.56
239.325	69.56
239.559	69.56
239.793	88.56
240.027	102.56
240.26	72.56
240.494	78.56
240.728	66.56
240.961	64.56
241.195	61.56
241.429	67.56
241.662	76.56
241.896	80.56
242.13	69.56
242.363	69.56
242.597	66.56
242.83	78.56
243.064	57.56
243.298	76.56
243.531	64.56
243.765	68.56
243.998	72.56
244.232	73.56
244.465	78.56
244.699	84.56
244.932	83.56
245.166	83.56
245.399	74.56
245.633	76.56
245.866	85.56
246.099	80.56
246.333	81.56
246.566	83.56
246.8	83.56
247.033	89.56
247.266	82.56
247.5	79.56
247.733	79.56
247.966	66.56
248.2	78.56
248.433	95.56
248.666	79.56
248.899	80.56
249.133	85.56
249.366	90.56
249.599	106.56
249.832	75.56
250.066	81.56
250.299	88.56
250.532	80.56
250.765	82.56
250.998	84.56
251.231	86.56
251.465	91.56
251.698	82.56
251.931	56.56
252.164	64.56
252.397	84.56
252.63	74.56
252.863	70.56
253.096	79.56
253.329	95.56
253.562	93.56
253.795	75.56
254.028	74.56
254.261	74.56
254.494	77.56
254.727	78.56
254.96	78.56
255.193	82.56
255.426	67.56
255.659	77.56
255.892	74.56
256.124	68.56
256.357	71.56
256.59	84.56
256.823	88.56
257.056	72.56
257.289	78.56
257.521	76.56
257.754	73.56
257.987	80.56
258.22	74.56
258.452	88.56
258.685	78.56
258.918	74.56
259.151	86.56
259.383	86.56
259.616	70.56
259.849	75.56
260.081	83.56
260.314	80.56
260.547	85.56
260.779	87.56
261.012	78.56
261.244	84.56
261.477	93.56
261.71	82.56
261.942	89.56
262.175	86.56
262.407	82.56
262.64	99.56
262.872	90.56
263.105	82.56
263.337	86.56
263.57	85.56
263.802	82.56
264.035	94.56
264.267	66.56
264.499	74.56
264.732	80.56
264.964	86.56
265.197	68.56
265.429	90.56
265.661	93.56
265.894	83.56
266.126	84.56
266.358	88.56
266.591	85.56
266.823	82.56
267.055	72.56
267.287	82.56
267.52	78.56
267.752	97.56
267.984	78.56
268.216	88.56
268.448	75.56
268.681	105.56
268.913	88.56
269.145	88.56
269.377	81.56
269.609	78.56
269.841	79.56
270.073	88.56
270.306	78.56
270.538	88.56
270.77	80.56
271.002	84.56
271.234	87.56
271.466	90.56
271.698	83.56
271.93	89.56
272.162	84.56
272.394	87.56
272.626	79.56
272.858	85.56
273.09	78.56
273.322	89.56
273.553	85.56
273.785	83.56
274.017	81.56
274.249	81.56
274.481	75.56
274.713	82.56
274.945	98.56
275.176	84.56
275.408	92.56
275.64	92.56
275.872	82.56
276.104	72.56
276.335	83.56
276.567	87.56
276.799	94.56
277.031	108.56
277.262	66.56
277.494	98.56
277.726	92.56
277.957	81.56
278.189	75.56
278.421	86.56
278.652	82.56
278.884	91.56
279.115	97.56
279.347	75.56
279.579	74.56
279.81	98.56
280.042	80.56
280.273	87.56
280.505	79.56
280.736	78.56
280.968	82.56
281.199	93.56
281.431	80.56
281.662	71.56
281.894	104.56
282.125	102.56
282.356	112.56
282.588	115.56
282.819	89.56
283.051	85.56
283.282	81.56
283.513	95.56
283.745	97.56
283.976	91.56
284.207	90.56
284.439	94.56
284.67	96.56
284.901	75.56
285.132	78.56
285.364	83.56
285.595	88.56
285.826	81.56
286.057	81.56
286.288	94.56
286.52	87.56
286.751	88.56
286.982	81.56
287.213	98.56
287.444	91.56
287.675	80.56
287.906	99.56
288.138	91.56
288.369	87.56
288.6	70.56
288.831	74.56
289.062	82.56
289.293	92.56
289.524	90.56
289.755	81.56
289.986	83.56
290.217	91.56
290.448	88.56
290.679	94.56
290.91	84.56
291.141	74.56
291.371	75.56
291.602	84.56
291.833	91.56
292.064	77.56
292.295	83.56
292.526	82.56
292.757	87.56
292.987	74.56
293.218	94.56
293.449	89.56
293.68	84.56
293.91	100.56
294.141	86.56
294.372	65.56
294.603	86.56
294.833	83.56
295.064	87.56
295.295	81.56
295.525	78.56
295.756	102.56
295.987	108.56
296.217	117.56
296.448	116.56
296.679	82.56
296.909	97.56
297.14	95.56
297.37	81.56
297.601	75.56
297.831	86.56
298.062	96.56
298.292	88.56
298.523	90.56
298.753	89.56
298.984	84.56
299.214	95.56
299.445	103.56
299.675	76.56
299.905	82.56
300.136	94.56
300.366	77.56
300.597	93.56
300.827	86.56
301.057	94.56
301.288	87.56
301.518	86.56
301.748	85.56
301.979	102.56
302.209	82.56
302.439	96.56
302.669	91.56
302.9	83.56
303.13	81.56
303.36	92.56
303.59	90.56
303.82	99.56
304.051	96.56
304.281	86.56
304.511	91.56
304.741	97.56
304.971	96.56
305.201	80.56
305.431	83.56
305.661	90.56
305.891	89.56
306.121	85.56
306.352	88.56
306.582	92.56
306.812	89.56
307.042	86.56
307.272	89.56
307.502	82.56
307.731	87.56
307.961	94.56
308.191	88.56
308.421	89.56
308.651	98.56
308.881	102.56
309.111	96.56
309.341	84.56
309.571	94.56
309.8	79.56
310.03	84.56
310.26	102.56
310.49	86.56
310.72	85.56
310.949	91.56
311.179	86.56
311.409	80.56
311.639	94.56
311.868	90.56
312.098	88.56
312.328	81.56
312.557	103.56
312.787	121.56
313.017	95.56
313.246	94.56
313.476	95.56
313.706	87.56
313.935	95.56
314.165	76.56
314.394	93.56
314.624	90.56
314.853	98.56
315.083	102.56
315.312	73.56
315.542	80.56
315.771	84.56
316.001	101.56
316.23	82.56
316.46	80.56
316.689	99.56
316.919	106.56
317.148	91.56
317.377	95.56
317.607	107.56
317.836	88.56
318.065	90.56
318.295	90.56
318.524	96.56
318.753	98.56
318.983	104.56
319.212	90.56
319.441	96.56
319.67	94.56
319.9	83.56
320.129	95.56
320.358	82.56
320.587	82.56
320.816	95.56
321.046	97.56
321.275	95.56
321.504	82.56
321.733	96.56
321.962	98.56
322.191	105.56
322.42	91.56
322.649	84.56
322.878	112.56
323.108	114.56
323.337	124.56
323.566	118.56
323.795	122.56
324.024	172.56
324.253	297.56
324.482	611.56
324.71	1250.56
324.939	1644.56
325.168	603.56
325.397	197.56
325.626	136.56
325.855	109.56
326.084	101.56
326.313	123.56
326.542	134.56
326.77	182.56
326.999	353.56
327.228	698.56
327.457	1318.56
327.686	1034.56
327.914	285.56
328.143	164.56
328.372	135.56
328.6	111.56
328.829	86.56
329.058	101.56
329.287	112.56
329.515	102.56
329.744	82.56
329.972	101.56
330.201	114.56
330.43	97.56
330.658	123.56
330.887	120.56
331.115	103.56
331.344	97.56
331.572	84.56
331.801	103.56
332.03	95.56
332.258	89.56
332.486	86.56
332.715	85.56
332.943	88.56
333.172	97.56
333.4	106.56
333.629	105.56
333.857	104.56
334.085	108.56
334.314	100.56
334.542	119.56
334.771	128.56
334.999	103.56
335.227	96.56
335.455	83.56
335.684	90.56
335.912	89.56
336.14	94.56
336.369	94.56
336.597	99.56
336.825	106.56
337.053	83.56
337.281	88.56
337.51	91.56
337.738	87.56
337.966	96.56
338.194	90.56
338.422	82.56
338.65	91.56
338.878	100.56
339.106	89.56
339.334	95.56
339.562	84.56
339.79	90.56
340.018	99.56
340.246	106.56
340.474	102.56
340.702	94.56
340.93	102.56
341.158	83.56
341.386	106.56
341.614	98.56
341.842	102.56
342.07	80.56
342.298	95.56
342.526	94.56
342.754	70.56
342.981	80.56
343.209	90.56
343.437	89.56
343.665	74.56
343.893	96.56
344.12	92.56
344.348	92.56
344.576	95.56
344.804	85.56
345.031	110.56
345.259	100.56
345.487	102.56
345.714	96.56
345.942	91.56
346.17	72.56
346.397	94.56
346.625	103.56
346.853	88.56
347.08	83.56
347.308	87.56
347.535	93.56
347.763	100.56
347.99	97.56
348.218	104.56
348.445	86.56
348.673	103.56
348.9	86.56
349.128	95.56
349.355	73.56
349.583	87.56
349.81	93.56
350.037	92.56
350.265	88.56
350.492	91.56
350.72	102.56
350.947	103.56
351.174	95.56
351.402	101.56
351.629	103.56
351.856	96.56
352.083	102.56
352.311	98.56
352.538	94.56
352.765	96.56
352.992	98.56
353.22	89.56
353.447	106.56
353.674	96.56
353.901	94.56
354.128	83.56
354.355	98.56
354.583	99.56
354.81	90.56
355.037	87.56
355.264	104.56
355.491	92.56
355.718	89.56
355.945	89.56
356.172	97.56
356.399	90.56
356.626	103.56
356.853	106.56
357.08	86.56
357.307	98.56
357.534	107.56
357.761	102.56
357.988	82.56
358.215	87.56
358.441	101.56
358.668	95.56
358.895	94.56
359.122	90.56
359.349	82.56
359.576	74.56
359.802	91.56
360.029	107.56
360.256	101.56
360.483	96.56
360.709	91.56
360.936	88.56
361.163	97.56
361.39	104.56
361.616	87.56
361.843	95.56
362.07	80.56
362.296	93.56
362.523	89.56
362.749	98.56
362.976	84.56
363.203	99.56
363.429	87.56
363.656	79.56
363.882	91.56
364.109	90.56
364.335	95.56
364.562	82.56
364.788	76.56
365.015	98.56
365.241	102.56
365.468	99.56
365.694	86.56
365.92	80.56
366.147	81.56
366.373	91.56
366.599	88.56
366.826	85.56
367.052	87.56
367.278	87.56
367.505	85.56
367.731	95.56
367.957	95.56
368.184	68.56
368.41	90.56
368.636	110.56
368.862	107.56
369.089	94.56
369.315	83.56
369.541	94.56
369.767	100.56
369.993	92.56
370.219	84.56
370.445	92.56
370.672	91.56
370.898	88.56
371.124	88.56
371.35	79.56
371.576	75.56
371.802	88.56
372.028	98.56
372.254	99.56
372.48	83.56
372.706	76.56
372.932	94.56
373.158	100.56
373.384	103.56
373.61	86.56
373.835	92.56
374.061	85.56
374.287	78.56
374.513	97.56
374.739	85.56
374.965	91.56
375.191	90.56
375.416	95.56
375.642	80.56
375.868	95.56
376.094	87.56
376.319	88.56
376.545	83.56
376.771	81.56
376.997	83.56
377.222	94.56
377.448	74.56
377.674	75.56
377.899	94.56
378.125	96.56
378.35	94.56
378.576	101.56
378.802	97.56
379.027	95.56
379.253	91.56
379.478	98.56
379.704	78.56
379.929	70.56
380.155	87.56
380.38	92.56
380.606	101.56
380.831	93.56
381.057	89.56
381.282	81.56
381.507	95.56
381.733	96.56
381.958	96.56
382.184	96.56
382.409	96.56
382.634	103.56
382.86	102.56
383.085	97.56
383.31	100.56
383.535	104.56
383.761	107.56
383.986	98.56
384.211	102.56
384.436	107.56
384.662	104.56
384.887	120.56
385.112	109.56
385.337	114.56
385.562	118.56
385.787	105.56
386.013	122.56
386.238	106.56
386.463	103.56
386.688	114.56
386.913	110.56
387.138	103.56
387.363	96.56
387.588	106.56
387.813	95.56
388.038	98.56
388.263	124.56
388.488	120.56
388.713	112.56
388.938	87.56
389.163	89.56
389.387	99.56
389.612	98.56
389.837	72.56
390.062	100.56
390.287	89.56
390.512	87.56
390.736	90.56
390.961	81.56
391.186	90.56
391.411	95.56
391.636	88.56
391.86	87.56
392.085	91.56
392.31	86.56
392.534	83.56
392.759	93.56
392.984	94.56
393.208	92.56
393.433	98.56
393.658	90.56
393.882	91.56
394.107	86.56
394.331	94.56
394.556	88.56
394.78	74.56
395.005	94.56
395.229	81.56
395.454	91.56
395.678	83.56
395.903	75.56
396.127	86.56
396.352	101.56
396.576	90.56
396.801	84.56
397.025	98.56
397.249	89.56
397.474	64.56
397.698	84.56
397.922	97.56
398.147	86.56
398.371	70.56
398.595	81.56
398.82	81.56
399.044	88.56
399.268	72.56
399.492	80.56
399.717	90.56
399.941	91.56
400.165	76.56
400.389	89.56
400.613	83.56
400.837	92.56
401.062	91.56
401.286	88.56
401.51	86.56
401.734	88.56
401.958	97.56
402.182	108.56
402.406	145.56
402.63	92.56
402.854	91.56
403.078	107.56
403.302	91.56
403.526	98.56
403.75	76.56
403.974	90.56
404.198	83.56
404.422	74.56
404.645	94.56
404.869	74.56
405.093	90.56
405.317	94.56
405.541	91.56
405.765	84.56
405.988	117.56
406.212	137.56
406.436	160.56
406.66	117.56
406.883	90.56
407.107	98.56
407.331	84.56
407.555	83.56
407.778	93.56
408.002	81.56
408.226	80.56
408.449	74.56
408.673	82.56
408.896	95.56
409.12	93.56
409.344	87.56
409.567	83.56
409.791	93.56
410.014	92.56
410.238	90.56
410.461	87.56
410.685	93.56
410.908	107.56
411.132	92.56
411.355	97.56
411.578	87.56
411.802	83.56
412.025	86.56
412.249	69.56
412.472	89.56
412.695	98.56
412.919	98.56
413.142	73.56
413.365	80.56
413.589	86.56
413.812	90.56
414.035	83.56
414.258	99.56
414.482	85.56
414.705	94.56
414.928	82.56
415.151	89.56
415.374	82.56
415.597	89.56
415.821	98.56
416.044	86.56
416.267	96.56
416.49	86.56
416.713	80.56
416.936	87.56
417.159	94.56
417.382	84.56
417.605	89.56
417.828	80.56
418.051	95.56
418.274	87.56
418.497	86.56
418.72	80.56
418.943	85.56
419.166	82.56
419.389	80.56
419.611	89.56
419.834	98.56
420.057	94.56
420.28	74.56
420.503	92.56
420.726	94.56
420.948	86.56
421.171	99.56
421.394	91.56
421.617	75.56
421.839	86.56
422.062	91.56
422.285	86.56
422.507	116.56
422.73	95.56
422.953	92.56
423.175	87.56
423.398	85.56
423.621	104.56
423.843	91.56
424.066	84.56
424.288	89.56
424.511	94.56
424.733	90.56
424.956	96.56
425.178	92.56
425.401	97.56
425.623	93.56
425.846	84.56
426.068	84.56
426.291	94.56
426.513	85.56
426.735	92.56
426.958	92.56
427.18	94.56
427.402	112.56
427.625	133.56
427.847	112.56
428.069	95.56
428.292	102.56
428.514	81.56
428.736	84.56
428.958	81.56
429.181	87.56
429.403	85.56
429.625	94.56
429.847	92.56
430.069	89.56
430.292	99.56
430.514	87.56
430.736	86.56
430.958	85.56
431.18	86.56
431.402	70.56
431.624	89.56
431.846	67.56
432.068	81.56
432.29	83.56
432.512	83.56
432.734	91.56
432.956	82.56
433.178	94.56
433.4	104.56
433.622	89.56
433.844	84.56
434.066	86.56
434.287	94.56
434.509	95.56
434.731	90.56
434.953	86.56
435.175	88.56
435.397	89.56
435.618	92.56
435.84	100.56
436.062	107.56
436.284	116.56
436.505	99.56
436.727	88.56
436.949	90.56
437.17	79.56
437.392	84.56
437.614	72.56
437.835	100.56
438.057	107.56
438.278	94.56
438.5	93.56
438.721	112.56
438.943	88.56
439.165	94.56
439.386	83.56
439.608	83.56
439.829	70.56
440.05	101.56
440.272	124.56
440.493	93.56
440.715	87.56
440.936	90.56
441.158	75.56
441.379	79.56
441.6	102.56
441.822	86.56
442.043	92.56
442.264	82.56
442.486	95.56
442.707	83.56
442.928	95.56
443.149	107.56
443.371	113.56
443.592	107.56
443.813	103.56
444.034	97.56
444.255	95.56
444.476	70.56
444.698	86.56
444.919	96.56
445.14	144.56
445.361	119.56
445.582	98.56
445.803	106.56
446.024	102.56
446.245	117.56
446.466	101.56
446.687	79.56
446.908	94.56
447.129	88.56
447.35	76.56
447.571	93.56
447.792	88.56
448.013	93.56
448.234	81.56
448.455	95.56
448.675	97.56
448.896	105.56
449.117	101.56
449.338	111.56
449.559	115.56
449.779	107.56
450	90.56
450.221	97.56
450.442	79.56
450.662	84.56
450.883	100.56
451.104	95.56
451.324	97.56
451.545	81.56
451.766	79.56
451.986	94.56
452.207	69.56
452.428	98.56
452.648	84.56
452.869	97.56
453.089	103.56
453.31	103.56
453.53	82.56
453.751	86.56
453.971	97.56
454.192	96.56
454.412	97.56
454.633	85.56
454.853	99.56
455.073	90.56
455.294	84.56
455.514	84.56
455.734	82.56
455.955	88.56
456.175	85.56
456.395	92.56
456.616	85.56
456.836	83.56
457.056	84.56
457.276	88.56
457.497	78.56
457.717	73.56
457.937	78.56
458.157	81.56
458.377	88.56
458.598	82.56
458.818	132.56
459.038	135.56
459.258	109.56
459.478	86.56
459.698	88.56
459.918	88.56
460.138	79.56
460.358	97.56
460.578	89.56
460.798	97.56
461.018	80.56
461.238	83.56
461.458	72.56
461.678	84.56
461.898	94.56
462.118	75.56
462.338	73.56
462.558	71.56
462.777	85.56
462.997	89.56
463.217	86.56
463.437	78.56
463.657	87.56
463.876	80.56
464.096	82.56
464.316	100.56
464.536	74.56
464.755	86.56
464.975	96.56
465.195	132.56
465.414	112.56
465.634	86.56
465.854	71.56
466.073	73.56
466.293	88.56
466.512	88.56
466.732	84.56
466.951	88.56
467.171	100.56
467.391	86.56
467.61	89.56
467.829	97.56
468.049	87.56
468.268	100.56
468.488	99.56
468.707	73.56
468.927	85.56
469.146	72.56
469.365	86.56
469.585	95.56
469.804	98.56
470.023	68.56
470.243	86.56
470.462	94.56
470.681	100.56
470.901	95.56
471.12	83.56
471.339	90.56
471.558	64.56
471.777	79.56
471.997	79.56
472.216	97.56
472.435	111.56
472.654	97.56
472.873	75.56
473.092	77.56
473.311	90.56
473.53	86.56
473.749	91.56
473.968	84.56
474.187	103.56
474.406	86.56
474.625	90.56
474.844	72.56
475.063	76.56
475.282	94.56
475.501	82.56
475.72	93.56
475.939	75.56
476.158	69.56
476.377	76.56
476.596	90.56
476.814	85.56
477.033	81.56
477.252	89.56
477.471	79.56
477.69	89.56
477.908	81.56
478.127	105.56
478.346	90.56
478.564	84.56
478.783	99.56
479.002	90.56
479.22	80.56
479.439	104.56
479.658	87.56
479.876	103.56
480.095	78.56
480.313	92.56
480.532	71.56
480.751	89.56
480.969	104.56
481.188	137.56
481.406	128.56
481.624	72.56
481.843	105.56
482.061	72.56
482.28	73.56
482.498	78.56
482.717	94.56
482.935	102.56
483.153	89.56
483.372	95.56
483.59	89.56
483.808	86.56
484.027	87.56
484.245	97.56
484.463	99.56
484.681	86.56
484.9	90.56
485.118	100.56
485.336	89.56
485.554	88.56
485.772	105.56
485.99	101.56
486.209	108.56
486.427	97.56
486.645	91.56
486.863	105.56
487.081	100.56
487.299	73.56
487.517	90.56
487.735	80.56
487.953	95.56
488.171	91.56
488.389	80.56
488.607	84.56
488.825	98.56
489.043	89.56
489.261	94.56
489.479	89.56
489.696	81.56
489.914	82.56
490.132	91.56
490.35	90.56
490.568	90.56
490.786	82.56
491.003	93.56
491.221	71.56
491.439	91.56
491.657	96.56
491.874	83.56
492.092	88.56
492.31	86.56
492.527	88.56
492.745	71.56
492.963	85.56
493.18	92.56
493.398	97.56
493.615	92.56
493.833	84.56
494.05	86.56
494.268	95.56
494.485	91.56
494.703	96.56
494.92	96.56
495.138	90.56
495.355	76.56
495.573	79.56
495.79	73.56
496.008	92.56
496.225	87.56
496.442	86.56
496.66	89.56
496.877	96.56
497.094	88.56
497.312	93.56
497.529	91.56
497.746	101.56
497.963	80.56
498.181	78.56
498.398	86.56
498.615	97.56
498.832	80.56
499.049	82.56
499.267	89.56
499.484	84.56
499.701	91.56
499.918	78.56
500.135	82.56
500.352	95.56
500.569	71.56
500.786	83.56
501.003	86.56
501.22	82.56
501.437	85.56
501.654	89.56
501.871	98.56
502.088	86.56
502.305	99.56
502.522	90.56
502.739	79.56
502.956	88.56
503.172	92.56
503.389	89.56
503.606	94.56
503.823	80.56
504.04	96.56
504.256	108.56
504.473	91.56
504.69	103.56
504.907	89.56
505.123	83.56
505.34	89.56
505.557	88.56
505.773	96.56
505.99	74.56
506.207	94.56
506.423	91.56
506.64	88.56
506.856	82.56
507.073	88.56
507.289	102.56
507.506	100.56
507.722	100.56
507.939	109.56
508.155	91.56
508.372	75.56
508.588	88.56
508.805	86.56
509.021	90.56
509.238	97.56
509.454	99.56
509.67	90.56
509.887	96.56
510.103	111.56
510.319	173.56
510.536	539.56
510.752	1610.56
510.968	450.56
511.184	139.56
511.401	113.56
511.617	83.56
511.833	82.56
512.049	104.56
512.265	91.56
512.481	98.56
512.698	88.56
512.914	83.56
513.13	94.56
513.346	91.56
513.562	96.56
513.778	100.56
513.994	98.56
514.21	96.56
514.426	103.56
514.642	109.56
514.858	100.56
515.074	141.56
515.29	315.56
515.506	1001.56
515.721	374.56
515.937	130.56
516.153	94.56
516.369	91.56
516.585	84.56
516.801	105.56
517.016	106.56
