Data from Circ_1982_H10_HRD10591_00007.txt Node
Date: Wed Jan 03 12:30:42 EST 2024
User: Yrep
Spectrometer: HR+D1059
Trigger mode: 1
Integration Time (sec): 1.000000E-1
Scans to average: 1
Electric dark correction enabled: true
Nonlinearity correction enabled: false
Boxcar width: 0
XAxis mode: Wavelengths
Number of Pixels in Spectrum: 2048
>>>>>Begin Spectral Data<<<<<
223.165	-16.69
223.4	-16.69
223.635	-16.69
223.869	-23.69
224.104	-25.69
224.338	-10.69
224.573	-22.69
224.808	-11.69
225.042	-6.69
225.277	0.31
225.511	-10.69
225.746	5.31
225.98	7.31
226.215	17.31
226.449	10.31
226.683	31.31
226.918	37.31
227.152	19.31
227.387	44.31
227.621	51.31
227.856	45.31
228.09	45.31
228.324	49.31
228.559	63.31
228.793	48.31
229.027	69.31
229.262	68.31
229.496	68.31
229.73	78.31
229.964	75.31
230.199	81.31
230.433	70.31
230.667	76.31
230.901	77.31
231.136	74.31
231.37	86.31
231.604	79.31
231.838	80.31
232.072	87.31
232.306	73.31
232.541	75.31
232.775	72.31
233.009	81.31
233.243	87.31
233.477	85.31
233.711	85.31
233.945	92.31
234.179	79.31
234.413	72.31
234.647	85.31
234.881	81.31
235.115	81.31
235.349	98.31
235.583	78.31
235.817	75.31
236.051	81.31
236.285	67.31
236.519	85.31
236.753	74.31
236.987	76.31
237.221	95.31
237.455	87.31
237.689	85.31
237.922	81.31
238.156	92.31
238.39	82.31
238.624	74.31
238.858	73.31
239.091	63.31
239.325	82.31
239.559	81.31
239.793	85.31
240.027	71.31
240.26	80.31
240.494	73.31
240.728	61.31
240.961	71.31
241.195	84.31
241.429	78.31
241.662	84.31
241.896	72.31
242.13	89.31
242.363	73.31
242.597	68.31
242.83	65.31
243.064	71.31
243.298	73.31
243.531	85.31
243.765	88.31
243.998	73.31
244.232	81.31
244.465	70.31
244.699	64.31
244.932	81.31
245.166	77.31
245.399	76.31
245.633	82.31
245.866	87.31
246.099	77.31
246.333	81.31
246.566	76.31
246.8	79.31
247.033	69.31
247.266	63.31
247.5	80.31
247.733	74.31
247.966	81.31
248.2	78.31
248.433	79.31
248.666	86.31
248.899	82.31
249.133	86.31
249.366	88.31
249.599	98.31
249.832	97.31
250.066	89.31
250.299	86.31
250.532	91.31
250.765	75.31
250.998	90.31
251.231	77.31
251.465	81.31
251.698	81.31
251.931	72.31
252.164	87.31
252.397	78.31
252.63	80.31
252.863	70.31
253.096	85.31
253.329	91.31
253.562	88.31
253.795	76.31
254.028	94.31
254.261	85.31
254.494	84.31
254.727	90.31
254.96	73.31
255.193	81.31
255.426	70.31
255.659	69.31
255.892	88.31
256.124	96.31
256.357	84.31
256.59	76.31
256.823	89.31
257.056	88.31
257.289	83.31
257.521	87.31
257.754	90.31
257.987	83.31
258.22	84.31
258.452	90.31
258.685	84.31
258.918	86.31
259.151	89.31
259.383	78.31
259.616	72.31
259.849	88.31
260.081	83.31
260.314	94.31
260.547	91.31
260.779	84.31
261.012	90.31
261.244	90.31
261.477	95.31
261.71	87.31
261.942	96.31
262.175	123.31
262.407	85.31
262.64	85.31
262.872	74.31
263.105	81.31
263.337	99.31
263.57	96.31
263.802	93.31
264.035	88.31
264.267	76.31
264.499	81.31
264.732	78.31
264.964	90.31
265.197	83.31
265.429	99.31
265.661	80.31
265.894	79.31
266.126	95.31
266.358	84.31
266.591	90.31
266.823	86.31
267.055	94.31
267.287	79.31
267.52	82.31
267.752	87.31
267.984	85.31
268.216	71.31
268.448	93.31
268.681	93.31
268.913	87.31
269.145	100.31
269.377	91.31
269.609	85.31
269.841	78.31
270.073	99.31
270.306	88.31
270.538	92.31
270.77	65.31
271.002	74.31
271.234	95.31
271.466	84.31
271.698	75.31
271.93	84.31
272.162	73.31
272.394	79.31
272.626	87.31
272.858	83.31
273.09	95.31
273.322	87.31
273.553	101.31
273.785	81.31
274.017	81.31
274.249	86.31
274.481	81.31
274.713	93.31
274.945	95.31
275.176	86.31
275.408	93.31
275.64	83.31
275.872	75.31
276.104	84.31
276.335	81.31
276.567	91.31
276.799	107.31
277.031	102.31
277.262	110.31
277.494	83.31
277.726	79.31
277.957	61.31
278.189	102.31
278.421	83.31
278.652	93.31
278.884	93.31
279.115	85.31
279.347	101.31
279.579	81.31
279.81	85.31
280.042	71.31
280.273	78.31
280.505	91.31
280.736	81.31
280.968	94.31
281.199	83.31
281.431	91.31
281.662	77.31
281.894	84.31
282.125	98.31
282.356	109.31
282.588	130.31
282.819	103.31
283.051	88.31
283.282	84.31
283.513	79.31
283.745	82.31
283.976	104.31
284.207	78.31
284.439	97.31
284.67	93.31
284.901	91.31
285.132	90.31
285.364	100.31
285.595	81.31
285.826	87.31
286.057	79.31
286.288	76.31
286.52	79.31
286.751	69.31
286.982	86.31
287.213	92.31
287.444	95.31
287.675	90.31
287.906	82.31
288.138	87.31
288.369	90.31
288.6	85.31
288.831	83.31
289.062	97.31
289.293	84.31
289.524	90.31
289.755	94.31
289.986	97.31
290.217	88.31
290.448	81.31
290.679	93.31
290.91	89.31
291.141	87.31
291.371	86.31
291.602	83.31
291.833	90.31
292.064	93.31
292.295	86.31
292.526	88.31
292.757	88.31
292.987	95.31
293.218	82.31
293.449	88.31
293.68	98.31
293.91	98.31
294.141	93.31
294.372	94.31
294.603	85.31
294.833	91.31
295.064	87.31
295.295	89.31
295.525	96.31
295.756	108.31
295.987	114.31
296.217	123.31
296.448	117.31
296.679	89.31
296.909	100.31
297.14	86.31
297.37	91.31
297.601	93.31
297.831	88.31
298.062	101.31
298.292	85.31
298.523	89.31
298.753	87.31
298.984	78.31
299.214	84.31
299.445	85.31
299.675	79.31
299.905	85.31
300.136	65.31
300.366	87.31
300.597	69.31
300.827	70.31
301.057	100.31
301.288	98.31
301.518	92.31
301.748	86.31
301.979	105.31
302.209	95.31
302.439	75.31
302.669	67.31
302.9	89.31
303.13	83.31
303.36	99.31
303.59	113.31
303.82	91.31
304.051	86.31
304.281	93.31
304.511	78.31
304.741	94.31
304.971	88.31
305.201	93.31
305.431	109.31
305.661	103.31
305.891	94.31
306.121	99.31
306.352	106.31
306.582	102.31
306.812	89.31
307.042	99.31
307.272	97.31
307.502	91.31
307.731	98.31
307.961	86.31
308.191	102.31
308.421	87.31
308.651	87.31
308.881	97.31
309.111	85.31
309.341	98.31
309.571	105.31
309.8	95.31
310.03	99.31
310.26	92.31
310.49	99.31
310.72	86.31
310.949	104.31
311.179	87.31
311.409	93.31
311.639	79.31
311.868	105.31
312.098	92.31
312.328	89.31
312.557	110.31
312.787	105.31
313.017	93.31
313.246	111.31
313.476	102.31
313.706	94.31
313.935	97.31
314.165	90.31
314.394	97.31
314.624	91.31
314.853	107.31
315.083	106.31
315.312	94.31
315.542	99.31
315.771	104.31
316.001	102.31
316.23	86.31
316.46	92.31
316.689	89.31
316.919	94.31
317.148	91.31
317.377	98.31
317.607	111.31
317.836	102.31
318.065	93.31
318.295	89.31
318.524	76.31
318.753	92.31
318.983	82.31
319.212	89.31
319.441	103.31
319.67	92.31
319.9	87.31
320.129	94.31
320.358	96.31
320.587	86.31
320.816	85.31
321.046	107.31
321.275	103.31
321.504	96.31
321.733	108.31
321.962	97.31
322.191	96.31
322.42	96.31
322.649	94.31
322.878	112.31
323.108	115.31
323.337	111.31
323.566	115.31
323.795	125.31
324.024	173.31
324.253	315.31
324.482	623.31
324.71	1235.31
324.939	1659.31
325.168	604.31
325.397	187.31
325.626	124.31
325.855	108.31
326.084	119.31
326.313	105.31
326.542	120.31
326.77	186.31
326.999	379.31
327.228	685.31
327.457	1250.31
327.686	1019.31
327.914	289.31
328.143	150.31
328.372	141.31
328.6	117.31
328.829	114.31
329.058	122.31
329.287	128.31
329.515	109.31
329.744	102.31
329.972	103.31
330.201	120.31
330.43	117.31
330.658	111.31
330.887	123.31
331.115	101.31
331.344	97.31
331.572	90.31
331.801	85.31
332.03	108.31
332.258	98.31
332.486	84.31
332.715	101.31
332.943	97.31
333.172	104.31
333.4	93.31
333.629	81.31
333.857	110.31
334.085	107.31
334.314	106.31
334.542	119.31
334.771	113.31
334.999	96.31
335.227	93.31
335.455	95.31
335.684	93.31
335.912	88.31
336.14	98.31
336.369	104.31
336.597	78.31
336.825	114.31
337.053	97.31
337.281	101.31
337.51	93.31
337.738	102.31
337.966	87.31
338.194	104.31
338.422	105.31
338.65	107.31
338.878	82.31
339.106	91.31
339.334	80.31
339.562	94.31
339.79	87.31
340.018	96.31
340.246	95.31
340.474	89.31
340.702	90.31
340.93	86.31
341.158	87.31
341.386	90.31
341.614	103.31
341.842	98.31
342.07	90.31
342.298	90.31
342.526	90.31
342.754	87.31
342.981	86.31
343.209	101.31
343.437	96.31
343.665	102.31
343.893	91.31
344.12	101.31
344.348	97.31
344.576	105.31
344.804	94.31
345.031	103.31
345.259	97.31
345.487	91.31
345.714	100.31
345.942	100.31
346.17	74.31
346.397	83.31
346.625	82.31
346.853	90.31
347.08	97.31
347.308	101.31
347.535	105.31
347.763	95.31
347.99	101.31
348.218	102.31
348.445	84.31
348.673	92.31
348.9	94.31
349.128	69.31
349.355	81.31
349.583	89.31
349.81	108.31
350.037	95.31
350.265	97.31
350.492	97.31
350.72	74.31
350.947	93.31
351.174	97.31
351.402	104.31
351.629	94.31
351.856	90.31
352.083	106.31
352.311	97.31
352.538	90.31
352.765	103.31
352.992	109.31
353.22	105.31
353.447	106.31
353.674	103.31
353.901	98.31
354.128	98.31
354.355	86.31
354.583	103.31
354.81	98.31
355.037	98.31
355.264	101.31
355.491	84.31
355.718	92.31
355.945	109.31
356.172	107.31
356.399	104.31
356.626	102.31
356.853	90.31
357.08	90.31
357.307	108.31
357.534	84.31
357.761	92.31
357.988	113.31
358.215	85.31
358.441	92.31
358.668	97.31
358.895	93.31
359.122	95.31
359.349	81.31
359.576	103.31
359.802	98.31
360.029	114.31
360.256	117.31
360.483	108.31
360.709	97.31
360.936	101.31
361.163	97.31
361.39	91.31
361.616	92.31
361.843	82.31
362.07	98.31
362.296	102.31
362.523	84.31
362.749	83.31
362.976	96.31
363.203	94.31
363.429	101.31
363.656	88.31
363.882	76.31
364.109	90.31
364.335	85.31
364.562	93.31
364.788	95.31
365.015	99.31
365.241	71.31
365.468	87.31
365.694	126.31
365.92	91.31
366.147	87.31
366.373	87.31
366.599	94.31
366.826	84.31
367.052	78.31
367.278	80.31
367.505	87.31
367.731	100.31
367.957	85.31
368.184	81.31
368.41	119.31
368.636	107.31
368.862	107.31
369.089	101.31
369.315	90.31
369.541	85.31
369.767	101.31
369.993	88.31
370.219	91.31
370.445	99.31
370.672	79.31
370.898	91.31
371.124	86.31
371.35	98.31
371.576	85.31
371.802	99.31
372.028	91.31
372.254	79.31
372.48	91.31
372.706	96.31
372.932	90.31
373.158	92.31
373.384	93.31
373.61	86.31
373.835	75.31
374.061	81.31
374.287	87.31
374.513	79.31
374.739	88.31
374.965	94.31
375.191	102.31
375.416	89.31
375.642	82.31
375.868	89.31
376.094	110.31
376.319	96.31
376.545	87.31
376.771	81.31
376.997	92.31
377.222	85.31
377.448	85.31
377.674	115.31
377.899	103.31
378.125	93.31
378.35	82.31
378.576	107.31
378.802	108.31
379.027	91.31
379.253	86.31
379.478	86.31
379.704	83.31
379.929	106.31
380.155	97.31
380.38	103.31
380.606	102.31
380.831	92.31
381.057	104.31
381.282	94.31
381.507	103.31
381.733	107.31
381.958	89.31
382.184	85.31
382.409	98.31
382.634	99.31
382.86	112.31
383.085	99.31
383.31	120.31
383.535	108.31
383.761	108.31
383.986	103.31
384.211	110.31
384.436	100.31
384.662	109.31
384.887	134.31
385.112	114.31
385.337	114.31
385.562	137.31
385.787	115.31
386.013	109.31
386.238	125.31
386.463	125.31
386.688	116.31
386.913	104.31
387.138	118.31
387.363	100.31
387.588	110.31
387.813	105.31
388.038	110.31
388.263	133.31
388.488	116.31
388.713	103.31
388.938	109.31
389.163	90.31
389.387	106.31
389.612	117.31
389.837	109.31
390.062	100.31
390.287	89.31
390.512	82.31
390.736	87.31
390.961	108.31
391.186	96.31
391.411	110.31
391.636	85.31
391.86	67.31
392.085	87.31
392.31	97.31
392.534	94.31
392.759	101.31
392.984	86.31
393.208	98.31
393.433	93.31
393.658	95.31
393.882	90.31
394.107	93.31
394.331	97.31
394.556	90.31
394.78	98.31
395.005	80.31
395.229	82.31
395.454	97.31
395.678	95.31
395.903	92.31
396.127	103.31
396.352	94.31
396.576	90.31
396.801	66.31
397.025	82.31
397.249	106.31
397.474	93.31
397.698	78.31
397.922	93.31
398.147	106.31
398.371	82.31
398.595	80.31
398.82	77.31
399.044	92.31
399.268	77.31
399.492	88.31
399.717	86.31
399.941	82.31
400.165	91.31
400.389	91.31
400.613	92.31
400.837	89.31
401.062	82.31
401.286	85.31
401.51	87.31
401.734	108.31
401.958	95.31
402.182	119.31
402.406	139.31
402.63	120.31
402.854	83.31
403.078	81.31
403.302	90.31
403.526	84.31
403.75	77.31
403.974	102.31
404.198	94.31
404.422	86.31
404.645	97.31
404.869	92.31
405.093	95.31
405.317	101.31
405.541	90.31
405.765	104.31
405.988	111.31
406.212	143.31
406.436	190.31
406.66	123.31
406.883	97.31
407.107	97.31
407.331	87.31
407.555	89.31
407.778	97.31
408.002	85.31
408.226	96.31
408.449	83.31
408.673	95.31
408.896	95.31
409.12	86.31
409.344	87.31
409.567	97.31
409.791	78.31
410.014	98.31
410.238	94.31
410.461	81.31
410.685	92.31
410.908	103.31
411.132	102.31
411.355	99.31
411.578	93.31
411.802	110.31
412.025	91.31
412.249	95.31
412.472	86.31
412.695	105.31
412.919	83.31
413.142	83.31
413.365	102.31
413.589	102.31
413.812	78.31
414.035	102.31
414.258	87.31
414.482	82.31
414.705	93.31
414.928	89.31
415.151	88.31
415.374	107.31
415.597	99.31
415.821	92.31
416.044	93.31
416.267	100.31
416.49	94.31
416.713	104.31
416.936	104.31
417.159	89.31
417.382	78.31
417.605	68.31
417.828	93.31
418.051	89.31
418.274	92.31
418.497	78.31
418.72	89.31
418.943	83.31
419.166	101.31
419.389	93.31
419.611	104.31
419.834	83.31
420.057	86.31
420.28	92.31
420.503	99.31
420.726	85.31
420.948	101.31
421.171	83.31
421.394	79.31
421.617	97.31
421.839	111.31
422.062	98.31
422.285	97.31
422.507	90.31
422.73	92.31
422.953	97.31
423.175	92.31
423.398	99.31
423.621	100.31
423.843	102.31
424.066	97.31
424.288	85.31
424.511	88.31
424.733	96.31
424.956	93.31
425.178	89.31
425.401	87.31
425.623	90.31
425.846	91.31
426.068	97.31
426.291	91.31
426.513	90.31
426.735	92.31
426.958	89.31
427.18	101.31
427.402	138.31
427.625	142.31
427.847	121.31
428.069	113.31
428.292	78.31
428.514	81.31
428.736	91.31
428.958	78.31
429.181	88.31
429.403	79.31
429.625	89.31
429.847	98.31
430.069	108.31
430.292	106.31
430.514	83.31
430.736	93.31
430.958	91.31
431.18	96.31
431.402	86.31
431.624	78.31
431.846	93.31
432.068	86.31
432.29	100.31
432.512	87.31
432.734	100.31
432.956	83.31
433.178	91.31
433.4	93.31
433.622	90.31
433.844	95.31
434.066	87.31
434.287	103.31
434.509	85.31
434.731	87.31
434.953	79.31
435.175	99.31
435.397	87.31
435.618	97.31
435.84	98.31
436.062	106.31
436.284	115.31
436.505	96.31
436.727	96.31
436.949	102.31
437.17	89.31
437.392	83.31
437.614	96.31
437.835	93.31
438.057	108.31
438.278	106.31
438.5	100.31
438.721	117.31
438.943	99.31
439.165	83.31
439.386	106.31
439.608	88.31
439.829	79.31
440.05	107.31
440.272	111.31
440.493	95.31
440.715	84.31
440.936	92.31
441.158	86.31
441.379	101.31
441.6	95.31
441.822	91.31
442.043	82.31
442.264	95.31
442.486	106.31
442.707	77.31
442.928	100.31
443.149	134.31
443.371	125.31
443.592	105.31
443.813	115.31
444.034	111.31
444.255	98.31
444.476	84.31
444.698	94.31
444.919	88.31
445.14	129.31
445.361	122.31
445.582	110.31
445.803	118.31
446.024	115.31
446.245	125.31
446.466	106.31
446.687	83.31
446.908	96.31
447.129	103.31
447.35	91.31
447.571	82.31
447.792	90.31
448.013	85.31
448.234	94.31
448.455	89.31
448.675	98.31
448.896	115.31
449.117	93.31
449.338	100.31
449.559	117.31
449.779	121.31
450	91.31
450.221	79.31
450.442	95.31
450.662	109.31
450.883	104.31
451.104	111.31
451.324	92.31
451.545	89.31
451.766	79.31
451.986	95.31
452.207	89.31
452.428	92.31
452.648	97.31
452.869	121.31
453.089	92.31
453.31	105.31
453.53	98.31
453.751	108.31
453.971	101.31
454.192	94.31
454.412	86.31
454.633	98.31
454.853	95.31
455.073	81.31
455.294	103.31
455.514	102.31
455.734	100.31
455.955	87.31
456.175	86.31
456.395	78.31
456.616	83.31
456.836	84.31
457.056	87.31
457.276	91.31
457.497	81.31
457.717	92.31
457.937	83.31
458.157	88.31
458.377	81.31
458.598	103.31
458.818	129.31
459.038	150.31
459.258	110.31
459.478	96.31
459.698	97.31
459.918	84.31
460.138	86.31
460.358	90.31
460.578	97.31
460.798	83.31
461.018	92.31
461.238	81.31
461.458	90.31
461.678	91.31
461.898	76.31
462.118	91.31
462.338	91.31
462.558	84.31
462.777	77.31
462.997	81.31
463.217	83.31
463.437	93.31
463.657	93.31
463.876	83.31
464.096	92.31
464.316	85.31
464.536	99.31
464.755	97.31
464.975	101.31
465.195	134.31
465.414	137.31
465.634	102.31
465.854	85.31
466.073	105.31
466.293	92.31
466.512	91.31
466.732	93.31
466.951	97.31
467.171	92.31
467.391	88.31
467.61	95.31
467.829	85.31
468.049	99.31
468.268	90.31
468.488	88.31
468.707	92.31
468.927	98.31
469.146	90.31
469.365	75.31
469.585	85.31
469.804	109.31
470.023	96.31
470.243	81.31
470.462	105.31
470.681	104.31
470.901	86.31
471.12	83.31
471.339	91.31
471.558	92.31
471.777	99.31
471.997	86.31
472.216	106.31
472.435	110.31
472.654	90.31
472.873	85.31
473.092	94.31
473.311	83.31
473.53	79.31
473.749	83.31
473.968	102.31
474.187	104.31
474.406	95.31
474.625	87.31
474.844	102.31
475.063	89.31
475.282	90.31
475.501	97.31
475.72	87.31
475.939	95.31
476.158	94.31
476.377	94.31
476.596	91.31
476.814	88.31
477.033	93.31
477.252	90.31
477.471	92.31
477.69	91.31
477.908	100.31
478.127	103.31
478.346	83.31
478.564	87.31
478.783	82.31
479.002	89.31
479.22	97.31
479.439	103.31
479.658	104.31
479.876	95.31
480.095	89.31
480.313	97.31
480.532	97.31
480.751	95.31
480.969	95.31
481.188	157.31
481.406	126.31
481.624	74.31
481.843	85.31
482.061	81.31
482.28	88.31
482.498	79.31
482.717	91.31
482.935	88.31
483.153	95.31
483.372	90.31
483.59	89.31
483.808	93.31
484.027	90.31
484.245	92.31
484.463	83.31
484.681	88.31
484.9	94.31
485.118	99.31
485.336	95.31
485.554	96.31
485.772	97.31
485.99	113.31
486.209	109.31
486.427	111.31
486.645	102.31
486.863	101.31
487.081	104.31
487.299	81.31
487.517	98.31
487.735	91.31
487.953	102.31
488.171	111.31
488.389	95.31
488.607	108.31
488.825	106.31
489.043	98.31
489.261	82.31
489.479	81.31
489.696	89.31
489.914	102.31
490.132	95.31
490.35	93.31
490.568	68.31
490.786	94.31
491.003	86.31
491.221	90.31
491.439	103.31
491.657	93.31
491.874	94.31
492.092	97.31
492.31	100.31
492.527	94.31
492.745	99.31
492.963	95.31
493.18	74.31
493.398	85.31
493.615	93.31
493.833	89.31
494.05	92.31
494.268	92.31
494.485	87.31
494.703	85.31
494.92	85.31
495.138	81.31
495.355	99.31
495.573	88.31
495.79	78.31
496.008	91.31
496.225	78.31
496.442	91.31
496.66	93.31
496.877	99.31
497.094	95.31
497.312	92.31
497.529	104.31
497.746	108.31
497.963	98.31
498.181	85.31
498.398	80.31
498.615	93.31
498.832	96.31
499.049	84.31
499.267	97.31
499.484	92.31
499.701	79.31
499.918	94.31
500.135	90.31
500.352	98.31
500.569	98.31
500.786	100.31
501.003	98.31
501.22	79.31
501.437	99.31
501.654	92.31
501.871	93.31
502.088	107.31
502.305	88.31
502.522	87.31
502.739	90.31
502.956	91.31
503.172	91.31
503.389	101.31
503.606	107.31
503.823	90.31
504.04	105.31
504.256	87.31
504.473	93.31
504.69	103.31
504.907	95.31
505.123	91.31
505.34	90.31
505.557	93.31
505.773	108.31
505.99	88.31
506.207	74.31
506.423	106.31
506.64	89.31
506.856	102.31
507.073	91.31
507.289	82.31
507.506	91.31
507.722	102.31
507.939	101.31
508.155	98.31
508.372	103.31
508.588	108.31
508.805	90.31
509.021	89.31
509.238	98.31
509.454	102.31
509.67	101.31
509.887	97.31
510.103	128.31
510.319	161.31
510.536	557.31
510.752	1766.31
510.968	489.31
511.184	130.31
511.401	100.31
511.617	99.31
511.833	81.31
512.049	99.31
512.265	101.31
512.481	93.31
512.698	98.31
512.914	78.31
513.13	101.31
513.346	93.31
513.562	98.31
513.778	101.31
513.994	93.31
514.21	92.31
514.426	98.31
514.642	125.31
514.858	115.31
515.074	141.31
515.29	331.31
