Data from Circ_1982_H10_HRD10591_00080.txt Node
Date: Wed Jan 03 12:30:57 EST 2024
User: Yrep
Spectrometer: HR+D1059
Trigger mode: 1
Integration Time (sec): 1.000000E-1
Scans to average: 1
Electric dark correction enabled: true
Nonlinearity correction enabled: false
Boxcar width: 0
XAxis mode: Wavelengths
Number of Pixels in Spectrum: 2048
>>>>>Begin Spectral Data<<<<<
223.165	-20.12
223.4	-20.12
223.635	-20.12
223.869	-11.12
224.104	-23.12
224.338	-3.12
224.573	-9.12
224.808	1.88
225.042	-18.12
225.277	-6.12
225.511	-7.12
225.746	-5.12
225.98	-4.12
226.215	7.88
226.449	22.88
226.683	25.88
226.918	7.88
227.152	40.88
227.387	26.88
227.621	38.88
227.856	50.88
228.09	48.88
228.324	52.88
228.559	62.88
228.793	50.88
229.027	59.88
229.262	54.88
229.496	72.88
229.73	80.88
229.964	73.88
230.199	87.88
230.433	83.88
230.667	70.88
230.901	77.88
231.136	73.88
231.37	81.88
231.604	80.88
231.838	70.88
232.072	78.88
232.306	89.88
232.541	82.88
232.775	77.88
233.009	71.88
233.243	77.88
233.477	82.88
233.711	80.88
233.945	65.88
234.179	80.88
234.413	80.88
234.647	89.88
234.881	82.88
235.115	72.88
235.349	80.88
235.583	74.88
235.817	78.88
236.051	68.88
236.285	76.88
236.519	72.88
236.753	76.88
236.987	80.88
237.221	74.88
237.455	81.88
237.689	82.88
237.922	79.88
238.156	70.88
238.39	91.88
238.624	78.88
238.858	62.88
239.091	92.88
239.325	67.88
239.559	78.88
239.793	82.88
240.027	74.88
240.26	67.88
240.494	74.88
240.728	69.88
240.961	75.88
241.195	95.88
241.429	72.88
241.662	61.88
241.896	73.88
242.13	77.88
242.363	82.88
242.597	75.88
242.83	81.88
243.064	81.88
243.298	80.88
243.531	78.88
243.765	70.88
243.998	78.88
244.232	85.88
244.465	77.88
244.699	80.88
244.932	75.88
245.166	81.88
245.399	88.88
245.633	85.88
245.866	85.88
246.099	81.88
246.333	67.88
246.566	82.88
246.8	74.88
247.033	75.88
247.266	82.88
247.5	73.88
247.733	85.88
247.966	64.88
248.2	80.88
248.433	86.88
248.666	84.88
248.899	90.88
249.133	79.88
249.366	98.88
249.599	92.88
249.832	68.88
250.066	72.88
250.299	80.88
250.532	68.88
250.765	96.88
250.998	77.88
251.231	73.88
251.465	76.88
251.698	72.88
251.931	68.88
252.164	77.88
252.397	71.88
252.63	71.88
252.863	97.88
253.096	86.88
253.329	92.88
253.562	83.88
253.795	89.88
254.028	85.88
254.261	62.88
254.494	81.88
254.727	69.88
254.96	75.88
255.193	81.88
255.426	71.88
255.659	70.88
255.892	88.88
256.124	79.88
256.357	93.88
256.59	72.88
256.823	77.88
257.056	89.88
257.289	68.88
257.521	88.88
257.754	86.88
257.987	83.88
258.22	78.88
258.452	77.88
258.685	88.88
258.918	72.88
259.151	84.88
259.383	77.88
259.616	89.88
259.849	59.88
260.081	77.88
260.314	80.88
260.547	90.88
260.779	77.88
261.012	80.88
261.244	69.88
261.477	78.88
261.71	80.88
261.942	92.88
262.175	94.88
262.407	82.88
262.64	80.88
262.872	71.88
263.105	82.88
263.337	80.88
263.57	90.88
263.802	81.88
264.035	76.88
264.267	84.88
264.499	82.88
264.732	90.88
264.964	65.88
265.197	66.88
265.429	85.88
265.661	68.88
265.894	88.88
266.126	93.88
266.358	85.88
266.591	87.88
266.823	78.88
267.055	72.88
267.287	79.88
267.52	86.88
267.752	90.88
267.984	80.88
268.216	74.88
268.448	90.88
268.681	84.88
268.913	88.88
269.145	71.88
269.377	86.88
269.609	83.88
269.841	89.88
270.073	72.88
270.306	76.88
270.538	68.88
270.77	87.88
271.002	75.88
271.234	78.88
271.466	79.88
271.698	84.88
271.93	76.88
272.162	96.88
272.394	70.88
272.626	92.88
272.858	85.88
273.09	82.88
273.322	83.88
273.553	68.88
273.785	92.88
274.017	88.88
274.249	87.88
274.481	73.88
274.713	79.88
274.945	89.88
275.176	81.88
275.408	76.88
275.64	83.88
275.872	90.88
276.104	84.88
276.335	86.88
276.567	76.88
276.799	84.88
277.031	90.88
277.262	81.88
277.494	92.88
277.726	88.88
277.957	85.88
278.189	80.88
278.421	86.88
278.652	93.88
278.884	77.88
279.115	74.88
279.347	77.88
279.579	77.88
279.81	93.88
280.042	91.88
280.273	78.88
280.505	97.88
280.736	98.88
280.968	65.88
281.199	68.88
281.431	83.88
281.662	88.88
281.894	90.88
282.125	101.88
282.356	110.88
282.588	113.88
282.819	99.88
283.051	90.88
283.282	81.88
283.513	88.88
283.745	80.88
283.976	84.88
284.207	85.88
284.439	80.88
284.67	86.88
284.901	93.88
285.132	61.88
285.364	80.88
285.595	89.88
285.826	97.88
286.057	80.88
286.288	91.88
286.52	69.88
286.751	68.88
286.982	75.88
287.213	72.88
287.444	85.88
287.675	99.88
287.906	96.88
288.138	80.88
288.369	81.88
288.6	75.88
288.831	79.88
289.062	85.88
289.293	84.88
289.524	75.88
289.755	82.88
289.986	82.88
290.217	99.88
290.448	80.88
290.679	76.88
290.91	88.88
291.141	88.88
291.371	71.88
291.602	81.88
291.833	86.88
292.064	82.88
292.295	94.88
292.526	94.88
292.757	76.88
292.987	93.88
293.218	88.88
293.449	95.88
293.68	87.88
293.91	88.88
294.141	86.88
294.372	85.88
294.603	88.88
294.833	82.88
295.064	87.88
295.295	95.88
295.525	88.88
295.756	75.88
295.987	107.88
296.217	130.88
296.448	110.88
296.679	91.88
296.909	92.88
297.14	86.88
297.37	87.88
297.601	95.88
297.831	82.88
298.062	97.88
298.292	102.88
298.523	102.88
298.753	97.88
298.984	73.88
299.214	96.88
299.445	89.88
299.675	86.88
299.905	104.88
300.136	81.88
300.366	86.88
300.597	89.88
300.827	96.88
301.057	96.88
301.288	103.88
301.518	95.88
301.748	109.88
301.979	100.88
302.209	105.88
302.439	90.88
302.669	83.88
302.9	78.88
303.13	93.88
303.36	101.88
303.59	100.88
303.82	88.88
304.051	98.88
304.281	96.88
304.511	99.88
304.741	82.88
304.971	84.88
305.201	85.88
305.431	94.88
305.661	85.88
305.891	81.88
306.121	80.88
306.352	102.88
306.582	100.88
306.812	94.88
307.042	92.88
307.272	82.88
307.502	81.88
307.731	83.88
307.961	99.88
308.191	99.88
308.421	104.88
308.651	88.88
308.881	92.88
309.111	96.88
309.341	90.88
309.571	93.88
309.8	74.88
310.03	85.88
310.26	92.88
310.49	91.88
310.72	96.88
310.949	86.88
311.179	80.88
311.409	95.88
311.639	84.88
311.868	97.88
312.098	88.88
312.328	85.88
312.557	92.88
312.787	95.88
313.017	106.88
313.246	85.88
313.476	96.88
313.706	78.88
313.935	95.88
314.165	106.88
314.394	96.88
314.624	107.88
314.853	94.88
315.083	99.88
315.312	85.88
315.542	93.88
315.771	104.88
316.001	88.88
316.23	86.88
316.46	105.88
316.689	88.88
316.919	100.88
317.148	80.88
317.377	85.88
317.607	91.88
317.836	93.88
318.065	90.88
318.295	97.88
318.524	90.88
318.753	94.88
318.983	88.88
319.212	102.88
319.441	98.88
319.67	97.88
319.9	104.88
320.129	93.88
320.358	90.88
320.587	103.88
320.816	91.88
321.046	102.88
321.275	88.88
321.504	84.88
321.733	104.88
321.962	98.88
322.191	107.88
322.42	85.88
322.649	93.88
322.878	98.88
323.108	117.88
323.337	109.88
323.566	112.88
323.795	136.88
324.024	161.88
324.253	261.88
324.482	550.88
324.71	1131.88
324.939	1472.88
325.168	546.88
325.397	174.88
325.626	130.88
325.855	117.88
326.084	103.88
326.313	125.88
326.542	137.88
326.77	181.88
326.999	332.88
327.228	676.88
327.457	1204.88
327.686	939.88
327.914	286.88
328.143	147.88
328.372	126.88
328.6	116.88
328.829	112.88
329.058	116.88
329.287	113.88
329.515	92.88
329.744	97.88
329.972	100.88
330.201	119.88
330.43	129.88
330.658	108.88
330.887	126.88
331.115	109.88
331.344	99.88
331.572	101.88
331.801	104.88
332.03	94.88
332.258	96.88
332.486	88.88
332.715	89.88
332.943	96.88
333.172	93.88
333.4	96.88
333.629	88.88
333.857	86.88
334.085	106.88
334.314	101.88
334.542	108.88
334.771	100.88
334.999	93.88
335.227	89.88
335.455	103.88
335.684	104.88
335.912	85.88
336.14	87.88
336.369	100.88
336.597	96.88
336.825	87.88
337.053	93.88
337.281	102.88
337.51	102.88
337.738	86.88
337.966	81.88
338.194	92.88
338.422	102.88
338.65	87.88
338.878	114.88
339.106	96.88
339.334	82.88
339.562	85.88
339.79	101.88
340.018	91.88
340.246	93.88
340.474	97.88
340.702	93.88
340.93	95.88
341.158	98.88
341.386	106.88
341.614	93.88
341.842	75.88
342.07	97.88
342.298	87.88
342.526	88.88
342.754	83.88
342.981	86.88
343.209	76.88
343.437	103.88
343.665	97.88
343.893	94.88
344.12	99.88
344.348	84.88
344.576	90.88
344.804	79.88
345.031	88.88
345.259	85.88
345.487	95.88
345.714	96.88
345.942	81.88
346.17	90.88
346.397	86.88
346.625	108.88
346.853	84.88
347.08	100.88
347.308	88.88
347.535	81.88
347.763	99.88
347.99	88.88
348.218	91.88
348.445	91.88
348.673	86.88
348.9	86.88
349.128	84.88
349.355	88.88
349.583	100.88
349.81	96.88
350.037	109.88
350.265	96.88
350.492	84.88
350.72	95.88
350.947	89.88
351.174	105.88
351.402	94.88
351.629	87.88
351.856	101.88
352.083	83.88
352.311	98.88
352.538	104.88
352.765	109.88
352.992	109.88
353.22	107.88
353.447	108.88
353.674	109.88
353.901	105.88
354.128	94.88
354.355	91.88
354.583	87.88
354.81	94.88
355.037	107.88
355.264	104.88
355.491	99.88
355.718	92.88
355.945	90.88
356.172	89.88
356.399	110.88
356.626	94.88
356.853	95.88
357.08	91.88
357.307	81.88
357.534	86.88
357.761	97.88
357.988	85.88
358.215	94.88
358.441	81.88
358.668	93.88
358.895	97.88
359.122	88.88
359.349	76.88
359.576	78.88
359.802	94.88
360.029	95.88
360.256	96.88
360.483	91.88
360.709	85.88
360.936	92.88
361.163	102.88
361.39	97.88
361.616	109.88
361.843	87.88
362.07	97.88
362.296	98.88
362.523	78.88
362.749	73.88
362.976	94.88
363.203	92.88
363.429	92.88
363.656	77.88
363.882	89.88
364.109	82.88
364.335	88.88
364.562	82.88
364.788	87.88
365.015	94.88
365.241	94.88
365.468	102.88
365.694	100.88
365.92	84.88
366.147	82.88
366.373	90.88
366.599	92.88
366.826	80.88
367.052	94.88
367.278	98.88
367.505	86.88
367.731	96.88
367.957	90.88
368.184	91.88
368.41	96.88
368.636	99.88
368.862	98.88
369.089	101.88
369.315	89.88
369.541	86.88
369.767	103.88
369.993	119.88
370.219	101.88
370.445	88.88
370.672	87.88
370.898	97.88
371.124	76.88
371.35	81.88
371.576	78.88
371.802	70.88
372.028	86.88
372.254	104.88
372.48	88.88
372.706	85.88
372.932	88.88
373.158	88.88
373.384	101.88
373.61	98.88
373.835	69.88
374.061	93.88
374.287	94.88
374.513	86.88
374.739	82.88
374.965	83.88
375.191	94.88
375.416	87.88
375.642	92.88
375.868	98.88
376.094	90.88
376.319	91.88
376.545	86.88
376.771	103.88
376.997	83.88
377.222	106.88
377.448	91.88
377.674	82.88
377.899	77.88
378.125	80.88
378.35	64.88
378.576	73.88
378.802	101.88
379.027	98.88
379.253	89.88
379.478	82.88
379.704	103.88
379.929	99.88
380.155	93.88
380.38	87.88
380.606	84.88
380.831	99.88
381.057	114.88
381.282	77.88
381.507	89.88
381.733	88.88
381.958	83.88
382.184	86.88
382.409	87.88
382.634	89.88
382.86	109.88
383.085	104.88
383.31	102.88
383.535	84.88
383.761	101.88
383.986	90.88
384.211	100.88
384.436	85.88
384.662	84.88
384.887	92.88
385.112	99.88
385.337	87.88
385.562	89.88
385.787	109.88
386.013	104.88
386.238	107.88
386.463	85.88
386.688	102.88
386.913	99.88
387.138	98.88
387.363	100.88
387.588	96.88
387.813	93.88
388.038	110.88
388.263	117.88
388.488	101.88
388.713	95.88
388.938	90.88
389.163	102.88
389.387	107.88
389.612	105.88
389.837	94.88
390.062	104.88
390.287	101.88
390.512	90.88
390.736	77.88
390.961	77.88
391.186	101.88
391.411	88.88
391.636	88.88
391.86	69.88
392.085	79.88
392.31	88.88
392.534	93.88
392.759	96.88
392.984	77.88
393.208	100.88
393.433	80.88
393.658	95.88
393.882	67.88
394.107	85.88
394.331	99.88
394.556	91.88
394.78	85.88
395.005	83.88
395.229	86.88
395.454	82.88
395.678	69.88
395.903	81.88
396.127	81.88
396.352	86.88
396.576	65.88
396.801	70.88
397.025	72.88
397.249	94.88
397.474	88.88
397.698	83.88
397.922	92.88
398.147	69.88
398.371	74.88
398.595	77.88
398.82	92.88
399.044	85.88
399.268	89.88
399.492	84.88
399.717	78.88
399.941	86.88
400.165	99.88
400.389	89.88
400.613	97.88
400.837	84.88
401.062	80.88
401.286	89.88
401.51	93.88
401.734	92.88
401.958	101.88
402.182	112.88
402.406	126.88
402.63	106.88
402.854	94.88
403.078	95.88
403.302	88.88
403.526	85.88
403.75	81.88
403.974	82.88
404.198	80.88
404.422	101.88
404.645	107.88
404.869	82.88
405.093	96.88
405.317	77.88
405.541	114.88
405.765	91.88
405.988	101.88
406.212	143.88
406.436	158.88
406.66	115.88
406.883	93.88
407.107	87.88
407.331	93.88
407.555	107.88
407.778	85.88
408.002	84.88
408.226	83.88
408.449	88.88
408.673	83.88
408.896	96.88
409.12	97.88
409.344	85.88
409.567	93.88
409.791	100.88
410.014	81.88
410.238	94.88
410.461	97.88
410.685	87.88
410.908	104.88
411.132	94.88
411.355	95.88
411.578	85.88
411.802	97.88
412.025	106.88
412.249	72.88
412.472	99.88
412.695	78.88
412.919	85.88
413.142	83.88
413.365	80.88
413.589	94.88
413.812	99.88
414.035	100.88
414.258	88.88
414.482	92.88
414.705	103.88
414.928	108.88
415.151	96.88
415.374	94.88
415.597	106.88
415.821	93.88
416.044	106.88
416.267	89.88
416.49	99.88
416.713	101.88
416.936	93.88
417.159	95.88
417.382	97.88
417.605	85.88
417.828	91.88
418.051	84.88
418.274	91.88
418.497	96.88
418.72	75.88
418.943	103.88
419.166	90.88
419.389	87.88
419.611	96.88
419.834	93.88
420.057	80.88
420.28	82.88
420.503	87.88
420.726	93.88
420.948	89.88
421.171	83.88
421.394	95.88
421.617	97.88
421.839	97.88
422.062	85.88
422.285	87.88
422.507	81.88
422.73	88.88
422.953	87.88
423.175	83.88
423.398	98.88
423.621	105.88
423.843	101.88
424.066	98.88
424.288	85.88
424.511	98.88
424.733	101.88
424.956	92.88
425.178	91.88
425.401	104.88
425.623	86.88
425.846	94.88
426.068	80.88
426.291	82.88
426.513	92.88
426.735	90.88
426.958	102.88
427.18	85.88
427.402	115.88
427.625	120.88
427.847	110.88
428.069	95.88
428.292	98.88
428.514	96.88
428.736	101.88
428.958	83.88
429.181	96.88
429.403	70.88
429.625	90.88
429.847	88.88
430.069	103.88
430.292	96.88
430.514	91.88
430.736	83.88
430.958	97.88
431.18	93.88
431.402	70.88
431.624	89.88
431.846	90.88
432.068	77.88
432.29	92.88
432.512	96.88
432.734	81.88
432.956	90.88
433.178	105.88
433.4	96.88
433.622	84.88
433.844	89.88
434.066	87.88
434.287	102.88
434.509	91.88
434.731	93.88
434.953	91.88
435.175	93.88
435.397	92.88
435.618	91.88
435.84	84.88
436.062	117.88
436.284	99.88
436.505	97.88
436.727	89.88
436.949	83.88
437.17	86.88
437.392	77.88
437.614	87.88
437.835	103.88
438.057	123.88
438.278	120.88
438.5	82.88
438.721	101.88
438.943	94.88
439.165	104.88
439.386	79.88
439.608	85.88
439.829	92.88
440.05	97.88
440.272	116.88
440.493	88.88
440.715	77.88
440.936	75.88
441.158	90.88
441.379	86.88
441.6	87.88
441.822	94.88
442.043	87.88
442.264	102.88
442.486	99.88
442.707	86.88
442.928	91.88
443.149	107.88
443.371	115.88
443.592	93.88
443.813	119.88
444.034	101.88
444.255	98.88
444.476	91.88
444.698	83.88
444.919	76.88
445.14	130.88
445.361	109.88
445.582	91.88
445.803	121.88
446.024	97.88
446.245	128.88
446.466	113.88
446.687	80.88
446.908	81.88
447.129	90.88
447.35	94.88
447.571	96.88
447.792	84.88
448.013	83.88
448.234	102.88
448.455	99.88
448.675	104.88
448.896	110.88
449.117	86.88
449.338	91.88
449.559	101.88
449.779	100.88
450	87.88
450.221	97.88
450.442	91.88
450.662	90.88
450.883	89.88
451.104	99.88
451.324	78.88
451.545	86.88
451.766	92.88
451.986	99.88
452.207	85.88
452.428	98.88
452.648	89.88
452.869	88.88
453.089	108.88
453.31	98.88
453.53	88.88
453.751	82.88
453.971	91.88
454.192	104.88
454.412	90.88
454.633	92.88
454.853	68.88
455.073	84.88
455.294	91.88
455.514	79.88
455.734	99.88
455.955	85.88
456.175	99.88
456.395	81.88
456.616	77.88
456.836	90.88
457.056	95.88
457.276	84.88
457.497	85.88
457.717	84.88
457.937	88.88
458.157	91.88
458.377	92.88
458.598	100.88
458.818	104.88
459.038	128.88
459.258	107.88
459.478	75.88
459.698	91.88
459.918	88.88
460.138	88.88
460.358	85.88
460.578	65.88
460.798	93.88
461.018	75.88
461.238	78.88
461.458	89.88
461.678	94.88
461.898	81.88
462.118	87.88
462.338	85.88
462.558	88.88
462.777	88.88
462.997	89.88
463.217	84.88
463.437	90.88
463.657	84.88
463.876	101.88
464.096	83.88
464.316	84.88
464.536	97.88
464.755	89.88
464.975	88.88
465.195	122.88
465.414	127.88
465.634	86.88
465.854	69.88
466.073	77.88
466.293	79.88
466.512	90.88
466.732	107.88
466.951	91.88
467.171	96.88
467.391	88.88
467.61	90.88
467.829	84.88
468.049	97.88
468.268	95.88
468.488	88.88
468.707	88.88
468.927	77.88
469.146	96.88
469.365	86.88
469.585	92.88
469.804	87.88
470.023	94.88
470.243	86.88
470.462	81.88
470.681	88.88
470.901	80.88
471.12	90.88
471.339	94.88
471.558	93.88
471.777	93.88
471.997	82.88
472.216	93.88
472.435	120.88
472.654	83.88
472.873	70.88
473.092	76.88
473.311	93.88
473.53	88.88
473.749	95.88
473.968	87.88
474.187	97.88
474.406	88.88
474.625	82.88
474.844	89.88
475.063	85.88
475.282	102.88
475.501	80.88
475.72	81.88
475.939	80.88
476.158	66.88
476.377	80.88
476.596	103.88
476.814	97.88
477.033	94.88
477.252	100.88
477.471	81.88
477.69	97.88
477.908	78.88
478.127	85.88
478.346	86.88
478.564	84.88
478.783	85.88
479.002	85.88
479.22	88.88
479.439	96.88
479.658	101.88
479.876	74.88
480.095	73.88
480.313	100.88
480.532	82.88
480.751	84.88
480.969	111.88
481.188	158.88
481.406	112.88
481.624	94.88
481.843	88.88
482.061	76.88
482.28	87.88
482.498	81.88
482.717	82.88
482.935	88.88
483.153	89.88
483.372	103.88
483.59	81.88
483.808	109.88
484.027	102.88
484.245	94.88
484.463	91.88
484.681	92.88
484.9	89.88
485.118	96.88
485.336	100.88
485.554	105.88
485.772	100.88
485.99	99.88
486.209	98.88
486.427	98.88
486.645	101.88
486.863	110.88
487.081	96.88
487.299	88.88
487.517	115.88
487.735	84.88
487.953	92.88
488.171	89.88
488.389	89.88
488.607	100.88
488.825	93.88
489.043	81.88
489.261	76.88
489.479	92.88
489.696	93.88
489.914	81.88
490.132	89.88
490.35	93.88
490.568	86.88
490.786	92.88
491.003	100.88
491.221	97.88
491.439	96.88
491.657	84.88
491.874	85.88
492.092	92.88
492.31	95.88
492.527	92.88
492.745	84.88
492.963	85.88
493.18	94.88
493.398	103.88
493.615	109.88
493.833	89.88
494.05	90.88
494.268	78.88
494.485	90.88
494.703	73.88
494.92	84.88
495.138	93.88
495.355	95.88
495.573	84.88
495.79	80.88
496.008	93.88
496.225	100.88
496.442	93.88
496.66	97.88
496.877	93.88
497.094	86.88
497.312	81.88
497.529	97.88
497.746	102.88
497.963	90.88
498.181	104.88
498.398	97.88
498.615	101.88
498.832	104.88
499.049	96.88
499.267	92.88
499.484	88.88
499.701	100.88
499.918	102.88
500.135	91.88
500.352	74.88
500.569	90.88
500.786	93.88
501.003	88.88
501.22	92.88
501.437	77.88
501.654	82.88
501.871	100.88
502.088	97.88
502.305	96.88
502.522	100.88
502.739	98.88
502.956	92.88
503.172	90.88
503.389	100.88
503.606	96.88
503.823	114.88
504.04	75.88
504.256	91.88
504.473	103.88
504.69	91.88
504.907	85.88
505.123	74.88
505.34	91.88
505.557	92.88
505.773	94.88
505.99	89.88
506.207	84.88
506.423	92.88
506.64	89.88
506.856	95.88
507.073	98.88
507.289	81.88
507.506	91.88
507.722	100.88
507.939	91.88
508.155	82.88
508.372	97.88
508.588	92.88
508.805	92.88
509.021	90.88
509.238	98.88
509.454	87.88
509.67	99.88
509.887	113.88
510.103	118.88
510.319	157.88
510.536	531.88
510.752	1513.88
510.968	416.88
511.184	137.88
511.401	86.88
511.617	89.88
511.833	78.88
512.049	99.88
512.265	95.88
512.481	93.88
512.698	87.88
512.914	85.88
513.13	92.88
513.346	102.88
513.562	88.88
513.778	85.88
513.994	107.88
514.21	94.88
514.426	98.88
514.642	109.88
514.858	110.88
515.074	122.88
515.29	302.88
515.506	875.88
515.721	325.88
515.937	132.88
516.153	89.88
516.369	84.88
516.585	104.88
