Data from Circ_1982_H10_HRD10591_00086.txt Node
Date: Wed Jan 03 12:30:58 EST 2024
User: Yrep
Spectrometer: HR+D1059
Trigger mode: 1
Integration Time (sec): 1.000000E-1
Scans to average: 1
Electric dark correction enabled: true
Nonlinearity correction enabled: false
Boxcar width: 0
XAxis mode: Wavelengths
Number of Pixels in Spectrum: 2048
>>>>>Begin Spectral Data<<<<<
223.165	-15.06
223.4	-15.06
223.635	-15.06
223.869	-16.06
224.104	-24.06
224.338	-21.06
224.573	-12.06
224.808	-10.06
225.042	-11.06
225.277	-18.06
225.511	-5.06
225.746	14.94
225.98	21.94
226.215	9.94
226.449	11.94
226.683	22.94
226.918	18.94
227.152	31.94
227.387	35.94
227.621	39.94
227.856	33.94
228.09	33.94
228.324	47.94
228.559	53.94
228.793	45.94
229.027	62.94
229.262	71.94
229.496	83.94
229.73	69.94
229.964	68.94
230.199	75.94
230.433	66.94
230.667	82.94
230.901	78.94
231.136	94.94
231.37	76.94
231.604	79.94
231.838	81.94
232.072	76.94
232.306	74.94
232.541	78.94
232.775	66.94
233.009	86.94
233.243	74.94
233.477	83.94
233.711	72.94
233.945	73.94
234.179	78.94
234.413	83.94
234.647	75.94
234.881	95.94
235.115	94.94
235.349	77.94
235.583	84.94
235.817	66.94
236.051	78.94
236.285	76.94
236.519	78.94
236.753	69.94
236.987	75.94
237.221	84.94
237.455	90.94
237.689	81.94
237.922	82.94
238.156	95.94
238.39	88.94
238.624	70.94
238.858	83.94
239.091	80.94
239.325	87.94
239.559	82.94
239.793	82.94
240.027	89.94
240.26	82.94
240.494	78.94
240.728	69.94
240.961	86.94
241.195	83.94
241.429	76.94
241.662	61.94
241.896	70.94
242.13	73.94
242.363	75.94
242.597	67.94
242.83	75.94
243.064	82.94
243.298	73.94
243.531	85.94
243.765	77.94
243.998	87.94
244.232	75.94
244.465	86.94
244.699	67.94
244.932	73.94
245.166	60.94
245.399	91.94
245.633	75.94
245.866	76.94
246.099	83.94
246.333	81.94
246.566	73.94
246.8	81.94
247.033	67.94
247.266	70.94
247.5	71.94
247.733	69.94
247.966	84.94
248.2	88.94
248.433	90.94
248.666	78.94
248.899	91.94
249.133	92.94
249.366	95.94
249.599	74.94
249.832	82.94
250.066	93.94
250.299	95.94
250.532	88.94
250.765	76.94
250.998	77.94
251.231	90.94
251.465	78.94
251.698	81.94
251.931	85.94
252.164	84.94
252.397	74.94
252.63	82.94
252.863	81.94
253.096	78.94
253.329	77.94
253.562	83.94
253.795	81.94
254.028	83.94
254.261	88.94
254.494	91.94
254.727	84.94
254.96	75.94
255.193	69.94
255.426	79.94
255.659	74.94
255.892	98.94
256.124	95.94
256.357	78.94
256.59	70.94
256.823	75.94
257.056	77.94
257.289	84.94
257.521	87.94
257.754	87.94
257.987	84.94
258.22	86.94
258.452	82.94
258.685	78.94
258.918	75.94
259.151	90.94
259.383	83.94
259.616	75.94
259.849	77.94
260.081	93.94
260.314	89.94
260.547	73.94
260.779	96.94
261.012	81.94
261.244	87.94
261.477	88.94
261.71	82.94
261.942	90.94
262.175	92.94
262.407	85.94
262.64	92.94
262.872	95.94
263.105	92.94
263.337	87.94
263.57	77.94
263.802	85.94
264.035	94.94
264.267	85.94
264.499	87.94
264.732	97.94
264.964	87.94
265.197	74.94
265.429	81.94
265.661	76.94
265.894	72.94
266.126	105.94
266.358	85.94
266.591	85.94
266.823	90.94
267.055	88.94
267.287	85.94
267.52	104.94
267.752	93.94
267.984	89.94
268.216	75.94
268.448	86.94
268.681	91.94
268.913	90.94
269.145	79.94
269.377	74.94
269.609	91.94
269.841	89.94
270.073	89.94
270.306	85.94
270.538	73.94
270.77	79.94
271.002	88.94
271.234	76.94
271.466	90.94
271.698	88.94
271.93	93.94
272.162	77.94
272.394	88.94
272.626	93.94
272.858	84.94
273.09	89.94
273.322	74.94
273.553	81.94
273.785	90.94
274.017	90.94
274.249	86.94
274.481	81.94
274.713	98.94
274.945	82.94
275.176	70.94
275.408	91.94
275.64	92.94
275.872	88.94
276.104	85.94
276.335	73.94
276.567	95.94
276.799	109.94
277.031	84.94
277.262	98.94
277.494	94.94
277.726	87.94
277.957	83.94
278.189	67.94
278.421	78.94
278.652	90.94
278.884	87.94
279.115	71.94
279.347	93.94
279.579	91.94
279.81	98.94
280.042	93.94
280.273	88.94
280.505	69.94
280.736	69.94
280.968	84.94
281.199	93.94
281.431	91.94
281.662	105.94
281.894	83.94
282.125	98.94
282.356	115.94
282.588	117.94
282.819	90.94
283.051	106.94
283.282	77.94
283.513	92.94
283.745	88.94
283.976	79.94
284.207	84.94
284.439	90.94
284.67	87.94
284.901	92.94
285.132	91.94
285.364	85.94
285.595	94.94
285.826	85.94
286.057	89.94
286.288	85.94
286.52	81.94
286.751	75.94
286.982	87.94
287.213	94.94
287.444	81.94
287.675	74.94
287.906	75.94
288.138	90.94
288.369	103.94
288.6	95.94
288.831	89.94
289.062	90.94
289.293	82.94
289.524	92.94
289.755	94.94
289.986	86.94
290.217	97.94
290.448	74.94
290.679	93.94
290.91	92.94
291.141	97.94
291.371	104.94
291.602	85.94
291.833	82.94
292.064	83.94
292.295	90.94
292.526	98.94
292.757	87.94
292.987	95.94
293.218	85.94
293.449	96.94
293.68	87.94
293.91	83.94
294.141	95.94
294.372	92.94
294.603	91.94
294.833	98.94
295.064	85.94
295.295	76.94
295.525	91.94
295.756	75.94
295.987	108.94
296.217	132.94
296.448	110.94
296.679	98.94
296.909	90.94
297.14	82.94
297.37	96.94
297.601	90.94
297.831	90.94
298.062	91.94
298.292	98.94
298.523	82.94
298.753	89.94
298.984	89.94
299.214	85.94
299.445	94.94
299.675	93.94
299.905	97.94
300.136	85.94
300.366	90.94
300.597	91.94
300.827	98.94
301.057	72.94
301.288	87.94
301.518	87.94
301.748	82.94
301.979	94.94
302.209	78.94
302.439	103.94
302.669	98.94
302.9	86.94
303.13	85.94
303.36	89.94
303.59	104.94
303.82	113.94
304.051	101.94
304.281	89.94
304.511	91.94
304.741	94.94
304.971	85.94
305.201	99.94
305.431	92.94
305.661	81.94
305.891	66.94
306.121	89.94
306.352	87.94
306.582	107.94
306.812	85.94
307.042	97.94
307.272	85.94
307.502	93.94
307.731	91.94
307.961	103.94
308.191	87.94
308.421	85.94
308.651	102.94
308.881	90.94
309.111	86.94
309.341	86.94
309.571	111.94
309.8	87.94
310.03	98.94
310.26	98.94
310.49	97.94
310.72	96.94
310.949	106.94
311.179	94.94
311.409	90.94
311.639	85.94
311.868	87.94
312.098	100.94
312.328	99.94
312.557	89.94
312.787	87.94
313.017	106.94
313.246	94.94
313.476	103.94
313.706	96.94
313.935	86.94
314.165	87.94
314.394	98.94
314.624	93.94
314.853	81.94
315.083	105.94
315.312	98.94
315.542	83.94
315.771	93.94
316.001	90.94
316.23	99.94
316.46	97.94
316.689	98.94
316.919	87.94
317.148	98.94
317.377	109.94
317.607	90.94
317.836	104.94
318.065	91.94
318.295	88.94
318.524	99.94
318.753	72.94
318.983	92.94
319.212	87.94
319.441	102.94
319.67	75.94
319.9	99.94
320.129	99.94
320.358	93.94
320.587	109.94
320.816	108.94
321.046	98.94
321.275	98.94
321.504	91.94
321.733	83.94
321.962	104.94
322.191	102.94
322.42	114.94
322.649	106.94
322.878	117.94
323.108	107.94
323.337	112.94
323.566	120.94
323.795	125.94
324.024	155.94
324.253	294.94
324.482	549.94
324.71	1118.94
324.939	1431.94
325.168	553.94
325.397	202.94
325.626	126.94
325.855	107.94
326.084	105.94
326.313	114.94
326.542	127.94
326.77	188.94
326.999	341.94
327.228	646.94
327.457	1152.94
327.686	943.94
327.914	271.94
328.143	163.94
328.372	125.94
328.6	115.94
328.829	110.94
329.058	117.94
329.287	112.94
329.515	107.94
329.744	94.94
329.972	108.94
330.201	117.94
330.43	126.94
330.658	118.94
330.887	109.94
331.115	112.94
331.344	91.94
331.572	101.94
331.801	91.94
332.03	89.94
332.258	84.94
332.486	99.94
332.715	93.94
332.943	98.94
333.172	101.94
333.4	90.94
333.629	106.94
333.857	110.94
334.085	95.94
334.314	97.94
334.542	129.94
334.771	115.94
334.999	98.94
335.227	97.94
335.455	87.94
335.684	97.94
335.912	89.94
336.14	92.94
336.369	88.94
336.597	103.94
336.825	93.94
337.053	90.94
337.281	110.94
337.51	97.94
337.738	78.94
337.966	88.94
338.194	87.94
338.422	98.94
338.65	84.94
338.878	97.94
339.106	81.94
339.334	91.94
339.562	89.94
339.79	99.94
340.018	87.94
340.246	95.94
340.474	93.94
340.702	93.94
340.93	91.94
341.158	106.94
341.386	100.94
341.614	100.94
341.842	86.94
342.07	87.94
342.298	98.94
342.526	81.94
342.754	91.94
342.981	98.94
343.209	87.94
343.437	107.94
343.665	93.94
343.893	78.94
344.12	101.94
344.348	81.94
344.576	69.94
344.804	72.94
345.031	101.94
345.259	97.94
345.487	85.94
345.714	83.94
345.942	73.94
346.17	105.94
346.397	89.94
346.625	98.94
346.853	92.94
347.08	93.94
347.308	86.94
347.535	97.94
347.763	89.94
347.99	77.94
348.218	95.94
348.445	103.94
348.673	87.94
348.9	111.94
349.128	96.94
349.355	99.94
349.583	88.94
349.81	100.94
350.037	85.94
350.265	100.94
350.492	87.94
350.72	103.94
350.947	86.94
351.174	101.94
351.402	99.94
351.629	98.94
351.856	103.94
352.083	95.94
352.311	105.94
352.538	102.94
352.765	103.94
352.992	106.94
353.22	111.94
353.447	105.94
353.674	97.94
353.901	86.94
354.128	98.94
354.355	86.94
354.583	100.94
354.81	84.94
355.037	86.94
355.264	106.94
355.491	92.94
355.718	88.94
355.945	97.94
356.172	87.94
356.399	98.94
356.626	89.94
356.853	94.94
357.08	102.94
357.307	102.94
357.534	95.94
357.761	98.94
357.988	95.94
358.215	89.94
358.441	92.94
358.668	83.94
358.895	90.94
359.122	84.94
359.349	86.94
359.576	100.94
359.802	98.94
360.029	87.94
360.256	100.94
360.483	103.94
360.709	75.94
360.936	100.94
361.163	101.94
361.39	96.94
361.616	90.94
361.843	92.94
362.07	103.94
362.296	106.94
362.523	101.94
362.749	102.94
362.976	87.94
363.203	98.94
363.429	87.94
363.656	89.94
363.882	86.94
364.109	78.94
364.335	90.94
364.562	85.94
364.788	93.94
365.015	96.94
365.241	102.94
365.468	99.94
365.694	101.94
365.92	87.94
366.147	88.94
366.373	89.94
366.599	82.94
366.826	89.94
367.052	79.94
367.278	97.94
367.505	98.94
367.731	101.94
367.957	98.94
368.184	76.94
368.41	86.94
368.636	100.94
368.862	105.94
369.089	98.94
369.315	71.94
369.541	99.94
369.767	79.94
369.993	100.94
370.219	83.94
370.445	73.94
370.672	77.94
370.898	76.94
371.124	90.94
371.35	92.94
371.576	92.94
371.802	89.94
372.028	88.94
372.254	101.94
372.48	83.94
372.706	74.94
372.932	88.94
373.158	89.94
373.384	98.94
373.61	90.94
373.835	102.94
374.061	95.94
374.287	91.94
374.513	101.94
374.739	99.94
374.965	96.94
375.191	94.94
375.416	94.94
375.642	79.94
375.868	95.94
376.094	89.94
376.319	96.94
376.545	84.94
376.771	85.94
376.997	106.94
377.222	82.94
377.448	107.94
377.674	97.94
377.899	91.94
378.125	81.94
378.35	89.94
378.576	82.94
378.802	106.94
379.027	90.94
379.253	96.94
379.478	98.94
379.704	85.94
379.929	89.94
380.155	102.94
380.38	100.94
380.606	94.94
380.831	106.94
381.057	90.94
381.282	87.94
381.507	92.94
381.733	87.94
381.958	103.94
382.184	123.94
382.409	92.94
382.634	106.94
382.86	121.94
383.085	95.94
383.31	98.94
383.535	106.94
383.761	82.94
383.986	95.94
384.211	100.94
384.436	89.94
384.662	104.94
384.887	97.94
385.112	95.94
385.337	100.94
385.562	103.94
385.787	107.94
386.013	99.94
386.238	98.94
386.463	98.94
386.688	110.94
386.913	102.94
387.138	95.94
387.363	108.94
387.588	101.94
387.813	97.94
388.038	105.94
388.263	107.94
388.488	118.94
388.713	102.94
388.938	92.94
389.163	91.94
389.387	97.94
389.612	89.94
389.837	104.94
390.062	93.94
390.287	106.94
390.512	99.94
390.736	91.94
390.961	94.94
391.186	85.94
391.411	95.94
391.636	89.94
391.86	70.94
392.085	84.94
392.31	88.94
392.534	98.94
392.759	92.94
392.984	84.94
393.208	94.94
393.433	94.94
393.658	91.94
393.882	78.94
394.107	95.94
394.331	87.94
394.556	95.94
394.78	94.94
395.005	96.94
395.229	91.94
395.454	97.94
395.678	90.94
395.903	86.94
396.127	103.94
396.352	85.94
396.576	94.94
396.801	93.94
397.025	100.94
397.249	91.94
397.474	92.94
397.698	85.94
397.922	76.94
398.147	94.94
398.371	97.94
398.595	86.94
398.82	78.94
399.044	78.94
399.268	82.94
399.492	88.94
399.717	106.94
399.941	88.94
400.165	93.94
400.389	102.94
400.613	91.94
400.837	71.94
401.062	85.94
401.286	98.94
401.51	82.94
401.734	87.94
401.958	92.94
402.182	113.94
402.406	134.94
402.63	100.94
402.854	103.94
403.078	86.94
403.302	78.94
403.526	88.94
403.75	86.94
403.974	78.94
404.198	87.94
404.422	83.94
404.645	91.94
404.869	76.94
405.093	79.94
405.317	105.94
405.541	90.94
405.765	90.94
405.988	110.94
406.212	133.94
406.436	165.94
406.66	125.94
406.883	93.94
407.107	89.94
407.331	92.94
407.555	99.94
407.778	107.94
408.002	90.94
408.226	88.94
408.449	90.94
408.673	65.94
408.896	85.94
409.12	94.94
409.344	85.94
409.567	98.94
409.791	85.94
410.014	100.94
410.238	87.94
410.461	103.94
410.685	96.94
410.908	85.94
411.132	108.94
411.355	96.94
411.578	99.94
411.802	100.94
412.025	83.94
412.249	97.94
412.472	107.94
412.695	93.94
412.919	88.94
413.142	95.94
413.365	74.94
413.589	85.94
413.812	93.94
414.035	90.94
414.258	89.94
414.482	93.94
414.705	91.94
414.928	88.94
415.151	88.94
415.374	103.94
415.597	74.94
415.821	90.94
416.044	87.94
416.267	92.94
416.49	85.94
416.713	76.94
416.936	92.94
417.159	95.94
417.382	95.94
417.605	95.94
417.828	93.94
418.051	81.94
418.274	80.94
418.497	94.94
418.72	88.94
418.943	90.94
419.166	102.94
419.389	90.94
419.611	94.94
419.834	86.94
420.057	89.94
420.28	89.94
420.503	77.94
420.726	75.94
420.948	91.94
421.171	95.94
421.394	98.94
421.617	78.94
421.839	91.94
422.062	81.94
422.285	95.94
422.507	98.94
422.73	90.94
422.953	107.94
423.175	91.94
423.398	100.94
423.621	89.94
423.843	79.94
424.066	76.94
424.288	90.94
424.511	85.94
424.733	88.94
424.956	91.94
425.178	73.94
425.401	81.94
425.623	99.94
425.846	90.94
426.068	108.94
426.291	91.94
426.513	88.94
426.735	90.94
426.958	106.94
427.18	104.94
427.402	113.94
427.625	137.94
427.847	118.94
428.069	110.94
428.292	98.94
428.514	79.94
428.736	88.94
428.958	83.94
429.181	91.94
429.403	103.94
429.625	83.94
429.847	97.94
430.069	90.94
430.292	89.94
430.514	94.94
430.736	82.94
430.958	72.94
431.18	101.94
431.402	89.94
431.624	90.94
431.846	74.94
432.068	98.94
432.29	93.94
432.512	99.94
432.734	89.94
432.956	101.94
433.178	92.94
433.4	94.94
433.622	100.94
433.844	71.94
434.066	98.94
434.287	113.94
434.509	73.94
434.731	85.94
434.953	86.94
435.175	92.94
435.397	94.94
435.618	95.94
435.84	97.94
436.062	107.94
436.284	105.94
436.505	95.94
436.727	105.94
436.949	88.94
437.17	80.94
437.392	86.94
437.614	87.94
437.835	92.94
438.057	102.94
438.278	102.94
438.5	107.94
438.721	94.94
438.943	94.94
439.165	88.94
439.386	86.94
439.608	95.94
439.829	92.94
440.05	104.94
440.272	118.94
440.493	93.94
440.715	79.94
440.936	89.94
441.158	76.94
441.379	85.94
441.6	102.94
441.822	95.94
442.043	94.94
442.264	101.94
442.486	99.94
442.707	86.94
442.928	98.94
443.149	124.94
443.371	114.94
443.592	112.94
443.813	96.94
444.034	93.94
444.255	90.94
444.476	90.94
444.698	87.94
444.919	90.94
445.14	126.94
445.361	100.94
445.582	106.94
445.803	112.94
446.024	129.94
446.245	131.94
446.466	99.94
446.687	94.94
446.908	82.94
447.129	69.94
447.35	99.94
447.571	81.94
447.792	87.94
448.013	96.94
448.234	103.94
448.455	89.94
448.675	107.94
448.896	129.94
449.117	94.94
449.338	99.94
449.559	114.94
449.779	113.94
450	85.94
450.221	86.94
450.442	74.94
450.662	93.94
450.883	100.94
451.104	101.94
451.324	85.94
451.545	90.94
451.766	100.94
451.986	93.94
452.207	91.94
452.428	105.94
452.648	103.94
452.869	97.94
453.089	114.94
453.31	100.94
453.53	102.94
453.751	100.94
453.971	104.94
454.192	105.94
454.412	83.94
454.633	83.94
454.853	79.94
455.073	87.94
455.294	87.94
455.514	97.94
455.734	87.94
455.955	86.94
456.175	85.94
456.395	83.94
456.616	66.94
456.836	76.94
457.056	74.94
457.276	86.94
457.497	75.94
457.717	92.94
457.937	81.94
458.157	87.94
458.377	86.94
458.598	101.94
458.818	114.94
459.038	117.94
459.258	97.94
459.478	81.94
459.698	87.94
459.918	78.94
460.138	88.94
460.358	84.94
460.578	74.94
460.798	85.94
461.018	97.94
461.238	84.94
461.458	87.94
461.678	83.94
461.898	99.94
462.118	79.94
462.338	91.94
462.558	80.94
462.777	98.94
462.997	110.94
463.217	76.94
463.437	78.94
463.657	103.94
463.876	94.94
464.096	89.94
464.316	83.94
464.536	82.94
464.755	94.94
464.975	91.94
465.195	132.94
465.414	133.94
465.634	77.94
465.854	81.94
466.073	89.94
466.293	98.94
466.512	93.94
466.732	74.94
466.951	91.94
467.171	94.94
467.391	94.94
467.61	92.94
467.829	74.94
468.049	86.94
468.268	105.94
468.488	91.94
468.707	83.94
468.927	95.94
469.146	85.94
469.365	104.94
469.585	93.94
469.804	90.94
470.023	92.94
470.243	99.94
470.462	90.94
470.681	95.94
470.901	100.94
471.12	86.94
471.339	93.94
471.558	101.94
471.777	85.94
471.997	75.94
472.216	107.94
472.435	120.94
472.654	89.94
472.873	87.94
473.092	106.94
473.311	81.94
473.53	86.94
473.749	92.94
473.968	89.94
474.187	90.94
474.406	84.94
474.625	100.94
474.844	88.94
475.063	76.94
475.282	84.94
475.501	73.94
475.72	83.94
475.939	87.94
476.158	87.94
476.377	101.94
476.596	88.94
476.814	99.94
477.033	105.94
477.252	89.94
477.471	92.94
477.69	100.94
477.908	102.94
478.127	100.94
478.346	99.94
478.564	83.94
478.783	94.94
479.002	92.94
479.22	87.94
479.439	100.94
479.658	100.94
479.876	69.94
480.095	105.94
480.313	90.94
480.532	89.94
480.751	103.94
480.969	116.94
481.188	161.94
481.406	120.94
481.624	83.94
481.843	82.94
482.061	77.94
482.28	85.94
482.498	91.94
482.717	84.94
482.935	86.94
483.153	83.94
483.372	99.94
483.59	86.94
483.808	77.94
484.027	91.94
484.245	81.94
484.463	100.94
484.681	87.94
484.9	107.94
485.118	97.94
485.336	104.94
485.554	106.94
485.772	105.94
485.99	102.94
486.209	100.94
486.427	107.94
486.645	120.94
486.863	116.94
487.081	108.94
487.299	105.94
487.517	90.94
487.735	103.94
487.953	100.94
488.171	98.94
488.389	75.94
488.607	100.94
488.825	87.94
489.043	93.94
489.261	84.94
489.479	94.94
489.696	100.94
489.914	89.94
490.132	85.94
490.35	92.94
490.568	91.94
490.786	97.94
491.003	93.94
491.221	94.94
491.439	95.94
491.657	94.94
491.874	92.94
492.092	98.94
492.31	95.94
492.527	89.94
492.745	89.94
492.963	97.94
493.18	81.94
493.398	85.94
493.615	82.94
493.833	90.94
494.05	101.94
494.268	95.94
494.485	80.94
494.703	87.94
494.92	92.94
495.138	103.94
495.355	99.94
495.573	87.94
495.79	84.94
496.008	97.94
496.225	95.94
496.442	94.94
496.66	97.94
496.877	99.94
497.094	91.94
497.312	105.94
497.529	90.94
497.746	98.94
497.963	91.94
498.181	94.94
498.398	99.94
498.615	103.94
498.832	105.94
499.049	89.94
499.267	90.94
499.484	98.94
499.701	84.94
499.918	102.94
500.135	79.94
500.352	100.94
500.569	94.94
500.786	89.94
501.003	78.94
501.22	88.94
501.437	109.94
501.654	106.94
501.871	105.94
502.088	98.94
502.305	99.94
502.522	75.94
502.739	86.94
502.956	95.94
503.172	95.94
503.389	86.94
503.606	91.94
503.823	89.94
504.04	92.94
504.256	83.94
504.473	74.94
504.69	86.94
504.907	105.94
505.123	94.94
505.34	89.94
505.557	84.94
505.773	87.94
505.99	101.94
506.207	97.94
506.423	96.94
506.64	91.94
506.856	86.94
507.073	81.94
507.289	83.94
507.506	82.94
507.722	87.94
507.939	96.94
508.155	90.94
508.372	85.94
508.588	91.94
508.805	91.94
509.021	99.94
509.238	92.94
509.454	92.94
509.67	100.94
509.887	115.94
510.103	111.94
510.319	176.94
510.536	582.94
510.752	1646.94
510.968	462.94
511.184	127.94
511.401	102.94
511.617	89.94
511.833	87.94
512.049	93.94
512.265	100.94
512.481	94.94
512.698	78.94
512.914	82.94
513.13	101.94
513.346	92.94
513.562	103.94
513.778	105.94
513.994	89.94
514.21	103.94
514.426	105.94
514.642	110.94
514.858	105.94
515.074	138.94
515.29	321.94
515.506	959.94
515.721	381.94
515.937	132.94
