Data from Circ_1982_H10_HRD10591_00091.txt Node
Date: Wed Jan 03 12:30:59 EST 2024
User: Yrep
Spectrometer: HR+D1059
Trigger mode: 1
Integration Time (sec): 1.000000E-1
Scans to average: 1
Electric dark correction enabled: true
Nonlinearity correction enabled: false
Boxcar width: 0
XAxis mode: Wavelengths
Number of Pixels in Spectrum: 2048
>>>>>Begin Spectral Data<<<<<
223.165	6.06
223.4	6.06
223.635	6.06
223.869	-19.94
224.104	-34.94
224.338	-9.94
224.573	-27.94
224.808	-12.94
225.042	-12.94
225.277	-8.94
225.511	5.06
225.746	13.06
225.98	9.06
226.215	8.06
226.449	18.06
226.683	22.06
226.918	18.06
227.152	28.06
227.387	48.06
227.621	48.06
227.856	56.06
228.09	58.06
228.324	59.06
228.559	44.06
228.793	49.06
229.027	71.06
229.262	88.06
229.496	75.06
229.73	74.06
229.964	91.06
230.199	77.06
230.433	76.06
230.667	81.06
230.901	75.06
231.136	91.06
231.37	98.06
231.604	86.06
231.838	100.06
232.072	86.06
232.306	62.06
232.541	70.06
232.775	85.06
233.009	86.06
233.243	86.06
233.477	105.06
233.711	93.06
233.945	86.06
234.179	73.06
234.413	82.06
234.647	91.06
234.881	72.06
235.115	74.06
235.349	76.06
235.583	94.06
235.817	100.06
236.051	76.06
236.285	64.06
236.519	92.06
236.753	81.06
236.987	74.06
237.221	83.06
237.455	78.06
237.689	82.06
237.922	86.06
238.156	81.06
238.39	70.06
238.624	88.06
238.858	73.06
239.091	74.06
239.325	82.06
239.559	80.06
239.793	81.06
240.027	82.06
240.26	83.06
240.494	65.06
240.728	88.06
240.961	77.06
241.195	70.06
241.429	77.06
241.662	72.06
241.896	96.06
242.13	79.06
242.363	66.06
242.597	84.06
242.83	70.06
243.064	85.06
243.298	64.06
243.531	71.06
243.765	82.06
243.998	78.06
244.232	81.06
244.465	88.06
244.699	96.06
244.932	81.06
245.166	88.06
245.399	95.06
245.633	83.06
245.866	83.06
246.099	79.06
246.333	90.06
246.566	79.06
246.8	87.06
247.033	74.06
247.266	76.06
247.5	87.06
247.733	94.06
247.966	83.06
248.2	82.06
248.433	87.06
248.666	83.06
248.899	83.06
249.133	82.06
249.366	101.06
249.599	84.06
249.832	92.06
250.066	102.06
250.299	83.06
250.532	82.06
250.765	91.06
250.998	77.06
251.231	86.06
251.465	84.06
251.698	85.06
251.931	72.06
252.164	92.06
252.397	78.06
252.63	83.06
252.863	90.06
253.096	102.06
253.329	85.06
253.562	79.06
253.795	82.06
254.028	91.06
254.261	86.06
254.494	83.06
254.727	104.06
254.96	76.06
255.193	71.06
255.426	77.06
255.659	83.06
255.892	81.06
256.124	92.06
256.357	86.06
256.59	80.06
256.823	84.06
257.056	97.06
257.289	94.06
257.521	97.06
257.754	86.06
257.987	82.06
258.22	72.06
258.452	87.06
258.685	77.06
258.918	86.06
259.151	70.06
259.383	90.06
259.616	82.06
259.849	94.06
260.081	80.06
260.314	82.06
260.547	100.06
260.779	70.06
261.012	78.06
261.244	97.06
261.477	86.06
261.71	100.06
261.942	107.06
262.175	114.06
262.407	102.06
262.64	77.06
262.872	83.06
263.105	91.06
263.337	96.06
263.57	93.06
263.802	95.06
264.035	84.06
264.267	84.06
264.499	92.06
264.732	101.06
264.964	82.06
265.197	89.06
265.429	74.06
265.661	83.06
265.894	83.06
266.126	88.06
266.358	98.06
266.591	97.06
266.823	83.06
267.055	91.06
267.287	96.06
267.52	92.06
267.752	88.06
267.984	91.06
268.216	81.06
268.448	90.06
268.681	99.06
268.913	86.06
269.145	81.06
269.377	95.06
269.609	95.06
269.841	93.06
270.073	81.06
270.306	96.06
270.538	92.06
270.77	82.06
271.002	79.06
271.234	79.06
271.466	76.06
271.698	88.06
271.93	83.06
272.162	90.06
272.394	104.06
272.626	89.06
272.858	81.06
273.09	94.06
273.322	91.06
273.553	95.06
273.785	95.06
274.017	98.06
274.249	97.06
274.481	91.06
274.713	93.06
274.945	92.06
275.176	86.06
275.408	94.06
275.64	81.06
275.872	99.06
276.104	77.06
276.335	92.06
276.567	92.06
276.799	97.06
277.031	103.06
277.262	95.06
277.494	107.06
277.726	79.06
277.957	88.06
278.189	100.06
278.421	80.06
278.652	81.06
278.884	91.06
279.115	84.06
279.347	91.06
279.579	86.06
279.81	84.06
280.042	94.06
280.273	99.06
280.505	97.06
280.736	99.06
280.968	99.06
281.199	90.06
281.431	87.06
281.662	86.06
281.894	72.06
282.125	107.06
282.356	94.06
282.588	111.06
282.819	107.06
283.051	88.06
283.282	88.06
283.513	93.06
283.745	95.06
283.976	89.06
284.207	84.06
284.439	98.06
284.67	101.06
284.901	101.06
285.132	104.06
285.364	97.06
285.595	93.06
285.826	90.06
286.057	87.06
286.288	90.06
286.52	100.06
286.751	95.06
286.982	81.06
287.213	90.06
287.444	86.06
287.675	60.06
287.906	95.06
288.138	88.06
288.369	80.06
288.6	98.06
288.831	90.06
289.062	90.06
289.293	82.06
289.524	93.06
289.755	83.06
289.986	81.06
290.217	88.06
290.448	106.06
290.679	94.06
290.91	115.06
291.141	90.06
291.371	103.06
291.602	84.06
291.833	97.06
292.064	98.06
292.295	84.06
292.526	95.06
292.757	104.06
292.987	90.06
293.218	83.06
293.449	106.06
293.68	95.06
293.91	79.06
294.141	91.06
294.372	92.06
294.603	103.06
294.833	82.06
295.064	97.06
295.295	97.06
295.525	77.06
295.756	96.06
295.987	100.06
296.217	125.06
296.448	122.06
296.679	99.06
296.909	99.06
297.14	89.06
297.37	89.06
297.601	102.06
297.831	96.06
298.062	115.06
298.292	100.06
298.523	99.06
298.753	90.06
298.984	92.06
299.214	81.06
299.445	92.06
299.675	98.06
299.905	93.06
300.136	92.06
300.366	93.06
300.597	90.06
300.827	101.06
301.057	105.06
301.288	101.06
301.518	91.06
301.748	89.06
301.979	110.06
302.209	89.06
302.439	79.06
302.669	96.06
302.9	91.06
303.13	103.06
303.36	101.06
303.59	106.06
303.82	107.06
304.051	86.06
304.281	98.06
304.511	101.06
304.741	84.06
304.971	94.06
305.201	100.06
305.431	94.06
305.661	92.06
305.891	82.06
306.121	90.06
306.352	99.06
306.582	115.06
306.812	92.06
307.042	93.06
307.272	91.06
307.502	95.06
307.731	89.06
307.961	87.06
308.191	103.06
308.421	106.06
308.651	98.06
308.881	105.06
309.111	108.06
309.341	104.06
309.571	93.06
309.8	88.06
310.03	105.06
310.26	97.06
310.49	95.06
310.72	99.06
310.949	100.06
311.179	95.06
311.409	96.06
311.639	98.06
311.868	107.06
312.098	102.06
312.328	94.06
312.557	92.06
312.787	100.06
313.017	97.06
313.246	97.06
313.476	97.06
313.706	91.06
313.935	92.06
314.165	112.06
314.394	95.06
314.624	102.06
314.853	96.06
315.083	100.06
315.312	116.06
315.542	96.06
315.771	106.06
316.001	93.06
316.23	81.06
316.46	98.06
316.689	96.06
316.919	97.06
317.148	88.06
317.377	97.06
317.607	95.06
317.836	90.06
318.065	98.06
318.295	97.06
318.524	97.06
318.753	82.06
318.983	75.06
319.212	111.06
319.441	103.06
319.67	98.06
319.9	103.06
320.129	115.06
320.358	101.06
320.587	92.06
320.816	106.06
321.046	94.06
321.275	100.06
321.504	97.06
321.733	111.06
321.962	108.06
322.191	112.06
322.42	109.06
322.649	116.06
322.878	113.06
323.108	105.06
323.337	113.06
323.566	112.06
323.795	131.06
324.024	173.06
324.253	270.06
324.482	575.06
324.71	1133.06
324.939	1467.06
325.168	546.06
325.397	201.06
325.626	134.06
325.855	110.06
326.084	113.06
326.313	131.06
326.542	126.06
326.77	176.06
326.999	324.06
327.228	670.06
327.457	1165.06
327.686	916.06
327.914	286.06
328.143	167.06
328.372	138.06
328.6	108.06
328.829	107.06
329.058	114.06
329.287	112.06
329.515	113.06
329.744	114.06
329.972	102.06
330.201	112.06
330.43	116.06
330.658	106.06
330.887	127.06
331.115	109.06
331.344	98.06
331.572	107.06
331.801	106.06
332.03	100.06
332.258	100.06
332.486	94.06
332.715	103.06
332.943	95.06
333.172	89.06
333.4	101.06
333.629	113.06
333.857	103.06
334.085	115.06
334.314	115.06
334.542	127.06
334.771	127.06
334.999	90.06
335.227	89.06
335.455	102.06
335.684	93.06
335.912	106.06
336.14	108.06
336.369	105.06
336.597	103.06
336.825	97.06
337.053	82.06
337.281	94.06
337.51	111.06
337.738	95.06
337.966	95.06
338.194	98.06
338.422	88.06
338.65	86.06
338.878	94.06
339.106	92.06
339.334	92.06
339.562	92.06
339.79	83.06
340.018	94.06
340.246	82.06
340.474	77.06
340.702	90.06
340.93	82.06
341.158	88.06
341.386	106.06
341.614	95.06
341.842	93.06
342.07	107.06
342.298	95.06
342.526	101.06
342.754	104.06
342.981	95.06
343.209	88.06
343.437	111.06
343.665	102.06
343.893	96.06
344.12	98.06
344.348	84.06
344.576	90.06
344.804	110.06
345.031	105.06
345.259	107.06
345.487	100.06
345.714	98.06
345.942	92.06
346.17	103.06
346.397	115.06
346.625	107.06
346.853	94.06
347.08	97.06
347.308	106.06
347.535	109.06
347.763	99.06
347.99	97.06
348.218	105.06
348.445	106.06
348.673	123.06
348.9	98.06
349.128	100.06
349.355	107.06
349.583	100.06
349.81	106.06
350.037	108.06
350.265	107.06
350.492	104.06
350.72	93.06
350.947	107.06
351.174	110.06
351.402	122.06
351.629	112.06
351.856	112.06
352.083	109.06
352.311	104.06
352.538	115.06
352.765	105.06
352.992	98.06
353.22	96.06
353.447	100.06
353.674	109.06
353.901	117.06
354.128	104.06
354.355	94.06
354.583	100.06
354.81	111.06
355.037	104.06
355.264	102.06
355.491	94.06
355.718	92.06
355.945	106.06
356.172	99.06
356.399	94.06
356.626	96.06
356.853	102.06
357.08	107.06
357.307	106.06
357.534	89.06
357.761	108.06
357.988	92.06
358.215	78.06
358.441	98.06
358.668	105.06
358.895	96.06
359.122	96.06
359.349	105.06
359.576	92.06
359.802	93.06
360.029	106.06
360.256	108.06
360.483	106.06
360.709	95.06
360.936	110.06
361.163	92.06
361.39	101.06
361.616	94.06
361.843	93.06
362.07	102.06
362.296	92.06
362.523	89.06
362.749	91.06
362.976	94.06
363.203	98.06
363.429	95.06
363.656	98.06
363.882	93.06
364.109	100.06
364.335	101.06
364.562	95.06
364.788	94.06
365.015	92.06
365.241	96.06
365.468	86.06
365.694	108.06
365.92	98.06
366.147	98.06
366.373	97.06
366.599	83.06
366.826	87.06
367.052	103.06
367.278	97.06
367.505	90.06
367.731	83.06
367.957	81.06
368.184	112.06
368.41	107.06
368.636	94.06
368.862	121.06
369.089	108.06
369.315	125.06
369.541	95.06
369.767	107.06
369.993	93.06
370.219	99.06
370.445	96.06
370.672	89.06
370.898	88.06
371.124	90.06
371.35	90.06
371.576	96.06
371.802	102.06
372.028	93.06
372.254	103.06
372.48	95.06
372.706	90.06
372.932	101.06
373.158	104.06
373.384	94.06
373.61	92.06
373.835	100.06
374.061	108.06
374.287	106.06
374.513	107.06
374.739	82.06
374.965	94.06
375.191	92.06
375.416	95.06
375.642	95.06
375.868	93.06
376.094	90.06
376.319	87.06
376.545	94.06
376.771	98.06
376.997	98.06
377.222	82.06
377.448	95.06
377.674	111.06
377.899	95.06
378.125	98.06
378.35	97.06
378.576	102.06
378.802	80.06
379.027	99.06
379.253	99.06
379.478	93.06
379.704	97.06
379.929	90.06
380.155	92.06
380.38	91.06
380.606	98.06
380.831	86.06
381.057	97.06
381.282	90.06
381.507	107.06
381.733	88.06
381.958	100.06
382.184	93.06
382.409	109.06
382.634	107.06
382.86	98.06
383.085	106.06
383.31	108.06
383.535	98.06
383.761	93.06
383.986	105.06
384.211	99.06
384.436	98.06
384.662	97.06
384.887	96.06
385.112	100.06
385.337	108.06
385.562	110.06
385.787	105.06
386.013	108.06
386.238	105.06
386.463	102.06
386.688	106.06
386.913	109.06
387.138	111.06
387.363	101.06
387.588	99.06
387.813	99.06
388.038	106.06
388.263	110.06
388.488	114.06
388.713	91.06
388.938	95.06
389.163	107.06
389.387	106.06
389.612	95.06
389.837	98.06
390.062	97.06
390.287	107.06
390.512	98.06
390.736	106.06
390.961	97.06
391.186	96.06
391.411	89.06
391.636	91.06
391.86	89.06
392.085	111.06
392.31	83.06
392.534	89.06
392.759	95.06
392.984	95.06
393.208	78.06
393.433	83.06
393.658	96.06
393.882	88.06
394.107	88.06
394.331	89.06
394.556	96.06
394.78	90.06
395.005	89.06
395.229	81.06
395.454	88.06
395.678	93.06
395.903	90.06
396.127	104.06
396.352	86.06
396.576	81.06
396.801	91.06
397.025	96.06
397.249	78.06
397.474	90.06
397.698	92.06
397.922	82.06
398.147	91.06
398.371	100.06
398.595	78.06
398.82	94.06
399.044	95.06
399.268	94.06
399.492	95.06
399.717	103.06
399.941	102.06
400.165	87.06
400.389	93.06
400.613	88.06
400.837	88.06
401.062	82.06
401.286	105.06
401.51	90.06
401.734	74.06
401.958	102.06
402.182	119.06
402.406	137.06
402.63	109.06
402.854	80.06
403.078	88.06
403.302	96.06
403.526	87.06
403.75	105.06
403.974	91.06
404.198	105.06
404.422	102.06
404.645	84.06
404.869	90.06
405.093	90.06
405.317	95.06
405.541	92.06
405.765	100.06
405.988	106.06
406.212	131.06
406.436	166.06
406.66	110.06
406.883	98.06
407.107	91.06
407.331	86.06
407.555	94.06
407.778	103.06
408.002	85.06
408.226	91.06
408.449	102.06
408.673	88.06
408.896	83.06
409.12	96.06
409.344	90.06
409.567	78.06
409.791	106.06
410.014	88.06
410.238	96.06
410.461	94.06
410.685	83.06
410.908	107.06
411.132	114.06
411.355	100.06
411.578	95.06
411.802	94.06
412.025	80.06
412.249	74.06
412.472	92.06
412.695	109.06
412.919	94.06
413.142	87.06
413.365	88.06
413.589	95.06
413.812	101.06
414.035	88.06
414.258	90.06
414.482	104.06
414.705	94.06
414.928	90.06
415.151	89.06
415.374	94.06
415.597	88.06
415.821	105.06
416.044	94.06
416.267	79.06
416.49	99.06
416.713	95.06
416.936	87.06
417.159	103.06
417.382	102.06
417.605	79.06
417.828	89.06
418.051	93.06
418.274	98.06
418.497	103.06
418.72	81.06
418.943	83.06
419.166	93.06
419.389	98.06
419.611	94.06
419.834	97.06
420.057	99.06
420.28	107.06
420.503	96.06
420.726	80.06
420.948	92.06
421.171	100.06
421.394	102.06
421.617	106.06
421.839	96.06
422.062	92.06
422.285	94.06
422.507	109.06
422.73	86.06
422.953	98.06
423.175	99.06
423.398	93.06
423.621	92.06
423.843	94.06
424.066	95.06
424.288	86.06
424.511	95.06
424.733	102.06
424.956	100.06
425.178	92.06
425.401	91.06
425.623	90.06
425.846	99.06
426.068	90.06
426.291	88.06
426.513	92.06
426.735	111.06
426.958	107.06
427.18	104.06
427.402	111.06
427.625	129.06
427.847	122.06
428.069	113.06
428.292	100.06
428.514	102.06
428.736	92.06
428.958	86.06
429.181	76.06
429.403	95.06
429.625	94.06
429.847	96.06
430.069	95.06
430.292	104.06
430.514	92.06
430.736	91.06
430.958	95.06
431.18	88.06
431.402	94.06
431.624	80.06
431.846	81.06
432.068	88.06
432.29	83.06
432.512	103.06
432.734	89.06
432.956	91.06
433.178	100.06
433.4	100.06
433.622	94.06
433.844	83.06
434.066	104.06
434.287	92.06
434.509	89.06
434.731	90.06
434.953	97.06
435.175	108.06
435.397	103.06
435.618	88.06
435.84	104.06
436.062	110.06
436.284	98.06
436.505	113.06
436.727	79.06
436.949	96.06
437.17	93.06
437.392	97.06
437.614	105.06
437.835	113.06
438.057	105.06
438.278	103.06
438.5	115.06
438.721	114.06
438.943	109.06
439.165	92.06
439.386	104.06
439.608	103.06
439.829	97.06
440.05	108.06
440.272	111.06
440.493	112.06
440.715	88.06
440.936	98.06
441.158	100.06
441.379	89.06
441.6	90.06
441.822	104.06
442.043	107.06
442.264	111.06
442.486	103.06
442.707	114.06
442.928	105.06
443.149	110.06
443.371	129.06
443.592	98.06
443.813	90.06
444.034	102.06
444.255	102.06
444.476	84.06
444.698	102.06
444.919	94.06
445.14	120.06
445.361	119.06
445.582	108.06
445.803	120.06
446.024	129.06
446.245	128.06
446.466	116.06
446.687	88.06
446.908	103.06
447.129	108.06
447.35	100.06
447.571	93.06
447.792	76.06
448.013	98.06
448.234	113.06
448.455	101.06
448.675	108.06
448.896	117.06
449.117	104.06
449.338	106.06
449.559	112.06
449.779	120.06
450	105.06
450.221	82.06
450.442	83.06
450.662	104.06
450.883	96.06
451.104	109.06
451.324	98.06
451.545	102.06
451.766	99.06
451.986	70.06
452.207	90.06
452.428	104.06
452.648	97.06
452.869	105.06
453.089	108.06
453.31	106.06
453.53	95.06
453.751	96.06
453.971	98.06
454.192	108.06
454.412	93.06
454.633	102.06
454.853	76.06
455.073	84.06
455.294	80.06
455.514	83.06
455.734	98.06
455.955	83.06
456.175	96.06
456.395	82.06
456.616	84.06
456.836	83.06
457.056	100.06
457.276	96.06
457.497	95.06
457.717	87.06
457.937	88.06
458.157	99.06
458.377	75.06
458.598	98.06
458.818	138.06
459.038	128.06
459.258	108.06
459.478	95.06
459.698	91.06
459.918	99.06
460.138	79.06
460.358	104.06
460.578	102.06
460.798	85.06
461.018	88.06
461.238	78.06
461.458	88.06
461.678	81.06
461.898	93.06
462.118	76.06
462.338	91.06
462.558	90.06
462.777	88.06
462.997	92.06
463.217	95.06
463.437	99.06
463.657	83.06
463.876	96.06
464.096	109.06
464.316	95.06
464.536	106.06
464.755	92.06
464.975	113.06
465.195	138.06
465.414	132.06
465.634	96.06
465.854	95.06
466.073	90.06
466.293	94.06
466.512	96.06
466.732	99.06
466.951	92.06
467.171	92.06
467.391	99.06
467.61	104.06
467.829	115.06
468.049	102.06
468.268	105.06
468.488	95.06
468.707	99.06
468.927	93.06
469.146	88.06
469.365	105.06
469.585	88.06
469.804	94.06
470.023	100.06
470.243	108.06
470.462	103.06
470.681	106.06
470.901	86.06
471.12	87.06
471.339	96.06
471.558	93.06
471.777	98.06
471.997	96.06
472.216	116.06
472.435	140.06
472.654	95.06
472.873	93.06
473.092	86.06
473.311	90.06
473.53	87.06
473.749	82.06
473.968	92.06
474.187	109.06
474.406	92.06
474.625	84.06
474.844	86.06
475.063	78.06
475.282	100.06
475.501	99.06
475.72	82.06
475.939	80.06
476.158	97.06
476.377	103.06
476.596	96.06
476.814	102.06
477.033	91.06
477.252	104.06
477.471	78.06
477.69	89.06
477.908	98.06
478.127	104.06
478.346	104.06
478.564	122.06
478.783	88.06
479.002	83.06
479.22	90.06
479.439	98.06
479.658	105.06
479.876	96.06
480.095	92.06
480.313	105.06
480.532	92.06
480.751	99.06
480.969	106.06
481.188	185.06
481.406	144.06
481.624	109.06
481.843	99.06
482.061	90.06
482.28	94.06
482.498	88.06
482.717	97.06
482.935	104.06
483.153	91.06
483.372	111.06
483.59	100.06
483.808	90.06
484.027	106.06
484.245	97.06
484.463	96.06
484.681	111.06
484.9	105.06
485.118	96.06
485.336	104.06
485.554	98.06
485.772	96.06
485.99	114.06
486.209	105.06
486.427	88.06
486.645	109.06
486.863	110.06
487.081	105.06
487.299	103.06
487.517	110.06
487.735	99.06
487.953	101.06
488.171	93.06
488.389	94.06
488.607	105.06
488.825	102.06
489.043	107.06
489.261	117.06
489.479	106.06
489.696	98.06
489.914	99.06
490.132	96.06
490.35	81.06
490.568	72.06
490.786	94.06
491.003	102.06
491.221	95.06
491.439	98.06
491.657	99.06
491.874	93.06
492.092	102.06
492.31	77.06
492.527	98.06
492.745	94.06
492.963	90.06
493.18	99.06
493.398	104.06
493.615	88.06
493.833	95.06
494.05	101.06
494.268	98.06
494.485	96.06
494.703	90.06
494.92	93.06
495.138	94.06
495.355	97.06
495.573	93.06
495.79	99.06
496.008	89.06
496.225	87.06
496.442	106.06
496.66	96.06
496.877	100.06
497.094	95.06
497.312	97.06
497.529	101.06
497.746	91.06
497.963	89.06
498.181	102.06
498.398	121.06
498.615	100.06
498.832	108.06
499.049	88.06
499.267	102.06
499.484	97.06
499.701	98.06
499.918	91.06
500.135	102.06
500.352	90.06
500.569	94.06
500.786	97.06
501.003	79.06
501.22	79.06
501.437	96.06
501.654	88.06
501.871	93.06
502.088	89.06
502.305	116.06
502.522	109.06
502.739	96.06
502.956	86.06
503.172	104.06
503.389	104.06
503.606	104.06
503.823	83.06
504.04	98.06
504.256	98.06
504.473	106.06
504.69	104.06
504.907	110.06
505.123	97.06
505.34	80.06
505.557	94.06
505.773	97.06
505.99	87.06
506.207	98.06
506.423	101.06
506.64	95.06
506.856	95.06
507.073	88.06
507.289	94.06
507.506	101.06
507.722	102.06
507.939	120.06
508.155	99.06
508.372	92.06
508.588	90.06
508.805	97.06
509.021	106.06
509.238	102.06
509.454	110.06
509.67	104.06
509.887	99.06
510.103	127.06
510.319	182.06
510.536	558.06
510.752	1624.06
510.968	474.06
511.184	140.06
511.401	116.06
511.617	106.06
511.833	99.06
512.049	84.06
512.265	94.06
512.481	103.06
512.698	87.06
512.914	96.06
513.13	98.06
513.346	100.06
513.562	106.06
513.778	112.06
513.994	103.06
