Data from Circ_1982_H10_HRD10591_00013.txt Node
Date: Wed Jan 03 12:30:43 EST 2024
User: Yrep
Spectrometer: HR+D1059
Trigger mode: 1
Integration Time (sec): 1.000000E-1
Scans to average: 1
Electric dark correction enabled: true
Nonlinearity correction enabled: false
Boxcar width: 0
XAxis mode: Wavelengths
Number of Pixels in Spectrum: 2048
>>>>>Begin Spectral Data<<<<<
223.165	-4.56
223.4	-4.56
223.635	-4.56
223.869	-29.56
224.104	-19.56
224.338	-29.56
224.573	-16.56
224.808	-12.56
225.042	-9.56
225.277	-0.56
225.511	0.44
225.746	5.44
225.98	6.44
226.215	9.44
226.449	25.44
226.683	19.44
226.918	22.44
227.152	33.44
227.387	25.44
227.621	29.44
227.856	39.44
228.09	45.44
228.324	37.44
228.559	67.44
228.793	62.44
229.027	63.44
229.262	72.44
229.496	70.44
229.73	74.44
229.964	77.44
230.199	65.44
230.433	72.44
230.667	88.44
230.901	88.44
231.136	83.44
231.37	79.44
231.604	89.44
231.838	79.44
232.072	79.44
232.306	74.44
232.541	83.44
232.775	71.44
233.009	87.44
233.243	86.44
233.477	92.44
233.711	86.44
233.945	83.44
234.179	90.44
234.413	77.44
234.647	84.44
234.881	70.44
235.115	87.44
235.349	74.44
235.583	79.44
235.817	77.44
236.051	81.44
236.285	91.44
236.519	75.44
236.753	76.44
236.987	80.44
237.221	74.44
237.455	81.44
237.689	73.44
237.922	71.44
238.156	86.44
238.39	78.44
238.624	79.44
238.858	84.44
239.091	76.44
239.325	63.44
239.559	74.44
239.793	75.44
240.027	69.44
240.26	72.44
240.494	75.44
240.728	78.44
240.961	65.44
241.195	82.44
241.429	74.44
241.662	89.44
241.896	64.44
242.13	75.44
242.363	71.44
242.597	73.44
242.83	86.44
243.064	78.44
243.298	77.44
243.531	83.44
243.765	67.44
243.998	89.44
244.232	76.44
244.465	81.44
244.699	71.44
244.932	83.44
245.166	72.44
245.399	75.44
245.633	81.44
245.866	81.44
246.099	79.44
246.333	81.44
246.566	71.44
246.8	74.44
247.033	74.44
247.266	87.44
247.5	87.44
247.733	73.44
247.966	81.44
248.2	67.44
248.433	81.44
248.666	78.44
248.899	83.44
249.133	84.44
249.366	93.44
249.599	89.44
249.832	83.44
250.066	108.44
250.299	82.44
250.532	88.44
250.765	91.44
250.998	78.44
251.231	80.44
251.465	77.44
251.698	89.44
251.931	92.44
252.164	69.44
252.397	80.44
252.63	83.44
252.863	71.44
253.096	85.44
253.329	81.44
253.562	84.44
253.795	72.44
254.028	85.44
254.261	81.44
254.494	83.44
254.727	89.44
254.96	88.44
255.193	87.44
255.426	80.44
255.659	88.44
255.892	90.44
256.124	88.44
256.357	85.44
256.59	86.44
256.823	87.44
257.056	87.44
257.289	81.44
257.521	76.44
257.754	78.44
257.987	68.44
258.22	92.44
258.452	76.44
258.685	83.44
258.918	86.44
259.151	82.44
259.383	90.44
259.616	91.44
259.849	78.44
260.081	79.44
260.314	88.44
260.547	85.44
260.779	74.44
261.012	68.44
261.244	85.44
261.477	92.44
261.71	88.44
261.942	105.44
262.175	100.44
262.407	88.44
262.64	81.44
262.872	70.44
263.105	87.44
263.337	74.44
263.57	75.44
263.802	85.44
264.035	98.44
264.267	89.44
264.499	93.44
264.732	84.44
264.964	74.44
265.197	94.44
265.429	73.44
265.661	78.44
265.894	81.44
266.126	83.44
266.358	75.44
266.591	100.44
266.823	77.44
267.055	80.44
267.287	97.44
267.52	84.44
267.752	82.44
267.984	83.44
268.216	75.44
268.448	82.44
268.681	87.44
268.913	87.44
269.145	76.44
269.377	93.44
269.609	80.44
269.841	87.44
270.073	79.44
270.306	82.44
270.538	85.44
270.77	83.44
271.002	95.44
271.234	82.44
271.466	96.44
271.698	90.44
271.93	91.44
272.162	100.44
272.394	92.44
272.626	87.44
272.858	89.44
273.09	93.44
273.322	94.44
273.553	78.44
273.785	89.44
274.017	94.44
274.249	84.44
274.481	85.44
274.713	69.44
274.945	94.44
275.176	85.44
275.408	97.44
275.64	78.44
275.872	82.44
276.104	87.44
276.335	86.44
276.567	103.44
276.799	87.44
277.031	99.44
277.262	87.44
277.494	94.44
277.726	77.44
277.957	88.44
278.189	85.44
278.421	91.44
278.652	94.44
278.884	90.44
279.115	85.44
279.347	73.44
279.579	85.44
279.81	85.44
280.042	81.44
280.273	95.44
280.505	71.44
280.736	83.44
280.968	80.44
281.199	85.44
281.431	78.44
281.662	94.44
281.894	85.44
282.125	84.44
282.356	113.44
282.588	111.44
282.819	86.44
283.051	91.44
283.282	93.44
283.513	87.44
283.745	92.44
283.976	90.44
284.207	83.44
284.439	90.44
284.67	78.44
284.901	89.44
285.132	106.44
285.364	82.44
285.595	104.44
285.826	80.44
286.057	85.44
286.288	77.44
286.52	94.44
286.751	86.44
286.982	85.44
287.213	89.44
287.444	95.44
287.675	93.44
287.906	88.44
288.138	66.44
288.369	92.44
288.6	92.44
288.831	74.44
289.062	94.44
289.293	86.44
289.524	75.44
289.755	94.44
289.986	77.44
290.217	101.44
290.448	84.44
290.679	85.44
290.91	78.44
291.141	93.44
291.371	89.44
291.602	82.44
291.833	100.44
292.064	86.44
292.295	85.44
292.526	91.44
292.757	82.44
292.987	80.44
293.218	76.44
293.449	75.44
293.68	87.44
293.91	97.44
294.141	72.44
294.372	87.44
294.603	87.44
294.833	93.44
295.064	102.44
295.295	87.44
295.525	100.44
295.756	102.44
295.987	101.44
296.217	112.44
296.448	109.44
296.679	99.44
296.909	88.44
297.14	76.44
297.37	99.44
297.601	102.44
297.831	98.44
298.062	91.44
298.292	110.44
298.523	85.44
298.753	99.44
298.984	91.44
299.214	95.44
299.445	96.44
299.675	92.44
299.905	93.44
300.136	91.44
300.366	83.44
300.597	108.44
300.827	93.44
301.057	105.44
301.288	103.44
301.518	88.44
301.748	99.44
301.979	107.44
302.209	92.44
302.439	94.44
302.669	93.44
302.9	80.44
303.13	69.44
303.36	97.44
303.59	107.44
303.82	90.44
304.051	85.44
304.281	81.44
304.511	94.44
304.741	99.44
304.971	95.44
305.201	103.44
305.431	90.44
305.661	88.44
305.891	93.44
306.121	89.44
306.352	107.44
306.582	97.44
306.812	96.44
307.042	114.44
307.272	99.44
307.502	103.44
307.731	101.44
307.961	78.44
308.191	81.44
308.421	83.44
308.651	103.44
308.881	86.44
309.111	103.44
309.341	106.44
309.571	92.44
309.8	93.44
310.03	102.44
310.26	98.44
310.49	98.44
310.72	99.44
310.949	87.44
311.179	107.44
311.409	103.44
311.639	102.44
311.868	82.44
312.098	89.44
312.328	86.44
312.557	89.44
312.787	95.44
313.017	100.44
313.246	87.44
313.476	103.44
313.706	105.44
313.935	90.44
314.165	91.44
314.394	97.44
314.624	99.44
314.853	107.44
315.083	93.44
315.312	92.44
315.542	96.44
315.771	87.44
316.001	91.44
316.23	98.44
316.46	89.44
316.689	97.44
316.919	90.44
317.148	87.44
317.377	89.44
317.607	94.44
317.836	82.44
318.065	95.44
318.295	86.44
318.524	93.44
318.753	104.44
318.983	96.44
319.212	96.44
319.441	95.44
319.67	109.44
319.9	84.44
320.129	98.44
320.358	98.44
320.587	90.44
320.816	78.44
321.046	110.44
321.275	91.44
321.504	97.44
321.733	99.44
321.962	92.44
322.191	109.44
322.42	89.44
322.649	100.44
322.878	109.44
323.108	106.44
323.337	112.44
323.566	112.44
323.795	131.44
324.024	166.44
324.253	277.44
324.482	549.44
324.71	1076.44
324.939	1349.44
325.168	530.44
325.397	187.44
325.626	111.44
325.855	108.44
326.084	98.44
326.313	114.44
326.542	123.44
326.77	173.44
326.999	323.44
327.228	641.44
327.457	1125.44
327.686	894.44
327.914	266.44
328.143	151.44
328.372	121.44
328.6	98.44
328.829	102.44
329.058	110.44
329.287	123.44
329.515	109.44
329.744	98.44
329.972	103.44
330.201	103.44
330.43	107.44
330.658	117.44
330.887	117.44
331.115	110.44
331.344	103.44
331.572	100.44
331.801	105.44
332.03	83.44
332.258	85.44
332.486	88.44
332.715	93.44
332.943	109.44
333.172	82.44
333.4	95.44
333.629	100.44
333.857	108.44
334.085	90.44
334.314	106.44
334.542	108.44
334.771	110.44
334.999	101.44
335.227	94.44
335.455	105.44
335.684	106.44
335.912	93.44
336.14	94.44
336.369	102.44
336.597	101.44
336.825	83.44
337.053	100.44
337.281	95.44
337.51	93.44
337.738	99.44
337.966	98.44
338.194	97.44
338.422	88.44
338.65	98.44
338.878	85.44
339.106	85.44
339.334	89.44
339.562	86.44
339.79	91.44
340.018	85.44
340.246	83.44
340.474	79.44
340.702	91.44
340.93	85.44
341.158	95.44
341.386	98.44
341.614	95.44
341.842	109.44
342.07	90.44
342.298	92.44
342.526	92.44
342.754	94.44
342.981	90.44
343.209	89.44
343.437	91.44
343.665	84.44
343.893	103.44
344.12	97.44
344.348	87.44
344.576	106.44
344.804	96.44
345.031	102.44
345.259	104.44
345.487	85.44
345.714	105.44
345.942	89.44
346.17	96.44
346.397	90.44
346.625	90.44
346.853	97.44
347.08	96.44
347.308	103.44
347.535	105.44
347.763	102.44
347.99	93.44
348.218	95.44
348.445	87.44
348.673	96.44
348.9	94.44
349.128	89.44
349.355	98.44
349.583	93.44
349.81	93.44
350.037	90.44
350.265	104.44
350.492	87.44
350.72	100.44
350.947	81.44
351.174	96.44
351.402	106.44
351.629	97.44
351.856	91.44
352.083	92.44
352.311	100.44
352.538	101.44
352.765	105.44
352.992	91.44
353.22	102.44
353.447	92.44
353.674	108.44
353.901	82.44
354.128	110.44
354.355	95.44
354.583	100.44
354.81	103.44
355.037	89.44
355.264	94.44
355.491	102.44
355.718	89.44
355.945	78.44
356.172	91.44
356.399	89.44
356.626	89.44
356.853	99.44
357.08	83.44
357.307	95.44
357.534	89.44
357.761	99.44
357.988	107.44
358.215	107.44
358.441	93.44
358.668	95.44
358.895	102.44
359.122	89.44
359.349	85.44
359.576	88.44
359.802	114.44
360.029	101.44
360.256	92.44
360.483	100.44
360.709	100.44
360.936	86.44
361.163	85.44
361.39	88.44
361.616	97.44
361.843	94.44
362.07	84.44
362.296	100.44
362.523	93.44
362.749	90.44
362.976	94.44
363.203	85.44
363.429	95.44
363.656	94.44
363.882	83.44
364.109	83.44
364.335	94.44
364.562	94.44
364.788	77.44
365.015	81.44
365.241	95.44
365.468	99.44
365.694	95.44
365.92	104.44
366.147	86.44
366.373	91.44
366.599	86.44
366.826	90.44
367.052	85.44
367.278	89.44
367.505	86.44
367.731	83.44
367.957	92.44
368.184	89.44
368.41	95.44
368.636	97.44
368.862	105.44
369.089	103.44
369.315	86.44
369.541	87.44
369.767	101.44
369.993	89.44
370.219	87.44
370.445	92.44
370.672	94.44
370.898	83.44
371.124	92.44
371.35	89.44
371.576	75.44
371.802	87.44
372.028	87.44
372.254	95.44
372.48	94.44
372.706	83.44
372.932	91.44
373.158	90.44
373.384	98.44
373.61	103.44
373.835	100.44
374.061	100.44
374.287	93.44
374.513	87.44
374.739	77.44
374.965	85.44
375.191	98.44
375.416	87.44
375.642	105.44
375.868	89.44
376.094	97.44
376.319	79.44
376.545	85.44
376.771	100.44
376.997	92.44
377.222	97.44
377.448	96.44
377.674	86.44
377.899	87.44
378.125	108.44
378.35	92.44
378.576	90.44
378.802	78.44
379.027	95.44
379.253	88.44
379.478	89.44
379.704	89.44
379.929	104.44
380.155	112.44
380.38	100.44
380.606	91.44
380.831	85.44
381.057	113.44
381.282	95.44
381.507	91.44
381.733	102.44
381.958	90.44
382.184	98.44
382.409	110.44
382.634	97.44
382.86	90.44
383.085	98.44
383.31	115.44
383.535	112.44
383.761	119.44
383.986	95.44
384.211	93.44
384.436	103.44
384.662	119.44
384.887	100.44
385.112	109.44
385.337	103.44
385.562	122.44
385.787	109.44
386.013	108.44
386.238	123.44
386.463	107.44
386.688	108.44
386.913	110.44
387.138	112.44
387.363	114.44
387.588	102.44
387.813	99.44
388.038	115.44
388.263	126.44
388.488	119.44
388.713	106.44
388.938	96.44
389.163	101.44
389.387	105.44
389.612	94.44
389.837	94.44
390.062	99.44
390.287	90.44
390.512	90.44
390.736	95.44
390.961	85.44
391.186	97.44
391.411	96.44
391.636	106.44
391.86	91.44
392.085	84.44
392.31	90.44
392.534	93.44
392.759	81.44
392.984	78.44
393.208	95.44
393.433	99.44
393.658	78.44
393.882	80.44
394.107	97.44
394.331	101.44
394.556	85.44
394.78	81.44
395.005	89.44
395.229	97.44
395.454	89.44
395.678	85.44
395.903	75.44
396.127	90.44
396.352	85.44
396.576	82.44
396.801	85.44
397.025	82.44
397.249	90.44
397.474	97.44
397.698	85.44
397.922	94.44
398.147	100.44
398.371	77.44
398.595	93.44
398.82	93.44
399.044	93.44
399.268	92.44
399.492	99.44
399.717	88.44
399.941	91.44
400.165	101.44
400.389	67.44
400.613	81.44
400.837	85.44
401.062	87.44
401.286	88.44
401.51	89.44
401.734	85.44
401.958	117.44
402.182	103.44
402.406	120.44
402.63	106.44
402.854	91.44
403.078	77.44
403.302	92.44
403.526	98.44
403.75	99.44
403.974	82.44
404.198	89.44
404.422	77.44
404.645	93.44
404.869	86.44
405.093	91.44
405.317	91.44
405.541	93.44
405.765	92.44
405.988	109.44
406.212	134.44
406.436	157.44
406.66	121.44
406.883	83.44
407.107	89.44
407.331	98.44
407.555	88.44
407.778	99.44
408.002	76.44
408.226	95.44
408.449	86.44
408.673	97.44
408.896	92.44
409.12	90.44
409.344	97.44
409.567	89.44
409.791	89.44
410.014	90.44
410.238	92.44
410.461	103.44
410.685	103.44
410.908	99.44
411.132	100.44
411.355	101.44
411.578	105.44
411.802	97.44
412.025	85.44
412.249	83.44
412.472	93.44
412.695	91.44
412.919	80.44
413.142	85.44
413.365	68.44
413.589	88.44
413.812	94.44
414.035	81.44
414.258	106.44
414.482	78.44
414.705	81.44
414.928	97.44
415.151	95.44
415.374	98.44
415.597	98.44
415.821	92.44
416.044	93.44
416.267	86.44
416.49	82.44
416.713	81.44
416.936	81.44
417.159	93.44
417.382	90.44
417.605	85.44
417.828	97.44
418.051	90.44
418.274	89.44
418.497	78.44
418.72	97.44
418.943	92.44
419.166	83.44
419.389	95.44
419.611	88.44
419.834	82.44
420.057	93.44
420.28	116.44
420.503	87.44
420.726	75.44
420.948	89.44
421.171	94.44
421.394	86.44
421.617	87.44
421.839	95.44
422.062	74.44
422.285	97.44
422.507	87.44
422.73	79.44
422.953	100.44
423.175	88.44
423.398	94.44
423.621	102.44
423.843	86.44
424.066	72.44
424.288	94.44
424.511	85.44
424.733	91.44
424.956	89.44
425.178	104.44
425.401	99.44
425.623	98.44
425.846	85.44
426.068	79.44
426.291	76.44
426.513	90.44
426.735	89.44
426.958	84.44
427.18	111.44
427.402	101.44
427.625	126.44
427.847	132.44
428.069	108.44
428.292	84.44
428.514	79.44
428.736	81.44
428.958	83.44
429.181	103.44
429.403	103.44
429.625	87.44
429.847	85.44
430.069	73.44
430.292	86.44
430.514	97.44
430.736	83.44
430.958	92.44
431.18	78.44
431.402	83.44
431.624	97.44
431.846	97.44
432.068	88.44
432.29	85.44
432.512	77.44
432.734	78.44
432.956	84.44
433.178	93.44
433.4	98.44
433.622	100.44
433.844	102.44
434.066	97.44
434.287	87.44
434.509	84.44
434.731	89.44
434.953	87.44
435.175	91.44
435.397	102.44
435.618	94.44
435.84	83.44
436.062	108.44
436.284	103.44
436.505	92.44
436.727	87.44
436.949	88.44
437.17	83.44
437.392	83.44
437.614	99.44
437.835	106.44
438.057	101.44
438.278	107.44
438.5	103.44
438.721	87.44
438.943	96.44
439.165	103.44
439.386	93.44
439.608	95.44
439.829	79.44
440.05	106.44
440.272	122.44
440.493	93.44
440.715	98.44
440.936	72.44
441.158	99.44
441.379	76.44
441.6	90.44
441.822	92.44
442.043	95.44
442.264	100.44
442.486	113.44
442.707	101.44
442.928	95.44
443.149	107.44
443.371	111.44
443.592	109.44
443.813	99.44
444.034	89.44
444.255	96.44
444.476	97.44
444.698	94.44
444.919	79.44
445.14	138.44
445.361	105.44
445.582	100.44
445.803	120.44
446.024	118.44
446.245	115.44
446.466	104.44
446.687	87.44
446.908	82.44
447.129	93.44
447.35	93.44
447.571	97.44
447.792	81.44
448.013	76.44
448.234	87.44
448.455	89.44
448.675	93.44
448.896	98.44
449.117	96.44
449.338	101.44
449.559	120.44
449.779	117.44
450	89.44
450.221	91.44
450.442	94.44
450.662	89.44
450.883	103.44
451.104	110.44
451.324	97.44
451.545	77.44
451.766	83.44
451.986	83.44
452.207	94.44
452.428	104.44
452.648	93.44
452.869	87.44
453.089	95.44
453.31	94.44
453.53	77.44
453.751	96.44
453.971	89.44
454.192	92.44
454.412	87.44
454.633	100.44
454.853	75.44
455.073	79.44
455.294	75.44
455.514	88.44
455.734	103.44
455.955	70.44
456.175	86.44
456.395	92.44
456.616	103.44
456.836	89.44
457.056	76.44
457.276	77.44
457.497	75.44
457.717	90.44
457.937	97.44
458.157	78.44
458.377	89.44
458.598	88.44
458.818	112.44
459.038	143.44
459.258	108.44
459.478	92.44
459.698	87.44
459.918	87.44
460.138	94.44
460.358	92.44
460.578	98.44
460.798	85.44
461.018	78.44
461.238	89.44
461.458	80.44
461.678	83.44
461.898	97.44
462.118	78.44
462.338	82.44
462.558	88.44
462.777	80.44
462.997	85.44
463.217	93.44
463.437	77.44
463.657	86.44
463.876	83.44
464.096	89.44
464.316	98.44
464.536	106.44
464.755	86.44
464.975	89.44
465.195	126.44
465.414	123.44
465.634	104.44
465.854	95.44
466.073	98.44
466.293	71.44
466.512	81.44
466.732	82.44
466.951	93.44
467.171	92.44
467.391	98.44
467.61	91.44
467.829	99.44
468.049	90.44
468.268	91.44
468.488	101.44
468.707	97.44
468.927	74.44
469.146	93.44
469.365	86.44
469.585	83.44
469.804	89.44
470.023	89.44
470.243	90.44
470.462	86.44
470.681	83.44
470.901	89.44
471.12	92.44
471.339	84.44
471.558	97.44
471.777	77.44
471.997	78.44
472.216	107.44
472.435	117.44
472.654	73.44
472.873	75.44
473.092	91.44
473.311	81.44
473.53	79.44
473.749	88.44
473.968	92.44
474.187	88.44
474.406	83.44
474.625	91.44
474.844	94.44
475.063	83.44
475.282	94.44
475.501	85.44
475.72	85.44
475.939	92.44
476.158	95.44
476.377	86.44
476.596	81.44
476.814	81.44
477.033	92.44
477.252	91.44
477.471	83.44
477.69	85.44
477.908	97.44
478.127	78.44
478.346	83.44
478.564	91.44
478.783	86.44
479.002	87.44
479.22	103.44
479.439	105.44
479.658	99.44
479.876	90.44
480.095	87.44
480.313	90.44
480.532	83.44
480.751	83.44
480.969	105.44
481.188	149.44
481.406	123.44
481.624	98.44
481.843	109.44
482.061	100.44
482.28	110.44
482.498	101.44
482.717	73.44
482.935	95.44
483.153	92.44
483.372	80.44
483.59	85.44
483.808	102.44
484.027	87.44
484.245	82.44
484.463	87.44
484.681	83.44
484.9	92.44
485.118	95.44
485.336	100.44
485.554	97.44
485.772	97.44
485.99	103.44
486.209	107.44
486.427	106.44
486.645	85.44
486.863	110.44
487.081	115.44
487.299	101.44
487.517	97.44
487.735	99.44
487.953	68.44
488.171	94.44
488.389	90.44
488.607	89.44
488.825	91.44
489.043	90.44
489.261	94.44
489.479	94.44
489.696	98.44
489.914	80.44
490.132	98.44
490.35	95.44
490.568	94.44
490.786	91.44
491.003	98.44
491.221	87.44
491.439	77.44
491.657	85.44
491.874	94.44
492.092	77.44
492.31	95.44
492.527	77.44
492.745	82.44
492.963	96.44
493.18	71.44
493.398	101.44
493.615	89.44
493.833	95.44
494.05	77.44
494.268	99.44
494.485	85.44
494.703	92.44
494.92	98.44
495.138	95.44
495.355	81.44
495.573	103.44
495.79	87.44
496.008	96.44
496.225	90.44
496.442	89.44
496.66	89.44
496.877	87.44
497.094	89.44
497.312	74.44
497.529	89.44
497.746	99.44
497.963	89.44
498.181	87.44
498.398	100.44
498.615	112.44
498.832	100.44
499.049	106.44
499.267	87.44
499.484	85.44
499.701	93.44
499.918	75.44
500.135	96.44
500.352	82.44
500.569	90.44
500.786	91.44
501.003	109.44
501.22	91.44
501.437	97.44
501.654	94.44
501.871	97.44
502.088	87.44
502.305	83.44
502.522	90.44
502.739	91.44
502.956	86.44
503.172	86.44
503.389	92.44
503.606	97.44
503.823	92.44
504.04	101.44
504.256	81.44
504.473	77.44
504.69	90.44
504.907	99.44
505.123	97.44
505.34	86.44
505.557	90.44
505.773	93.44
505.99	81.44
506.207	79.44
506.423	91.44
506.64	92.44
506.856	96.44
507.073	92.44
507.289	98.44
507.506	98.44
507.722	103.44
507.939	92.44
508.155	101.44
508.372	77.44
508.588	92.44
508.805	97.44
509.021	102.44
509.238	107.44
509.454	99.44
509.67	90.44
509.887	109.44
510.103	114.44
510.319	146.44
510.536	508.44
510.752	1381.44
510.968	398.44
511.184	118.44
511.401	91.44
511.617	93.44
511.833	93.44
512.049	87.44
512.265	85.44
512.481	101.44
512.698	106.44
512.914	78.44
513.13	90.44
513.346	93.44
513.562	81.44
513.778	99.44
513.994	105.44
514.21	102.44
514.426	112.44
514.642	97.44
514.858	104.44
515.074	116.44
515.29	294.44
515.506	831.44
515.721	309.44
515.937	132.44
516.153	102.44
