Data from Circ_1982_H10_HRD10591_00079.txt Node
Date: Wed Jan 03 12:30:57 EST 2024
User: Yrep
Spectrometer: HR+D1059
Trigger mode: 1
Integration Time (sec): 1.000000E-1
Scans to average: 1
Electric dark correction enabled: true
Nonlinearity correction enabled: false
Boxcar width: 0
XAxis mode: Wavelengths
Number of Pixels in Spectrum: 2048
>>>>>Begin Spectral Data<<<<<
223.165	-13.5
223.4	-13.5
223.635	-13.5
223.869	-15.5
224.104	-18.5
224.338	-7.5
224.573	-15.5
224.808	-16.5
225.042	0.5
225.277	0.5
225.511	-1.5
225.746	-3.5
225.98	4.5
226.215	2.5
226.449	23.5
226.683	20.5
226.918	11.5
227.152	28.5
227.387	35.5
227.621	35.5
227.856	33.5
228.09	53.5
228.324	51.5
228.559	57.5
228.793	50.5
229.027	60.5
229.262	59.5
229.496	68.5
229.73	86.5
229.964	80.5
230.199	70.5
230.433	65.5
230.667	83.5
230.901	72.5
231.136	78.5
231.37	86.5
231.604	72.5
231.838	62.5
232.072	85.5
232.306	84.5
232.541	66.5
232.775	84.5
233.009	74.5
233.243	82.5
233.477	80.5
233.711	79.5
233.945	83.5
234.179	64.5
234.413	85.5
234.647	86.5
234.881	82.5
235.115	53.5
235.349	70.5
235.583	61.5
235.817	64.5
236.051	64.5
236.285	65.5
236.519	86.5
236.753	82.5
236.987	88.5
237.221	88.5
237.455	82.5
237.689	66.5
237.922	62.5
238.156	70.5
238.39	76.5
238.624	73.5
238.858	72.5
239.091	85.5
239.325	78.5
239.559	71.5
239.793	84.5
240.027	79.5
240.26	80.5
240.494	73.5
240.728	71.5
240.961	78.5
241.195	79.5
241.429	88.5
241.662	72.5
241.896	66.5
242.13	75.5
242.363	76.5
242.597	67.5
242.83	75.5
243.064	75.5
243.298	60.5
243.531	70.5
243.765	74.5
243.998	79.5
244.232	84.5
244.465	92.5
244.699	75.5
244.932	70.5
245.166	73.5
245.399	80.5
245.633	56.5
245.866	71.5
246.099	70.5
246.333	72.5
246.566	65.5
246.8	78.5
247.033	82.5
247.266	80.5
247.5	77.5
247.733	84.5
247.966	80.5
248.2	74.5
248.433	77.5
248.666	74.5
248.899	69.5
249.133	88.5
249.366	95.5
249.599	89.5
249.832	75.5
250.066	82.5
250.299	83.5
250.532	73.5
250.765	76.5
250.998	95.5
251.231	68.5
251.465	70.5
251.698	78.5
251.931	76.5
252.164	64.5
252.397	66.5
252.63	81.5
252.863	79.5
253.096	82.5
253.329	80.5
253.562	87.5
253.795	79.5
254.028	78.5
254.261	80.5
254.494	63.5
254.727	84.5
254.96	88.5
255.193	69.5
255.426	70.5
255.659	84.5
255.892	84.5
256.124	83.5
256.357	80.5
256.59	94.5
256.823	75.5
257.056	85.5
257.289	86.5
257.521	79.5
257.754	81.5
257.987	76.5
258.22	84.5
258.452	74.5
258.685	78.5
258.918	75.5
259.151	88.5
259.383	87.5
259.616	74.5
259.849	91.5
260.081	82.5
260.314	73.5
260.547	74.5
260.779	76.5
261.012	78.5
261.244	77.5
261.477	82.5
261.71	100.5
261.942	100.5
262.175	111.5
262.407	89.5
262.64	83.5
262.872	87.5
263.105	70.5
263.337	84.5
263.57	86.5
263.802	84.5
264.035	84.5
264.267	64.5
264.499	88.5
264.732	82.5
264.964	81.5
265.197	82.5
265.429	90.5
265.661	76.5
265.894	88.5
266.126	79.5
266.358	87.5
266.591	86.5
266.823	75.5
267.055	88.5
267.287	70.5
267.52	86.5
267.752	81.5
267.984	83.5
268.216	88.5
268.448	76.5
268.681	97.5
268.913	88.5
269.145	83.5
269.377	78.5
269.609	73.5
269.841	89.5
270.073	92.5
270.306	71.5
270.538	80.5
270.77	79.5
271.002	95.5
271.234	78.5
271.466	82.5
271.698	88.5
271.93	83.5
272.162	64.5
272.394	86.5
272.626	86.5
272.858	79.5
273.09	82.5
273.322	87.5
273.553	87.5
273.785	79.5
274.017	82.5
274.249	81.5
274.481	78.5
274.713	78.5
274.945	95.5
275.176	87.5
275.408	83.5
275.64	86.5
275.872	78.5
276.104	88.5
276.335	90.5
276.567	90.5
276.799	105.5
277.031	85.5
277.262	91.5
277.494	83.5
277.726	82.5
277.957	86.5
278.189	82.5
278.421	72.5
278.652	73.5
278.884	86.5
279.115	91.5
279.347	66.5
279.579	83.5
279.81	89.5
280.042	74.5
280.273	81.5
280.505	81.5
280.736	81.5
280.968	87.5
281.199	82.5
281.431	71.5
281.662	86.5
281.894	98.5
282.125	96.5
282.356	106.5
282.588	126.5
282.819	86.5
283.051	72.5
283.282	93.5
283.513	96.5
283.745	89.5
283.976	92.5
284.207	86.5
284.439	78.5
284.67	92.5
284.901	97.5
285.132	88.5
285.364	84.5
285.595	99.5
285.826	72.5
286.057	82.5
286.288	82.5
286.52	83.5
286.751	78.5
286.982	84.5
287.213	83.5
287.444	77.5
287.675	87.5
287.906	94.5
288.138	94.5
288.369	88.5
288.6	91.5
288.831	96.5
289.062	74.5
289.293	80.5
289.524	89.5
289.755	94.5
289.986	87.5
290.217	95.5
290.448	98.5
290.679	71.5
290.91	84.5
291.141	92.5
291.371	87.5
291.602	74.5
291.833	85.5
292.064	81.5
292.295	86.5
292.526	80.5
292.757	91.5
292.987	95.5
293.218	95.5
293.449	84.5
293.68	94.5
293.91	96.5
294.141	99.5
294.372	84.5
294.603	91.5
294.833	86.5
295.064	81.5
295.295	89.5
295.525	100.5
295.756	86.5
295.987	110.5
296.217	107.5
296.448	111.5
296.679	98.5
296.909	76.5
297.14	94.5
297.37	89.5
297.601	105.5
297.831	86.5
298.062	89.5
298.292	80.5
298.523	101.5
298.753	87.5
298.984	71.5
299.214	92.5
299.445	84.5
299.675	84.5
299.905	92.5
300.136	86.5
300.366	83.5
300.597	71.5
300.827	83.5
301.057	90.5
301.288	85.5
301.518	98.5
301.748	70.5
301.979	96.5
302.209	71.5
302.439	82.5
302.669	74.5
302.9	94.5
303.13	82.5
303.36	94.5
303.59	91.5
303.82	111.5
304.051	112.5
304.281	99.5
304.511	92.5
304.741	84.5
304.971	91.5
305.201	78.5
305.431	83.5
305.661	90.5
305.891	103.5
306.121	83.5
306.352	88.5
306.582	98.5
306.812	107.5
307.042	81.5
307.272	100.5
307.502	98.5
307.731	84.5
307.961	90.5
308.191	86.5
308.421	81.5
308.651	84.5
308.881	82.5
309.111	87.5
309.341	90.5
309.571	92.5
309.8	78.5
310.03	83.5
310.26	96.5
310.49	106.5
310.72	102.5
310.949	102.5
311.179	102.5
311.409	89.5
311.639	95.5
311.868	76.5
312.098	94.5
312.328	85.5
312.557	100.5
312.787	97.5
313.017	85.5
313.246	94.5
313.476	83.5
313.706	94.5
313.935	83.5
314.165	90.5
314.394	94.5
314.624	85.5
314.853	98.5
315.083	83.5
315.312	88.5
315.542	95.5
315.771	83.5
316.001	92.5
316.23	97.5
316.46	91.5
316.689	83.5
316.919	88.5
317.148	92.5
317.377	99.5
317.607	86.5
317.836	81.5
318.065	96.5
318.295	88.5
318.524	94.5
318.753	95.5
318.983	70.5
319.212	84.5
319.441	99.5
319.67	89.5
319.9	107.5
320.129	95.5
320.358	80.5
320.587	84.5
320.816	99.5
321.046	96.5
321.275	92.5
321.504	101.5
321.733	83.5
321.962	96.5
322.191	107.5
322.42	105.5
322.649	106.5
322.878	105.5
323.108	104.5
323.337	113.5
323.566	104.5
323.795	138.5
324.024	164.5
324.253	299.5
324.482	634.5
324.71	1254.5
324.939	1666.5
325.168	616.5
325.397	202.5
325.626	142.5
325.855	129.5
326.084	117.5
326.313	120.5
326.542	125.5
326.77	176.5
326.999	359.5
327.228	682.5
327.457	1303.5
327.686	1036.5
327.914	294.5
328.143	163.5
328.372	135.5
328.6	106.5
328.829	102.5
329.058	113.5
329.287	114.5
329.515	95.5
329.744	100.5
329.972	102.5
330.201	120.5
330.43	116.5
330.658	120.5
330.887	116.5
331.115	115.5
331.344	102.5
331.572	98.5
331.801	91.5
332.03	108.5
332.258	90.5
332.486	104.5
332.715	90.5
332.943	83.5
333.172	80.5
333.4	88.5
333.629	91.5
333.857	90.5
334.085	90.5
334.314	117.5
334.542	122.5
334.771	119.5
334.999	88.5
335.227	82.5
335.455	89.5
335.684	87.5
335.912	104.5
336.14	90.5
336.369	91.5
336.597	90.5
336.825	90.5
337.053	92.5
337.281	94.5
337.51	84.5
337.738	98.5
337.966	96.5
338.194	98.5
338.422	91.5
338.65	90.5
338.878	100.5
339.106	96.5
339.334	84.5
339.562	76.5
339.79	73.5
340.018	84.5
340.246	88.5
340.474	95.5
340.702	91.5
340.93	75.5
341.158	85.5
341.386	89.5
341.614	79.5
341.842	87.5
342.07	98.5
342.298	88.5
342.526	104.5
342.754	82.5
342.981	78.5
343.209	82.5
343.437	95.5
343.665	82.5
343.893	92.5
344.12	101.5
344.348	104.5
344.576	104.5
344.804	90.5
345.031	96.5
345.259	97.5
345.487	84.5
345.714	108.5
345.942	81.5
346.17	83.5
346.397	85.5
346.625	100.5
346.853	97.5
347.08	97.5
347.308	98.5
347.535	100.5
347.763	98.5
347.99	90.5
348.218	90.5
348.445	97.5
348.673	101.5
348.9	86.5
349.128	96.5
349.355	88.5
349.583	95.5
349.81	98.5
350.037	97.5
350.265	95.5
350.492	98.5
350.72	93.5
350.947	95.5
351.174	86.5
351.402	111.5
351.629	104.5
351.856	91.5
352.083	101.5
352.311	111.5
352.538	102.5
352.765	106.5
352.992	111.5
353.22	102.5
353.447	100.5
353.674	95.5
353.901	99.5
354.128	90.5
354.355	97.5
354.583	95.5
354.81	79.5
355.037	93.5
355.264	82.5
355.491	97.5
355.718	92.5
355.945	98.5
356.172	96.5
356.399	87.5
356.626	88.5
356.853	106.5
357.08	88.5
357.307	87.5
357.534	92.5
357.761	93.5
357.988	96.5
358.215	107.5
358.441	108.5
358.668	85.5
358.895	91.5
359.122	86.5
359.349	99.5
359.576	102.5
359.802	80.5
360.029	106.5
360.256	98.5
360.483	104.5
360.709	93.5
360.936	87.5
361.163	102.5
361.39	70.5
361.616	81.5
361.843	80.5
362.07	92.5
362.296	87.5
362.523	71.5
362.749	92.5
362.976	85.5
363.203	94.5
363.429	91.5
363.656	82.5
363.882	78.5
364.109	99.5
364.335	87.5
364.562	79.5
364.788	84.5
365.015	83.5
365.241	112.5
365.468	86.5
365.694	89.5
365.92	104.5
366.147	94.5
366.373	88.5
366.599	100.5
366.826	90.5
367.052	99.5
367.278	97.5
367.505	83.5
367.731	88.5
367.957	91.5
368.184	87.5
368.41	83.5
368.636	104.5
368.862	108.5
369.089	87.5
369.315	98.5
369.541	59.5
369.767	84.5
369.993	95.5
370.219	90.5
370.445	86.5
370.672	97.5
370.898	86.5
371.124	82.5
371.35	79.5
371.576	93.5
371.802	89.5
372.028	90.5
372.254	87.5
372.48	77.5
372.706	82.5
372.932	80.5
373.158	88.5
373.384	87.5
373.61	84.5
373.835	88.5
374.061	70.5
374.287	91.5
374.513	94.5
374.739	87.5
374.965	88.5
375.191	88.5
375.416	101.5
375.642	92.5
375.868	92.5
376.094	76.5
376.319	83.5
376.545	75.5
376.771	88.5
376.997	94.5
377.222	80.5
377.448	84.5
377.674	79.5
377.899	81.5
378.125	88.5
378.35	90.5
378.576	99.5
378.802	91.5
379.027	79.5
379.253	93.5
379.478	90.5
379.704	82.5
379.929	76.5
380.155	92.5
380.38	100.5
380.606	89.5
380.831	80.5
381.057	97.5
381.282	79.5
381.507	92.5
381.733	94.5
381.958	85.5
382.184	82.5
382.409	92.5
382.634	91.5
382.86	86.5
383.085	78.5
383.31	94.5
383.535	99.5
383.761	84.5
383.986	96.5
384.211	89.5
384.436	87.5
384.662	83.5
384.887	92.5
385.112	101.5
385.337	99.5
385.562	108.5
385.787	96.5
386.013	99.5
386.238	105.5
386.463	111.5
386.688	106.5
386.913	103.5
387.138	100.5
387.363	92.5
387.588	78.5
387.813	110.5
388.038	81.5
388.263	98.5
388.488	106.5
388.713	106.5
388.938	93.5
389.163	85.5
389.387	86.5
389.612	96.5
389.837	77.5
390.062	94.5
390.287	86.5
390.512	89.5
390.736	73.5
390.961	104.5
391.186	88.5
391.411	80.5
391.636	81.5
391.86	78.5
392.085	82.5
392.31	92.5
392.534	87.5
392.759	68.5
392.984	90.5
393.208	90.5
393.433	85.5
393.658	85.5
393.882	75.5
394.107	91.5
394.331	86.5
394.556	88.5
394.78	83.5
395.005	74.5
395.229	71.5
395.454	75.5
395.678	88.5
395.903	90.5
396.127	86.5
396.352	92.5
396.576	84.5
396.801	85.5
397.025	90.5
397.249	82.5
397.474	82.5
397.698	74.5
397.922	95.5
398.147	95.5
398.371	71.5
398.595	83.5
398.82	80.5
399.044	84.5
399.268	93.5
399.492	88.5
399.717	81.5
399.941	73.5
400.165	86.5
400.389	88.5
400.613	97.5
400.837	85.5
401.062	79.5
401.286	95.5
401.51	87.5
401.734	88.5
401.958	97.5
402.182	110.5
402.406	126.5
402.63	116.5
402.854	94.5
403.078	98.5
403.302	94.5
403.526	94.5
403.75	92.5
403.974	93.5
404.198	80.5
404.422	75.5
404.645	83.5
404.869	73.5
405.093	102.5
405.317	87.5
405.541	101.5
405.765	98.5
405.988	101.5
406.212	138.5
406.436	181.5
406.66	123.5
406.883	94.5
407.107	90.5
407.331	90.5
407.555	95.5
407.778	87.5
408.002	87.5
408.226	75.5
408.449	83.5
408.673	78.5
408.896	87.5
409.12	80.5
409.344	76.5
409.567	88.5
409.791	90.5
410.014	104.5
410.238	83.5
410.461	82.5
410.685	90.5
410.908	85.5
411.132	105.5
411.355	95.5
411.578	75.5
411.802	90.5
412.025	94.5
412.249	94.5
412.472	96.5
412.695	92.5
412.919	81.5
413.142	82.5
413.365	75.5
413.589	91.5
413.812	88.5
414.035	98.5
414.258	80.5
414.482	87.5
414.705	87.5
414.928	83.5
415.151	94.5
415.374	82.5
415.597	68.5
415.821	80.5
416.044	83.5
416.267	81.5
416.49	82.5
416.713	76.5
416.936	97.5
417.159	63.5
417.382	82.5
417.605	85.5
417.828	93.5
418.051	102.5
418.274	97.5
418.497	95.5
418.72	88.5
418.943	90.5
419.166	75.5
419.389	97.5
419.611	92.5
419.834	75.5
420.057	80.5
420.28	88.5
420.503	83.5
420.726	96.5
420.948	94.5
421.171	92.5
421.394	86.5
421.617	95.5
421.839	72.5
422.062	100.5
422.285	86.5
422.507	105.5
422.73	112.5
422.953	97.5
423.175	84.5
423.398	90.5
423.621	91.5
423.843	78.5
424.066	70.5
424.288	88.5
424.511	85.5
424.733	82.5
424.956	97.5
425.178	90.5
425.401	99.5
425.623	98.5
425.846	92.5
426.068	100.5
426.291	84.5
426.513	88.5
426.735	91.5
426.958	85.5
427.18	92.5
427.402	118.5
427.625	132.5
427.847	121.5
428.069	107.5
428.292	81.5
428.514	80.5
428.736	77.5
428.958	82.5
429.181	82.5
429.403	86.5
429.625	90.5
429.847	84.5
430.069	93.5
430.292	90.5
430.514	86.5
430.736	81.5
430.958	90.5
431.18	76.5
431.402	84.5
431.624	78.5
431.846	95.5
432.068	76.5
432.29	88.5
432.512	96.5
432.734	87.5
432.956	81.5
433.178	99.5
433.4	97.5
433.622	96.5
433.844	95.5
434.066	88.5
434.287	93.5
434.509	89.5
434.731	78.5
434.953	79.5
435.175	92.5
435.397	83.5
435.618	96.5
435.84	113.5
436.062	126.5
436.284	90.5
436.505	98.5
436.727	102.5
436.949	97.5
437.17	91.5
437.392	91.5
437.614	91.5
437.835	91.5
438.057	118.5
438.278	105.5
438.5	98.5
438.721	102.5
438.943	101.5
439.165	90.5
439.386	73.5
439.608	87.5
439.829	89.5
440.05	108.5
440.272	110.5
440.493	91.5
440.715	71.5
440.936	82.5
441.158	93.5
441.379	92.5
441.6	90.5
441.822	92.5
442.043	95.5
442.264	86.5
442.486	95.5
442.707	86.5
442.928	96.5
443.149	110.5
443.371	111.5
443.592	94.5
443.813	114.5
444.034	96.5
444.255	90.5
444.476	94.5
444.698	85.5
444.919	87.5
445.14	148.5
445.361	115.5
445.582	90.5
445.803	134.5
446.024	124.5
446.245	122.5
446.466	114.5
446.687	82.5
446.908	86.5
447.129	91.5
447.35	101.5
447.571	85.5
447.792	90.5
448.013	92.5
448.234	89.5
448.455	97.5
448.675	112.5
448.896	107.5
449.117	81.5
449.338	90.5
449.559	133.5
449.779	123.5
450	99.5
450.221	97.5
450.442	89.5
450.662	92.5
450.883	101.5
451.104	108.5
451.324	89.5
451.545	80.5
451.766	109.5
451.986	78.5
452.207	84.5
452.428	101.5
452.648	81.5
452.869	103.5
453.089	99.5
453.31	97.5
453.53	87.5
453.751	104.5
453.971	97.5
454.192	96.5
454.412	98.5
454.633	86.5
454.853	94.5
455.073	83.5
455.294	99.5
455.514	91.5
455.734	91.5
455.955	90.5
456.175	80.5
456.395	94.5
456.616	73.5
456.836	86.5
457.056	84.5
457.276	72.5
457.497	91.5
457.717	80.5
457.937	70.5
458.157	84.5
458.377	75.5
458.598	105.5
458.818	135.5
459.038	137.5
459.258	105.5
459.478	86.5
459.698	88.5
459.918	87.5
460.138	86.5
460.358	95.5
460.578	80.5
460.798	84.5
461.018	91.5
461.238	89.5
461.458	87.5
461.678	79.5
461.898	77.5
462.118	67.5
462.338	80.5
462.558	75.5
462.777	70.5
462.997	86.5
463.217	88.5
463.437	100.5
463.657	80.5
463.876	73.5
464.096	84.5
464.316	94.5
464.536	100.5
464.755	96.5
464.975	116.5
465.195	138.5
465.414	125.5
465.634	98.5
465.854	81.5
466.073	79.5
466.293	82.5
466.512	93.5
466.732	84.5
466.951	78.5
467.171	83.5
467.391	95.5
467.61	88.5
467.829	98.5
468.049	94.5
468.268	101.5
468.488	84.5
468.707	92.5
468.927	92.5
469.146	106.5
469.365	85.5
469.585	91.5
469.804	92.5
470.023	84.5
470.243	89.5
470.462	88.5
470.681	95.5
470.901	79.5
471.12	90.5
471.339	84.5
471.558	70.5
471.777	105.5
471.997	96.5
472.216	102.5
472.435	133.5
472.654	99.5
472.873	85.5
473.092	82.5
473.311	82.5
473.53	100.5
473.749	87.5
473.968	94.5
474.187	90.5
474.406	73.5
474.625	90.5
474.844	84.5
475.063	79.5
475.282	84.5
475.501	79.5
475.72	98.5
475.939	82.5
476.158	81.5
476.377	87.5
476.596	83.5
476.814	91.5
477.033	85.5
477.252	76.5
477.471	88.5
477.69	82.5
477.908	82.5
478.127	103.5
478.346	82.5
478.564	88.5
478.783	103.5
479.002	100.5
479.22	85.5
479.439	87.5
479.658	93.5
479.876	90.5
480.095	94.5
480.313	78.5
480.532	94.5
480.751	95.5
480.969	103.5
481.188	174.5
481.406	113.5
481.624	79.5
481.843	86.5
482.061	86.5
482.28	86.5
482.498	89.5
482.717	89.5
482.935	87.5
483.153	93.5
483.372	88.5
483.59	89.5
483.808	92.5
484.027	83.5
484.245	83.5
484.463	95.5
484.681	86.5
484.9	97.5
485.118	98.5
485.336	90.5
485.554	92.5
485.772	86.5
485.99	103.5
486.209	120.5
486.427	91.5
486.645	102.5
486.863	112.5
487.081	87.5
487.299	97.5
487.517	105.5
487.735	105.5
487.953	85.5
488.171	92.5
488.389	84.5
488.607	109.5
488.825	90.5
489.043	89.5
489.261	75.5
489.479	88.5
489.696	106.5
489.914	88.5
490.132	100.5
490.35	88.5
490.568	74.5
490.786	90.5
491.003	87.5
491.221	78.5
491.439	94.5
491.657	84.5
491.874	80.5
492.092	95.5
492.31	96.5
492.527	80.5
492.745	95.5
492.963	91.5
493.18	102.5
493.398	102.5
493.615	74.5
493.833	88.5
494.05	97.5
494.268	95.5
494.485	92.5
494.703	88.5
494.92	83.5
495.138	91.5
495.355	91.5
495.573	100.5
495.79	84.5
496.008	88.5
496.225	100.5
496.442	79.5
496.66	101.5
496.877	73.5
497.094	104.5
497.312	94.5
497.529	90.5
497.746	91.5
497.963	88.5
498.181	84.5
498.398	82.5
498.615	99.5
498.832	91.5
499.049	96.5
499.267	90.5
499.484	93.5
499.701	93.5
499.918	73.5
500.135	88.5
500.352	76.5
500.569	92.5
500.786	90.5
501.003	99.5
501.22	94.5
501.437	79.5
501.654	96.5
501.871	94.5
502.088	79.5
502.305	89.5
502.522	93.5
502.739	90.5
502.956	85.5
503.172	100.5
503.389	97.5
503.606	88.5
503.823	79.5
504.04	100.5
504.256	95.5
504.473	87.5
504.69	92.5
504.907	96.5
505.123	81.5
505.34	78.5
505.557	94.5
505.773	89.5
505.99	88.5
506.207	79.5
506.423	88.5
506.64	100.5
506.856	82.5
507.073	89.5
507.289	94.5
507.506	84.5
507.722	95.5
507.939	100.5
508.155	97.5
508.372	84.5
508.588	93.5
508.805	94.5
509.021	90.5
509.238	106.5
509.454	101.5
509.67	87.5
509.887	101.5
510.103	112.5
510.319	191.5
510.536	599.5
510.752	1791.5
510.968	500.5
511.184	134.5
511.401	109.5
511.617	93.5
511.833	103.5
512.049	86.5
512.265	91.5
512.481	80.5
512.698	94.5
512.914	90.5
513.13	84.5
513.346	83.5
513.562	111.5
513.778	97.5
513.994	95.5
514.21	92.5
514.426	99.5
514.642	131.5
514.858	109.5
515.074	144.5
515.29	348.5
515.506	1051.5
515.721	406.5
515.937	128.5
516.153	97.5
516.369	97.5
516.585	85.5
516.801	99.5
517.016	95.5
517.232	96.5
517.448	86.5
517.664	89.5
517.879	100.5
518.095	78.5
518.311	90.5
518.527	93.5
518.742	104.5
518.958	97.5
519.173	107.5
519.389	80.5
519.605	80.5
519.82	87.5
520.036	102.5
520.251	102.5
520.467	106.5
520.682	105.5
520.898	95.5
521.113	107.5
521.329	114.5
521.544	157.5
521.76	424.5
521.975	1729.5
522.19	1032.5
522.406	224.5
522.621	124.5
522.836	100.5
523.052	99.5
523.267	88.5
523.482	85.5
523.698	76.5
523.913	102.5
524.128	99.5
524.343	87.5
524.559	92.5
524.774	87.5
524.989	90.5
525.204	120.5
525.419	84.5
525.634	98.5
525.849	87.5
526.064	80.5
526.28	81.5
526.495	96.5
526.71	86.5
526.925	85.5
527.14	83.5
527.355	91.5
527.57	83.5
527.785	89.5
527.999	66.5
528.214	85.5
528.429	92.5
528.644	86.5
528.859	90.5
529.074	94.5
529.289	110.5
529.503	141.5
529.718	93.5
529.933	103.5
530.148	91.5
530.363	80.5
530.577	100.5
530.792	86.5
531.007	84.5
531.221	93.5
531.436	93.5
531.651	79.5
531.865	98.5
532.08	87.5
532.295	100.5
532.509	97.5
532.724	73.5
532.938	85.5
533.153	85.5
533.367	81.5
533.582	92.5
533.796	94.5
534.011	79.5
534.225	82.5
534.44	94.5
534.654	97.5
534.868	82.5
535.083	86.5
535.297	89.5
535.511	101.5
535.726	108.5
535.94	89.5
536.154	97.5
536.369	90.5
536.583	85.5
536.797	88.5
