Data from Circ_1982_H10_HRD10591_00018.txt Node
Date: Wed Jan 03 12:30:44 EST 2024
User: Yrep
Spectrometer: HR+D1059
Trigger mode: 1
Integration Time (sec): 1.000000E-1
Scans to average: 1
Electric dark correction enabled: true
Nonlinearity correction enabled: false
Boxcar width: 0
XAxis mode: Wavelengths
Number of Pixels in Spectrum: 2048
>>>>>Begin Spectral Data<<<<<
223.165	-21.56
223.4	-21.56
223.635	-21.56
223.869	-20.56
224.104	-18.56
224.338	-10.56
224.573	-19.56
224.808	-14.56
225.042	-1.56
225.277	-8.56
225.511	-1.56
225.746	7.44
225.98	10.44
226.215	1.44
226.449	5.44
226.683	22.44
226.918	31.44
227.152	38.44
227.387	25.44
227.621	45.44
227.856	46.44
228.09	39.44
228.324	43.44
228.559	52.44
228.793	56.44
229.027	59.44
229.262	75.44
229.496	88.44
229.73	75.44
229.964	62.44
230.199	67.44
230.433	64.44
230.667	75.44
230.901	58.44
231.136	78.44
231.37	84.44
231.604	71.44
231.838	80.44
232.072	77.44
232.306	92.44
232.541	96.44
232.775	79.44
233.009	72.44
233.243	84.44
233.477	81.44
233.711	75.44
233.945	75.44
234.179	72.44
234.413	78.44
234.647	75.44
234.881	76.44
235.115	86.44
235.349	97.44
235.583	76.44
235.817	67.44
236.051	75.44
236.285	83.44
236.519	78.44
236.753	64.44
236.987	73.44
237.221	79.44
237.455	76.44
237.689	78.44
237.922	76.44
238.156	69.44
238.39	71.44
238.624	80.44
238.858	69.44
239.091	71.44
239.325	82.44
239.559	70.44
239.793	71.44
240.027	72.44
240.26	71.44
240.494	89.44
240.728	82.44
240.961	74.44
241.195	69.44
241.429	83.44
241.662	80.44
241.896	90.44
242.13	67.44
242.363	82.44
242.597	68.44
242.83	75.44
243.064	84.44
243.298	67.44
243.531	76.44
243.765	82.44
243.998	65.44
244.232	78.44
244.465	77.44
244.699	74.44
244.932	82.44
245.166	71.44
245.399	71.44
245.633	74.44
245.866	71.44
246.099	78.44
246.333	86.44
246.566	57.44
246.8	80.44
247.033	85.44
247.266	65.44
247.5	89.44
247.733	87.44
247.966	74.44
248.2	68.44
248.433	70.44
248.666	74.44
248.899	79.44
249.133	69.44
249.366	87.44
249.599	98.44
249.832	75.44
250.066	83.44
250.299	88.44
250.532	76.44
250.765	79.44
250.998	70.44
251.231	80.44
251.465	81.44
251.698	78.44
251.931	79.44
252.164	78.44
252.397	59.44
252.63	93.44
252.863	59.44
253.096	73.44
253.329	84.44
253.562	82.44
253.795	88.44
254.028	83.44
254.261	63.44
254.494	62.44
254.727	78.44
254.96	75.44
255.193	71.44
255.426	65.44
255.659	85.44
255.892	75.44
256.124	75.44
256.357	85.44
256.59	70.44
256.823	73.44
257.056	66.44
257.289	75.44
257.521	88.44
257.754	80.44
257.987	71.44
258.22	75.44
258.452	74.44
258.685	62.44
258.918	73.44
259.151	66.44
259.383	87.44
259.616	82.44
259.849	77.44
260.081	82.44
260.314	86.44
260.547	84.44
260.779	81.44
261.012	71.44
261.244	73.44
261.477	86.44
261.71	86.44
261.942	97.44
262.175	104.44
262.407	90.44
262.64	83.44
262.872	60.44
263.105	75.44
263.337	82.44
263.57	93.44
263.802	79.44
264.035	71.44
264.267	84.44
264.499	62.44
264.732	97.44
264.964	86.44
265.197	82.44
265.429	83.44
265.661	86.44
265.894	85.44
266.126	76.44
266.358	91.44
266.591	71.44
266.823	79.44
267.055	75.44
267.287	83.44
267.52	86.44
267.752	86.44
267.984	65.44
268.216	72.44
268.448	74.44
268.681	84.44
268.913	70.44
269.145	72.44
269.377	78.44
269.609	84.44
269.841	78.44
270.073	82.44
270.306	91.44
270.538	84.44
270.77	78.44
271.002	92.44
271.234	90.44
271.466	87.44
271.698	78.44
271.93	86.44
272.162	91.44
272.394	94.44
272.626	75.44
272.858	75.44
273.09	77.44
273.322	80.44
273.553	90.44
273.785	86.44
274.017	71.44
274.249	64.44
274.481	87.44
274.713	87.44
274.945	83.44
275.176	79.44
275.408	87.44
275.64	79.44
275.872	86.44
276.104	98.44
276.335	82.44
276.567	91.44
276.799	78.44
277.031	98.44
277.262	80.44
277.494	82.44
277.726	86.44
277.957	78.44
278.189	74.44
278.421	80.44
278.652	82.44
278.884	87.44
279.115	76.44
279.347	82.44
279.579	70.44
279.81	83.44
280.042	75.44
280.273	78.44
280.505	92.44
280.736	90.44
280.968	86.44
281.199	87.44
281.431	80.44
281.662	74.44
281.894	86.44
282.125	95.44
282.356	95.44
282.588	130.44
282.819	98.44
283.051	92.44
283.282	86.44
283.513	74.44
283.745	95.44
283.976	86.44
284.207	75.44
284.439	85.44
284.67	91.44
284.901	84.44
285.132	80.44
285.364	62.44
285.595	93.44
285.826	76.44
286.057	89.44
286.288	83.44
286.52	74.44
286.751	78.44
286.982	90.44
287.213	80.44
287.444	73.44
287.675	78.44
287.906	90.44
288.138	85.44
288.369	102.44
288.6	102.44
288.831	76.44
289.062	83.44
289.293	86.44
289.524	78.44
289.755	84.44
289.986	75.44
290.217	82.44
290.448	78.44
290.679	100.44
290.91	91.44
291.141	85.44
291.371	74.44
291.602	90.44
291.833	89.44
292.064	92.44
292.295	90.44
292.526	89.44
292.757	98.44
292.987	80.44
293.218	88.44
293.449	80.44
293.68	84.44
293.91	91.44
294.141	87.44
294.372	85.44
294.603	79.44
294.833	85.44
295.064	89.44
295.295	74.44
295.525	74.44
295.756	92.44
295.987	108.44
296.217	120.44
296.448	112.44
296.679	92.44
296.909	88.44
297.14	82.44
297.37	82.44
297.601	71.44
297.831	79.44
298.062	84.44
298.292	82.44
298.523	83.44
298.753	84.44
298.984	83.44
299.214	86.44
299.445	84.44
299.675	95.44
299.905	92.44
300.136	70.44
300.366	75.44
300.597	87.44
300.827	91.44
301.057	100.44
301.288	79.44
301.518	80.44
301.748	89.44
301.979	94.44
302.209	83.44
302.439	80.44
302.669	82.44
302.9	90.44
303.13	91.44
303.36	103.44
303.59	93.44
303.82	85.44
304.051	87.44
304.281	86.44
304.511	87.44
304.741	81.44
304.971	82.44
305.201	101.44
305.431	94.44
305.661	93.44
305.891	83.44
306.121	99.44
306.352	83.44
306.582	120.44
306.812	86.44
307.042	88.44
307.272	84.44
307.502	87.44
307.731	87.44
307.961	92.44
308.191	100.44
308.421	74.44
308.651	94.44
308.881	96.44
309.111	95.44
309.341	96.44
309.571	104.44
309.8	93.44
310.03	80.44
310.26	100.44
310.49	88.44
310.72	95.44
310.949	96.44
311.179	87.44
311.409	94.44
311.639	75.44
311.868	80.44
312.098	95.44
312.328	82.44
312.557	88.44
312.787	74.44
313.017	102.44
313.246	80.44
313.476	82.44
313.706	84.44
313.935	85.44
314.165	96.44
314.394	105.44
314.624	96.44
314.853	93.44
315.083	91.44
315.312	97.44
315.542	90.44
315.771	91.44
316.001	91.44
316.23	103.44
316.46	79.44
316.689	92.44
316.919	100.44
317.148	96.44
317.377	103.44
317.607	74.44
317.836	86.44
318.065	84.44
318.295	97.44
318.524	93.44
318.753	95.44
318.983	75.44
319.212	95.44
319.441	113.44
319.67	92.44
319.9	96.44
320.129	85.44
320.358	86.44
320.587	89.44
320.816	95.44
321.046	104.44
321.275	94.44
321.504	93.44
321.733	82.44
321.962	75.44
322.191	91.44
322.42	103.44
322.649	97.44
322.878	96.44
323.108	115.44
323.337	95.44
323.566	117.44
323.795	112.44
324.024	158.44
324.253	298.44
324.482	552.44
324.71	1126.44
324.939	1434.44
325.168	546.44
325.397	182.44
325.626	126.44
325.855	112.44
326.084	112.44
326.313	114.44
326.542	120.44
326.77	172.44
326.999	328.44
327.228	628.44
327.457	1148.44
327.686	945.44
327.914	266.44
328.143	154.44
328.372	112.44
328.6	86.44
328.829	114.44
329.058	107.44
329.287	115.44
329.515	98.44
329.744	91.44
329.972	91.44
330.201	116.44
330.43	111.44
330.658	106.44
330.887	109.44
331.115	106.44
331.344	86.44
331.572	107.44
331.801	100.44
332.03	108.44
332.258	80.44
332.486	90.44
332.715	95.44
332.943	88.44
333.172	89.44
333.4	97.44
333.629	108.44
333.857	102.44
334.085	97.44
334.314	113.44
334.542	110.44
334.771	104.44
334.999	91.44
335.227	92.44
335.455	97.44
335.684	98.44
335.912	95.44
336.14	87.44
336.369	94.44
336.597	93.44
336.825	93.44
337.053	94.44
337.281	113.44
337.51	91.44
337.738	90.44
337.966	90.44
338.194	67.44
338.422	86.44
338.65	91.44
338.878	86.44
339.106	80.44
339.334	88.44
339.562	91.44
339.79	86.44
340.018	95.44
340.246	87.44
340.474	87.44
340.702	96.44
340.93	80.44
341.158	85.44
341.386	93.44
341.614	89.44
341.842	97.44
342.07	94.44
342.298	88.44
342.526	99.44
342.754	83.44
342.981	79.44
343.209	84.44
343.437	95.44
343.665	91.44
343.893	71.44
344.12	83.44
344.348	80.44
344.576	72.44
344.804	84.44
345.031	94.44
345.259	85.44
345.487	84.44
345.714	96.44
345.942	90.44
346.17	92.44
346.397	87.44
346.625	91.44
346.853	95.44
347.08	105.44
347.308	105.44
347.535	97.44
347.763	92.44
347.99	101.44
348.218	93.44
348.445	104.44
348.673	87.44
348.9	107.44
349.128	99.44
349.355	95.44
349.583	86.44
349.81	84.44
350.037	84.44
350.265	100.44
350.492	95.44
350.72	95.44
350.947	91.44
351.174	88.44
351.402	86.44
351.629	92.44
351.856	92.44
352.083	103.44
352.311	107.44
352.538	94.44
352.765	114.44
352.992	90.44
353.22	103.44
353.447	104.44
353.674	92.44
353.901	95.44
354.128	101.44
354.355	86.44
354.583	74.44
354.81	91.44
355.037	95.44
355.264	94.44
355.491	90.44
355.718	86.44
355.945	87.44
356.172	67.44
356.399	108.44
356.626	80.44
356.853	97.44
357.08	95.44
357.307	98.44
357.534	91.44
357.761	93.44
357.988	87.44
358.215	92.44
358.441	88.44
358.668	108.44
358.895	85.44
359.122	90.44
359.349	86.44
359.576	103.44
359.802	94.44
360.029	98.44
360.256	94.44
360.483	97.44
360.709	80.44
360.936	95.44
361.163	74.44
361.39	92.44
361.616	94.44
361.843	90.44
362.07	98.44
362.296	105.44
362.523	80.44
362.749	89.44
362.976	90.44
363.203	104.44
363.429	82.44
363.656	87.44
363.882	88.44
364.109	80.44
364.335	75.44
364.562	96.44
364.788	84.44
365.015	84.44
365.241	91.44
365.468	91.44
365.694	105.44
365.92	96.44
366.147	84.44
366.373	74.44
366.599	80.44
366.826	90.44
367.052	85.44
367.278	96.44
367.505	78.44
367.731	74.44
367.957	78.44
368.184	96.44
368.41	98.44
368.636	96.44
368.862	97.44
369.089	100.44
369.315	95.44
369.541	97.44
369.767	72.44
369.993	78.44
370.219	83.44
370.445	89.44
370.672	91.44
370.898	87.44
371.124	80.44
371.35	91.44
371.576	94.44
371.802	81.44
372.028	79.44
372.254	80.44
372.48	87.44
372.706	75.44
372.932	82.44
373.158	94.44
373.384	101.44
373.61	84.44
373.835	74.44
374.061	81.44
374.287	96.44
374.513	85.44
374.739	85.44
374.965	89.44
375.191	92.44
375.416	97.44
375.642	70.44
375.868	108.44
376.094	92.44
376.319	94.44
376.545	91.44
376.771	87.44
376.997	89.44
377.222	82.44
377.448	92.44
377.674	94.44
377.899	87.44
378.125	87.44
378.35	85.44
378.576	104.44
378.802	98.44
379.027	91.44
379.253	91.44
379.478	97.44
379.704	96.44
379.929	78.44
380.155	90.44
380.38	101.44
380.606	97.44
380.831	94.44
381.057	81.44
381.282	96.44
381.507	90.44
381.733	108.44
381.958	91.44
382.184	72.44
382.409	97.44
382.634	98.44
382.86	92.44
383.085	102.44
383.31	101.44
383.535	102.44
383.761	115.44
383.986	107.44
384.211	88.44
384.436	99.44
384.662	106.44
384.887	93.44
385.112	91.44
385.337	99.44
385.562	116.44
385.787	111.44
386.013	113.44
386.238	119.44
386.463	114.44
386.688	121.44
386.913	95.44
387.138	97.44
387.363	108.44
387.588	114.44
387.813	98.44
388.038	131.44
388.263	113.44
388.488	94.44
388.713	103.44
388.938	90.44
389.163	96.44
389.387	88.44
389.612	94.44
389.837	88.44
390.062	79.44
390.287	79.44
390.512	97.44
390.736	73.44
390.961	91.44
391.186	98.44
391.411	96.44
391.636	75.44
391.86	84.44
392.085	83.44
392.31	88.44
392.534	72.44
392.759	81.44
392.984	92.44
393.208	95.44
393.433	90.44
393.658	103.44
393.882	84.44
394.107	78.44
394.331	82.44
394.556	82.44
394.78	87.44
395.005	89.44
395.229	106.44
395.454	91.44
395.678	87.44
395.903	82.44
396.127	90.44
396.352	83.44
396.576	88.44
396.801	87.44
397.025	90.44
397.249	90.44
397.474	89.44
397.698	83.44
397.922	88.44
398.147	90.44
398.371	71.44
398.595	73.44
398.82	83.44
399.044	80.44
399.268	82.44
399.492	95.44
399.717	86.44
399.941	80.44
400.165	93.44
400.389	89.44
400.613	100.44
400.837	86.44
401.062	76.44
401.286	64.44
401.51	92.44
401.734	80.44
401.958	100.44
402.182	98.44
402.406	119.44
402.63	97.44
402.854	89.44
403.078	80.44
403.302	88.44
403.526	70.44
403.75	91.44
403.974	84.44
404.198	83.44
404.422	88.44
404.645	89.44
404.869	89.44
405.093	102.44
405.317	92.44
405.541	95.44
405.765	89.44
405.988	107.44
406.212	122.44
406.436	174.44
406.66	96.44
406.883	75.44
407.107	109.44
407.331	93.44
407.555	91.44
407.778	85.44
408.002	68.44
408.226	91.44
408.449	84.44
408.673	76.44
408.896	79.44
409.12	95.44
409.344	71.44
409.567	95.44
409.791	88.44
410.014	95.44
410.238	102.44
410.461	88.44
410.685	92.44
410.908	88.44
411.132	105.44
411.355	100.44
411.578	95.44
411.802	91.44
412.025	84.44
412.249	81.44
412.472	75.44
412.695	86.44
412.919	78.44
413.142	87.44
413.365	84.44
413.589	80.44
413.812	84.44
414.035	83.44
414.258	87.44
414.482	99.44
414.705	83.44
414.928	108.44
415.151	92.44
415.374	81.44
415.597	87.44
415.821	98.44
416.044	90.44
416.267	84.44
416.49	86.44
416.713	92.44
416.936	79.44
417.159	91.44
417.382	81.44
417.605	80.44
417.828	72.44
418.051	65.44
418.274	83.44
418.497	83.44
418.72	88.44
418.943	82.44
419.166	68.44
419.389	82.44
419.611	108.44
419.834	87.44
420.057	87.44
420.28	88.44
420.503	80.44
420.726	75.44
420.948	88.44
421.171	90.44
421.394	89.44
421.617	89.44
421.839	87.44
422.062	88.44
422.285	92.44
422.507	91.44
422.73	97.44
422.953	88.44
423.175	86.44
423.398	82.44
423.621	95.44
423.843	88.44
424.066	90.44
424.288	85.44
424.511	94.44
424.733	90.44
424.956	79.44
425.178	82.44
425.401	88.44
425.623	95.44
425.846	94.44
426.068	87.44
426.291	104.44
426.513	96.44
426.735	90.44
426.958	79.44
427.18	99.44
427.402	107.44
427.625	128.44
427.847	106.44
428.069	88.44
428.292	89.44
428.514	99.44
428.736	94.44
428.958	80.44
429.181	91.44
429.403	89.44
429.625	75.44
429.847	91.44
430.069	82.44
430.292	90.44
430.514	97.44
430.736	98.44
430.958	85.44
431.18	80.44
431.402	85.44
431.624	74.44
431.846	76.44
432.068	87.44
432.29	78.44
432.512	80.44
432.734	88.44
432.956	81.44
433.178	84.44
433.4	92.44
433.622	93.44
433.844	82.44
434.066	87.44
434.287	95.44
434.509	99.44
434.731	97.44
434.953	100.44
435.175	85.44
435.397	102.44
435.618	88.44
435.84	96.44
436.062	100.44
436.284	100.44
436.505	95.44
436.727	92.44
436.949	76.44
437.17	66.44
437.392	78.44
437.614	88.44
437.835	98.44
438.057	101.44
438.278	87.44
438.5	91.44
438.721	107.44
438.943	98.44
439.165	74.44
439.386	79.44
439.608	90.44
439.829	85.44
440.05	98.44
440.272	132.44
440.493	88.44
440.715	81.44
440.936	94.44
441.158	71.44
441.379	97.44
441.6	101.44
441.822	78.44
442.043	98.44
442.264	83.44
442.486	82.44
442.707	88.44
442.928	94.44
443.149	111.44
443.371	105.44
443.592	88.44
443.813	100.44
444.034	97.44
444.255	79.44
444.476	84.44
444.698	91.44
444.919	75.44
445.14	136.44
445.361	114.44
445.582	97.44
445.803	110.44
446.024	98.44
446.245	104.44
446.466	92.44
446.687	67.44
446.908	98.44
447.129	71.44
447.35	96.44
447.571	87.44
447.792	81.44
448.013	108.44
448.234	104.44
448.455	82.44
448.675	101.44
448.896	107.44
449.117	72.44
449.338	82.44
449.559	118.44
449.779	118.44
450	88.44
450.221	88.44
450.442	73.44
450.662	94.44
450.883	88.44
451.104	83.44
451.324	94.44
451.545	90.44
451.766	73.44
451.986	78.44
452.207	102.44
452.428	80.44
452.648	102.44
452.869	90.44
453.089	101.44
453.31	109.44
453.53	99.44
453.751	93.44
453.971	78.44
454.192	89.44
454.412	98.44
454.633	91.44
454.853	66.44
455.073	82.44
455.294	83.44
455.514	100.44
455.734	86.44
455.955	87.44
456.175	80.44
456.395	75.44
456.616	79.44
456.836	99.44
457.056	85.44
457.276	84.44
457.497	75.44
457.717	71.44
457.937	85.44
458.157	74.44
458.377	95.44
458.598	90.44
458.818	116.44
459.038	116.44
459.258	101.44
459.478	73.44
459.698	85.44
459.918	82.44
460.138	87.44
460.358	87.44
460.578	89.44
460.798	95.44
461.018	74.44
461.238	86.44
461.458	80.44
461.678	87.44
461.898	85.44
462.118	94.44
462.338	85.44
462.558	66.44
462.777	68.44
462.997	83.44
463.217	82.44
463.437	87.44
463.657	83.44
463.876	94.44
464.096	75.44
464.316	83.44
464.536	85.44
464.755	80.44
464.975	99.44
465.195	121.44
465.414	139.44
465.634	91.44
465.854	77.44
466.073	87.44
466.293	81.44
466.512	84.44
466.732	97.44
466.951	95.44
467.171	103.44
467.391	96.44
467.61	95.44
467.829	89.44
468.049	92.44
468.268	86.44
468.488	81.44
468.707	87.44
468.927	84.44
469.146	62.44
469.365	80.44
469.585	90.44
469.804	98.44
470.023	94.44
470.243	90.44
470.462	90.44
470.681	92.44
470.901	82.44
471.12	85.44
471.339	82.44
471.558	89.44
471.777	75.44
471.997	74.44
472.216	100.44
472.435	104.44
472.654	89.44
472.873	75.44
473.092	83.44
473.311	86.44
473.53	94.44
473.749	96.44
473.968	92.44
474.187	84.44
474.406	75.44
474.625	96.44
474.844	88.44
475.063	84.44
475.282	81.44
475.501	91.44
475.72	85.44
475.939	72.44
476.158	89.44
476.377	99.44
476.596	97.44
476.814	89.44
477.033	90.44
477.252	92.44
477.471	88.44
477.69	86.44
477.908	95.44
478.127	80.44
478.346	89.44
478.564	90.44
478.783	94.44
479.002	86.44
479.22	80.44
479.439	102.44
479.658	91.44
479.876	82.44
480.095	91.44
480.313	86.44
480.532	84.44
480.751	78.44
480.969	103.44
481.188	158.44
481.406	114.44
481.624	102.44
481.843	90.44
482.061	87.44
482.28	78.44
482.498	89.44
482.717	96.44
482.935	80.44
483.153	89.44
483.372	96.44
483.59	92.44
483.808	90.44
484.027	87.44
484.245	86.44
484.463	95.44
484.681	92.44
484.9	89.44
485.118	99.44
485.336	98.44
485.554	106.44
485.772	98.44
485.99	101.44
486.209	102.44
486.427	94.44
486.645	103.44
486.863	99.44
487.081	95.44
487.299	104.44
487.517	99.44
487.735	76.44
487.953	82.44
488.171	95.44
488.389	89.44
488.607	100.44
488.825	94.44
489.043	74.44
489.261	83.44
489.479	88.44
489.696	70.44
489.914	77.44
490.132	81.44
490.35	92.44
490.568	83.44
490.786	89.44
491.003	83.44
491.221	88.44
491.439	89.44
491.657	95.44
491.874	94.44
492.092	89.44
492.31	94.44
492.527	93.44
492.745	98.44
492.963	83.44
493.18	82.44
493.398	103.44
493.615	87.44
493.833	106.44
494.05	85.44
494.268	83.44
494.485	80.44
494.703	94.44
494.92	86.44
495.138	87.44
495.355	95.44
495.573	94.44
495.79	85.44
496.008	84.44
496.225	92.44
496.442	81.44
496.66	100.44
496.877	90.44
497.094	101.44
497.312	101.44
497.529	96.44
497.746	74.44
497.963	83.44
498.181	86.44
498.398	103.44
498.615	98.44
498.832	105.44
499.049	80.44
499.267	82.44
499.484	68.44
499.701	93.44
499.918	95.44
500.135	70.44
500.352	84.44
500.569	86.44
500.786	96.44
501.003	92.44
501.22	86.44
501.437	87.44
501.654	97.44
501.871	86.44
502.088	81.44
502.305	89.44
502.522	101.44
502.739	81.44
502.956	100.44
503.172	89.44
503.389	89.44
503.606	79.44
503.823	92.44
504.04	78.44
504.256	74.44
504.473	79.44
504.69	86.44
504.907	88.44
505.123	92.44
505.34	85.44
505.557	82.44
505.773	90.44
505.99	98.44
506.207	87.44
506.423	100.44
506.64	85.44
506.856	96.44
507.073	92.44
507.289	85.44
507.506	91.44
507.722	96.44
507.939	105.44
508.155	85.44
508.372	95.44
508.588	89.44
508.805	89.44
509.021	88.44
509.238	102.44
509.454	81.44
509.67	98.44
509.887	111.44
510.103	107.44
510.319	168.44
510.536	535.44
510.752	1558.44
510.968	449.44
511.184	130.44
511.401	106.44
511.617	96.44
511.833	94.44
512.049	82.44
512.265	87.44
512.481	94.44
512.698	86.44
512.914	85.44
513.13	87.44
513.346	74.44
513.562	81.44
513.778	102.44
513.994	97.44
514.21	101.44
514.426	107.44
514.642	102.44
514.858	105.44
515.074	128.44
515.29	300.44
515.506	933.44
515.721	342.44
515.937	117.44
516.153	110.44
516.369	99.44
516.585	88.44
516.801	87.44
517.016	96.44
517.232	94.44
