Data from Circ_1982_H10_HRD10591_00014.txt Node
Date: Wed Jan 03 12:30:44 EST 2024
User: Yrep
Spectrometer: HR+D1059
Trigger mode: 1
Integration Time (sec): 1.000000E-1
Scans to average: 1
Electric dark correction enabled: true
Nonlinearity correction enabled: false
Boxcar width: 0
XAxis mode: Wavelengths
Number of Pixels in Spectrum: 2048
>>>>>Begin Spectral Data<<<<<
223.165	-3.75
223.4	-3.75
223.635	-3.75
223.869	-30.75
224.104	-24.75
224.338	-5.75
224.573	-19.75
224.808	-4.75
225.042	-9.75
225.277	-6.75
225.511	-1.75
225.746	6.25
225.98	-0.75
226.215	-1.75
226.449	0.25
226.683	26.25
226.918	47.25
227.152	30.25
227.387	28.25
227.621	42.25
227.856	29.25
228.09	43.25
228.324	45.25
228.559	55.25
228.793	61.25
229.027	64.25
229.262	70.25
229.496	71.25
229.73	84.25
229.964	70.25
230.199	90.25
230.433	72.25
230.667	85.25
230.901	68.25
231.136	74.25
231.37	86.25
231.604	78.25
231.838	93.25
232.072	76.25
232.306	90.25
232.541	69.25
232.775	72.25
233.009	85.25
233.243	79.25
233.477	74.25
233.711	70.25
233.945	68.25
234.179	75.25
234.413	78.25
234.647	91.25
234.881	84.25
235.115	84.25
235.349	81.25
235.583	108.25
235.817	77.25
236.051	81.25
236.285	74.25
236.519	87.25
236.753	89.25
236.987	75.25
237.221	84.25
237.455	78.25
237.689	73.25
237.922	85.25
238.156	82.25
238.39	76.25
238.624	72.25
238.858	79.25
239.091	85.25
239.325	82.25
239.559	81.25
239.793	69.25
240.027	74.25
240.26	76.25
240.494	79.25
240.728	85.25
240.961	83.25
241.195	92.25
241.429	74.25
241.662	71.25
241.896	79.25
242.13	68.25
242.363	66.25
242.597	66.25
242.83	76.25
243.064	71.25
243.298	87.25
243.531	87.25
243.765	86.25
243.998	81.25
244.232	79.25
244.465	89.25
244.699	87.25
244.932	83.25
245.166	98.25
245.399	92.25
245.633	83.25
245.866	73.25
246.099	87.25
246.333	74.25
246.566	81.25
246.8	85.25
247.033	91.25
247.266	81.25
247.5	67.25
247.733	75.25
247.966	71.25
248.2	85.25
248.433	73.25
248.666	72.25
248.899	95.25
249.133	83.25
249.366	90.25
249.599	82.25
249.832	84.25
250.066	81.25
250.299	83.25
250.532	75.25
250.765	85.25
250.998	76.25
251.231	78.25
251.465	74.25
251.698	73.25
251.931	76.25
252.164	84.25
252.397	84.25
252.63	75.25
252.863	79.25
253.096	83.25
253.329	74.25
253.562	83.25
253.795	91.25
254.028	77.25
254.261	91.25
254.494	72.25
254.727	85.25
254.96	85.25
255.193	85.25
255.426	85.25
255.659	85.25
255.892	82.25
256.124	92.25
256.357	70.25
256.59	89.25
256.823	89.25
257.056	92.25
257.289	90.25
257.521	90.25
257.754	91.25
257.987	75.25
258.22	95.25
258.452	85.25
258.685	81.25
258.918	91.25
259.151	93.25
259.383	67.25
259.616	79.25
259.849	77.25
260.081	84.25
260.314	81.25
260.547	91.25
260.779	87.25
261.012	85.25
261.244	73.25
261.477	86.25
261.71	98.25
261.942	90.25
262.175	88.25
262.407	94.25
262.64	91.25
262.872	84.25
263.105	93.25
263.337	81.25
263.57	86.25
263.802	86.25
264.035	89.25
264.267	78.25
264.499	89.25
264.732	69.25
264.964	78.25
265.197	88.25
265.429	97.25
265.661	89.25
265.894	93.25
266.126	86.25
266.358	93.25
266.591	78.25
266.823	76.25
267.055	82.25
267.287	76.25
267.52	91.25
267.752	81.25
267.984	85.25
268.216	88.25
268.448	71.25
268.681	72.25
268.913	84.25
269.145	90.25
269.377	93.25
269.609	94.25
269.841	86.25
270.073	99.25
270.306	97.25
270.538	70.25
270.77	90.25
271.002	78.25
271.234	88.25
271.466	91.25
271.698	90.25
271.93	85.25
272.162	94.25
272.394	86.25
272.626	83.25
272.858	87.25
273.09	90.25
273.322	86.25
273.553	78.25
273.785	77.25
274.017	83.25
274.249	92.25
274.481	90.25
274.713	85.25
274.945	84.25
275.176	89.25
275.408	86.25
275.64	87.25
275.872	81.25
276.104	79.25
276.335	84.25
276.567	97.25
276.799	82.25
277.031	85.25
277.262	91.25
277.494	96.25
277.726	87.25
277.957	98.25
278.189	75.25
278.421	81.25
278.652	88.25
278.884	73.25
279.115	83.25
279.347	81.25
279.579	90.25
279.81	91.25
280.042	89.25
280.273	88.25
280.505	86.25
280.736	81.25
280.968	95.25
281.199	81.25
281.431	87.25
281.662	81.25
281.894	86.25
282.125	92.25
282.356	110.25
282.588	106.25
282.819	106.25
283.051	95.25
283.282	101.25
283.513	83.25
283.745	83.25
283.976	84.25
284.207	97.25
284.439	97.25
284.67	92.25
284.901	81.25
285.132	83.25
285.364	94.25
285.595	93.25
285.826	89.25
286.057	90.25
286.288	89.25
286.52	85.25
286.751	93.25
286.982	82.25
287.213	94.25
287.444	88.25
287.675	95.25
287.906	97.25
288.138	89.25
288.369	101.25
288.6	83.25
288.831	91.25
289.062	92.25
289.293	86.25
289.524	88.25
289.755	90.25
289.986	78.25
290.217	92.25
290.448	91.25
290.679	91.25
290.91	96.25
291.141	81.25
291.371	92.25
291.602	99.25
291.833	83.25
292.064	86.25
292.295	72.25
292.526	113.25
292.757	78.25
292.987	89.25
293.218	81.25
293.449	90.25
293.68	96.25
293.91	84.25
294.141	107.25
294.372	91.25
294.603	94.25
294.833	90.25
295.064	88.25
295.295	107.25
295.525	98.25
295.756	119.25
295.987	97.25
296.217	116.25
296.448	114.25
296.679	92.25
296.909	85.25
297.14	76.25
297.37	83.25
297.601	86.25
297.831	94.25
298.062	86.25
298.292	101.25
298.523	84.25
298.753	93.25
298.984	83.25
299.214	96.25
299.445	86.25
299.675	85.25
299.905	90.25
300.136	84.25
300.366	101.25
300.597	94.25
300.827	81.25
301.057	94.25
301.288	91.25
301.518	90.25
301.748	87.25
301.979	109.25
302.209	84.25
302.439	91.25
302.669	85.25
302.9	76.25
303.13	90.25
303.36	86.25
303.59	108.25
303.82	101.25
304.051	93.25
304.281	77.25
304.511	98.25
304.741	98.25
304.971	93.25
305.201	93.25
305.431	84.25
305.661	94.25
305.891	87.25
306.121	93.25
306.352	94.25
306.582	100.25
306.812	103.25
307.042	96.25
307.272	90.25
307.502	87.25
307.731	95.25
307.961	81.25
308.191	88.25
308.421	93.25
308.651	89.25
308.881	93.25
309.111	95.25
309.341	92.25
309.571	89.25
309.8	85.25
310.03	103.25
310.26	86.25
310.49	109.25
310.72	97.25
310.949	86.25
311.179	74.25
311.409	92.25
311.639	98.25
311.868	90.25
312.098	90.25
312.328	99.25
312.557	100.25
312.787	104.25
313.017	98.25
313.246	85.25
313.476	90.25
313.706	99.25
313.935	99.25
314.165	101.25
314.394	100.25
314.624	88.25
314.853	93.25
315.083	97.25
315.312	81.25
315.542	76.25
315.771	89.25
316.001	83.25
316.23	70.25
316.46	89.25
316.689	98.25
316.919	101.25
317.148	94.25
317.377	85.25
317.607	113.25
317.836	92.25
318.065	76.25
318.295	95.25
318.524	95.25
318.753	100.25
318.983	89.25
319.212	94.25
319.441	90.25
319.67	98.25
319.9	81.25
320.129	87.25
320.358	101.25
320.587	92.25
320.816	81.25
321.046	91.25
321.275	101.25
321.504	96.25
321.733	102.25
321.962	94.25
322.191	99.25
322.42	106.25
322.649	104.25
322.878	110.25
323.108	111.25
323.337	100.25
323.566	112.25
323.795	129.25
324.024	164.25
324.253	286.25
324.482	569.25
324.71	1101.25
324.939	1412.25
325.168	542.25
325.397	183.25
325.626	117.25
325.855	123.25
326.084	117.25
326.313	113.25
326.542	121.25
326.77	182.25
326.999	316.25
327.228	644.25
327.457	1133.25
327.686	881.25
327.914	270.25
328.143	163.25
328.372	131.25
328.6	93.25
328.829	103.25
329.058	99.25
329.287	121.25
329.515	98.25
329.744	110.25
329.972	124.25
330.201	91.25
330.43	125.25
330.658	98.25
330.887	110.25
331.115	119.25
331.344	94.25
331.572	90.25
331.801	106.25
332.03	97.25
332.258	104.25
332.486	88.25
332.715	103.25
332.943	100.25
333.172	94.25
333.4	96.25
333.629	101.25
333.857	109.25
334.085	106.25
334.314	110.25
334.542	117.25
334.771	105.25
334.999	85.25
335.227	107.25
335.455	78.25
335.684	96.25
335.912	103.25
336.14	91.25
336.369	97.25
336.597	104.25
336.825	95.25
337.053	92.25
337.281	87.25
337.51	75.25
337.738	91.25
337.966	101.25
338.194	102.25
338.422	107.25
338.65	93.25
338.878	95.25
339.106	76.25
339.334	85.25
339.562	97.25
339.79	90.25
340.018	85.25
340.246	92.25
340.474	87.25
340.702	90.25
340.93	88.25
341.158	89.25
341.386	99.25
341.614	85.25
341.842	100.25
342.07	90.25
342.298	100.25
342.526	92.25
342.754	95.25
342.981	94.25
343.209	100.25
343.437	108.25
343.665	91.25
343.893	93.25
344.12	105.25
344.348	102.25
344.576	89.25
344.804	103.25
345.031	101.25
345.259	111.25
345.487	85.25
345.714	98.25
345.942	99.25
346.17	92.25
346.397	95.25
346.625	101.25
346.853	81.25
347.08	99.25
347.308	91.25
347.535	101.25
347.763	91.25
347.99	101.25
348.218	92.25
348.445	85.25
348.673	89.25
348.9	95.25
349.128	96.25
349.355	81.25
349.583	92.25
349.81	85.25
350.037	110.25
350.265	99.25
350.492	101.25
350.72	104.25
350.947	97.25
351.174	85.25
351.402	102.25
351.629	106.25
351.856	107.25
352.083	102.25
352.311	110.25
352.538	101.25
352.765	98.25
352.992	107.25
353.22	102.25
353.447	108.25
353.674	100.25
353.901	93.25
354.128	84.25
354.355	92.25
354.583	95.25
354.81	99.25
355.037	106.25
355.264	100.25
355.491	94.25
355.718	101.25
355.945	96.25
356.172	88.25
356.399	112.25
356.626	106.25
356.853	108.25
357.08	99.25
357.307	95.25
357.534	89.25
357.761	90.25
357.988	97.25
358.215	99.25
358.441	100.25
358.668	105.25
358.895	103.25
359.122	92.25
359.349	84.25
359.576	90.25
359.802	106.25
360.029	100.25
360.256	106.25
360.483	111.25
360.709	89.25
360.936	91.25
361.163	103.25
361.39	110.25
361.616	103.25
361.843	90.25
362.07	99.25
362.296	83.25
362.523	87.25
362.749	97.25
362.976	83.25
363.203	100.25
363.429	85.25
363.656	98.25
363.882	87.25
364.109	91.25
364.335	111.25
364.562	92.25
364.788	97.25
365.015	110.25
365.241	100.25
365.468	99.25
365.694	95.25
365.92	94.25
366.147	90.25
366.373	98.25
366.599	94.25
366.826	79.25
367.052	84.25
367.278	93.25
367.505	86.25
367.731	69.25
367.957	83.25
368.184	88.25
368.41	104.25
368.636	102.25
368.862	105.25
369.089	99.25
369.315	110.25
369.541	81.25
369.767	97.25
369.993	101.25
370.219	89.25
370.445	89.25
370.672	92.25
370.898	97.25
371.124	77.25
371.35	94.25
371.576	86.25
371.802	98.25
372.028	92.25
372.254	86.25
372.48	93.25
372.706	94.25
372.932	103.25
373.158	93.25
373.384	91.25
373.61	85.25
373.835	90.25
374.061	76.25
374.287	104.25
374.513	79.25
374.739	90.25
374.965	96.25
375.191	70.25
375.416	99.25
375.642	85.25
375.868	88.25
376.094	93.25
376.319	91.25
376.545	98.25
376.771	91.25
376.997	79.25
377.222	98.25
377.448	92.25
377.674	86.25
377.899	92.25
378.125	96.25
378.35	83.25
378.576	90.25
378.802	94.25
379.027	92.25
379.253	105.25
379.478	94.25
379.704	87.25
379.929	97.25
380.155	91.25
380.38	83.25
380.606	109.25
380.831	95.25
381.057	94.25
381.282	88.25
381.507	95.25
381.733	95.25
381.958	83.25
382.184	83.25
382.409	111.25
382.634	103.25
382.86	100.25
383.085	106.25
383.31	87.25
383.535	106.25
383.761	101.25
383.986	103.25
384.211	99.25
384.436	93.25
384.662	93.25
384.887	101.25
385.112	109.25
385.337	107.25
385.562	107.25
385.787	106.25
386.013	110.25
386.238	117.25
386.463	117.25
386.688	129.25
386.913	110.25
387.138	115.25
387.363	117.25
387.588	107.25
387.813	98.25
388.038	103.25
388.263	121.25
388.488	106.25
388.713	109.25
388.938	97.25
389.163	91.25
389.387	89.25
389.612	88.25
389.837	106.25
390.062	94.25
390.287	94.25
390.512	109.25
390.736	107.25
390.961	93.25
391.186	98.25
391.411	104.25
391.636	97.25
391.86	88.25
392.085	92.25
392.31	88.25
392.534	91.25
392.759	104.25
392.984	102.25
393.208	98.25
393.433	95.25
393.658	87.25
393.882	83.25
394.107	94.25
394.331	78.25
394.556	97.25
394.78	105.25
395.005	105.25
395.229	91.25
395.454	93.25
395.678	88.25
395.903	93.25
396.127	99.25
396.352	90.25
396.576	92.25
396.801	104.25
397.025	90.25
397.249	97.25
397.474	84.25
397.698	102.25
397.922	96.25
398.147	76.25
398.371	83.25
398.595	90.25
398.82	89.25
399.044	85.25
399.268	99.25
399.492	102.25
399.717	85.25
399.941	107.25
400.165	81.25
400.389	90.25
400.613	89.25
400.837	73.25
401.062	98.25
401.286	85.25
401.51	72.25
401.734	81.25
401.958	93.25
402.182	108.25
402.406	116.25
402.63	103.25
402.854	87.25
403.078	89.25
403.302	84.25
403.526	83.25
403.75	84.25
403.974	73.25
404.198	89.25
404.422	101.25
404.645	85.25
404.869	87.25
405.093	96.25
405.317	90.25
405.541	105.25
405.765	86.25
405.988	97.25
406.212	134.25
406.436	188.25
406.66	121.25
406.883	96.25
407.107	95.25
407.331	88.25
407.555	108.25
407.778	85.25
408.002	88.25
408.226	89.25
408.449	98.25
408.673	88.25
408.896	102.25
409.12	103.25
409.344	101.25
409.567	93.25
409.791	94.25
410.014	95.25
410.238	93.25
410.461	96.25
410.685	94.25
410.908	97.25
411.132	105.25
411.355	77.25
411.578	100.25
411.802	85.25
412.025	70.25
412.249	84.25
412.472	91.25
412.695	91.25
412.919	99.25
413.142	83.25
413.365	94.25
413.589	91.25
413.812	88.25
414.035	93.25
414.258	102.25
414.482	108.25
414.705	89.25
414.928	92.25
415.151	100.25
415.374	74.25
415.597	88.25
415.821	94.25
416.044	81.25
416.267	83.25
416.49	91.25
416.713	97.25
416.936	86.25
417.159	83.25
417.382	86.25
417.605	101.25
417.828	90.25
418.051	98.25
418.274	98.25
418.497	99.25
418.72	84.25
418.943	79.25
419.166	84.25
419.389	105.25
419.611	103.25
419.834	97.25
420.057	99.25
420.28	79.25
420.503	95.25
420.726	74.25
420.948	83.25
421.171	89.25
421.394	100.25
421.617	93.25
421.839	98.25
422.062	85.25
422.285	91.25
422.507	104.25
422.73	95.25
422.953	106.25
423.175	89.25
423.398	93.25
423.621	87.25
423.843	82.25
424.066	94.25
424.288	90.25
424.511	105.25
424.733	93.25
424.956	101.25
425.178	94.25
425.401	89.25
425.623	102.25
425.846	99.25
426.068	95.25
426.291	76.25
426.513	88.25
426.735	92.25
426.958	92.25
427.18	105.25
427.402	123.25
427.625	135.25
427.847	117.25
428.069	99.25
428.292	91.25
428.514	83.25
428.736	87.25
428.958	81.25
429.181	83.25
429.403	74.25
429.625	83.25
429.847	84.25
430.069	104.25
430.292	97.25
430.514	99.25
430.736	99.25
430.958	77.25
431.18	91.25
431.402	99.25
431.624	100.25
431.846	98.25
432.068	78.25
432.29	88.25
432.512	82.25
432.734	93.25
432.956	87.25
433.178	91.25
433.4	108.25
433.622	101.25
433.844	82.25
434.066	81.25
434.287	83.25
434.509	92.25
434.731	89.25
434.953	81.25
435.175	75.25
435.397	93.25
435.618	84.25
435.84	94.25
436.062	115.25
436.284	101.25
436.505	89.25
436.727	97.25
436.949	94.25
437.17	101.25
437.392	93.25
437.614	81.25
437.835	104.25
438.057	106.25
438.278	102.25
438.5	103.25
438.721	108.25
438.943	87.25
439.165	108.25
439.386	89.25
439.608	73.25
439.829	88.25
440.05	110.25
440.272	107.25
440.493	97.25
440.715	91.25
440.936	82.25
441.158	100.25
441.379	88.25
441.6	78.25
441.822	94.25
442.043	93.25
442.264	107.25
442.486	102.25
442.707	93.25
442.928	89.25
443.149	115.25
443.371	109.25
443.592	91.25
443.813	108.25
444.034	106.25
444.255	106.25
444.476	88.25
444.698	101.25
444.919	71.25
445.14	136.25
445.361	120.25
445.582	118.25
445.803	115.25
446.024	127.25
446.245	110.25
446.466	90.25
446.687	83.25
446.908	85.25
447.129	85.25
447.35	83.25
447.571	93.25
447.792	89.25
448.013	94.25
448.234	104.25
448.455	97.25
448.675	92.25
448.896	105.25
449.117	102.25
449.338	99.25
449.559	117.25
449.779	105.25
450	83.25
450.221	77.25
450.442	84.25
450.662	95.25
450.883	96.25
451.104	101.25
451.324	89.25
451.545	68.25
451.766	101.25
451.986	84.25
452.207	81.25
452.428	101.25
452.648	100.25
452.869	95.25
453.089	101.25
453.31	110.25
453.53	88.25
453.751	99.25
453.971	100.25
454.192	97.25
454.412	97.25
454.633	97.25
454.853	87.25
455.073	76.25
455.294	88.25
455.514	93.25
455.734	79.25
455.955	92.25
456.175	92.25
456.395	81.25
456.616	87.25
456.836	101.25
457.056	77.25
457.276	96.25
457.497	82.25
457.717	91.25
457.937	104.25
458.157	76.25
458.377	85.25
458.598	98.25
458.818	118.25
459.038	125.25
459.258	94.25
459.478	94.25
459.698	84.25
459.918	82.25
460.138	89.25
460.358	68.25
460.578	83.25
460.798	105.25
461.018	89.25
461.238	85.25
461.458	93.25
461.678	90.25
461.898	81.25
462.118	85.25
462.338	73.25
462.558	81.25
462.777	75.25
462.997	97.25
463.217	88.25
463.437	92.25
463.657	83.25
463.876	92.25
464.096	78.25
464.316	89.25
464.536	83.25
464.755	78.25
464.975	93.25
465.195	112.25
465.414	123.25
465.634	95.25
465.854	86.25
466.073	98.25
466.293	80.25
466.512	84.25
466.732	86.25
466.951	100.25
467.171	84.25
467.391	93.25
467.61	90.25
467.829	88.25
468.049	89.25
468.268	93.25
468.488	91.25
468.707	87.25
468.927	84.25
469.146	86.25
469.365	81.25
469.585	92.25
469.804	95.25
470.023	78.25
470.243	102.25
470.462	88.25
470.681	109.25
470.901	94.25
471.12	86.25
471.339	91.25
471.558	99.25
471.777	98.25
471.997	93.25
472.216	98.25
472.435	115.25
472.654	106.25
472.873	83.25
473.092	79.25
473.311	88.25
473.53	94.25
473.749	84.25
473.968	89.25
474.187	103.25
474.406	90.25
474.625	75.25
474.844	94.25
475.063	104.25
475.282	86.25
475.501	91.25
475.72	89.25
475.939	84.25
476.158	93.25
476.377	98.25
476.596	78.25
476.814	94.25
477.033	89.25
477.252	94.25
477.471	79.25
477.69	94.25
477.908	98.25
478.127	87.25
478.346	95.25
478.564	90.25
478.783	98.25
479.002	91.25
479.22	91.25
479.439	107.25
479.658	102.25
479.876	96.25
480.095	91.25
480.313	93.25
480.532	98.25
480.751	101.25
480.969	97.25
481.188	122.25
481.406	110.25
481.624	89.25
481.843	78.25
482.061	102.25
482.28	77.25
482.498	95.25
482.717	96.25
482.935	101.25
483.153	94.25
483.372	88.25
483.59	101.25
483.808	89.25
484.027	89.25
484.245	81.25
484.463	79.25
484.681	99.25
484.9	85.25
485.118	89.25
485.336	96.25
485.554	109.25
485.772	113.25
485.99	102.25
486.209	107.25
486.427	92.25
486.645	105.25
486.863	105.25
487.081	111.25
487.299	96.25
487.517	97.25
487.735	95.25
487.953	90.25
488.171	97.25
488.389	94.25
488.607	95.25
488.825	73.25
489.043	96.25
489.261	95.25
489.479	101.25
489.696	73.25
489.914	92.25
490.132	96.25
490.35	79.25
490.568	77.25
490.786	85.25
491.003	83.25
491.221	91.25
491.439	76.25
491.657	89.25
491.874	93.25
492.092	91.25
492.31	97.25
492.527	93.25
492.745	77.25
492.963	88.25
493.18	103.25
493.398	95.25
493.615	97.25
493.833	96.25
494.05	85.25
494.268	88.25
494.485	97.25
494.703	89.25
494.92	78.25
495.138	97.25
495.355	99.25
495.573	92.25
495.79	88.25
496.008	95.25
496.225	103.25
496.442	97.25
496.66	91.25
496.877	95.25
497.094	103.25
497.312	82.25
497.529	97.25
497.746	101.25
497.963	91.25
498.181	103.25
498.398	104.25
498.615	102.25
498.832	102.25
499.049	105.25
499.267	96.25
499.484	94.25
499.701	97.25
499.918	95.25
500.135	97.25
500.352	89.25
500.569	83.25
500.786	93.25
501.003	98.25
501.22	90.25
501.437	102.25
501.654	92.25
501.871	97.25
502.088	104.25
502.305	96.25
502.522	102.25
502.739	86.25
502.956	101.25
503.172	95.25
503.389	80.25
503.606	102.25
503.823	104.25
504.04	97.25
504.256	91.25
504.473	78.25
504.69	90.25
504.907	88.25
505.123	89.25
505.34	84.25
505.557	93.25
505.773	89.25
505.99	79.25
506.207	98.25
506.423	94.25
506.64	93.25
506.856	92.25
507.073	82.25
507.289	92.25
507.506	73.25
507.722	92.25
507.939	96.25
508.155	101.25
508.372	81.25
508.588	91.25
508.805	104.25
509.021	99.25
509.238	97.25
509.454	115.25
509.67	98.25
509.887	92.25
510.103	117.25
510.319	169.25
510.536	509.25
510.752	1434.25
510.968	428.25
511.184	117.25
511.401	99.25
511.617	102.25
511.833	87.25
512.049	92.25
512.265	99.25
512.481	97.25
512.698	94.25
512.914	74.25
513.13	96.25
513.346	88.25
513.562	96.25
513.778	87.25
513.994	99.25
514.21	88.25
514.426	114.25
514.642	105.25
514.858	109.25
515.074	138.25
515.29	303.25
515.506	887.25
515.721	343.25
