Data from Circ_1982_H10_HRD10591_00077.txt Node
Date: Wed Jan 03 12:30:56 EST 2024
User: Yrep
Spectrometer: HR+D1059
Trigger mode: 1
Integration Time (sec): 1.000000E-1
Scans to average: 1
Electric dark correction enabled: true
Nonlinearity correction enabled: false
Boxcar width: 0
XAxis mode: Wavelengths
Number of Pixels in Spectrum: 2048
>>>>>Begin Spectral Data<<<<<
223.165	-21.62
223.4	-21.62
223.635	-21.62
223.869	-27.62
224.104	-18.62
224.338	-22.62
224.573	-13.62
224.808	-1.62
225.042	-5.62
225.277	-5.62
225.511	-5.62
225.746	-4.62
225.98	4.38
226.215	18.38
226.449	20.38
226.683	33.38
226.918	24.38
227.152	26.38
227.387	36.38
227.621	41.38
227.856	38.38
228.09	54.38
228.324	57.38
228.559	61.38
228.793	44.38
229.027	61.38
229.262	66.38
229.496	69.38
229.73	66.38
229.964	81.38
230.199	73.38
230.433	68.38
230.667	74.38
230.901	68.38
231.136	93.38
231.37	77.38
231.604	100.38
231.838	85.38
232.072	74.38
232.306	77.38
232.541	76.38
232.775	88.38
233.009	58.38
233.243	89.38
233.477	77.38
233.711	80.38
233.945	71.38
234.179	64.38
234.413	72.38
234.647	90.38
234.881	66.38
235.115	86.38
235.349	73.38
235.583	94.38
235.817	77.38
236.051	89.38
236.285	80.38
236.519	81.38
236.753	81.38
236.987	73.38
237.221	77.38
237.455	73.38
237.689	83.38
237.922	78.38
238.156	63.38
238.39	70.38
238.624	70.38
238.858	70.38
239.091	77.38
239.325	54.38
239.559	72.38
239.793	78.38
240.027	71.38
240.26	83.38
240.494	85.38
240.728	88.38
240.961	77.38
241.195	85.38
241.429	90.38
241.662	72.38
241.896	65.38
242.13	61.38
242.363	80.38
242.597	74.38
242.83	92.38
243.064	78.38
243.298	77.38
243.531	85.38
243.765	95.38
243.998	87.38
244.232	74.38
244.465	76.38
244.699	90.38
244.932	77.38
245.166	82.38
245.399	84.38
245.633	87.38
245.866	93.38
246.099	89.38
246.333	74.38
246.566	77.38
246.8	82.38
247.033	82.38
247.266	77.38
247.5	70.38
247.733	74.38
247.966	73.38
248.2	89.38
248.433	73.38
248.666	85.38
248.899	75.38
249.133	77.38
249.366	88.38
249.599	88.38
249.832	85.38
250.066	93.38
250.299	62.38
250.532	83.38
250.765	75.38
250.998	83.38
251.231	72.38
251.465	71.38
251.698	72.38
251.931	80.38
252.164	65.38
252.397	80.38
252.63	73.38
252.863	90.38
253.096	76.38
253.329	77.38
253.562	78.38
253.795	81.38
254.028	90.38
254.261	87.38
254.494	86.38
254.727	71.38
254.96	80.38
255.193	92.38
255.426	73.38
255.659	90.38
255.892	78.38
256.124	76.38
256.357	77.38
256.59	85.38
256.823	90.38
257.056	86.38
257.289	72.38
257.521	86.38
257.754	74.38
257.987	93.38
258.22	93.38
258.452	79.38
258.685	78.38
258.918	80.38
259.151	70.38
259.383	76.38
259.616	86.38
259.849	85.38
260.081	80.38
260.314	89.38
260.547	83.38
260.779	95.38
261.012	93.38
261.244	75.38
261.477	94.38
261.71	92.38
261.942	110.38
262.175	103.38
262.407	75.38
262.64	88.38
262.872	96.38
263.105	83.38
263.337	81.38
263.57	76.38
263.802	75.38
264.035	88.38
264.267	87.38
264.499	71.38
264.732	77.38
264.964	91.38
265.197	77.38
265.429	88.38
265.661	89.38
265.894	94.38
266.126	100.38
266.358	91.38
266.591	78.38
266.823	101.38
267.055	84.38
267.287	88.38
267.52	87.38
267.752	85.38
267.984	88.38
268.216	73.38
268.448	89.38
268.681	82.38
268.913	81.38
269.145	93.38
269.377	85.38
269.609	92.38
269.841	102.38
270.073	86.38
270.306	92.38
270.538	83.38
270.77	102.38
271.002	81.38
271.234	94.38
271.466	87.38
271.698	84.38
271.93	77.38
272.162	82.38
272.394	72.38
272.626	88.38
272.858	81.38
273.09	79.38
273.322	98.38
273.553	99.38
273.785	91.38
274.017	88.38
274.249	86.38
274.481	94.38
274.713	92.38
274.945	71.38
275.176	72.38
275.408	84.38
275.64	82.38
275.872	93.38
276.104	98.38
276.335	85.38
276.567	96.38
276.799	96.38
277.031	115.38
277.262	81.38
277.494	83.38
277.726	83.38
277.957	83.38
278.189	87.38
278.421	75.38
278.652	85.38
278.884	95.38
279.115	94.38
279.347	92.38
279.579	83.38
279.81	99.38
280.042	97.38
280.273	97.38
280.505	91.38
280.736	70.38
280.968	89.38
281.199	88.38
281.431	85.38
281.662	82.38
281.894	87.38
282.125	102.38
282.356	109.38
282.588	108.38
282.819	102.38
283.051	82.38
283.282	77.38
283.513	85.38
283.745	78.38
283.976	64.38
284.207	89.38
284.439	82.38
284.67	94.38
284.901	77.38
285.132	90.38
285.364	91.38
285.595	88.38
285.826	91.38
286.057	83.38
286.288	82.38
286.52	97.38
286.751	84.38
286.982	88.38
287.213	70.38
287.444	76.38
287.675	98.38
287.906	89.38
288.138	82.38
288.369	100.38
288.6	84.38
288.831	87.38
289.062	96.38
289.293	77.38
289.524	83.38
289.755	85.38
289.986	89.38
290.217	88.38
290.448	77.38
290.679	93.38
290.91	100.38
291.141	93.38
291.371	80.38
291.602	84.38
291.833	99.38
292.064	91.38
292.295	98.38
292.526	84.38
292.757	86.38
292.987	76.38
293.218	91.38
293.449	75.38
293.68	89.38
293.91	87.38
294.141	85.38
294.372	88.38
294.603	82.38
294.833	77.38
295.064	95.38
295.295	83.38
295.525	94.38
295.756	85.38
295.987	101.38
296.217	113.38
296.448	108.38
296.679	83.38
296.909	89.38
297.14	96.38
297.37	77.38
297.601	90.38
297.831	93.38
298.062	90.38
298.292	81.38
298.523	88.38
298.753	84.38
298.984	84.38
299.214	91.38
299.445	94.38
299.675	87.38
299.905	86.38
300.136	93.38
300.366	88.38
300.597	87.38
300.827	99.38
301.057	97.38
301.288	97.38
301.518	86.38
301.748	84.38
301.979	117.38
302.209	93.38
302.439	94.38
302.669	104.38
302.9	92.38
303.13	93.38
303.36	80.38
303.59	93.38
303.82	85.38
304.051	100.38
304.281	92.38
304.511	84.38
304.741	91.38
304.971	84.38
305.201	95.38
305.431	92.38
305.661	80.38
305.891	96.38
306.121	114.38
306.352	98.38
306.582	97.38
306.812	88.38
307.042	96.38
307.272	85.38
307.502	91.38
307.731	84.38
307.961	98.38
308.191	85.38
308.421	91.38
308.651	99.38
308.881	99.38
309.111	87.38
309.341	97.38
309.571	97.38
309.8	95.38
310.03	110.38
310.26	99.38
310.49	93.38
310.72	103.38
310.949	84.38
311.179	107.38
311.409	85.38
311.639	85.38
311.868	98.38
312.098	77.38
312.328	99.38
312.557	108.38
312.787	92.38
313.017	101.38
313.246	93.38
313.476	107.38
313.706	110.38
313.935	96.38
314.165	93.38
314.394	91.38
314.624	107.38
314.853	103.38
315.083	108.38
315.312	98.38
315.542	98.38
315.771	105.38
316.001	92.38
316.23	63.38
316.46	91.38
316.689	88.38
316.919	82.38
317.148	90.38
317.377	76.38
317.607	80.38
317.836	90.38
318.065	98.38
318.295	96.38
318.524	98.38
318.753	84.38
318.983	100.38
319.212	100.38
319.441	114.38
319.67	103.38
319.9	85.38
320.129	93.38
320.358	84.38
320.587	91.38
320.816	98.38
321.046	94.38
321.275	98.38
321.504	95.38
321.733	96.38
321.962	85.38
322.191	98.38
322.42	88.38
322.649	117.38
322.878	119.38
323.108	100.38
323.337	123.38
323.566	121.38
323.795	140.38
324.024	142.38
324.253	293.38
324.482	610.38
324.71	1238.38
324.939	1620.38
325.168	619.38
325.397	200.38
325.626	134.38
325.855	112.38
326.084	105.38
326.313	122.38
326.542	124.38
326.77	193.38
326.999	362.38
327.228	736.38
327.457	1269.38
327.686	990.38
327.914	297.38
328.143	174.38
328.372	141.38
328.6	117.38
328.829	108.38
329.058	124.38
329.287	116.38
329.515	105.38
329.744	106.38
329.972	101.38
330.201	116.38
330.43	118.38
330.658	120.38
330.887	128.38
331.115	124.38
331.344	104.38
331.572	91.38
331.801	94.38
332.03	85.38
332.258	93.38
332.486	90.38
332.715	103.38
332.943	100.38
333.172	102.38
333.4	108.38
333.629	99.38
333.857	94.38
334.085	101.38
334.314	106.38
334.542	137.38
334.771	124.38
334.999	82.38
335.227	102.38
335.455	92.38
335.684	107.38
335.912	109.38
336.14	114.38
336.369	95.38
336.597	96.38
336.825	98.38
337.053	91.38
337.281	102.38
337.51	100.38
337.738	81.38
337.966	88.38
338.194	82.38
338.422	91.38
338.65	94.38
338.878	93.38
339.106	88.38
339.334	89.38
339.562	89.38
339.79	92.38
340.018	92.38
340.246	84.38
340.474	93.38
340.702	92.38
340.93	102.38
341.158	108.38
341.386	101.38
341.614	103.38
341.842	99.38
342.07	77.38
342.298	103.38
342.526	84.38
342.754	83.38
342.981	97.38
343.209	93.38
343.437	103.38
343.665	95.38
343.893	90.38
344.12	80.38
344.348	77.38
344.576	102.38
344.804	88.38
345.031	83.38
345.259	100.38
345.487	95.38
345.714	84.38
345.942	88.38
346.17	86.38
346.397	78.38
346.625	89.38
346.853	101.38
347.08	87.38
347.308	93.38
347.535	84.38
347.763	98.38
347.99	106.38
348.218	87.38
348.445	94.38
348.673	104.38
348.9	110.38
349.128	73.38
349.355	101.38
349.583	98.38
349.81	100.38
350.037	99.38
350.265	108.38
350.492	101.38
350.72	90.38
350.947	99.38
351.174	100.38
351.402	99.38
351.629	109.38
351.856	108.38
352.083	102.38
352.311	92.38
352.538	100.38
352.765	102.38
352.992	98.38
353.22	104.38
353.447	107.38
353.674	102.38
353.901	81.38
354.128	99.38
354.355	100.38
354.583	105.38
354.81	95.38
355.037	107.38
355.264	91.38
355.491	94.38
355.718	93.38
355.945	95.38
356.172	91.38
356.399	85.38
356.626	90.38
356.853	81.38
357.08	108.38
357.307	109.38
357.534	86.38
357.761	102.38
357.988	89.38
358.215	99.38
358.441	93.38
358.668	92.38
358.895	82.38
359.122	71.38
359.349	91.38
359.576	94.38
359.802	86.38
360.029	90.38
360.256	112.38
360.483	114.38
360.709	87.38
360.936	88.38
361.163	86.38
361.39	97.38
361.616	93.38
361.843	103.38
362.07	97.38
362.296	78.38
362.523	90.38
362.749	96.38
362.976	114.38
363.203	90.38
363.429	92.38
363.656	86.38
363.882	89.38
364.109	85.38
364.335	90.38
364.562	85.38
364.788	96.38
365.015	79.38
365.241	94.38
365.468	84.38
365.694	95.38
365.92	88.38
366.147	93.38
366.373	96.38
366.599	93.38
366.826	92.38
367.052	82.38
367.278	73.38
367.505	80.38
367.731	74.38
367.957	113.38
368.184	102.38
368.41	94.38
368.636	97.38
368.862	117.38
369.089	94.38
369.315	88.38
369.541	84.38
369.767	91.38
369.993	103.38
370.219	99.38
370.445	83.38
370.672	87.38
370.898	87.38
371.124	93.38
371.35	90.38
371.576	83.38
371.802	87.38
372.028	85.38
372.254	80.38
372.48	74.38
372.706	84.38
372.932	88.38
373.158	82.38
373.384	94.38
373.61	84.38
373.835	86.38
374.061	95.38
374.287	89.38
374.513	104.38
374.739	92.38
374.965	89.38
375.191	93.38
375.416	93.38
375.642	99.38
375.868	86.38
376.094	84.38
376.319	82.38
376.545	103.38
376.771	75.38
376.997	74.38
377.222	89.38
377.448	100.38
377.674	87.38
377.899	83.38
378.125	85.38
378.35	89.38
378.576	87.38
378.802	102.38
379.027	96.38
379.253	80.38
379.478	84.38
379.704	89.38
379.929	97.38
380.155	90.38
380.38	87.38
380.606	90.38
380.831	89.38
381.057	98.38
381.282	102.38
381.507	119.38
381.733	88.38
381.958	96.38
382.184	89.38
382.409	110.38
382.634	114.38
382.86	102.38
383.085	106.38
383.31	97.38
383.535	105.38
383.761	105.38
383.986	99.38
384.211	96.38
384.436	90.38
384.662	106.38
384.887	108.38
385.112	104.38
385.337	96.38
385.562	111.38
385.787	101.38
386.013	93.38
386.238	105.38
386.463	91.38
386.688	89.38
386.913	112.38
387.138	104.38
387.363	105.38
387.588	85.38
387.813	87.38
388.038	94.38
388.263	120.38
388.488	104.38
388.713	106.38
388.938	100.38
389.163	96.38
389.387	92.38
389.612	91.38
389.837	89.38
390.062	75.38
390.287	101.38
390.512	91.38
390.736	83.38
390.961	81.38
391.186	99.38
391.411	89.38
391.636	77.38
391.86	81.38
392.085	88.38
392.31	88.38
392.534	80.38
392.759	85.38
392.984	81.38
393.208	94.38
393.433	90.38
393.658	86.38
393.882	102.38
394.107	67.38
394.331	92.38
394.556	82.38
394.78	82.38
395.005	100.38
395.229	93.38
395.454	89.38
395.678	92.38
395.903	82.38
396.127	100.38
396.352	98.38
396.576	100.38
396.801	80.38
397.025	83.38
397.249	82.38
397.474	85.38
397.698	100.38
397.922	91.38
398.147	99.38
398.371	101.38
398.595	85.38
398.82	79.38
399.044	93.38
399.268	81.38
399.492	76.38
399.717	81.38
399.941	92.38
400.165	95.38
400.389	84.38
400.613	87.38
400.837	90.38
401.062	76.38
401.286	90.38
401.51	77.38
401.734	92.38
401.958	98.38
402.182	117.38
402.406	132.38
402.63	93.38
402.854	82.38
403.078	95.38
403.302	87.38
403.526	89.38
403.75	75.38
403.974	82.38
404.198	96.38
404.422	78.38
404.645	63.38
404.869	75.38
405.093	94.38
405.317	87.38
405.541	102.38
405.765	87.38
405.988	108.38
406.212	145.38
406.436	192.38
406.66	124.38
406.883	96.38
407.107	94.38
407.331	89.38
407.555	96.38
407.778	83.38
408.002	102.38
408.226	86.38
408.449	88.38
408.673	89.38
408.896	92.38
409.12	84.38
409.344	89.38
409.567	90.38
409.791	104.38
410.014	77.38
410.238	80.38
410.461	96.38
410.685	93.38
410.908	98.38
411.132	96.38
411.355	97.38
411.578	92.38
411.802	89.38
412.025	89.38
412.249	84.38
412.472	85.38
412.695	95.38
412.919	81.38
413.142	80.38
413.365	90.38
413.589	82.38
413.812	83.38
414.035	99.38
414.258	79.38
414.482	91.38
414.705	83.38
414.928	75.38
415.151	91.38
415.374	92.38
415.597	78.38
415.821	80.38
416.044	78.38
416.267	82.38
416.49	69.38
416.713	83.38
416.936	98.38
417.159	94.38
417.382	90.38
417.605	78.38
417.828	83.38
418.051	92.38
418.274	81.38
418.497	93.38
418.72	87.38
418.943	72.38
419.166	80.38
419.389	92.38
419.611	87.38
419.834	74.38
420.057	75.38
420.28	84.38
420.503	103.38
420.726	84.38
420.948	87.38
421.171	90.38
421.394	81.38
421.617	92.38
421.839	90.38
422.062	89.38
422.285	98.38
422.507	97.38
422.73	88.38
422.953	93.38
423.175	91.38
423.398	92.38
423.621	79.38
423.843	93.38
424.066	85.38
424.288	88.38
424.511	84.38
424.733	101.38
424.956	98.38
425.178	102.38
425.401	90.38
425.623	100.38
425.846	100.38
426.068	83.38
426.291	91.38
426.513	87.38
426.735	99.38
426.958	90.38
427.18	86.38
427.402	109.38
427.625	133.38
427.847	125.38
428.069	103.38
428.292	100.38
428.514	97.38
428.736	93.38
428.958	82.38
429.181	98.38
429.403	92.38
429.625	89.38
429.847	82.38
430.069	95.38
430.292	104.38
430.514	97.38
430.736	91.38
430.958	79.38
431.18	80.38
431.402	77.38
431.624	77.38
431.846	76.38
432.068	87.38
432.29	92.38
432.512	97.38
432.734	82.38
432.956	102.38
433.178	94.38
433.4	108.38
433.622	99.38
433.844	89.38
434.066	92.38
434.287	100.38
434.509	93.38
434.731	85.38
434.953	91.38
435.175	86.38
435.397	88.38
435.618	95.38
435.84	95.38
436.062	110.38
436.284	91.38
436.505	90.38
436.727	85.38
436.949	95.38
437.17	96.38
437.392	75.38
437.614	91.38
437.835	97.38
438.057	120.38
438.278	102.38
438.5	100.38
438.721	120.38
438.943	103.38
439.165	90.38
439.386	84.38
439.608	89.38
439.829	84.38
440.05	107.38
440.272	128.38
440.493	96.38
440.715	98.38
440.936	85.38
441.158	81.38
441.379	82.38
441.6	80.38
441.822	109.38
442.043	88.38
442.264	94.38
442.486	92.38
442.707	86.38
442.928	100.38
443.149	104.38
443.371	104.38
443.592	100.38
443.813	119.38
444.034	114.38
444.255	83.38
444.476	109.38
444.698	83.38
444.919	93.38
445.14	144.38
445.361	115.38
445.582	107.38
445.803	106.38
446.024	126.38
446.245	112.38
446.466	94.38
446.687	80.38
446.908	88.38
447.129	105.38
447.35	76.38
447.571	75.38
447.792	94.38
448.013	99.38
448.234	90.38
448.455	99.38
448.675	108.38
448.896	104.38
449.117	107.38
449.338	98.38
449.559	106.38
449.779	116.38
450	88.38
450.221	84.38
450.442	98.38
450.662	91.38
450.883	86.38
451.104	98.38
451.324	87.38
451.545	81.38
451.766	97.38
451.986	81.38
452.207	92.38
452.428	91.38
452.648	100.38
452.869	99.38
453.089	90.38
453.31	105.38
453.53	87.38
453.751	93.38
453.971	96.38
454.192	108.38
454.412	108.38
454.633	85.38
454.853	70.38
455.073	78.38
455.294	86.38
455.514	93.38
455.734	96.38
455.955	73.38
456.175	76.38
456.395	92.38
456.616	85.38
456.836	82.38
457.056	80.38
457.276	92.38
457.497	107.38
457.717	83.38
457.937	92.38
458.157	82.38
458.377	89.38
458.598	97.38
458.818	108.38
459.038	124.38
459.258	115.38
459.478	86.38
459.698	101.38
459.918	72.38
460.138	77.38
460.358	78.38
460.578	86.38
460.798	85.38
461.018	88.38
461.238	91.38
461.458	93.38
461.678	78.38
461.898	90.38
462.118	93.38
462.338	97.38
462.558	89.38
462.777	94.38
462.997	85.38
463.217	80.38
463.437	90.38
463.657	85.38
463.876	87.38
464.096	76.38
464.316	91.38
464.536	75.38
464.755	97.38
464.975	102.38
465.195	144.38
465.414	123.38
465.634	94.38
465.854	87.38
466.073	102.38
466.293	91.38
466.512	84.38
466.732	91.38
466.951	87.38
467.171	88.38
467.391	93.38
467.61	102.38
467.829	92.38
468.049	92.38
468.268	94.38
468.488	84.38
468.707	78.38
468.927	74.38
469.146	95.38
469.365	82.38
469.585	79.38
469.804	85.38
470.023	80.38
470.243	87.38
470.462	93.38
470.681	97.38
470.901	86.38
471.12	77.38
471.339	90.38
471.558	86.38
471.777	96.38
471.997	84.38
472.216	101.38
472.435	131.38
472.654	100.38
472.873	78.38
473.092	82.38
473.311	89.38
473.53	81.38
473.749	97.38
473.968	99.38
474.187	92.38
474.406	82.38
474.625	76.38
474.844	92.38
475.063	93.38
475.282	82.38
475.501	94.38
475.72	88.38
475.939	92.38
476.158	94.38
476.377	92.38
476.596	84.38
476.814	97.38
477.033	87.38
477.252	79.38
477.471	85.38
477.69	101.38
477.908	87.38
478.127	99.38
478.346	98.38
478.564	101.38
478.783	88.38
479.002	82.38
479.22	94.38
479.439	102.38
479.658	98.38
479.876	91.38
480.095	82.38
480.313	94.38
480.532	94.38
480.751	92.38
480.969	99.38
481.188	163.38
481.406	134.38
481.624	91.38
481.843	88.38
482.061	76.38
482.28	95.38
482.498	77.38
482.717	82.38
482.935	86.38
483.153	67.38
483.372	89.38
483.59	88.38
483.808	91.38
484.027	78.38
484.245	87.38
484.463	82.38
484.681	99.38
484.9	100.38
485.118	96.38
485.336	99.38
485.554	97.38
485.772	105.38
485.99	98.38
486.209	100.38
486.427	98.38
486.645	104.38
486.863	91.38
487.081	105.38
487.299	102.38
487.517	84.38
487.735	85.38
487.953	90.38
488.171	83.38
488.389	88.38
488.607	111.38
488.825	111.38
489.043	99.38
489.261	88.38
489.479	98.38
489.696	102.38
489.914	78.38
490.132	83.38
490.35	94.38
490.568	77.38
490.786	76.38
491.003	96.38
491.221	96.38
491.439	91.38
491.657	100.38
491.874	81.38
492.092	77.38
492.31	87.38
492.527	103.38
492.745	100.38
492.963	88.38
493.18	89.38
493.398	99.38
493.615	106.38
493.833	91.38
494.05	80.38
494.268	96.38
494.485	89.38
494.703	92.38
494.92	78.38
495.138	89.38
495.355	98.38
495.573	109.38
495.79	87.38
496.008	101.38
496.225	100.38
496.442	84.38
496.66	96.38
496.877	100.38
497.094	91.38
497.312	92.38
497.529	94.38
497.746	104.38
497.963	76.38
498.181	114.38
498.398	88.38
498.615	102.38
498.832	88.38
499.049	89.38
499.267	84.38
499.484	90.38
499.701	101.38
499.918	94.38
500.135	96.38
500.352	92.38
500.569	94.38
500.786	84.38
501.003	99.38
501.22	88.38
501.437	88.38
501.654	94.38
501.871	112.38
502.088	92.38
502.305	90.38
502.522	92.38
502.739	89.38
502.956	96.38
503.172	100.38
503.389	105.38
503.606	106.38
503.823	97.38
504.04	101.38
504.256	93.38
504.473	87.38
504.69	90.38
504.907	104.38
505.123	87.38
505.34	88.38
505.557	104.38
505.773	94.38
505.99	90.38
506.207	81.38
506.423	86.38
506.64	96.38
506.856	91.38
507.073	91.38
507.289	93.38
507.506	81.38
507.722	102.38
507.939	110.38
508.155	108.38
508.372	99.38
508.588	96.38
508.805	100.38
509.021	85.38
509.238	104.38
509.454	96.38
509.67	109.38
509.887	103.38
510.103	119.38
510.319	181.38
510.536	602.38
510.752	1776.38
510.968	502.38
511.184	150.38
511.401	102.38
511.617	91.38
511.833	101.38
512.049	98.38
512.265	103.38
512.481	81.38
512.698	91.38
512.914	90.38
513.13	90.38
513.346	86.38
513.562	81.38
513.778	100.38
513.994	92.38
514.21	99.38
514.426	112.38
514.642	126.38
514.858	107.38
515.074	139.38
515.29	353.38
515.506	1059.38
515.721	394.38
515.937	130.38
