Data from Circ_1982_H10_HRD10591_00057.txt Node
Date: Wed Jan 03 12:30:52 EST 2024
User: Yrep
Spectrometer: HR+D1059
Trigger mode: 1
Integration Time (sec): 1.000000E-1
Scans to average: 1
Electric dark correction enabled: true
Nonlinearity correction enabled: false
Boxcar width: 0
XAxis mode: Wavelengths
Number of Pixels in Spectrum: 2048
>>>>>Begin Spectral Data<<<<<
223.165	-24.88
223.4	-24.88
223.635	-24.88
223.869	-18.88
224.104	-23.88
224.338	-19.88
224.573	-15.88
224.808	-9.88
225.042	-3.88
225.277	-4.88
225.511	-7.88
225.746	10.12
225.98	16.12
226.215	6.12
226.449	12.12
226.683	16.12
226.918	35.12
227.152	34.12
227.387	32.12
227.621	41.12
227.856	45.12
228.09	29.12
228.324	56.12
228.559	54.12
228.793	53.12
229.027	55.12
229.262	63.12
229.496	69.12
229.73	71.12
229.964	83.12
230.199	73.12
230.433	81.12
230.667	83.12
230.901	75.12
231.136	85.12
231.37	79.12
231.604	74.12
231.838	79.12
232.072	75.12
232.306	74.12
232.541	75.12
232.775	85.12
233.009	75.12
233.243	74.12
233.477	88.12
233.711	81.12
233.945	82.12
234.179	76.12
234.413	82.12
234.647	91.12
234.881	87.12
235.115	76.12
235.349	86.12
235.583	81.12
235.817	77.12
236.051	84.12
236.285	80.12
236.519	79.12
236.753	88.12
236.987	74.12
237.221	78.12
237.455	79.12
237.689	80.12
237.922	73.12
238.156	76.12
238.39	64.12
238.624	67.12
238.858	74.12
239.091	76.12
239.325	67.12
239.559	63.12
239.793	71.12
240.027	65.12
240.26	63.12
240.494	77.12
240.728	83.12
240.961	92.12
241.195	79.12
241.429	79.12
241.662	88.12
241.896	84.12
242.13	65.12
242.363	72.12
242.597	83.12
242.83	83.12
243.064	82.12
243.298	53.12
243.531	76.12
243.765	83.12
243.998	76.12
244.232	87.12
244.465	77.12
244.699	83.12
244.932	73.12
245.166	77.12
245.399	76.12
245.633	68.12
245.866	74.12
246.099	73.12
246.333	83.12
246.566	85.12
246.8	76.12
247.033	79.12
247.266	87.12
247.5	63.12
247.733	78.12
247.966	69.12
248.2	88.12
248.433	81.12
248.666	85.12
248.899	81.12
249.133	84.12
249.366	87.12
249.599	93.12
249.832	80.12
250.066	92.12
250.299	76.12
250.532	87.12
250.765	72.12
250.998	75.12
251.231	72.12
251.465	91.12
251.698	85.12
251.931	84.12
252.164	84.12
252.397	84.12
252.63	93.12
252.863	74.12
253.096	74.12
253.329	71.12
253.562	76.12
253.795	74.12
254.028	93.12
254.261	83.12
254.494	83.12
254.727	94.12
254.96	65.12
255.193	79.12
255.426	89.12
255.659	89.12
255.892	88.12
256.124	86.12
256.357	100.12
256.59	73.12
256.823	83.12
257.056	72.12
257.289	71.12
257.521	90.12
257.754	81.12
257.987	66.12
258.22	72.12
258.452	73.12
258.685	84.12
258.918	90.12
259.151	83.12
259.383	84.12
259.616	74.12
259.849	79.12
260.081	77.12
260.314	77.12
260.547	66.12
260.779	84.12
261.012	84.12
261.244	74.12
261.477	83.12
261.71	93.12
261.942	107.12
262.175	99.12
262.407	100.12
262.64	82.12
262.872	72.12
263.105	78.12
263.337	78.12
263.57	98.12
263.802	83.12
264.035	88.12
264.267	86.12
264.499	92.12
264.732	79.12
264.964	82.12
265.197	75.12
265.429	75.12
265.661	89.12
265.894	82.12
266.126	96.12
266.358	81.12
266.591	74.12
266.823	77.12
267.055	86.12
267.287	81.12
267.52	66.12
267.752	63.12
267.984	95.12
268.216	85.12
268.448	85.12
268.681	73.12
268.913	84.12
269.145	91.12
269.377	88.12
269.609	85.12
269.841	72.12
270.073	81.12
270.306	93.12
270.538	95.12
270.77	73.12
271.002	72.12
271.234	90.12
271.466	89.12
271.698	87.12
271.93	89.12
272.162	87.12
272.394	85.12
272.626	82.12
272.858	80.12
273.09	83.12
273.322	96.12
273.553	74.12
273.785	77.12
274.017	81.12
274.249	89.12
274.481	84.12
274.713	71.12
274.945	83.12
275.176	84.12
275.408	75.12
275.64	86.12
275.872	79.12
276.104	85.12
276.335	92.12
276.567	84.12
276.799	99.12
277.031	99.12
277.262	97.12
277.494	72.12
277.726	83.12
277.957	87.12
278.189	79.12
278.421	85.12
278.652	80.12
278.884	81.12
279.115	103.12
279.347	90.12
279.579	85.12
279.81	85.12
280.042	88.12
280.273	80.12
280.505	84.12
280.736	84.12
280.968	89.12
281.199	90.12
281.431	88.12
281.662	87.12
281.894	86.12
282.125	92.12
282.356	103.12
282.588	111.12
282.819	95.12
283.051	93.12
283.282	81.12
283.513	90.12
283.745	85.12
283.976	84.12
284.207	77.12
284.439	79.12
284.67	87.12
284.901	96.12
285.132	83.12
285.364	87.12
285.595	97.12
285.826	94.12
286.057	77.12
286.288	90.12
286.52	70.12
286.751	87.12
286.982	88.12
287.213	91.12
287.444	82.12
287.675	89.12
287.906	92.12
288.138	92.12
288.369	80.12
288.6	83.12
288.831	91.12
289.062	76.12
289.293	87.12
289.524	81.12
289.755	101.12
289.986	87.12
290.217	79.12
290.448	89.12
290.679	89.12
290.91	84.12
291.141	83.12
291.371	93.12
291.602	76.12
291.833	86.12
292.064	85.12
292.295	105.12
292.526	103.12
292.757	73.12
292.987	87.12
293.218	88.12
293.449	72.12
293.68	87.12
293.91	87.12
294.141	95.12
294.372	91.12
294.603	87.12
294.833	88.12
295.064	102.12
295.295	93.12
295.525	85.12
295.756	99.12
295.987	105.12
296.217	127.12
296.448	117.12
296.679	86.12
296.909	87.12
297.14	95.12
297.37	89.12
297.601	85.12
297.831	87.12
298.062	97.12
298.292	85.12
298.523	89.12
298.753	84.12
298.984	100.12
299.214	83.12
299.445	101.12
299.675	87.12
299.905	84.12
300.136	92.12
300.366	72.12
300.597	100.12
300.827	90.12
301.057	90.12
301.288	99.12
301.518	85.12
301.748	81.12
301.979	88.12
302.209	89.12
302.439	83.12
302.669	87.12
302.9	79.12
303.13	84.12
303.36	83.12
303.59	90.12
303.82	99.12
304.051	99.12
304.281	89.12
304.511	90.12
304.741	83.12
304.971	101.12
305.201	100.12
305.431	104.12
305.661	86.12
305.891	88.12
306.121	88.12
306.352	97.12
306.582	96.12
306.812	91.12
307.042	92.12
307.272	79.12
307.502	95.12
307.731	87.12
307.961	77.12
308.191	85.12
308.421	90.12
308.651	83.12
308.881	89.12
309.111	94.12
309.341	90.12
309.571	101.12
309.8	89.12
310.03	85.12
310.26	92.12
310.49	83.12
310.72	87.12
310.949	96.12
311.179	96.12
311.409	90.12
311.639	93.12
311.868	93.12
312.098	80.12
312.328	80.12
312.557	86.12
312.787	102.12
313.017	90.12
313.246	91.12
313.476	92.12
313.706	90.12
313.935	77.12
314.165	77.12
314.394	105.12
314.624	91.12
314.853	98.12
315.083	90.12
315.312	96.12
315.542	95.12
315.771	83.12
316.001	83.12
316.23	83.12
316.46	84.12
316.689	92.12
316.919	87.12
317.148	87.12
317.377	95.12
317.607	97.12
317.836	96.12
318.065	90.12
318.295	81.12
318.524	92.12
318.753	80.12
318.983	96.12
319.212	106.12
319.441	103.12
319.67	90.12
319.9	93.12
320.129	71.12
320.358	83.12
320.587	92.12
320.816	96.12
321.046	87.12
321.275	83.12
321.504	106.12
321.733	89.12
321.962	83.12
322.191	95.12
322.42	77.12
322.649	96.12
322.878	107.12
323.108	119.12
323.337	111.12
323.566	109.12
323.795	119.12
324.024	159.12
324.253	292.12
324.482	619.12
324.71	1258.12
324.939	1619.12
325.168	609.12
325.397	186.12
325.626	126.12
325.855	122.12
326.084	117.12
326.313	134.12
326.542	131.12
326.77	184.12
326.999	370.12
327.228	719.12
327.457	1273.12
327.686	1037.12
327.914	287.12
328.143	157.12
328.372	133.12
328.6	119.12
328.829	109.12
329.058	120.12
329.287	97.12
329.515	120.12
329.744	96.12
329.972	99.12
330.201	108.12
330.43	120.12
330.658	99.12
330.887	111.12
331.115	115.12
331.344	96.12
331.572	105.12
331.801	83.12
332.03	85.12
332.258	89.12
332.486	85.12
332.715	99.12
332.943	96.12
333.172	102.12
333.4	102.12
333.629	99.12
333.857	90.12
334.085	111.12
334.314	95.12
334.542	114.12
334.771	114.12
334.999	104.12
335.227	95.12
335.455	104.12
335.684	97.12
335.912	99.12
336.14	92.12
336.369	91.12
336.597	90.12
336.825	102.12
337.053	97.12
337.281	97.12
337.51	93.12
337.738	87.12
337.966	90.12
338.194	102.12
338.422	90.12
338.65	91.12
338.878	85.12
339.106	94.12
339.334	84.12
339.562	95.12
339.79	84.12
340.018	98.12
340.246	79.12
340.474	86.12
340.702	81.12
340.93	90.12
341.158	81.12
341.386	84.12
341.614	98.12
341.842	84.12
342.07	79.12
342.298	81.12
342.526	87.12
342.754	83.12
342.981	102.12
343.209	86.12
343.437	90.12
343.665	100.12
343.893	96.12
344.12	93.12
344.348	77.12
344.576	92.12
344.804	97.12
345.031	91.12
345.259	113.12
345.487	99.12
345.714	92.12
345.942	100.12
346.17	104.12
346.397	88.12
346.625	84.12
346.853	83.12
347.08	107.12
347.308	95.12
347.535	103.12
347.763	84.12
347.99	85.12
348.218	95.12
348.445	83.12
348.673	88.12
348.9	101.12
349.128	97.12
349.355	86.12
349.583	96.12
349.81	96.12
350.037	82.12
350.265	77.12
350.492	97.12
350.72	107.12
350.947	96.12
351.174	108.12
351.402	100.12
351.629	101.12
351.856	98.12
352.083	92.12
352.311	106.12
352.538	90.12
352.765	107.12
352.992	111.12
353.22	112.12
353.447	96.12
353.674	102.12
353.901	88.12
354.128	93.12
354.355	92.12
354.583	93.12
354.81	97.12
355.037	89.12
355.264	83.12
355.491	95.12
355.718	93.12
355.945	83.12
356.172	85.12
356.399	99.12
356.626	85.12
356.853	100.12
357.08	92.12
357.307	83.12
357.534	98.12
357.761	104.12
357.988	95.12
358.215	100.12
358.441	88.12
358.668	74.12
358.895	74.12
359.122	91.12
359.349	79.12
359.576	76.12
359.802	81.12
360.029	97.12
360.256	103.12
360.483	97.12
360.709	98.12
360.936	93.12
361.163	91.12
361.39	86.12
361.616	92.12
361.843	87.12
362.07	87.12
362.296	88.12
362.523	108.12
362.749	84.12
362.976	84.12
363.203	88.12
363.429	82.12
363.656	81.12
363.882	81.12
364.109	93.12
364.335	88.12
364.562	92.12
364.788	84.12
365.015	94.12
365.241	111.12
365.468	91.12
365.694	105.12
365.92	99.12
366.147	96.12
366.373	77.12
366.599	90.12
366.826	101.12
367.052	84.12
367.278	81.12
367.505	79.12
367.731	76.12
367.957	107.12
368.184	87.12
368.41	86.12
368.636	112.12
368.862	88.12
369.089	96.12
369.315	94.12
369.541	90.12
369.767	87.12
369.993	84.12
370.219	88.12
370.445	70.12
370.672	96.12
370.898	82.12
371.124	83.12
371.35	91.12
371.576	100.12
371.802	88.12
372.028	82.12
372.254	82.12
372.48	77.12
372.706	87.12
372.932	100.12
373.158	99.12
373.384	91.12
373.61	89.12
373.835	79.12
374.061	82.12
374.287	91.12
374.513	90.12
374.739	99.12
374.965	92.12
375.191	77.12
375.416	92.12
375.642	98.12
375.868	92.12
376.094	78.12
376.319	74.12
376.545	88.12
376.771	79.12
376.997	91.12
377.222	99.12
377.448	92.12
377.674	100.12
377.899	99.12
378.125	86.12
378.35	91.12
378.576	76.12
378.802	88.12
379.027	88.12
379.253	91.12
379.478	90.12
379.704	93.12
379.929	79.12
380.155	93.12
380.38	95.12
380.606	85.12
380.831	96.12
381.057	109.12
381.282	85.12
381.507	91.12
381.733	105.12
381.958	85.12
382.184	89.12
382.409	98.12
382.634	95.12
382.86	106.12
383.085	101.12
383.31	111.12
383.535	100.12
383.761	91.12
383.986	102.12
384.211	100.12
384.436	96.12
384.662	87.12
384.887	101.12
385.112	109.12
385.337	107.12
385.562	95.12
385.787	88.12
386.013	106.12
386.238	108.12
386.463	99.12
386.688	103.12
386.913	115.12
387.138	113.12
387.363	99.12
387.588	97.12
387.813	97.12
388.038	114.12
388.263	100.12
388.488	100.12
388.713	105.12
388.938	84.12
389.163	81.12
389.387	91.12
389.612	95.12
389.837	97.12
390.062	92.12
390.287	85.12
390.512	97.12
390.736	89.12
390.961	97.12
391.186	104.12
391.411	104.12
391.636	74.12
391.86	81.12
392.085	75.12
392.31	74.12
392.534	82.12
392.759	82.12
392.984	73.12
393.208	107.12
393.433	99.12
393.658	85.12
393.882	89.12
394.107	97.12
394.331	83.12
394.556	91.12
394.78	97.12
395.005	89.12
395.229	101.12
395.454	86.12
395.678	85.12
395.903	79.12
396.127	82.12
396.352	80.12
396.576	95.12
396.801	86.12
397.025	83.12
397.249	84.12
397.474	94.12
397.698	77.12
397.922	95.12
398.147	83.12
398.371	82.12
398.595	92.12
398.82	86.12
399.044	85.12
399.268	74.12
399.492	83.12
399.717	77.12
399.941	79.12
400.165	84.12
400.389	85.12
400.613	74.12
400.837	97.12
401.062	91.12
401.286	77.12
401.51	97.12
401.734	75.12
401.958	89.12
402.182	101.12
402.406	109.12
402.63	100.12
402.854	93.12
403.078	86.12
403.302	77.12
403.526	88.12
403.75	85.12
403.974	83.12
404.198	88.12
404.422	81.12
404.645	83.12
404.869	84.12
405.093	96.12
405.317	80.12
405.541	99.12
405.765	96.12
405.988	103.12
406.212	130.12
406.436	179.12
406.66	127.12
406.883	106.12
407.107	105.12
407.331	97.12
407.555	109.12
407.778	94.12
408.002	90.12
408.226	106.12
408.449	80.12
408.673	93.12
408.896	99.12
409.12	90.12
409.344	88.12
409.567	87.12
409.791	75.12
410.014	96.12
410.238	88.12
410.461	79.12
410.685	91.12
410.908	95.12
411.132	107.12
411.355	81.12
411.578	96.12
411.802	96.12
412.025	95.12
412.249	87.12
412.472	97.12
412.695	87.12
412.919	91.12
413.142	84.12
413.365	81.12
413.589	103.12
413.812	87.12
414.035	89.12
414.258	85.12
414.482	83.12
414.705	86.12
414.928	89.12
415.151	95.12
415.374	107.12
415.597	90.12
415.821	74.12
416.044	80.12
416.267	82.12
416.49	88.12
416.713	80.12
416.936	97.12
417.159	97.12
417.382	70.12
417.605	91.12
417.828	88.12
418.051	71.12
418.274	90.12
418.497	81.12
418.72	87.12
418.943	93.12
419.166	93.12
419.389	84.12
419.611	99.12
419.834	89.12
420.057	77.12
420.28	82.12
420.503	90.12
420.726	84.12
420.948	94.12
421.171	97.12
421.394	94.12
421.617	99.12
421.839	96.12
422.062	91.12
422.285	95.12
422.507	101.12
422.73	104.12
422.953	82.12
423.175	83.12
423.398	71.12
423.621	101.12
423.843	87.12
424.066	77.12
424.288	97.12
424.511	94.12
424.733	97.12
424.956	102.12
425.178	73.12
425.401	85.12
425.623	91.12
425.846	90.12
426.068	84.12
426.291	91.12
426.513	96.12
426.735	89.12
426.958	88.12
427.18	108.12
427.402	123.12
427.625	137.12
427.847	116.12
428.069	94.12
428.292	81.12
428.514	90.12
428.736	93.12
428.958	86.12
429.181	91.12
429.403	94.12
429.625	73.12
429.847	100.12
430.069	88.12
430.292	93.12
430.514	87.12
430.736	89.12
430.958	83.12
431.18	95.12
431.402	85.12
431.624	81.12
431.846	79.12
432.068	73.12
432.29	85.12
432.512	83.12
432.734	83.12
432.956	83.12
433.178	90.12
433.4	87.12
433.622	107.12
433.844	101.12
434.066	82.12
434.287	90.12
434.509	101.12
434.731	89.12
434.953	103.12
435.175	86.12
435.397	88.12
435.618	108.12
435.84	96.12
436.062	95.12
436.284	92.12
436.505	87.12
436.727	94.12
436.949	108.12
437.17	81.12
437.392	73.12
437.614	77.12
437.835	91.12
438.057	105.12
438.278	105.12
438.5	103.12
438.721	121.12
438.943	93.12
439.165	91.12
439.386	87.12
439.608	85.12
439.829	92.12
440.05	110.12
440.272	124.12
440.493	99.12
440.715	94.12
440.936	83.12
441.158	88.12
441.379	103.12
441.6	93.12
441.822	95.12
442.043	85.12
442.264	104.12
442.486	89.12
442.707	104.12
442.928	82.12
443.149	103.12
443.371	106.12
443.592	105.12
443.813	105.12
444.034	96.12
444.255	77.12
444.476	93.12
444.698	92.12
444.919	88.12
445.14	140.12
445.361	125.12
445.582	87.12
445.803	129.12
446.024	114.12
446.245	113.12
446.466	108.12
446.687	107.12
446.908	107.12
447.129	85.12
447.35	94.12
447.571	99.12
447.792	89.12
448.013	91.12
448.234	98.12
448.455	92.12
448.675	106.12
448.896	110.12
449.117	86.12
449.338	88.12
449.559	112.12
449.779	100.12
450	93.12
450.221	76.12
450.442	88.12
450.662	102.12
450.883	103.12
451.104	84.12
451.324	86.12
451.545	100.12
451.766	79.12
451.986	88.12
452.207	95.12
452.428	107.12
452.648	97.12
452.869	111.12
453.089	101.12
453.31	100.12
453.53	82.12
453.751	87.12
453.971	95.12
454.192	93.12
454.412	79.12
454.633	92.12
454.853	92.12
455.073	89.12
455.294	88.12
455.514	98.12
455.734	101.12
455.955	101.12
456.175	93.12
456.395	69.12
456.616	95.12
456.836	93.12
457.056	78.12
457.276	89.12
457.497	85.12
457.717	72.12
457.937	93.12
458.157	81.12
458.377	96.12
458.598	97.12
458.818	117.12
459.038	120.12
459.258	87.12
459.478	76.12
459.698	85.12
459.918	98.12
460.138	90.12
460.358	76.12
460.578	96.12
460.798	101.12
461.018	97.12
461.238	75.12
461.458	83.12
461.678	83.12
461.898	90.12
462.118	79.12
462.338	90.12
462.558	69.12
462.777	94.12
462.997	97.12
463.217	91.12
463.437	74.12
463.657	86.12
463.876	83.12
464.096	95.12
464.316	87.12
464.536	84.12
464.755	103.12
464.975	85.12
465.195	138.12
465.414	123.12
465.634	92.12
465.854	83.12
466.073	85.12
466.293	91.12
466.512	87.12
466.732	97.12
466.951	85.12
467.171	77.12
467.391	83.12
467.61	104.12
467.829	100.12
468.049	102.12
468.268	98.12
468.488	86.12
468.707	87.12
468.927	71.12
469.146	74.12
469.365	87.12
469.585	83.12
469.804	92.12
470.023	93.12
470.243	106.12
470.462	79.12
470.681	95.12
470.901	73.12
471.12	71.12
471.339	89.12
471.558	86.12
471.777	69.12
471.997	81.12
472.216	102.12
472.435	140.12
472.654	85.12
472.873	92.12
473.092	88.12
473.311	83.12
473.53	91.12
473.749	95.12
473.968	99.12
474.187	94.12
474.406	93.12
474.625	91.12
474.844	104.12
475.063	83.12
475.282	90.12
475.501	74.12
475.72	82.12
475.939	87.12
476.158	95.12
476.377	88.12
476.596	99.12
476.814	84.12
477.033	94.12
477.252	88.12
477.471	83.12
477.69	96.12
477.908	103.12
478.127	99.12
478.346	98.12
478.564	101.12
478.783	100.12
479.002	91.12
479.22	93.12
479.439	87.12
479.658	109.12
479.876	92.12
480.095	89.12
480.313	76.12
480.532	88.12
480.751	108.12
480.969	105.12
481.188	181.12
481.406	121.12
481.624	82.12
481.843	85.12
482.061	88.12
482.28	91.12
482.498	92.12
482.717	89.12
482.935	87.12
483.153	100.12
483.372	83.12
483.59	92.12
483.808	97.12
484.027	100.12
484.245	94.12
484.463	94.12
484.681	103.12
484.9	87.12
485.118	105.12
485.336	99.12
485.554	98.12
485.772	99.12
485.99	96.12
486.209	103.12
486.427	98.12
486.645	111.12
486.863	112.12
487.081	95.12
487.299	95.12
487.517	94.12
487.735	96.12
487.953	99.12
488.171	95.12
488.389	85.12
488.607	84.12
488.825	86.12
489.043	90.12
489.261	91.12
489.479	76.12
489.696	85.12
489.914	87.12
490.132	87.12
490.35	92.12
490.568	89.12
490.786	93.12
491.003	88.12
491.221	85.12
491.439	100.12
491.657	91.12
491.874	95.12
492.092	84.12
492.31	87.12
492.527	101.12
492.745	88.12
492.963	91.12
493.18	101.12
493.398	90.12
493.615	97.12
493.833	97.12
494.05	92.12
494.268	83.12
494.485	97.12
494.703	85.12
494.92	81.12
495.138	81.12
495.355	104.12
495.573	91.12
495.79	92.12
496.008	90.12
496.225	92.12
496.442	88.12
496.66	91.12
496.877	88.12
497.094	95.12
497.312	87.12
497.529	94.12
497.746	98.12
497.963	95.12
498.181	85.12
498.398	91.12
498.615	88.12
498.832	95.12
499.049	80.12
499.267	97.12
499.484	100.12
499.701	82.12
499.918	88.12
500.135	84.12
500.352	93.12
500.569	105.12
500.786	93.12
501.003	87.12
501.22	89.12
501.437	92.12
501.654	91.12
501.871	89.12
502.088	88.12
502.305	90.12
502.522	85.12
502.739	87.12
502.956	96.12
503.172	86.12
503.389	87.12
503.606	94.12
503.823	72.12
504.04	84.12
504.256	85.12
504.473	92.12
504.69	88.12
504.907	95.12
505.123	99.12
505.34	103.12
505.557	83.12
505.773	93.12
505.99	75.12
506.207	91.12
506.423	93.12
506.64	95.12
506.856	99.12
507.073	91.12
507.289	95.12
507.506	85.12
507.722	95.12
507.939	96.12
508.155	91.12
508.372	87.12
508.588	82.12
508.805	95.12
509.021	100.12
509.238	97.12
509.454	93.12
509.67	106.12
509.887	95.12
510.103	114.12
510.319	196.12
510.536	580.12
510.752	1654.12
510.968	456.12
511.184	110.12
511.401	108.12
511.617	101.12
511.833	101.12
512.049	96.12
512.265	92.12
512.481	100.12
512.698	92.12
512.914	93.12
513.13	82.12
513.346	88.12
513.562	107.12
513.778	103.12
513.994	76.12
514.21	99.12
514.426	112.12
514.642	100.12
514.858	105.12
515.074	139.12
515.29	320.12
515.506	969.12
515.721	367.12
515.937	129.12
516.153	84.12
516.369	107.12
516.585	103.12
