Data from Circ_1982_H10_HRD10591_00070.txt Node
Date: Wed Jan 03 12:30:55 EST 2024
User: Yrep
Spectrometer: HR+D1059
Trigger mode: 1
Integration Time (sec): 1.000000E-1
Scans to average: 1
Electric dark correction enabled: true
Nonlinearity correction enabled: false
Boxcar width: 0
XAxis mode: Wavelengths
Number of Pixels in Spectrum: 2048
>>>>>Begin Spectral Data<<<<<
223.165	-14.06
223.4	-14.06
223.635	-14.06
223.869	-8.06
224.104	-19.06
224.338	-21.06
224.573	-13.06
224.808	-20.06
225.042	-9.06
225.277	-15.06
225.511	2.94
225.746	-0.06
225.98	4.94
226.215	10.94
226.449	7.94
226.683	23.94
226.918	31.94
227.152	36.94
227.387	48.94
227.621	35.94
227.856	35.94
228.09	43.94
228.324	50.94
228.559	61.94
228.793	51.94
229.027	62.94
229.262	61.94
229.496	73.94
229.73	80.94
229.964	77.94
230.199	67.94
230.433	65.94
230.667	72.94
230.901	73.94
231.136	82.94
231.37	84.94
231.604	77.94
231.838	83.94
232.072	76.94
232.306	88.94
232.541	86.94
232.775	77.94
233.009	87.94
233.243	74.94
233.477	75.94
233.711	76.94
233.945	85.94
234.179	75.94
234.413	83.94
234.647	96.94
234.881	87.94
235.115	79.94
235.349	73.94
235.583	86.94
235.817	68.94
236.051	75.94
236.285	71.94
236.519	58.94
236.753	69.94
236.987	69.94
237.221	83.94
237.455	91.94
237.689	76.94
237.922	82.94
238.156	78.94
238.39	76.94
238.624	76.94
238.858	80.94
239.091	91.94
239.325	61.94
239.559	70.94
239.793	87.94
240.027	85.94
240.26	89.94
240.494	81.94
240.728	78.94
240.961	81.94
241.195	78.94
241.429	75.94
241.662	75.94
241.896	69.94
242.13	69.94
242.363	73.94
242.597	76.94
242.83	74.94
243.064	73.94
243.298	76.94
243.531	78.94
243.765	80.94
243.998	84.94
244.232	71.94
244.465	83.94
244.699	65.94
244.932	71.94
245.166	73.94
245.399	79.94
245.633	78.94
245.866	72.94
246.099	75.94
246.333	78.94
246.566	81.94
246.8	91.94
247.033	86.94
247.266	74.94
247.5	70.94
247.733	87.94
247.966	70.94
248.2	84.94
248.433	95.94
248.666	73.94
248.899	77.94
249.133	81.94
249.366	86.94
249.599	94.94
249.832	75.94
250.066	78.94
250.299	80.94
250.532	81.94
250.765	81.94
250.998	87.94
251.231	81.94
251.465	73.94
251.698	83.94
251.931	77.94
252.164	83.94
252.397	74.94
252.63	82.94
252.863	84.94
253.096	69.94
253.329	77.94
253.562	85.94
253.795	65.94
254.028	74.94
254.261	81.94
254.494	79.94
254.727	84.94
254.96	74.94
255.193	82.94
255.426	83.94
255.659	77.94
255.892	72.94
256.124	67.94
256.357	81.94
256.59	92.94
256.823	69.94
257.056	83.94
257.289	85.94
257.521	62.94
257.754	82.94
257.987	69.94
258.22	87.94
258.452	77.94
258.685	75.94
258.918	67.94
259.151	87.94
259.383	91.94
259.616	90.94
259.849	87.94
260.081	75.94
260.314	86.94
260.547	78.94
260.779	85.94
261.012	76.94
261.244	85.94
261.477	91.94
261.71	83.94
261.942	98.94
262.175	110.94
262.407	83.94
262.64	72.94
262.872	102.94
263.105	89.94
263.337	83.94
263.57	81.94
263.802	74.94
264.035	87.94
264.267	91.94
264.499	74.94
264.732	84.94
264.964	86.94
265.197	75.94
265.429	78.94
265.661	78.94
265.894	80.94
266.126	85.94
266.358	88.94
266.591	81.94
266.823	89.94
267.055	85.94
267.287	89.94
267.52	78.94
267.752	77.94
267.984	93.94
268.216	83.94
268.448	108.94
268.681	82.94
268.913	78.94
269.145	85.94
269.377	78.94
269.609	79.94
269.841	92.94
270.073	78.94
270.306	81.94
270.538	83.94
270.77	93.94
271.002	91.94
271.234	87.94
271.466	94.94
271.698	75.94
271.93	77.94
272.162	83.94
272.394	81.94
272.626	94.94
272.858	89.94
273.09	65.94
273.322	66.94
273.553	103.94
273.785	84.94
274.017	74.94
274.249	70.94
274.481	77.94
274.713	77.94
274.945	86.94
275.176	79.94
275.408	97.94
275.64	82.94
275.872	63.94
276.104	98.94
276.335	106.94
276.567	100.94
276.799	84.94
277.031	102.94
277.262	99.94
277.494	78.94
277.726	83.94
277.957	85.94
278.189	80.94
278.421	82.94
278.652	92.94
278.884	70.94
279.115	85.94
279.347	88.94
279.579	89.94
279.81	76.94
280.042	87.94
280.273	87.94
280.505	98.94
280.736	88.94
280.968	85.94
281.199	73.94
281.431	88.94
281.662	83.94
281.894	74.94
282.125	97.94
282.356	104.94
282.588	113.94
282.819	110.94
283.051	95.94
283.282	79.94
283.513	100.94
283.745	91.94
283.976	81.94
284.207	73.94
284.439	75.94
284.67	83.94
284.901	75.94
285.132	78.94
285.364	91.94
285.595	88.94
285.826	95.94
286.057	82.94
286.288	87.94
286.52	73.94
286.751	75.94
286.982	85.94
287.213	90.94
287.444	83.94
287.675	87.94
287.906	82.94
288.138	93.94
288.369	87.94
288.6	86.94
288.831	78.94
289.062	97.94
289.293	90.94
289.524	86.94
289.755	95.94
289.986	99.94
290.217	99.94
290.448	89.94
290.679	78.94
290.91	100.94
291.141	92.94
291.371	85.94
291.602	98.94
291.833	91.94
292.064	82.94
292.295	86.94
292.526	93.94
292.757	84.94
292.987	84.94
293.218	96.94
293.449	83.94
293.68	81.94
293.91	80.94
294.141	97.94
294.372	96.94
294.603	84.94
294.833	81.94
295.064	88.94
295.295	93.94
295.525	94.94
295.756	97.94
295.987	104.94
296.217	111.94
296.448	97.94
296.679	89.94
296.909	94.94
297.14	96.94
297.37	87.94
297.601	82.94
297.831	100.94
298.062	80.94
298.292	95.94
298.523	85.94
298.753	94.94
298.984	102.94
299.214	99.94
299.445	83.94
299.675	95.94
299.905	100.94
300.136	102.94
300.366	90.94
300.597	85.94
300.827	97.94
301.057	93.94
301.288	104.94
301.518	97.94
301.748	94.94
301.979	95.94
302.209	94.94
302.439	87.94
302.669	98.94
302.9	83.94
303.13	87.94
303.36	96.94
303.59	104.94
303.82	102.94
304.051	81.94
304.281	94.94
304.511	83.94
304.741	86.94
304.971	86.94
305.201	101.94
305.431	89.94
305.661	86.94
305.891	87.94
306.121	98.94
306.352	103.94
306.582	101.94
306.812	94.94
307.042	91.94
307.272	97.94
307.502	90.94
307.731	81.94
307.961	103.94
308.191	78.94
308.421	89.94
308.651	80.94
308.881	92.94
309.111	86.94
309.341	92.94
309.571	99.94
309.8	93.94
310.03	106.94
310.26	97.94
310.49	92.94
310.72	97.94
310.949	103.94
311.179	81.94
311.409	85.94
311.639	85.94
311.868	91.94
312.098	103.94
312.328	89.94
312.557	85.94
312.787	94.94
313.017	115.94
313.246	101.94
313.476	86.94
313.706	90.94
313.935	91.94
314.165	118.94
314.394	105.94
314.624	95.94
314.853	87.94
315.083	88.94
315.312	105.94
315.542	100.94
315.771	88.94
316.001	88.94
316.23	72.94
316.46	90.94
316.689	89.94
316.919	80.94
317.148	106.94
317.377	89.94
317.607	103.94
317.836	95.94
318.065	92.94
318.295	95.94
318.524	95.94
318.753	83.94
318.983	88.94
319.212	93.94
319.441	96.94
319.67	90.94
319.9	111.94
320.129	84.94
320.358	100.94
320.587	105.94
320.816	98.94
321.046	98.94
321.275	109.94
321.504	110.94
321.733	104.94
321.962	92.94
322.191	90.94
322.42	103.94
322.649	103.94
322.878	104.94
323.108	125.94
323.337	119.94
323.566	125.94
323.795	119.94
324.024	168.94
324.253	307.94
324.482	614.94
324.71	1242.94
324.939	1628.94
325.168	610.94
325.397	201.94
325.626	153.94
325.855	134.94
326.084	108.94
326.313	133.94
326.542	118.94
326.77	193.94
326.999	370.94
327.228	732.94
327.457	1333.94
327.686	1030.94
327.914	287.94
328.143	177.94
328.372	135.94
328.6	113.94
328.829	101.94
329.058	110.94
329.287	107.94
329.515	105.94
329.744	107.94
329.972	96.94
330.201	124.94
330.43	107.94
330.658	120.94
330.887	130.94
331.115	104.94
331.344	102.94
331.572	95.94
331.801	95.94
332.03	99.94
332.258	91.94
332.486	96.94
332.715	100.94
332.943	77.94
333.172	98.94
333.4	100.94
333.629	105.94
333.857	104.94
334.085	113.94
334.314	95.94
334.542	120.94
334.771	122.94
334.999	107.94
335.227	99.94
335.455	105.94
335.684	96.94
335.912	97.94
336.14	95.94
336.369	109.94
336.597	90.94
336.825	109.94
337.053	91.94
337.281	84.94
337.51	90.94
337.738	95.94
337.966	106.94
338.194	90.94
338.422	88.94
338.65	96.94
338.878	107.94
339.106	85.94
339.334	93.94
339.562	88.94
339.79	93.94
340.018	92.94
340.246	111.94
340.474	97.94
340.702	103.94
340.93	86.94
341.158	91.94
341.386	92.94
341.614	91.94
341.842	94.94
342.07	116.94
342.298	97.94
342.526	91.94
342.754	83.94
342.981	98.94
343.209	105.94
343.437	99.94
343.665	87.94
343.893	89.94
344.12	87.94
344.348	89.94
344.576	97.94
344.804	104.94
345.031	89.94
345.259	90.94
345.487	91.94
345.714	106.94
345.942	83.94
346.17	98.94
346.397	102.94
346.625	95.94
346.853	102.94
347.08	93.94
347.308	87.94
347.535	88.94
347.763	104.94
347.99	106.94
348.218	92.94
348.445	102.94
348.673	94.94
348.9	94.94
349.128	83.94
349.355	87.94
349.583	102.94
349.81	94.94
350.037	93.94
350.265	95.94
350.492	99.94
350.72	98.94
350.947	90.94
351.174	93.94
351.402	106.94
351.629	88.94
351.856	94.94
352.083	89.94
352.311	92.94
352.538	115.94
352.765	110.94
352.992	106.94
353.22	100.94
353.447	103.94
353.674	98.94
353.901	102.94
354.128	101.94
354.355	104.94
354.583	91.94
354.81	103.94
355.037	113.94
355.264	90.94
355.491	98.94
355.718	89.94
355.945	81.94
356.172	85.94
356.399	102.94
356.626	89.94
356.853	85.94
357.08	79.94
357.307	98.94
357.534	87.94
357.761	90.94
357.988	93.94
358.215	91.94
358.441	85.94
358.668	86.94
358.895	110.94
359.122	76.94
359.349	91.94
359.576	102.94
359.802	85.94
360.029	103.94
360.256	100.94
360.483	92.94
360.709	89.94
360.936	100.94
361.163	94.94
361.39	101.94
361.616	93.94
361.843	82.94
362.07	98.94
362.296	90.94
362.523	79.94
362.749	94.94
362.976	90.94
363.203	84.94
363.429	85.94
363.656	95.94
363.882	89.94
364.109	95.94
364.335	89.94
364.562	91.94
364.788	85.94
365.015	102.94
365.241	105.94
365.468	103.94
365.694	94.94
365.92	88.94
366.147	94.94
366.373	80.94
366.599	88.94
366.826	92.94
367.052	95.94
367.278	89.94
367.505	101.94
367.731	100.94
367.957	114.94
368.184	109.94
368.41	111.94
368.636	106.94
368.862	106.94
369.089	108.94
369.315	85.94
369.541	103.94
369.767	94.94
369.993	110.94
370.219	85.94
370.445	90.94
370.672	86.94
370.898	75.94
371.124	97.94
371.35	85.94
371.576	86.94
371.802	99.94
372.028	86.94
372.254	83.94
372.48	90.94
372.706	84.94
372.932	77.94
373.158	89.94
373.384	99.94
373.61	86.94
373.835	94.94
374.061	77.94
374.287	94.94
374.513	78.94
374.739	88.94
374.965	85.94
375.191	95.94
375.416	103.94
375.642	79.94
375.868	93.94
376.094	80.94
376.319	89.94
376.545	93.94
376.771	99.94
376.997	88.94
377.222	74.94
377.448	91.94
377.674	74.94
377.899	96.94
378.125	95.94
378.35	82.94
378.576	84.94
378.802	93.94
379.027	87.94
379.253	86.94
379.478	97.94
379.704	107.94
379.929	98.94
380.155	90.94
380.38	85.94
380.606	88.94
380.831	86.94
381.057	95.94
381.282	105.94
381.507	82.94
381.733	76.94
381.958	102.94
382.184	89.94
382.409	108.94
382.634	105.94
382.86	108.94
383.085	93.94
383.31	101.94
383.535	110.94
383.761	100.94
383.986	92.94
384.211	97.94
384.436	95.94
384.662	102.94
384.887	105.94
385.112	107.94
385.337	103.94
385.562	97.94
385.787	96.94
386.013	114.94
386.238	101.94
386.463	101.94
386.688	105.94
386.913	98.94
387.138	113.94
387.363	107.94
387.588	106.94
387.813	106.94
388.038	101.94
388.263	116.94
388.488	117.94
388.713	97.94
388.938	93.94
389.163	99.94
389.387	99.94
389.612	111.94
389.837	86.94
390.062	98.94
390.287	92.94
390.512	90.94
390.736	101.94
390.961	99.94
391.186	100.94
391.411	108.94
391.636	99.94
391.86	92.94
392.085	75.94
392.31	87.94
392.534	92.94
392.759	105.94
392.984	91.94
393.208	87.94
393.433	78.94
393.658	88.94
393.882	81.94
394.107	94.94
394.331	91.94
394.556	97.94
394.78	86.94
395.005	96.94
395.229	92.94
395.454	86.94
395.678	87.94
395.903	91.94
396.127	95.94
396.352	94.94
396.576	84.94
396.801	75.94
397.025	87.94
397.249	95.94
397.474	99.94
397.698	99.94
397.922	98.94
398.147	95.94
398.371	92.94
398.595	97.94
398.82	92.94
399.044	72.94
399.268	94.94
399.492	101.94
399.717	86.94
399.941	101.94
400.165	111.94
400.389	91.94
400.613	91.94
400.837	86.94
401.062	90.94
401.286	100.94
401.51	102.94
401.734	88.94
401.958	107.94
402.182	103.94
402.406	140.94
402.63	111.94
402.854	90.94
403.078	88.94
403.302	76.94
403.526	98.94
403.75	82.94
403.974	102.94
404.198	91.94
404.422	91.94
404.645	95.94
404.869	104.94
405.093	92.94
405.317	110.94
405.541	109.94
405.765	102.94
405.988	119.94
406.212	157.94
406.436	174.94
406.66	141.94
406.883	81.94
407.107	93.94
407.331	97.94
407.555	87.94
407.778	93.94
408.002	93.94
408.226	88.94
408.449	86.94
408.673	95.94
408.896	91.94
409.12	88.94
409.344	103.94
409.567	100.94
409.791	95.94
410.014	101.94
410.238	98.94
410.461	90.94
410.685	91.94
410.908	103.94
411.132	93.94
411.355	93.94
411.578	100.94
411.802	94.94
412.025	98.94
412.249	108.94
412.472	81.94
412.695	97.94
412.919	81.94
413.142	86.94
413.365	97.94
413.589	100.94
413.812	98.94
414.035	92.94
414.258	86.94
414.482	93.94
414.705	93.94
414.928	92.94
415.151	84.94
415.374	100.94
415.597	93.94
415.821	93.94
416.044	77.94
416.267	74.94
416.49	95.94
416.713	93.94
416.936	100.94
417.159	89.94
417.382	103.94
417.605	92.94
417.828	79.94
418.051	90.94
418.274	115.94
418.497	103.94
418.72	104.94
418.943	81.94
419.166	93.94
419.389	77.94
419.611	98.94
419.834	85.94
420.057	89.94
420.28	98.94
420.503	67.94
420.726	84.94
420.948	102.94
421.171	94.94
421.394	88.94
421.617	85.94
421.839	90.94
422.062	97.94
422.285	111.94
422.507	90.94
422.73	108.94
422.953	85.94
423.175	100.94
423.398	88.94
423.621	100.94
423.843	84.94
424.066	94.94
424.288	89.94
424.511	84.94
424.733	95.94
424.956	120.94
425.178	92.94
425.401	97.94
425.623	94.94
425.846	103.94
426.068	79.94
426.291	91.94
426.513	86.94
426.735	107.94
426.958	93.94
427.18	106.94
427.402	119.94
427.625	151.94
427.847	118.94
428.069	103.94
428.292	101.94
428.514	93.94
428.736	85.94
428.958	75.94
429.181	83.94
429.403	83.94
429.625	89.94
429.847	83.94
430.069	105.94
430.292	91.94
430.514	95.94
430.736	82.94
430.958	93.94
431.18	80.94
431.402	84.94
431.624	95.94
431.846	88.94
432.068	85.94
432.29	89.94
432.512	80.94
432.734	86.94
432.956	81.94
433.178	107.94
433.4	92.94
433.622	94.94
433.844	93.94
434.066	70.94
434.287	79.94
434.509	87.94
434.731	95.94
434.953	98.94
435.175	84.94
435.397	79.94
435.618	75.94
435.84	97.94
436.062	94.94
436.284	111.94
436.505	92.94
436.727	81.94
436.949	94.94
437.17	91.94
437.392	84.94
437.614	91.94
437.835	96.94
438.057	110.94
438.278	99.94
438.5	103.94
438.721	105.94
438.943	95.94
439.165	86.94
439.386	92.94
439.608	109.94
439.829	89.94
440.05	108.94
440.272	127.94
440.493	92.94
440.715	78.94
440.936	88.94
441.158	95.94
441.379	92.94
441.6	85.94
441.822	95.94
442.043	82.94
442.264	107.94
442.486	95.94
442.707	82.94
442.928	102.94
443.149	112.94
443.371	119.94
443.592	121.94
443.813	103.94
444.034	103.94
444.255	100.94
444.476	93.94
444.698	86.94
444.919	89.94
445.14	132.94
445.361	117.94
445.582	109.94
445.803	123.94
446.024	121.94
446.245	121.94
446.466	109.94
446.687	85.94
446.908	89.94
447.129	83.94
447.35	95.94
447.571	101.94
447.792	87.94
448.013	104.94
448.234	97.94
448.455	102.94
448.675	125.94
448.896	111.94
449.117	96.94
449.338	112.94
449.559	118.94
449.779	136.94
450	83.94
450.221	78.94
450.442	99.94
450.662	92.94
450.883	91.94
451.104	110.94
451.324	85.94
451.545	98.94
451.766	88.94
451.986	90.94
452.207	94.94
452.428	83.94
452.648	86.94
452.869	98.94
453.089	106.94
453.31	119.94
453.53	93.94
453.751	82.94
453.971	97.94
454.192	101.94
454.412	83.94
454.633	102.94
454.853	96.94
455.073	107.94
455.294	83.94
455.514	94.94
455.734	89.94
455.955	86.94
456.175	103.94
456.395	86.94
456.616	89.94
456.836	92.94
457.056	93.94
457.276	78.94
457.497	93.94
457.717	87.94
457.937	83.94
458.157	90.94
458.377	88.94
458.598	88.94
458.818	112.94
459.038	149.94
459.258	110.94
459.478	85.94
459.698	102.94
459.918	100.94
460.138	78.94
460.358	77.94
460.578	86.94
460.798	76.94
461.018	83.94
461.238	78.94
461.458	97.94
461.678	81.94
461.898	83.94
462.118	84.94
462.338	87.94
462.558	81.94
462.777	90.94
462.997	88.94
463.217	87.94
463.437	91.94
463.657	87.94
463.876	90.94
464.096	78.94
464.316	93.94
464.536	100.94
464.755	101.94
464.975	108.94
465.195	141.94
465.414	133.94
465.634	91.94
465.854	91.94
466.073	90.94
466.293	85.94
466.512	78.94
466.732	98.94
466.951	89.94
467.171	97.94
467.391	80.94
467.61	100.94
467.829	102.94
468.049	100.94
468.268	111.94
468.488	92.94
468.707	78.94
468.927	79.94
469.146	92.94
469.365	85.94
469.585	86.94
469.804	97.94
470.023	92.94
470.243	90.94
470.462	100.94
470.681	105.94
470.901	90.94
471.12	77.94
471.339	91.94
471.558	84.94
471.777	85.94
471.997	88.94
472.216	127.94
472.435	125.94
472.654	94.94
472.873	90.94
473.092	92.94
473.311	89.94
473.53	77.94
473.749	101.94
473.968	95.94
474.187	103.94
474.406	104.94
474.625	82.94
474.844	86.94
475.063	82.94
475.282	96.94
475.501	81.94
475.72	86.94
475.939	71.94
476.158	79.94
476.377	93.94
476.596	98.94
476.814	98.94
477.033	104.94
477.252	88.94
477.471	83.94
477.69	87.94
477.908	96.94
478.127	96.94
478.346	92.94
478.564	96.94
478.783	93.94
479.002	91.94
479.22	100.94
479.439	95.94
479.658	109.94
479.876	105.94
480.095	92.94
480.313	82.94
480.532	105.94
480.751	94.94
480.969	100.94
481.188	175.94
481.406	134.94
481.624	109.94
481.843	81.94
482.061	89.94
482.28	101.94
482.498	77.94
482.717	85.94
482.935	75.94
483.153	92.94
483.372	97.94
483.59	83.94
483.808	88.94
484.027	100.94
484.245	90.94
484.463	84.94
484.681	87.94
484.9	90.94
485.118	75.94
485.336	84.94
485.554	98.94
485.772	94.94
485.99	97.94
486.209	108.94
486.427	102.94
486.645	97.94
486.863	106.94
487.081	98.94
487.299	94.94
487.517	97.94
487.735	88.94
487.953	102.94
488.171	85.94
488.389	88.94
488.607	78.94
488.825	89.94
489.043	87.94
489.261	99.94
489.479	77.94
489.696	96.94
489.914	88.94
490.132	88.94
490.35	89.94
490.568	87.94
490.786	91.94
491.003	81.94
491.221	83.94
491.439	91.94
491.657	75.94
491.874	83.94
492.092	80.94
492.31	91.94
492.527	102.94
492.745	81.94
492.963	89.94
493.18	94.94
493.398	90.94
493.615	96.94
493.833	81.94
494.05	75.94
494.268	99.94
494.485	86.94
494.703	82.94
494.92	95.94
495.138	86.94
495.355	98.94
495.573	95.94
495.79	87.94
496.008	94.94
496.225	80.94
496.442	93.94
496.66	85.94
496.877	116.94
497.094	102.94
497.312	90.94
497.529	90.94
497.746	95.94
497.963	71.94
498.181	87.94
498.398	87.94
498.615	106.94
498.832	97.94
499.049	92.94
499.267	85.94
499.484	89.94
499.701	89.94
499.918	96.94
500.135	94.94
500.352	98.94
500.569	90.94
500.786	89.94
501.003	88.94
501.22	89.94
501.437	89.94
501.654	77.94
501.871	92.94
502.088	65.94
502.305	93.94
502.522	93.94
502.739	98.94
502.956	91.94
503.172	89.94
503.389	90.94
503.606	103.94
503.823	90.94
504.04	96.94
504.256	91.94
504.473	75.94
504.69	91.94
504.907	99.94
505.123	93.94
505.34	85.94
505.557	78.94
505.773	100.94
505.99	90.94
506.207	84.94
506.423	83.94
506.64	75.94
506.856	84.94
507.073	89.94
507.289	73.94
507.506	87.94
507.722	99.94
507.939	103.94
508.155	94.94
508.372	93.94
508.588	95.94
508.805	94.94
509.021	98.94
509.238	101.94
509.454	92.94
509.67	86.94
509.887	105.94
510.103	118.94
510.319	187.94
510.536	605.94
510.752	1707.94
510.968	492.94
511.184	140.94
511.401	97.94
511.617	96.94
511.833	90.94
512.049	115.94
512.265	94.94
512.481	97.94
512.698	93.94
512.914	96.94
513.13	83.94
513.346	91.94
513.562	88.94
513.778	91.94
513.994	80.94
514.21	110.94
514.426	106.94
514.642	129.94
514.858	107.94
515.074	147.94
515.29	347.94
515.506	1076.94
515.721	409.94
