Data from Circ_1982_H10_HRD10591_00010.txt Node
Date: Wed Jan 03 12:30:43 EST 2024
User: Yrep
Spectrometer: HR+D1059
Trigger mode: 1
Integration Time (sec): 1.000000E-1
Scans to average: 1
Electric dark correction enabled: true
Nonlinearity correction enabled: false
Boxcar width: 0
XAxis mode: Wavelengths
Number of Pixels in Spectrum: 2048
>>>>>Begin Spectral Data<<<<<
223.165	-7
223.4	-7
223.635	-7
223.869	-17
224.104	-22
224.338	-20
224.573	-7
224.808	-19
225.042	-11
225.277	-3
225.511	-11
225.746	16
225.98	7
226.215	2
226.449	23
226.683	10
226.918	13
227.152	46
227.387	42
227.621	44
227.856	42
228.09	38
228.324	52
228.559	52
228.793	52
229.027	56
229.262	69
229.496	78
229.73	80
229.964	82
230.199	62
230.433	70
230.667	68
230.901	75
231.136	69
231.37	80
231.604	86
231.838	80
232.072	69
232.306	76
232.541	87
232.775	100
233.009	88
233.243	74
233.477	84
233.711	82
233.945	77
234.179	73
234.413	76
234.647	77
234.881	87
235.115	81
235.349	86
235.583	80
235.817	81
236.051	71
236.285	72
236.519	65
236.753	76
236.987	75
237.221	65
237.455	82
237.689	73
237.922	84
238.156	82
238.39	86
238.624	77
238.858	78
239.091	85
239.325	76
239.559	62
239.793	73
240.027	88
240.26	82
240.494	77
240.728	69
240.961	86
241.195	86
241.429	80
241.662	67
241.896	64
242.13	75
242.363	87
242.597	80
242.83	85
243.064	83
243.298	75
243.531	75
243.765	74
243.998	72
244.232	73
244.465	74
244.699	76
244.932	83
245.166	82
245.399	84
245.633	75
245.866	78
246.099	80
246.333	87
246.566	68
246.8	93
247.033	75
247.266	82
247.5	77
247.733	68
247.966	73
248.2	86
248.433	63
248.666	88
248.899	76
249.133	88
249.366	77
249.599	94
249.832	75
250.066	93
250.299	81
250.532	74
250.765	75
250.998	86
251.231	82
251.465	77
251.698	62
251.931	83
252.164	89
252.397	83
252.63	84
252.863	80
253.096	77
253.329	82
253.562	72
253.795	76
254.028	76
254.261	79
254.494	77
254.727	76
254.96	74
255.193	85
255.426	85
255.659	80
255.892	80
256.124	87
256.357	86
256.59	89
256.823	68
257.056	84
257.289	75
257.521	87
257.754	73
257.987	82
258.22	88
258.452	76
258.685	90
258.918	89
259.151	77
259.383	88
259.616	82
259.849	85
260.081	67
260.314	86
260.547	86
260.779	91
261.012	94
261.244	79
261.477	88
261.71	88
261.942	90
262.175	81
262.407	84
262.64	72
262.872	73
263.105	62
263.337	73
263.57	89
263.802	86
264.035	84
264.267	74
264.499	75
264.732	96
264.964	76
265.197	84
265.429	84
265.661	75
265.894	82
266.126	76
266.358	89
266.591	84
266.823	84
267.055	77
267.287	76
267.52	76
267.752	85
267.984	100
268.216	79
268.448	78
268.681	74
268.913	97
269.145	81
269.377	91
269.609	80
269.841	73
270.073	70
270.306	91
270.538	82
270.77	84
271.002	77
271.234	88
271.466	91
271.698	71
271.93	94
272.162	96
272.394	82
272.626	81
272.858	88
273.09	84
273.322	73
273.553	70
273.785	70
274.017	84
274.249	74
274.481	79
274.713	85
274.945	84
275.176	91
275.408	79
275.64	87
275.872	80
276.104	81
276.335	80
276.567	93
276.799	101
277.031	84
277.262	87
277.494	98
277.726	98
277.957	95
278.189	81
278.421	85
278.652	89
278.884	79
279.115	83
279.347	85
279.579	81
279.81	101
280.042	78
280.273	93
280.505	85
280.736	89
280.968	85
281.199	93
281.431	86
281.662	91
281.894	87
282.125	98
282.356	106
282.588	116
282.819	112
283.051	82
283.282	86
283.513	79
283.745	94
283.976	97
284.207	86
284.439	75
284.67	84
284.901	86
285.132	86
285.364	93
285.595	82
285.826	90
286.057	90
286.288	84
286.52	85
286.751	91
286.982	94
287.213	84
287.444	84
287.675	89
287.906	81
288.138	82
288.369	85
288.6	83
288.831	96
289.062	92
289.293	75
289.524	86
289.755	72
289.986	84
290.217	94
290.448	85
290.679	85
290.91	94
291.141	69
291.371	82
291.602	77
291.833	83
292.064	82
292.295	88
292.526	95
292.757	82
292.987	93
293.218	86
293.449	85
293.68	83
293.91	70
294.141	83
294.372	96
294.603	102
294.833	92
295.064	84
295.295	89
295.525	107
295.756	100
295.987	112
296.217	110
296.448	111
296.679	100
296.909	98
297.14	92
297.37	98
297.601	85
297.831	84
298.062	89
298.292	96
298.523	88
298.753	80
298.984	87
299.214	84
299.445	89
299.675	106
299.905	101
300.136	98
300.366	87
300.597	98
300.827	75
301.057	92
301.288	99
301.518	85
301.748	84
301.979	100
302.209	67
302.439	86
302.669	88
302.9	97
303.13	92
303.36	93
303.59	89
303.82	90
304.051	96
304.281	88
304.511	103
304.741	88
304.971	84
305.201	88
305.431	89
305.661	96
305.891	81
306.121	92
306.352	97
306.582	86
306.812	88
307.042	97
307.272	80
307.502	91
307.731	92
307.961	82
308.191	93
308.421	82
308.651	89
308.881	84
309.111	87
309.341	80
309.571	92
309.8	97
310.03	98
310.26	93
310.49	90
310.72	103
310.949	94
311.179	100
311.409	89
311.639	90
311.868	96
312.098	80
312.328	93
312.557	96
312.787	91
313.017	102
313.246	80
313.476	102
313.706	73
313.935	85
314.165	98
314.394	94
314.624	102
314.853	107
315.083	89
315.312	105
315.542	112
315.771	94
316.001	95
316.23	94
316.46	103
316.689	104
316.919	93
317.148	99
317.377	92
317.607	88
317.836	104
318.065	86
318.295	81
318.524	81
318.753	92
318.983	80
319.212	105
319.441	103
319.67	104
319.9	100
320.129	85
320.358	98
320.587	103
320.816	84
321.046	98
321.275	104
321.504	100
321.733	90
321.962	94
322.191	105
322.42	98
322.649	100
322.878	102
323.108	91
323.337	120
323.566	108
323.795	123
324.024	163
324.253	292
324.482	588
324.71	1134
324.939	1476
325.168	540
325.397	206
325.626	132
325.855	114
326.084	98
326.313	126
326.542	133
326.77	174
326.999	349
327.228	678
327.457	1162
327.686	956
327.914	285
328.143	150
328.372	132
328.6	103
328.829	100
329.058	115
329.287	100
329.515	104
329.744	97
329.972	104
330.201	100
330.43	108
330.658	108
330.887	126
331.115	110
331.344	90
331.572	98
331.801	84
332.03	111
332.258	100
332.486	92
332.715	76
332.943	102
333.172	91
333.4	103
333.629	88
333.857	101
334.085	103
334.314	93
334.542	123
334.771	131
334.999	90
335.227	101
335.455	92
335.684	82
335.912	101
336.14	109
336.369	93
336.597	115
336.825	96
337.053	88
337.281	103
337.51	94
337.738	107
337.966	87
338.194	103
338.422	106
338.65	88
338.878	95
339.106	106
339.334	103
339.562	73
339.79	81
340.018	94
340.246	89
340.474	98
340.702	92
340.93	84
341.158	89
341.386	99
341.614	91
341.842	89
342.07	96
342.298	90
342.526	94
342.754	87
342.981	99
343.209	89
343.437	99
343.665	86
343.893	80
344.12	110
344.348	95
344.576	90
344.804	103
345.031	93
345.259	101
345.487	96
345.714	91
345.942	99
346.17	98
346.397	88
346.625	78
346.853	88
347.08	82
347.308	100
347.535	101
347.763	102
347.99	100
348.218	109
348.445	96
348.673	94
348.9	78
349.128	96
349.355	72
349.583	94
349.81	88
350.037	95
350.265	88
350.492	107
350.72	91
350.947	90
351.174	94
351.402	97
351.629	103
351.856	102
352.083	97
352.311	108
352.538	94
352.765	119
352.992	117
353.22	110
353.447	96
353.674	95
353.901	100
354.128	100
354.355	81
354.583	105
354.81	113
355.037	96
355.264	115
355.491	93
355.718	93
355.945	87
356.172	93
356.399	76
356.626	102
356.853	91
357.08	88
357.307	84
357.534	88
357.761	86
357.988	96
358.215	98
358.441	93
358.668	98
358.895	84
359.122	92
359.349	88
359.576	98
359.802	107
360.029	105
360.256	104
360.483	85
360.709	98
360.936	86
361.163	95
361.39	94
361.616	87
361.843	94
362.07	77
362.296	101
362.523	104
362.749	80
362.976	89
363.203	77
363.429	88
363.656	90
363.882	83
364.109	81
364.335	102
364.562	85
364.788	93
365.015	101
365.241	97
365.468	94
365.694	98
365.92	88
366.147	99
366.373	88
366.599	93
366.826	94
367.052	100
367.278	90
367.505	81
367.731	88
367.957	84
368.184	97
368.41	89
368.636	95
368.862	112
369.089	94
369.315	87
369.541	95
369.767	83
369.993	76
370.219	76
370.445	97
370.672	103
370.898	106
371.124	77
371.35	88
371.576	84
371.802	90
372.028	82
372.254	84
372.48	106
372.706	90
372.932	81
373.158	91
373.384	87
373.61	92
373.835	92
374.061	85
374.287	93
374.513	100
374.739	87
374.965	82
375.191	75
375.416	88
375.642	92
375.868	104
376.094	100
376.319	92
376.545	98
376.771	92
376.997	86
377.222	112
377.448	84
377.674	99
377.899	88
378.125	90
378.35	90
378.576	86
378.802	83
379.027	92
379.253	82
379.478	88
379.704	91
379.929	98
380.155	91
380.38	98
380.606	115
380.831	86
381.057	96
381.282	106
381.507	92
381.733	100
381.958	91
382.184	95
382.409	93
382.634	96
382.86	98
383.085	114
383.31	112
383.535	106
383.761	102
383.986	99
384.211	87
384.436	113
384.662	97
384.887	108
385.112	112
385.337	123
385.562	107
385.787	115
386.013	114
386.238	118
386.463	100
386.688	117
386.913	117
387.138	102
387.363	109
387.588	111
387.813	108
388.038	106
388.263	118
388.488	124
388.713	99
388.938	101
389.163	102
389.387	85
389.612	100
389.837	109
390.062	106
390.287	82
390.512	87
390.736	98
390.961	85
391.186	81
391.411	87
391.636	84
391.86	85
392.085	88
392.31	83
392.534	100
392.759	92
392.984	91
393.208	77
393.433	94
393.658	87
393.882	75
394.107	84
394.331	97
394.556	107
394.78	106
395.005	104
395.229	80
395.454	92
395.678	90
395.903	93
396.127	92
396.352	90
396.576	97
396.801	104
397.025	104
397.249	76
397.474	90
397.698	81
397.922	72
398.147	90
398.371	98
398.595	77
398.82	89
399.044	93
399.268	97
399.492	94
399.717	86
399.941	70
400.165	89
400.389	90
400.613	84
400.837	87
401.062	82
401.286	80
401.51	73
401.734	73
401.958	98
402.182	108
402.406	125
402.63	96
402.854	84
403.078	83
403.302	81
403.526	71
403.75	94
403.974	100
404.198	84
404.422	103
404.645	89
404.869	77
405.093	96
405.317	97
405.541	97
405.765	92
405.988	94
406.212	135
406.436	165
406.66	112
406.883	83
407.107	84
407.331	77
407.555	104
407.778	94
408.002	84
408.226	95
408.449	96
408.673	94
408.896	98
409.12	95
409.344	102
409.567	74
409.791	100
410.014	94
410.238	101
410.461	89
410.685	85
410.908	91
411.132	109
411.355	84
411.578	82
411.802	72
412.025	93
412.249	86
412.472	82
412.695	90
412.919	88
413.142	95
413.365	87
413.589	93
413.812	92
414.035	96
414.258	94
414.482	81
414.705	91
414.928	90
415.151	92
415.374	86
415.597	80
415.821	85
416.044	101
416.267	80
416.49	91
416.713	78
416.936	84
417.159	88
417.382	87
417.605	85
417.828	90
418.051	95
418.274	92
418.497	86
418.72	92
418.943	88
419.166	80
419.389	81
419.611	107
419.834	104
420.057	91
420.28	84
420.503	89
420.726	80
420.948	83
421.171	90
421.394	89
421.617	102
421.839	93
422.062	78
422.285	106
422.507	102
422.73	106
422.953	92
423.175	89
423.398	84
423.621	93
423.843	96
424.066	90
424.288	85
424.511	80
424.733	104
424.956	86
425.178	104
425.401	91
425.623	103
425.846	86
426.068	82
426.291	88
426.513	81
426.735	79
426.958	89
427.18	109
427.402	117
427.625	122
427.847	122
428.069	106
428.292	94
428.514	86
428.736	96
428.958	84
429.181	84
429.403	92
429.625	82
429.847	92
430.069	100
430.292	81
430.514	85
430.736	91
430.958	78
431.18	87
431.402	92
431.624	93
431.846	90
432.068	90
432.29	74
432.512	84
432.734	105
432.956	88
433.178	90
433.4	91
433.622	87
433.844	107
434.066	96
434.287	95
434.509	89
434.731	73
434.953	81
435.175	92
435.397	99
435.618	96
435.84	99
436.062	110
436.284	116
436.505	99
436.727	92
436.949	80
437.17	89
437.392	80
437.614	69
437.835	91
438.057	114
438.278	106
438.5	91
438.721	119
438.943	90
439.165	90
439.386	83
439.608	84
439.829	86
440.05	113
440.272	121
440.493	72
440.715	88
440.936	77
441.158	86
441.379	82
441.6	103
441.822	75
442.043	90
442.264	92
442.486	94
442.707	86
442.928	113
443.149	107
443.371	115
443.592	100
443.813	112
444.034	104
444.255	87
444.476	81
444.698	91
444.919	82
445.14	133
445.361	116
445.582	106
445.803	116
446.024	119
446.245	122
446.466	93
446.687	88
446.908	95
447.129	85
447.35	90
447.571	92
447.792	101
448.013	74
448.234	101
448.455	98
448.675	110
448.896	113
449.117	95
449.338	90
449.559	128
449.779	108
450	94
450.221	87
450.442	103
450.662	77
450.883	94
451.104	91
451.324	86
451.545	91
451.766	93
451.986	80
452.207	91
452.428	69
452.648	93
452.869	112
453.089	88
453.31	98
453.53	84
453.751	99
453.971	99
454.192	110
454.412	84
454.633	85
454.853	97
455.073	78
455.294	82
455.514	91
455.734	83
455.955	91
456.175	93
456.395	104
456.616	82
456.836	88
457.056	73
457.276	89
457.497	85
457.717	72
457.937	68
458.157	82
458.377	80
458.598	97
458.818	114
459.038	126
459.258	100
459.478	92
459.698	86
459.918	92
460.138	73
460.358	83
460.578	87
460.798	102
461.018	80
461.238	71
461.458	92
461.678	81
461.898	80
462.118	83
462.338	80
462.558	76
462.777	94
462.997	83
463.217	78
463.437	100
463.657	99
463.876	81
464.096	96
464.316	91
464.536	88
464.755	100
464.975	95
465.195	120
465.414	122
465.634	74
465.854	81
466.073	84
466.293	75
466.512	92
466.732	75
466.951	80
467.171	70
467.391	80
467.61	100
467.829	87
468.049	96
468.268	101
468.488	90
468.707	99
468.927	84
469.146	81
469.365	87
469.585	88
469.804	86
470.023	82
470.243	92
470.462	90
470.681	89
470.901	93
471.12	69
471.339	91
471.558	90
471.777	86
471.997	70
472.216	91
472.435	93
472.654	100
472.873	77
473.092	88
473.311	82
473.53	85
473.749	103
473.968	93
474.187	99
474.406	88
474.625	89
474.844	94
475.063	82
475.282	86
475.501	78
475.72	100
475.939	80
476.158	82
476.377	94
476.596	89
476.814	82
477.033	85
477.252	84
477.471	80
477.69	84
477.908	95
478.127	73
478.346	82
478.564	95
478.783	89
479.002	89
479.22	92
479.439	99
479.658	87
479.876	93
480.095	82
480.313	87
480.532	78
480.751	92
480.969	110
481.188	156
481.406	115
481.624	89
481.843	96
482.061	94
482.28	89
482.498	82
482.717	89
482.935	87
483.153	73
483.372	95
483.59	84
483.808	77
484.027	102
484.245	96
484.463	79
484.681	107
484.9	86
485.118	109
485.336	96
485.554	97
485.772	97
485.99	109
486.209	102
486.427	97
486.645	93
486.863	111
487.081	91
487.299	101
487.517	80
487.735	88
487.953	85
488.171	94
488.389	101
488.607	104
488.825	77
489.043	93
489.261	103
489.479	92
489.696	95
489.914	85
490.132	100
490.35	84
490.568	88
490.786	96
491.003	85
491.221	97
491.439	80
491.657	92
491.874	88
492.092	90
492.31	88
492.527	90
492.745	94
492.963	88
493.18	91
493.398	89
493.615	92
493.833	101
494.05	76
494.268	87
494.485	93
494.703	97
494.92	101
495.138	86
495.355	80
495.573	82
495.79	91
496.008	98
496.225	91
496.442	86
496.66	100
496.877	73
497.094	87
497.312	76
497.529	84
497.746	84
497.963	106
498.181	97
498.398	100
498.615	103
498.832	80
499.049	86
499.267	100
499.484	91
499.701	103
499.918	96
500.135	80
500.352	84
500.569	91
500.786	95
501.003	95
501.22	88
501.437	84
501.654	89
501.871	108
502.088	92
502.305	91
502.522	88
502.739	92
502.956	84
503.172	101
503.389	99
503.606	99
503.823	99
504.04	80
504.256	91
504.473	90
504.69	86
504.907	97
505.123	96
505.34	89
505.557	86
505.773	89
505.99	80
506.207	94
506.423	88
506.64	98
506.856	89
507.073	91
507.289	94
507.506	102
507.722	88
507.939	89
508.155	70
508.372	95
508.588	80
508.805	89
509.021	76
509.238	102
509.454	83
509.67	93
509.887	112
510.103	109
510.319	178
510.536	534
510.752	1508
510.968	437
511.184	139
511.401	114
511.617	96
511.833	94
512.049	81
512.265	86
512.481	98
512.698	100
512.914	107
513.13	92
513.346	83
513.562	83
513.778	93
513.994	101
514.21	97
514.426	118
514.642	109
514.858	108
515.074	131
515.29	310
515.506	920
515.721	348
515.937	125
516.153	94
516.369	86
516.585	88
516.801	92
517.016	91
517.232	84
517.448	98
517.664	96
517.879	83
518.095	94
518.311	84
518.527	93
518.742	103
518.958	92
519.173	104
519.389	91
519.605	94
519.82	94
520.036	93
520.251	102
520.467	117
520.682	110
520.898	101
521.113	107
521.329	109
521.544	148
521.76	365
521.975	1440
522.19	867
522.406	213
522.621	114
522.836	107
523.052	96
523.267	82
523.482	91
523.698	88
523.913	91
524.128	99
524.343	101
524.559	91
524.774	93
524.989	99
525.204	87
525.419	100
525.634	81
525.849	78
526.064	90
526.28	88
526.495	93
526.71	104
526.925	104
527.14	76
527.355	96
527.57	83
527.785	96
527.999	106
528.214	98
528.429	95
528.644	101
528.859	86
529.074	79
529.289	113
529.503	136
529.718	91
529.933	91
530.148	101
530.363	94
530.577	99
530.792	105
531.007	93
531.221	92
531.436	92
531.651	76
531.865	100
532.08	94
532.295	92
532.509	92
532.724	116
532.938	75
533.153	82
533.367	90
533.582	86
533.796	90
534.011	84
534.225	72
534.44	89
534.654	99
534.868	85
535.083	84
535.297	84
535.511	84
535.726	88
535.94	89
536.154	91
536.369	89
536.583	94
536.797	83
537.011	86
537.225	84
537.44	88
537.654	100
537.868	100
538.082	106
538.296	76
538.51	87
538.724	88
538.938	93
539.153	102
539.367	97
539.581	98
539.795	97
540.009	83
540.222	84
540.436	108
540.65	94
540.864	75
541.078	94
541.292	84
541.506	96
541.72	81
541.934	88
542.147	86
542.361	94
542.575	77
542.789	91
543.002	82
543.216	92
543.43	85
543.644	89
543.857	81
544.071	80
544.285	101
544.498	74
544.712	77
544.925	75
545.139	101
545.352	93
545.566	99
545.779	87
545.993	110
546.206	90
546.42	86
546.633	82
546.847	93
547.06	82
547.274	78
547.487	87
547.7	90
547.914	93
548.127	80
548.34	82
548.554	86
548.767	102
548.98	69
549.193	92
549.407	97
549.62	91
549.833	86
550.046	83
550.259	100
550.473	80
550.686	97
550.899	94
551.112	91
551.325	112
551.538	89
551.751	103
551.964	95
552.177	89
552.39	92
552.603	96
552.816	99
553.029	93
553.242	93
553.455	96
553.667	83
553.88	91
554.093	92
554.306	80
554.519	92
554.732	86
554.944	97
555.157	95
555.37	89
555.583	89
555.795	104
556.008	99
556.221	109
556.433	98
556.646	93
556.859	75
557.071	91
557.284	99
557.496	76
557.709	98
557.921	72
558.134	83
558.346	89
558.559	75
558.771	78
558.984	88
559.196	84
559.409	83
559.621	90
559.833	98
560.046	99
560.258	84
560.47	91
560.683	85
560.895	89
561.107	75
561.32	99
561.532	91
561.744	82
561.956	106
562.168	102
562.381	94
562.593	92
562.805	72
563.017	98
563.229	94
563.441	83
563.653	92
563.865	76
564.077	88
564.289	89
564.501	86
564.713	96
564.925	99
565.137	110
565.349	97
565.561	100
565.773	98
565.985	77
566.197	84
566.408	104
566.62	83
566.832	84
567.044	94
567.255	86
567.467	88
567.679	92
567.891	86
568.102	92
568.314	89
568.526	83
568.737	101
568.949	77
569.161	81
569.372	92
569.584	85
569.795	93
570.007	96
570.218	180
570.43	107
570.641	89
570.853	99
571.064	94
571.276	86
571.487	90
571.698	89
571.91	100
572.121	88
572.333	86
572.544	94
572.755	91
572.966	94
573.178	99
573.389	107
573.6	104
573.811	85
574.023	82
574.234	81
574.445	97
574.656	76
574.867	80
575.078	90
575.289	80
575.501	91
575.712	75
575.923	84
576.134	86
576.345	90
576.556	83
576.767	96
576.978	93
577.188	98
577.399	89
577.61	84
577.821	91
578.032	100
578.243	206
578.454	493
578.665	175
578.875	104
579.086	94
579.297	84
579.508	105
579.718	75
579.929	86
580.14	92
580.35	108
580.561	88
580.772	70
580.982	76
581.193	98
581.403	92
581.614	84
581.825	91
582.035	72
582.246	90
582.456	89
582.667	88
582.877	92
583.087	82
583.298	85
583.508	90
583.719	85
583.929	101
584.139	92
584.35	86
584.56	92
584.77	85
584.981	77
