Data from Circ_1982_H10_HRD10591_00083.txt Node
Date: Wed Jan 03 12:30:57 EST 2024
User: Yrep
Spectrometer: HR+D1059
Trigger mode: 1
Integration Time (sec): 1.000000E-1
Scans to average: 1
Electric dark correction enabled: true
Nonlinearity correction enabled: false
Boxcar width: 0
XAxis mode: Wavelengths
Number of Pixels in Spectrum: 2048
>>>>>Begin Spectral Data<<<<<
223.165	-28.06
223.4	-28.06
223.635	-28.06
223.869	-23.06
224.104	-16.06
224.338	-9.06
224.573	-9.06
224.808	1.94
225.042	-8.06
225.277	-9.06
225.511	-2.06
225.746	-0.06
225.98	-2.06
226.215	12.94
226.449	28.94
226.683	7.94
226.918	27.94
227.152	26.94
227.387	42.94
227.621	37.94
227.856	63.94
228.09	51.94
228.324	48.94
228.559	52.94
228.793	47.94
229.027	68.94
229.262	72.94
229.496	65.94
229.73	75.94
229.964	79.94
230.199	91.94
230.433	73.94
230.667	72.94
230.901	69.94
231.136	69.94
231.37	77.94
231.604	87.94
231.838	70.94
232.072	73.94
232.306	64.94
232.541	74.94
232.775	76.94
233.009	71.94
233.243	88.94
233.477	73.94
233.711	81.94
233.945	95.94
234.179	83.94
234.413	79.94
234.647	85.94
234.881	95.94
235.115	77.94
235.349	83.94
235.583	78.94
235.817	77.94
236.051	72.94
236.285	76.94
236.519	81.94
236.753	87.94
236.987	79.94
237.221	90.94
237.455	92.94
237.689	78.94
237.922	73.94
238.156	73.94
238.39	85.94
238.624	76.94
238.858	69.94
239.091	82.94
239.325	75.94
239.559	92.94
239.793	83.94
240.027	84.94
240.26	87.94
240.494	72.94
240.728	76.94
240.961	77.94
241.195	74.94
241.429	70.94
241.662	66.94
241.896	88.94
242.13	74.94
242.363	88.94
242.597	85.94
242.83	68.94
243.064	77.94
243.298	86.94
243.531	76.94
243.765	74.94
243.998	77.94
244.232	85.94
244.465	81.94
244.699	79.94
244.932	86.94
245.166	74.94
245.399	85.94
245.633	81.94
245.866	74.94
246.099	85.94
246.333	81.94
246.566	78.94
246.8	90.94
247.033	81.94
247.266	75.94
247.5	78.94
247.733	89.94
247.966	82.94
248.2	70.94
248.433	82.94
248.666	76.94
248.899	81.94
249.133	83.94
249.366	96.94
249.599	79.94
249.832	83.94
250.066	85.94
250.299	88.94
250.532	97.94
250.765	73.94
250.998	86.94
251.231	83.94
251.465	76.94
251.698	81.94
251.931	80.94
252.164	81.94
252.397	93.94
252.63	76.94
252.863	86.94
253.096	77.94
253.329	78.94
253.562	85.94
253.795	73.94
254.028	69.94
254.261	89.94
254.494	71.94
254.727	90.94
254.96	83.94
255.193	74.94
255.426	85.94
255.659	85.94
255.892	78.94
256.124	80.94
256.357	88.94
256.59	69.94
256.823	96.94
257.056	84.94
257.289	76.94
257.521	78.94
257.754	89.94
257.987	83.94
258.22	78.94
258.452	95.94
258.685	85.94
258.918	101.94
259.151	104.94
259.383	76.94
259.616	78.94
259.849	87.94
260.081	93.94
260.314	89.94
260.547	92.94
260.779	93.94
261.012	99.94
261.244	94.94
261.477	81.94
261.71	94.94
261.942	103.94
262.175	92.94
262.407	78.94
262.64	90.94
262.872	87.94
263.105	92.94
263.337	75.94
263.57	81.94
263.802	85.94
264.035	75.94
264.267	85.94
264.499	86.94
264.732	85.94
264.964	72.94
265.197	85.94
265.429	87.94
265.661	82.94
265.894	93.94
266.126	95.94
266.358	90.94
266.591	91.94
266.823	82.94
267.055	85.94
267.287	97.94
267.52	92.94
267.752	65.94
267.984	85.94
268.216	76.94
268.448	98.94
268.681	89.94
268.913	84.94
269.145	81.94
269.377	82.94
269.609	79.94
269.841	93.94
270.073	85.94
270.306	88.94
270.538	91.94
270.77	78.94
271.002	74.94
271.234	94.94
271.466	91.94
271.698	90.94
271.93	69.94
272.162	83.94
272.394	71.94
272.626	79.94
272.858	93.94
273.09	88.94
273.322	68.94
273.553	77.94
273.785	83.94
274.017	94.94
274.249	81.94
274.481	77.94
274.713	76.94
274.945	95.94
275.176	76.94
275.408	92.94
275.64	85.94
275.872	81.94
276.104	82.94
276.335	95.94
276.567	82.94
276.799	94.94
277.031	89.94
277.262	76.94
277.494	97.94
277.726	73.94
277.957	73.94
278.189	80.94
278.421	85.94
278.652	91.94
278.884	88.94
279.115	80.94
279.347	102.94
279.579	75.94
279.81	86.94
280.042	93.94
280.273	84.94
280.505	81.94
280.736	99.94
280.968	101.94
281.199	83.94
281.431	94.94
281.662	100.94
281.894	105.94
282.125	93.94
282.356	108.94
282.588	120.94
282.819	104.94
283.051	86.94
283.282	82.94
283.513	90.94
283.745	87.94
283.976	90.94
284.207	94.94
284.439	81.94
284.67	92.94
284.901	81.94
285.132	83.94
285.364	77.94
285.595	92.94
285.826	69.94
286.057	77.94
286.288	92.94
286.52	85.94
286.751	87.94
286.982	93.94
287.213	87.94
287.444	95.94
287.675	78.94
287.906	102.94
288.138	72.94
288.369	95.94
288.6	93.94
288.831	86.94
289.062	91.94
289.293	93.94
289.524	75.94
289.755	94.94
289.986	90.94
290.217	90.94
290.448	96.94
290.679	75.94
290.91	79.94
291.141	106.94
291.371	87.94
291.602	79.94
291.833	93.94
292.064	92.94
292.295	88.94
292.526	92.94
292.757	86.94
292.987	84.94
293.218	87.94
293.449	89.94
293.68	78.94
293.91	92.94
294.141	89.94
294.372	66.94
294.603	86.94
294.833	86.94
295.064	80.94
295.295	88.94
295.525	86.94
295.756	106.94
295.987	109.94
296.217	128.94
296.448	107.94
296.679	95.94
296.909	95.94
297.14	87.94
297.37	87.94
297.601	98.94
297.831	86.94
298.062	91.94
298.292	79.94
298.523	85.94
298.753	103.94
298.984	82.94
299.214	89.94
299.445	94.94
299.675	91.94
299.905	96.94
300.136	114.94
300.366	93.94
300.597	87.94
300.827	93.94
301.057	89.94
301.288	97.94
301.518	86.94
301.748	92.94
301.979	103.94
302.209	93.94
302.439	92.94
302.669	96.94
302.9	92.94
303.13	86.94
303.36	86.94
303.59	92.94
303.82	99.94
304.051	98.94
304.281	98.94
304.511	82.94
304.741	87.94
304.971	91.94
305.201	102.94
305.431	100.94
305.661	87.94
305.891	82.94
306.121	95.94
306.352	92.94
306.582	95.94
306.812	93.94
307.042	85.94
307.272	97.94
307.502	93.94
307.731	101.94
307.961	90.94
308.191	98.94
308.421	92.94
308.651	84.94
308.881	104.94
309.111	92.94
309.341	97.94
309.571	80.94
309.8	93.94
310.03	108.94
310.26	108.94
310.49	85.94
310.72	85.94
310.949	97.94
311.179	94.94
311.409	97.94
311.639	104.94
311.868	107.94
312.098	90.94
312.328	92.94
312.557	93.94
312.787	94.94
313.017	91.94
313.246	97.94
313.476	97.94
313.706	94.94
313.935	101.94
314.165	95.94
314.394	97.94
314.624	78.94
314.853	91.94
315.083	95.94
315.312	91.94
315.542	98.94
315.771	95.94
316.001	96.94
316.23	85.94
316.46	89.94
316.689	102.94
316.919	99.94
317.148	86.94
317.377	94.94
317.607	97.94
317.836	89.94
318.065	85.94
318.295	88.94
318.524	89.94
318.753	97.94
318.983	98.94
319.212	87.94
319.441	101.94
319.67	99.94
319.9	105.94
320.129	77.94
320.358	92.94
320.587	100.94
320.816	93.94
321.046	98.94
321.275	99.94
321.504	113.94
321.733	91.94
321.962	90.94
322.191	86.94
322.42	115.94
322.649	94.94
322.878	98.94
323.108	89.94
323.337	106.94
323.566	110.94
323.795	128.94
324.024	177.94
324.253	297.94
324.482	575.94
324.71	1161.94
324.939	1480.94
325.168	557.94
325.397	201.94
325.626	137.94
325.855	123.94
326.084	124.94
326.313	126.94
326.542	117.94
326.77	184.94
326.999	343.94
327.228	645.94
327.457	1159.94
327.686	912.94
327.914	263.94
328.143	154.94
328.372	133.94
328.6	121.94
328.829	117.94
329.058	105.94
329.287	94.94
329.515	98.94
329.744	105.94
329.972	109.94
330.201	111.94
330.43	106.94
330.658	116.94
330.887	113.94
331.115	98.94
331.344	79.94
331.572	95.94
331.801	103.94
332.03	90.94
332.258	87.94
332.486	93.94
332.715	89.94
332.943	102.94
333.172	112.94
333.4	94.94
333.629	105.94
333.857	106.94
334.085	104.94
334.314	118.94
334.542	110.94
334.771	119.94
334.999	107.94
335.227	105.94
335.455	93.94
335.684	100.94
335.912	106.94
336.14	90.94
336.369	88.94
336.597	93.94
336.825	103.94
337.053	89.94
337.281	84.94
337.51	93.94
337.738	90.94
337.966	84.94
338.194	86.94
338.422	96.94
338.65	100.94
338.878	102.94
339.106	92.94
339.334	98.94
339.562	71.94
339.79	102.94
340.018	101.94
340.246	86.94
340.474	87.94
340.702	86.94
340.93	90.94
341.158	97.94
341.386	95.94
341.614	100.94
341.842	82.94
342.07	97.94
342.298	95.94
342.526	87.94
342.754	99.94
342.981	87.94
343.209	92.94
343.437	106.94
343.665	82.94
343.893	82.94
344.12	90.94
344.348	90.94
344.576	94.94
344.804	84.94
345.031	87.94
345.259	95.94
345.487	95.94
345.714	98.94
345.942	82.94
346.17	90.94
346.397	87.94
346.625	97.94
346.853	103.94
347.08	92.94
347.308	91.94
347.535	98.94
347.763	100.94
347.99	95.94
348.218	96.94
348.445	101.94
348.673	87.94
348.9	100.94
349.128	95.94
349.355	106.94
349.583	86.94
349.81	88.94
350.037	83.94
350.265	100.94
350.492	104.94
350.72	98.94
350.947	104.94
351.174	99.94
351.402	99.94
351.629	102.94
351.856	86.94
352.083	98.94
352.311	109.94
352.538	107.94
352.765	95.94
352.992	113.94
353.22	107.94
353.447	106.94
353.674	110.94
353.901	89.94
354.128	97.94
354.355	102.94
354.583	94.94
354.81	100.94
355.037	104.94
355.264	103.94
355.491	90.94
355.718	107.94
355.945	96.94
356.172	98.94
356.399	95.94
356.626	103.94
356.853	98.94
357.08	100.94
357.307	103.94
357.534	76.94
357.761	100.94
357.988	99.94
358.215	100.94
358.441	99.94
358.668	95.94
358.895	110.94
359.122	81.94
359.349	93.94
359.576	102.94
359.802	90.94
360.029	98.94
360.256	109.94
360.483	99.94
360.709	83.94
360.936	85.94
361.163	95.94
361.39	95.94
361.616	101.94
361.843	78.94
362.07	90.94
362.296	100.94
362.523	99.94
362.749	88.94
362.976	92.94
363.203	98.94
363.429	88.94
363.656	89.94
363.882	102.94
364.109	99.94
364.335	95.94
364.562	79.94
364.788	90.94
365.015	83.94
365.241	89.94
365.468	105.94
365.694	109.94
365.92	97.94
366.147	97.94
366.373	99.94
366.599	88.94
366.826	100.94
367.052	90.94
367.278	96.94
367.505	102.94
367.731	113.94
367.957	92.94
368.184	92.94
368.41	105.94
368.636	112.94
368.862	115.94
369.089	92.94
369.315	74.94
369.541	82.94
369.767	87.94
369.993	96.94
370.219	89.94
370.445	87.94
370.672	89.94
370.898	90.94
371.124	84.94
371.35	90.94
371.576	93.94
371.802	101.94
372.028	91.94
372.254	82.94
372.48	85.94
372.706	75.94
372.932	89.94
373.158	89.94
373.384	94.94
373.61	85.94
373.835	90.94
374.061	99.94
374.287	88.94
374.513	86.94
374.739	92.94
374.965	95.94
375.191	83.94
375.416	87.94
375.642	97.94
375.868	97.94
376.094	94.94
376.319	95.94
376.545	91.94
376.771	78.94
376.997	91.94
377.222	81.94
377.448	87.94
377.674	98.94
377.899	95.94
378.125	99.94
378.35	114.94
378.576	93.94
378.802	79.94
379.027	93.94
379.253	105.94
379.478	94.94
379.704	74.94
379.929	82.94
380.155	73.94
380.38	94.94
380.606	97.94
380.831	87.94
381.057	104.94
381.282	85.94
381.507	87.94
381.733	104.94
381.958	89.94
382.184	87.94
382.409	106.94
382.634	94.94
382.86	90.94
383.085	90.94
383.31	97.94
383.535	88.94
383.761	89.94
383.986	92.94
384.211	87.94
384.436	120.94
384.662	101.94
384.887	99.94
385.112	111.94
385.337	116.94
385.562	91.94
385.787	119.94
386.013	104.94
386.238	113.94
386.463	113.94
386.688	102.94
386.913	79.94
387.138	102.94
387.363	113.94
387.588	103.94
387.813	113.94
388.038	108.94
388.263	100.94
388.488	109.94
388.713	106.94
388.938	91.94
389.163	115.94
389.387	86.94
389.612	100.94
389.837	101.94
390.062	98.94
390.287	89.94
390.512	92.94
390.736	78.94
390.961	93.94
391.186	93.94
391.411	100.94
391.636	95.94
391.86	85.94
392.085	93.94
392.31	94.94
392.534	81.94
392.759	101.94
392.984	84.94
393.208	95.94
393.433	89.94
393.658	92.94
393.882	98.94
394.107	85.94
394.331	84.94
394.556	77.94
394.78	93.94
395.005	70.94
395.229	89.94
395.454	92.94
395.678	88.94
395.903	86.94
396.127	120.94
396.352	84.94
396.576	93.94
396.801	81.94
397.025	91.94
397.249	88.94
397.474	82.94
397.698	75.94
397.922	85.94
398.147	93.94
398.371	90.94
398.595	83.94
398.82	81.94
399.044	92.94
399.268	92.94
399.492	98.94
399.717	89.94
399.941	76.94
400.165	86.94
400.389	86.94
400.613	84.94
400.837	83.94
401.062	83.94
401.286	106.94
401.51	102.94
401.734	74.94
401.958	90.94
402.182	117.94
402.406	129.94
402.63	104.94
402.854	88.94
403.078	102.94
403.302	92.94
403.526	93.94
403.75	90.94
403.974	89.94
404.198	94.94
404.422	85.94
404.645	82.94
404.869	85.94
405.093	85.94
405.317	106.94
405.541	103.94
405.765	93.94
405.988	101.94
406.212	153.94
406.436	178.94
406.66	133.94
406.883	97.94
407.107	98.94
407.331	98.94
407.555	96.94
407.778	103.94
408.002	100.94
408.226	97.94
408.449	89.94
408.673	93.94
408.896	98.94
409.12	94.94
409.344	99.94
409.567	91.94
409.791	92.94
410.014	112.94
410.238	91.94
410.461	77.94
410.685	82.94
410.908	89.94
411.132	101.94
411.355	96.94
411.578	87.94
411.802	87.94
412.025	82.94
412.249	93.94
412.472	87.94
412.695	90.94
412.919	103.94
413.142	89.94
413.365	87.94
413.589	90.94
413.812	82.94
414.035	99.94
414.258	93.94
414.482	106.94
414.705	92.94
414.928	84.94
415.151	99.94
415.374	90.94
415.597	102.94
415.821	93.94
416.044	93.94
416.267	86.94
416.49	87.94
416.713	78.94
416.936	90.94
417.159	87.94
417.382	86.94
417.605	99.94
417.828	87.94
418.051	92.94
418.274	101.94
418.497	94.94
418.72	89.94
418.943	98.94
419.166	84.94
419.389	109.94
419.611	95.94
419.834	77.94
420.057	85.94
420.28	88.94
420.503	84.94
420.726	94.94
420.948	91.94
421.171	105.94
421.394	76.94
421.617	100.94
421.839	91.94
422.062	89.94
422.285	89.94
422.507	94.94
422.73	98.94
422.953	86.94
423.175	86.94
423.398	89.94
423.621	88.94
423.843	93.94
424.066	101.94
424.288	91.94
424.511	85.94
424.733	103.94
424.956	104.94
425.178	105.94
425.401	97.94
425.623	91.94
425.846	94.94
426.068	87.94
426.291	96.94
426.513	89.94
426.735	94.94
426.958	93.94
427.18	103.94
427.402	123.94
427.625	137.94
427.847	110.94
428.069	101.94
428.292	83.94
428.514	94.94
428.736	85.94
428.958	102.94
429.181	98.94
429.403	88.94
429.625	84.94
429.847	107.94
430.069	90.94
430.292	78.94
430.514	93.94
430.736	85.94
430.958	81.94
431.18	81.94
431.402	81.94
431.624	90.94
431.846	91.94
432.068	91.94
432.29	96.94
432.512	97.94
432.734	86.94
432.956	82.94
433.178	99.94
433.4	96.94
433.622	86.94
433.844	94.94
434.066	105.94
434.287	100.94
434.509	94.94
434.731	93.94
434.953	85.94
435.175	91.94
435.397	91.94
435.618	93.94
435.84	99.94
436.062	113.94
436.284	106.94
436.505	93.94
436.727	101.94
436.949	84.94
437.17	98.94
437.392	77.94
437.614	91.94
437.835	101.94
438.057	116.94
438.278	90.94
438.5	88.94
438.721	109.94
438.943	86.94
439.165	97.94
439.386	91.94
439.608	92.94
439.829	87.94
440.05	108.94
440.272	109.94
440.493	100.94
440.715	99.94
440.936	96.94
441.158	96.94
441.379	88.94
441.6	97.94
441.822	114.94
442.043	95.94
442.264	90.94
442.486	107.94
442.707	90.94
442.928	90.94
443.149	106.94
443.371	111.94
443.592	108.94
443.813	101.94
444.034	101.94
444.255	99.94
444.476	83.94
444.698	95.94
444.919	94.94
445.14	126.94
445.361	119.94
445.582	106.94
445.803	117.94
446.024	113.94
446.245	106.94
446.466	102.94
446.687	91.94
446.908	82.94
447.129	85.94
447.35	91.94
447.571	87.94
447.792	99.94
448.013	84.94
448.234	105.94
448.455	90.94
448.675	107.94
448.896	119.94
449.117	94.94
449.338	106.94
449.559	119.94
449.779	120.94
450	94.94
450.221	82.94
450.442	87.94
450.662	93.94
450.883	91.94
451.104	99.94
451.324	98.94
451.545	81.94
451.766	99.94
451.986	91.94
452.207	99.94
452.428	84.94
452.648	98.94
452.869	85.94
453.089	107.94
453.31	86.94
453.53	83.94
453.751	78.94
453.971	94.94
454.192	93.94
454.412	85.94
454.633	105.94
454.853	110.94
455.073	89.94
455.294	94.94
455.514	102.94
455.734	93.94
455.955	99.94
456.175	83.94
456.395	91.94
456.616	92.94
456.836	95.94
457.056	83.94
457.276	81.94
457.497	82.94
457.717	84.94
457.937	85.94
458.157	86.94
458.377	89.94
458.598	97.94
458.818	132.94
459.038	132.94
459.258	102.94
459.478	93.94
459.698	81.94
459.918	94.94
460.138	78.94
460.358	83.94
460.578	92.94
460.798	97.94
461.018	91.94
461.238	79.94
461.458	90.94
461.678	107.94
461.898	80.94
462.118	90.94
462.338	98.94
462.558	100.94
462.777	83.94
462.997	97.94
463.217	87.94
463.437	85.94
463.657	90.94
463.876	102.94
464.096	94.94
464.316	94.94
464.536	94.94
464.755	91.94
464.975	97.94
465.195	115.94
465.414	141.94
465.634	85.94
465.854	91.94
466.073	92.94
466.293	92.94
466.512	82.94
466.732	81.94
466.951	98.94
467.171	104.94
467.391	101.94
467.61	97.94
467.829	85.94
468.049	105.94
468.268	110.94
468.488	103.94
468.707	95.94
468.927	86.94
469.146	87.94
469.365	88.94
469.585	101.94
469.804	97.94
470.023	90.94
470.243	79.94
470.462	99.94
470.681	106.94
470.901	93.94
471.12	94.94
471.339	91.94
471.558	89.94
471.777	86.94
471.997	101.94
472.216	109.94
472.435	128.94
472.654	101.94
472.873	86.94
473.092	88.94
473.311	81.94
473.53	88.94
473.749	76.94
473.968	98.94
474.187	102.94
474.406	96.94
474.625	85.94
474.844	92.94
475.063	72.94
475.282	100.94
475.501	94.94
475.72	99.94
475.939	96.94
476.158	90.94
476.377	93.94
476.596	83.94
476.814	90.94
477.033	85.94
477.252	91.94
477.471	102.94
477.69	90.94
477.908	98.94
478.127	86.94
478.346	82.94
478.564	99.94
478.783	91.94
479.002	94.94
479.22	95.94
479.439	82.94
479.658	102.94
479.876	78.94
480.095	92.94
480.313	79.94
480.532	91.94
480.751	93.94
480.969	102.94
481.188	168.94
481.406	125.94
481.624	97.94
481.843	79.94
482.061	85.94
482.28	91.94
482.498	75.94
482.717	77.94
482.935	93.94
483.153	107.94
483.372	90.94
483.59	82.94
483.808	92.94
484.027	83.94
484.245	76.94
484.463	104.94
484.681	93.94
484.9	85.94
485.118	94.94
485.336	96.94
485.554	113.94
485.772	96.94
485.99	109.94
486.209	106.94
486.427	113.94
486.645	119.94
486.863	107.94
487.081	107.94
487.299	101.94
487.517	90.94
487.735	93.94
487.953	97.94
488.171	94.94
488.389	95.94
488.607	105.94
488.825	93.94
489.043	94.94
489.261	91.94
489.479	94.94
489.696	99.94
489.914	95.94
490.132	84.94
490.35	90.94
490.568	86.94
490.786	83.94
491.003	79.94
491.221	95.94
491.439	90.94
491.657	87.94
491.874	102.94
492.092	85.94
492.31	100.94
492.527	83.94
492.745	79.94
492.963	89.94
493.18	100.94
493.398	104.94
493.615	103.94
493.833	101.94
494.05	99.94
494.268	97.94
494.485	103.94
494.703	89.94
494.92	89.94
495.138	86.94
495.355	85.94
495.573	100.94
495.79	106.94
496.008	105.94
496.225	85.94
496.442	89.94
496.66	83.94
496.877	84.94
497.094	96.94
497.312	93.94
497.529	96.94
497.746	99.94
497.963	95.94
498.181	78.94
498.398	102.94
498.615	99.94
498.832	94.94
499.049	83.94
499.267	89.94
499.484	89.94
499.701	106.94
499.918	104.94
500.135	90.94
500.352	92.94
500.569	92.94
500.786	108.94
501.003	99.94
501.22	83.94
501.437	90.94
501.654	99.94
501.871	105.94
502.088	77.94
502.305	93.94
502.522	85.94
502.739	102.94
502.956	87.94
503.172	93.94
503.389	97.94
503.606	102.94
503.823	99.94
504.04	93.94
504.256	95.94
504.473	105.94
504.69	97.94
504.907	92.94
505.123	95.94
505.34	96.94
505.557	101.94
505.773	83.94
505.99	98.94
506.207	85.94
506.423	70.94
506.64	85.94
506.856	91.94
507.073	100.94
507.289	96.94
507.506	101.94
507.722	126.94
507.939	93.94
508.155	94.94
508.372	89.94
508.588	88.94
508.805	90.94
509.021	104.94
509.238	108.94
509.454	101.94
509.67	102.94
509.887	95.94
510.103	116.94
510.319	175.94
510.536	566.94
510.752	1653.94
510.968	479.94
511.184	141.94
511.401	96.94
511.617	90.94
511.833	81.94
512.049	77.94
512.265	97.94
512.481	105.94
512.698	95.94
512.914	102.94
513.13	78.94
513.346	86.94
513.562	99.94
513.778	85.94
513.994	84.94
514.21	99.94
514.426	105.94
514.642	111.94
514.858	109.94
515.074	137.94
515.29	327.94
515.506	963.94
515.721	364.94
515.937	119.94
