Data from Circ_1982_H10_HRD10591_00069.txt Node
Date: Wed Jan 03 12:30:55 EST 2024
User: Yrep
Spectrometer: HR+D1059
Trigger mode: 1
Integration Time (sec): 1.000000E-1
Scans to average: 1
Electric dark correction enabled: true
Nonlinearity correction enabled: false
Boxcar width: 0
XAxis mode: Wavelengths
Number of Pixels in Spectrum: 2048
>>>>>Begin Spectral Data<<<<<
223.165	-22.62
223.4	-22.62
223.635	-22.62
223.869	-15.62
224.104	-17.62
224.338	-11.62
224.573	-7.62
224.808	-14.62
225.042	-10.62
225.277	-7.62
225.511	-7.62
225.746	-2.62
225.98	9.38
226.215	16.38
226.449	21.38
226.683	20.38
226.918	23.38
227.152	27.38
227.387	24.38
227.621	41.38
227.856	40.38
228.09	40.38
228.324	51.38
228.559	51.38
228.793	41.38
229.027	52.38
229.262	62.38
229.496	81.38
229.73	81.38
229.964	85.38
230.199	75.38
230.433	62.38
230.667	79.38
230.901	75.38
231.136	76.38
231.37	90.38
231.604	70.38
231.838	85.38
232.072	86.38
232.306	100.38
232.541	85.38
232.775	93.38
233.009	73.38
233.243	75.38
233.477	90.38
233.711	85.38
233.945	75.38
234.179	61.38
234.413	86.38
234.647	70.38
234.881	72.38
235.115	75.38
235.349	73.38
235.583	76.38
235.817	71.38
236.051	81.38
236.285	73.38
236.519	75.38
236.753	84.38
236.987	81.38
237.221	68.38
237.455	73.38
237.689	70.38
237.922	64.38
238.156	74.38
238.39	70.38
238.624	83.38
238.858	68.38
239.091	83.38
239.325	69.38
239.559	66.38
239.793	77.38
240.027	83.38
240.26	75.38
240.494	78.38
240.728	80.38
240.961	90.38
241.195	75.38
241.429	73.38
241.662	80.38
241.896	81.38
242.13	85.38
242.363	74.38
242.597	63.38
242.83	89.38
243.064	77.38
243.298	61.38
243.531	80.38
243.765	81.38
243.998	84.38
244.232	83.38
244.465	89.38
244.699	96.38
244.932	72.38
245.166	73.38
245.399	73.38
245.633	79.38
245.866	75.38
246.099	66.38
246.333	68.38
246.566	70.38
246.8	88.38
247.033	80.38
247.266	65.38
247.5	91.38
247.733	71.38
247.966	84.38
248.2	70.38
248.433	85.38
248.666	80.38
248.899	88.38
249.133	87.38
249.366	88.38
249.599	83.38
249.832	82.38
250.066	85.38
250.299	80.38
250.532	66.38
250.765	88.38
250.998	97.38
251.231	80.38
251.465	80.38
251.698	88.38
251.931	69.38
252.164	91.38
252.397	88.38
252.63	78.38
252.863	86.38
253.096	73.38
253.329	79.38
253.562	83.38
253.795	77.38
254.028	75.38
254.261	70.38
254.494	67.38
254.727	89.38
254.96	81.38
255.193	89.38
255.426	89.38
255.659	87.38
255.892	74.38
256.124	88.38
256.357	79.38
256.59	96.38
256.823	74.38
257.056	83.38
257.289	85.38
257.521	68.38
257.754	99.38
257.987	65.38
258.22	79.38
258.452	77.38
258.685	81.38
258.918	95.38
259.151	84.38
259.383	85.38
259.616	62.38
259.849	84.38
260.081	85.38
260.314	67.38
260.547	89.38
260.779	76.38
261.012	88.38
261.244	79.38
261.477	88.38
261.71	88.38
261.942	95.38
262.175	93.38
262.407	90.38
262.64	94.38
262.872	87.38
263.105	89.38
263.337	90.38
263.57	72.38
263.802	96.38
264.035	94.38
264.267	75.38
264.499	92.38
264.732	71.38
264.964	84.38
265.197	87.38
265.429	95.38
265.661	90.38
265.894	95.38
266.126	92.38
266.358	93.38
266.591	96.38
266.823	76.38
267.055	93.38
267.287	79.38
267.52	63.38
267.752	86.38
267.984	73.38
268.216	76.38
268.448	82.38
268.681	76.38
268.913	84.38
269.145	74.38
269.377	79.38
269.609	92.38
269.841	83.38
270.073	90.38
270.306	69.38
270.538	105.38
270.77	90.38
271.002	93.38
271.234	78.38
271.466	94.38
271.698	88.38
271.93	82.38
272.162	80.38
272.394	98.38
272.626	72.38
272.858	81.38
273.09	96.38
273.322	84.38
273.553	74.38
273.785	85.38
274.017	97.38
274.249	87.38
274.481	83.38
274.713	75.38
274.945	79.38
275.176	102.38
275.408	90.38
275.64	87.38
275.872	89.38
276.104	93.38
276.335	83.38
276.567	95.38
276.799	91.38
277.031	84.38
277.262	83.38
277.494	87.38
277.726	95.38
277.957	83.38
278.189	93.38
278.421	90.38
278.652	79.38
278.884	95.38
279.115	82.38
279.347	83.38
279.579	80.38
279.81	81.38
280.042	80.38
280.273	77.38
280.505	85.38
280.736	67.38
280.968	73.38
281.199	88.38
281.431	92.38
281.662	91.38
281.894	104.38
282.125	90.38
282.356	117.38
282.588	115.38
282.819	109.38
283.051	87.38
283.282	80.38
283.513	96.38
283.745	95.38
283.976	84.38
284.207	67.38
284.439	87.38
284.67	85.38
284.901	84.38
285.132	89.38
285.364	93.38
285.595	91.38
285.826	100.38
286.057	95.38
286.288	82.38
286.52	72.38
286.751	88.38
286.982	92.38
287.213	82.38
287.444	94.38
287.675	83.38
287.906	89.38
288.138	89.38
288.369	85.38
288.6	90.38
288.831	74.38
289.062	91.38
289.293	96.38
289.524	91.38
289.755	90.38
289.986	97.38
290.217	81.38
290.448	80.38
290.679	103.38
290.91	89.38
291.141	99.38
291.371	109.38
291.602	104.38
291.833	95.38
292.064	97.38
292.295	84.38
292.526	90.38
292.757	88.38
292.987	89.38
293.218	77.38
293.449	83.38
293.68	92.38
293.91	91.38
294.141	81.38
294.372	85.38
294.603	87.38
294.833	95.38
295.064	85.38
295.295	76.38
295.525	93.38
295.756	96.38
295.987	87.38
296.217	124.38
296.448	116.38
296.679	86.38
296.909	106.38
297.14	83.38
297.37	97.38
297.601	91.38
297.831	94.38
298.062	99.38
298.292	95.38
298.523	102.38
298.753	87.38
298.984	92.38
299.214	77.38
299.445	100.38
299.675	83.38
299.905	101.38
300.136	91.38
300.366	89.38
300.597	84.38
300.827	92.38
301.057	106.38
301.288	105.38
301.518	87.38
301.748	95.38
301.979	96.38
302.209	90.38
302.439	80.38
302.669	96.38
302.9	89.38
303.13	84.38
303.36	86.38
303.59	85.38
303.82	99.38
304.051	77.38
304.281	88.38
304.511	79.38
304.741	95.38
304.971	89.38
305.201	92.38
305.431	88.38
305.661	94.38
305.891	89.38
306.121	89.38
306.352	94.38
306.582	91.38
306.812	86.38
307.042	88.38
307.272	95.38
307.502	91.38
307.731	81.38
307.961	91.38
308.191	88.38
308.421	100.38
308.651	69.38
308.881	75.38
309.111	94.38
309.341	87.38
309.571	95.38
309.8	107.38
310.03	107.38
310.26	104.38
310.49	86.38
310.72	108.38
310.949	86.38
311.179	81.38
311.409	105.38
311.639	88.38
311.868	100.38
312.098	95.38
312.328	96.38
312.557	90.38
312.787	98.38
313.017	91.38
313.246	86.38
313.476	89.38
313.706	87.38
313.935	76.38
314.165	82.38
314.394	92.38
314.624	82.38
314.853	91.38
315.083	85.38
315.312	82.38
315.542	91.38
315.771	95.38
316.001	81.38
316.23	80.38
316.46	85.38
316.689	85.38
316.919	70.38
317.148	98.38
317.377	87.38
317.607	99.38
317.836	95.38
318.065	89.38
318.295	77.38
318.524	95.38
318.753	85.38
318.983	86.38
319.212	91.38
319.441	115.38
319.67	94.38
319.9	81.38
320.129	94.38
320.358	99.38
320.587	97.38
320.816	99.38
321.046	96.38
321.275	90.38
321.504	76.38
321.733	90.38
321.962	85.38
322.191	101.38
322.42	94.38
322.649	106.38
322.878	102.38
323.108	99.38
323.337	111.38
323.566	117.38
323.795	117.38
324.024	148.38
324.253	278.38
324.482	577.38
324.71	1081.38
324.939	1444.38
325.168	522.38
325.397	173.38
325.626	124.38
325.855	119.38
326.084	120.38
326.313	111.38
326.542	122.38
326.77	171.38
326.999	323.38
327.228	627.38
327.457	1131.38
327.686	877.38
327.914	263.38
328.143	149.38
328.372	133.38
328.6	112.38
328.829	101.38
329.058	108.38
329.287	115.38
329.515	86.38
329.744	100.38
329.972	110.38
330.201	98.38
330.43	126.38
330.658	109.38
330.887	111.38
331.115	106.38
331.344	100.38
331.572	96.38
331.801	96.38
332.03	97.38
332.258	88.38
332.486	84.38
332.715	95.38
332.943	105.38
333.172	85.38
333.4	81.38
333.629	93.38
333.857	105.38
334.085	101.38
334.314	106.38
334.542	107.38
334.771	109.38
334.999	95.38
335.227	93.38
335.455	83.38
335.684	79.38
335.912	97.38
336.14	90.38
336.369	91.38
336.597	98.38
336.825	83.38
337.053	92.38
337.281	93.38
337.51	92.38
337.738	108.38
337.966	91.38
338.194	98.38
338.422	93.38
338.65	101.38
338.878	93.38
339.106	87.38
339.334	88.38
339.562	100.38
339.79	103.38
340.018	83.38
340.246	88.38
340.474	77.38
340.702	91.38
340.93	90.38
341.158	81.38
341.386	87.38
341.614	96.38
341.842	81.38
342.07	95.38
342.298	99.38
342.526	90.38
342.754	90.38
342.981	88.38
343.209	88.38
343.437	105.38
343.665	93.38
343.893	81.38
344.12	94.38
344.348	79.38
344.576	81.38
344.804	97.38
345.031	91.38
345.259	92.38
345.487	105.38
345.714	100.38
345.942	84.38
346.17	101.38
346.397	89.38
346.625	96.38
346.853	81.38
347.08	78.38
347.308	81.38
347.535	88.38
347.763	96.38
347.99	89.38
348.218	86.38
348.445	98.38
348.673	88.38
348.9	83.38
349.128	105.38
349.355	97.38
349.583	85.38
349.81	100.38
350.037	82.38
350.265	101.38
350.492	100.38
350.72	87.38
350.947	79.38
351.174	102.38
351.402	105.38
351.629	96.38
351.856	105.38
352.083	99.38
352.311	111.38
352.538	93.38
352.765	104.38
352.992	107.38
353.22	109.38
353.447	106.38
353.674	99.38
353.901	96.38
354.128	85.38
354.355	96.38
354.583	90.38
354.81	89.38
355.037	101.38
355.264	97.38
355.491	100.38
355.718	89.38
355.945	101.38
356.172	98.38
356.399	99.38
356.626	98.38
356.853	89.38
357.08	92.38
357.307	106.38
357.534	98.38
357.761	92.38
357.988	99.38
358.215	83.38
358.441	101.38
358.668	92.38
358.895	87.38
359.122	95.38
359.349	102.38
359.576	92.38
359.802	105.38
360.029	94.38
360.256	97.38
360.483	100.38
360.709	107.38
360.936	98.38
361.163	107.38
361.39	90.38
361.616	79.38
361.843	87.38
362.07	92.38
362.296	83.38
362.523	82.38
362.749	110.38
362.976	88.38
363.203	88.38
363.429	85.38
363.656	73.38
363.882	97.38
364.109	100.38
364.335	82.38
364.562	95.38
364.788	88.38
365.015	99.38
365.241	93.38
365.468	93.38
365.694	106.38
365.92	86.38
366.147	95.38
366.373	80.38
366.599	83.38
366.826	93.38
367.052	85.38
367.278	103.38
367.505	87.38
367.731	104.38
367.957	92.38
368.184	91.38
368.41	95.38
368.636	96.38
368.862	110.38
369.089	102.38
369.315	109.38
369.541	87.38
369.767	88.38
369.993	81.38
370.219	96.38
370.445	89.38
370.672	79.38
370.898	86.38
371.124	86.38
371.35	78.38
371.576	83.38
371.802	86.38
372.028	80.38
372.254	90.38
372.48	103.38
372.706	86.38
372.932	89.38
373.158	81.38
373.384	92.38
373.61	87.38
373.835	93.38
374.061	86.38
374.287	96.38
374.513	83.38
374.739	83.38
374.965	80.38
375.191	104.38
375.416	90.38
375.642	87.38
375.868	99.38
376.094	85.38
376.319	84.38
376.545	91.38
376.771	81.38
376.997	76.38
377.222	79.38
377.448	79.38
377.674	75.38
377.899	91.38
378.125	93.38
378.35	97.38
378.576	84.38
378.802	71.38
379.027	82.38
379.253	75.38
379.478	74.38
379.704	84.38
379.929	99.38
380.155	90.38
380.38	82.38
380.606	82.38
380.831	105.38
381.057	100.38
381.282	79.38
381.507	91.38
381.733	94.38
381.958	88.38
382.184	96.38
382.409	95.38
382.634	101.38
382.86	107.38
383.085	94.38
383.31	101.38
383.535	98.38
383.761	100.38
383.986	79.38
384.211	99.38
384.436	92.38
384.662	95.38
384.887	112.38
385.112	98.38
385.337	102.38
385.562	103.38
385.787	100.38
386.013	99.38
386.238	95.38
386.463	95.38
386.688	102.38
386.913	89.38
387.138	100.38
387.363	90.38
387.588	92.38
387.813	97.38
388.038	115.38
388.263	107.38
388.488	117.38
388.713	93.38
388.938	95.38
389.163	97.38
389.387	89.38
389.612	100.38
389.837	87.38
390.062	108.38
390.287	95.38
390.512	84.38
390.736	93.38
390.961	89.38
391.186	97.38
391.411	84.38
391.636	95.38
391.86	87.38
392.085	79.38
392.31	101.38
392.534	79.38
392.759	72.38
392.984	76.38
393.208	68.38
393.433	105.38
393.658	92.38
393.882	91.38
394.107	83.38
394.331	70.38
394.556	77.38
394.78	99.38
395.005	95.38
395.229	70.38
395.454	88.38
395.678	85.38
395.903	89.38
396.127	99.38
396.352	88.38
396.576	88.38
396.801	88.38
397.025	82.38
397.249	95.38
397.474	96.38
397.698	87.38
397.922	88.38
398.147	81.38
398.371	91.38
398.595	97.38
398.82	81.38
399.044	73.38
399.268	68.38
399.492	89.38
399.717	87.38
399.941	93.38
400.165	98.38
400.389	97.38
400.613	88.38
400.837	82.38
401.062	97.38
401.286	79.38
401.51	95.38
401.734	95.38
401.958	86.38
402.182	107.38
402.406	144.38
402.63	96.38
402.854	84.38
403.078	75.38
403.302	83.38
403.526	85.38
403.75	87.38
403.974	80.38
404.198	87.38
404.422	73.38
404.645	85.38
404.869	77.38
405.093	85.38
405.317	81.38
405.541	96.38
405.765	86.38
405.988	99.38
406.212	144.38
406.436	172.38
406.66	123.38
406.883	95.38
407.107	88.38
407.331	92.38
407.555	103.38
407.778	90.38
408.002	92.38
408.226	89.38
408.449	95.38
408.673	81.38
408.896	84.38
409.12	103.38
409.344	103.38
409.567	87.38
409.791	91.38
410.014	99.38
410.238	87.38
410.461	97.38
410.685	91.38
410.908	105.38
411.132	107.38
411.355	81.38
411.578	82.38
411.802	95.38
412.025	82.38
412.249	75.38
412.472	82.38
412.695	87.38
412.919	100.38
413.142	96.38
413.365	83.38
413.589	91.38
413.812	93.38
414.035	93.38
414.258	88.38
414.482	90.38
414.705	81.38
414.928	88.38
415.151	101.38
415.374	110.38
415.597	79.38
415.821	87.38
416.044	68.38
416.267	83.38
416.49	88.38
416.713	79.38
416.936	67.38
417.159	91.38
417.382	76.38
417.605	83.38
417.828	73.38
418.051	91.38
418.274	84.38
418.497	93.38
418.72	93.38
418.943	89.38
419.166	97.38
419.389	80.38
419.611	100.38
419.834	93.38
420.057	88.38
420.28	95.38
420.503	81.38
420.726	88.38
420.948	88.38
421.171	81.38
421.394	94.38
421.617	100.38
421.839	103.38
422.062	109.38
422.285	105.38
422.507	89.38
422.73	88.38
422.953	99.38
423.175	91.38
423.398	95.38
423.621	81.38
423.843	98.38
424.066	91.38
424.288	83.38
424.511	79.38
424.733	90.38
424.956	95.38
425.178	84.38
425.401	104.38
425.623	75.38
425.846	90.38
426.068	92.38
426.291	89.38
426.513	87.38
426.735	96.38
426.958	90.38
427.18	91.38
427.402	116.38
427.625	128.38
427.847	103.38
428.069	99.38
428.292	97.38
428.514	93.38
428.736	75.38
428.958	75.38
429.181	83.38
429.403	66.38
429.625	99.38
429.847	103.38
430.069	84.38
430.292	89.38
430.514	80.38
430.736	91.38
430.958	91.38
431.18	84.38
431.402	83.38
431.624	87.38
431.846	75.38
432.068	89.38
432.29	85.38
432.512	95.38
432.734	92.38
432.956	79.38
433.178	93.38
433.4	82.38
433.622	92.38
433.844	88.38
434.066	88.38
434.287	86.38
434.509	84.38
434.731	74.38
434.953	94.38
435.175	91.38
435.397	92.38
435.618	86.38
435.84	87.38
436.062	110.38
436.284	114.38
436.505	83.38
436.727	86.38
436.949	92.38
437.17	72.38
437.392	100.38
437.614	92.38
437.835	101.38
438.057	102.38
438.278	95.38
438.5	72.38
438.721	100.38
438.943	95.38
439.165	85.38
439.386	83.38
439.608	96.38
439.829	103.38
440.05	113.38
440.272	100.38
440.493	90.38
440.715	101.38
440.936	87.38
441.158	87.38
441.379	97.38
441.6	84.38
441.822	84.38
442.043	84.38
442.264	96.38
442.486	75.38
442.707	89.38
442.928	100.38
443.149	116.38
443.371	116.38
443.592	102.38
443.813	101.38
444.034	101.38
444.255	88.38
444.476	86.38
444.698	80.38
444.919	94.38
445.14	119.38
445.361	109.38
445.582	98.38
445.803	109.38
446.024	125.38
446.245	122.38
446.466	85.38
446.687	84.38
446.908	75.38
447.129	85.38
447.35	85.38
447.571	90.38
447.792	90.38
448.013	84.38
448.234	98.38
448.455	89.38
448.675	92.38
448.896	92.38
449.117	85.38
449.338	92.38
449.559	119.38
449.779	118.38
450	84.38
450.221	102.38
450.442	88.38
450.662	75.38
450.883	103.38
451.104	99.38
451.324	96.38
451.545	81.38
451.766	81.38
451.986	95.38
452.207	88.38
452.428	98.38
452.648	100.38
452.869	99.38
453.089	86.38
453.31	97.38
453.53	79.38
453.751	93.38
453.971	84.38
454.192	91.38
454.412	84.38
454.633	73.38
454.853	81.38
455.073	97.38
455.294	98.38
455.514	95.38
455.734	86.38
455.955	78.38
456.175	94.38
456.395	83.38
456.616	81.38
456.836	82.38
457.056	87.38
457.276	87.38
457.497	91.38
457.717	84.38
457.937	74.38
458.157	85.38
458.377	81.38
458.598	107.38
458.818	130.38
459.038	134.38
459.258	108.38
459.478	82.38
459.698	76.38
459.918	77.38
460.138	92.38
460.358	75.38
460.578	90.38
460.798	95.38
461.018	83.38
461.238	82.38
461.458	71.38
461.678	89.38
461.898	88.38
462.118	89.38
462.338	79.38
462.558	81.38
462.777	76.38
462.997	79.38
463.217	95.38
463.437	74.38
463.657	93.38
463.876	85.38
464.096	100.38
464.316	86.38
464.536	89.38
464.755	104.38
464.975	88.38
465.195	124.38
465.414	117.38
465.634	98.38
465.854	89.38
466.073	72.38
466.293	74.38
466.512	84.38
466.732	87.38
466.951	83.38
467.171	94.38
467.391	97.38
467.61	92.38
467.829	80.38
468.049	92.38
468.268	81.38
468.488	91.38
468.707	89.38
468.927	83.38
469.146	82.38
469.365	83.38
469.585	77.38
469.804	70.38
470.023	83.38
470.243	95.38
470.462	84.38
470.681	95.38
470.901	83.38
471.12	85.38
471.339	84.38
471.558	90.38
471.777	89.38
471.997	87.38
472.216	96.38
472.435	134.38
472.654	100.38
472.873	77.38
473.092	79.38
473.311	75.38
473.53	83.38
473.749	90.38
473.968	94.38
474.187	101.38
474.406	99.38
474.625	75.38
474.844	87.38
475.063	94.38
475.282	88.38
475.501	91.38
475.72	90.38
475.939	86.38
476.158	82.38
476.377	81.38
476.596	86.38
476.814	89.38
477.033	95.38
477.252	92.38
477.471	90.38
477.69	79.38
477.908	83.38
478.127	85.38
478.346	84.38
478.564	99.38
478.783	87.38
479.002	83.38
479.22	85.38
479.439	92.38
479.658	81.38
479.876	85.38
480.095	92.38
480.313	96.38
480.532	96.38
480.751	90.38
480.969	90.38
481.188	148.38
481.406	132.38
481.624	81.38
481.843	75.38
482.061	90.38
482.28	69.38
482.498	84.38
482.717	100.38
482.935	74.38
483.153	83.38
483.372	79.38
483.59	85.38
483.808	80.38
484.027	83.38
484.245	98.38
484.463	81.38
484.681	97.38
484.9	79.38
485.118	81.38
485.336	91.38
485.554	97.38
485.772	101.38
485.99	96.38
486.209	91.38
486.427	102.38
486.645	101.38
486.863	113.38
487.081	99.38
487.299	93.38
487.517	85.38
487.735	93.38
487.953	98.38
488.171	82.38
488.389	96.38
488.607	96.38
488.825	89.38
489.043	80.38
489.261	68.38
489.479	96.38
489.696	99.38
489.914	90.38
490.132	97.38
490.35	87.38
490.568	90.38
490.786	96.38
491.003	76.38
491.221	93.38
491.439	88.38
491.657	92.38
491.874	93.38
492.092	87.38
492.31	96.38
492.527	96.38
492.745	91.38
492.963	72.38
493.18	84.38
493.398	106.38
493.615	90.38
493.833	88.38
494.05	88.38
494.268	98.38
494.485	89.38
494.703	87.38
494.92	82.38
495.138	84.38
495.355	83.38
495.573	84.38
495.79	89.38
496.008	106.38
496.225	104.38
496.442	86.38
496.66	95.38
496.877	91.38
497.094	93.38
497.312	88.38
497.529	92.38
497.746	95.38
497.963	87.38
498.181	80.38
498.398	95.38
498.615	109.38
498.832	99.38
499.049	91.38
499.267	103.38
499.484	94.38
499.701	80.38
499.918	96.38
500.135	98.38
500.352	83.38
500.569	79.38
500.786	81.38
501.003	81.38
501.22	87.38
501.437	87.38
501.654	90.38
501.871	95.38
502.088	85.38
502.305	83.38
502.522	82.38
502.739	76.38
502.956	98.38
503.172	101.38
503.389	94.38
503.606	92.38
503.823	97.38
504.04	90.38
504.256	95.38
504.473	89.38
504.69	88.38
504.907	86.38
505.123	80.38
505.34	88.38
505.557	80.38
505.773	89.38
505.99	88.38
506.207	77.38
506.423	91.38
506.64	98.38
506.856	87.38
507.073	91.38
507.289	100.38
507.506	83.38
507.722	112.38
507.939	97.38
508.155	103.38
508.372	99.38
508.588	85.38
508.805	88.38
509.021	81.38
509.238	98.38
509.454	102.38
509.67	103.38
509.887	109.38
510.103	120.38
510.319	169.38
510.536	544.38
510.752	1590.38
510.968	449.38
511.184	127.38
511.401	90.38
511.617	95.38
511.833	91.38
512.049	92.38
512.265	87.38
512.481	108.38
512.698	87.38
512.914	106.38
513.13	99.38
513.346	82.38
513.562	87.38
513.778	103.38
513.994	99.38
514.21	98.38
514.426	103.38
514.642	121.38
514.858	105.38
515.074	123.38
515.29	316.38
515.506	939.38
515.721	351.38
515.937	130.38
516.153	97.38
516.369	100.38
516.585	83.38
516.801	84.38
