Data from Circ_1982_H10_HRD10591_00020.txt Node
Date: Wed Jan 03 12:30:45 EST 2024
User: Yrep
Spectrometer: HR+D1059
Trigger mode: 1
Integration Time (sec): 1.000000E-1
Scans to average: 1
Electric dark correction enabled: true
Nonlinearity correction enabled: false
Boxcar width: 0
XAxis mode: Wavelengths
Number of Pixels in Spectrum: 2048
>>>>>Begin Spectral Data<<<<<
223.165	-18.44
223.4	-18.44
223.635	-18.44
223.869	-25.44
224.104	-17.44
224.338	-14.44
224.573	-9.44
224.808	-17.44
225.042	-3.44
225.277	-16.44
225.511	-10.44
225.746	6.56
225.98	17.56
226.215	3.56
226.449	17.56
226.683	22.56
226.918	31.56
227.152	33.56
227.387	41.56
227.621	43.56
227.856	48.56
228.09	26.56
228.324	54.56
228.559	47.56
228.793	54.56
229.027	53.56
229.262	54.56
229.496	74.56
229.73	76.56
229.964	83.56
230.199	77.56
230.433	51.56
230.667	78.56
230.901	81.56
231.136	90.56
231.37	90.56
231.604	73.56
231.838	75.56
232.072	77.56
232.306	81.56
232.541	87.56
232.775	92.56
233.009	92.56
233.243	81.56
233.477	73.56
233.711	81.56
233.945	76.56
234.179	81.56
234.413	78.56
234.647	83.56
234.881	78.56
235.115	88.56
235.349	67.56
235.583	77.56
235.817	77.56
236.051	82.56
236.285	63.56
236.519	70.56
236.753	87.56
236.987	76.56
237.221	75.56
237.455	93.56
237.689	89.56
237.922	82.56
238.156	76.56
238.39	68.56
238.624	78.56
238.858	86.56
239.091	62.56
239.325	73.56
239.559	62.56
239.793	93.56
240.027	89.56
240.26	88.56
240.494	64.56
240.728	71.56
240.961	78.56
241.195	69.56
241.429	76.56
241.662	74.56
241.896	90.56
242.13	73.56
242.363	65.56
242.597	79.56
242.83	70.56
243.064	77.56
243.298	72.56
243.531	67.56
243.765	85.56
243.998	83.56
244.232	75.56
244.465	93.56
244.699	75.56
244.932	75.56
245.166	73.56
245.399	73.56
245.633	100.56
245.866	82.56
246.099	77.56
246.333	77.56
246.566	74.56
246.8	73.56
247.033	67.56
247.266	76.56
247.5	78.56
247.733	88.56
247.966	83.56
248.2	66.56
248.433	77.56
248.666	84.56
248.899	81.56
249.133	87.56
249.366	103.56
249.599	87.56
249.832	90.56
250.066	90.56
250.299	89.56
250.532	94.56
250.765	85.56
250.998	81.56
251.231	86.56
251.465	63.56
251.698	75.56
251.931	75.56
252.164	90.56
252.397	83.56
252.63	60.56
252.863	81.56
253.096	75.56
253.329	65.56
253.562	84.56
253.795	82.56
254.028	79.56
254.261	92.56
254.494	85.56
254.727	88.56
254.96	67.56
255.193	65.56
255.426	89.56
255.659	74.56
255.892	92.56
256.124	80.56
256.357	69.56
256.59	76.56
256.823	77.56
257.056	84.56
257.289	71.56
257.521	91.56
257.754	75.56
257.987	84.56
258.22	85.56
258.452	82.56
258.685	74.56
258.918	83.56
259.151	71.56
259.383	67.56
259.616	96.56
259.849	93.56
260.081	85.56
260.314	77.56
260.547	86.56
260.779	55.56
261.012	70.56
261.244	96.56
261.477	99.56
261.71	91.56
261.942	71.56
262.175	96.56
262.407	87.56
262.64	84.56
262.872	78.56
263.105	83.56
263.337	78.56
263.57	76.56
263.802	85.56
264.035	86.56
264.267	93.56
264.499	93.56
264.732	83.56
264.964	80.56
265.197	69.56
265.429	86.56
265.661	82.56
265.894	81.56
266.126	82.56
266.358	92.56
266.591	101.56
266.823	73.56
267.055	79.56
267.287	78.56
267.52	84.56
267.752	77.56
267.984	87.56
268.216	79.56
268.448	88.56
268.681	82.56
268.913	79.56
269.145	77.56
269.377	86.56
269.609	70.56
269.841	74.56
270.073	102.56
270.306	101.56
270.538	89.56
270.77	89.56
271.002	78.56
271.234	74.56
271.466	85.56
271.698	89.56
271.93	89.56
272.162	92.56
272.394	83.56
272.626	89.56
272.858	89.56
273.09	85.56
273.322	82.56
273.553	78.56
273.785	103.56
274.017	76.56
274.249	100.56
274.481	69.56
274.713	76.56
274.945	84.56
275.176	83.56
275.408	74.56
275.64	83.56
275.872	89.56
276.104	77.56
276.335	87.56
276.567	96.56
276.799	89.56
277.031	85.56
277.262	86.56
277.494	91.56
277.726	87.56
277.957	84.56
278.189	84.56
278.421	88.56
278.652	68.56
278.884	78.56
279.115	92.56
279.347	81.56
279.579	93.56
279.81	89.56
280.042	96.56
280.273	89.56
280.505	82.56
280.736	75.56
280.968	90.56
281.199	84.56
281.431	81.56
281.662	90.56
281.894	93.56
282.125	98.56
282.356	96.56
282.588	109.56
282.819	93.56
283.051	91.56
283.282	83.56
283.513	94.56
283.745	92.56
283.976	81.56
284.207	92.56
284.439	102.56
284.67	72.56
284.901	75.56
285.132	82.56
285.364	90.56
285.595	86.56
285.826	79.56
286.057	91.56
286.288	83.56
286.52	83.56
286.751	87.56
286.982	78.56
287.213	101.56
287.444	83.56
287.675	94.56
287.906	99.56
288.138	93.56
288.369	95.56
288.6	88.56
288.831	90.56
289.062	97.56
289.293	74.56
289.524	87.56
289.755	90.56
289.986	89.56
290.217	76.56
290.448	90.56
290.679	79.56
290.91	93.56
291.141	93.56
291.371	84.56
291.602	93.56
291.833	95.56
292.064	85.56
292.295	86.56
292.526	91.56
292.757	77.56
292.987	95.56
293.218	79.56
293.449	75.56
293.68	93.56
293.91	90.56
294.141	88.56
294.372	82.56
294.603	96.56
294.833	83.56
295.064	78.56
295.295	99.56
295.525	103.56
295.756	103.56
295.987	109.56
296.217	110.56
296.448	111.56
296.679	93.56
296.909	75.56
297.14	76.56
297.37	86.56
297.601	90.56
297.831	85.56
298.062	88.56
298.292	89.56
298.523	75.56
298.753	84.56
298.984	94.56
299.214	105.56
299.445	98.56
299.675	88.56
299.905	91.56
300.136	92.56
300.366	92.56
300.597	91.56
300.827	94.56
301.057	78.56
301.288	95.56
301.518	81.56
301.748	91.56
301.979	103.56
302.209	97.56
302.439	93.56
302.669	95.56
302.9	83.56
303.13	101.56
303.36	97.56
303.59	101.56
303.82	91.56
304.051	88.56
304.281	87.56
304.511	90.56
304.741	76.56
304.971	94.56
305.201	92.56
305.431	90.56
305.661	82.56
305.891	84.56
306.121	95.56
306.352	96.56
306.582	92.56
306.812	103.56
307.042	89.56
307.272	82.56
307.502	92.56
307.731	84.56
307.961	81.56
308.191	85.56
308.421	95.56
308.651	89.56
308.881	89.56
309.111	95.56
309.341	83.56
309.571	95.56
309.8	89.56
310.03	97.56
310.26	99.56
310.49	105.56
310.72	82.56
310.949	96.56
311.179	92.56
311.409	95.56
311.639	83.56
311.868	92.56
312.098	87.56
312.328	76.56
312.557	83.56
312.787	94.56
313.017	110.56
313.246	100.56
313.476	89.56
313.706	89.56
313.935	88.56
314.165	109.56
314.394	99.56
314.624	103.56
314.853	87.56
315.083	86.56
315.312	90.56
315.542	98.56
315.771	90.56
316.001	94.56
316.23	85.56
316.46	101.56
316.689	77.56
316.919	93.56
317.148	84.56
317.377	113.56
317.607	100.56
317.836	93.56
318.065	76.56
318.295	86.56
318.524	93.56
318.753	96.56
318.983	99.56
319.212	106.56
319.441	101.56
319.67	100.56
319.9	105.56
320.129	105.56
320.358	89.56
320.587	97.56
320.816	99.56
321.046	93.56
321.275	114.56
321.504	94.56
321.733	107.56
321.962	93.56
322.191	93.56
322.42	102.56
322.649	103.56
322.878	98.56
323.108	99.56
323.337	119.56
323.566	115.56
323.795	117.56
324.024	158.56
324.253	285.56
324.482	548.56
324.71	1106.56
324.939	1455.56
325.168	551.56
325.397	193.56
325.626	127.56
325.855	117.56
326.084	102.56
326.313	114.56
326.542	131.56
326.77	190.56
326.999	344.56
327.228	647.56
327.457	1159.56
327.686	919.56
327.914	278.56
328.143	165.56
328.372	130.56
328.6	107.56
328.829	109.56
329.058	116.56
329.287	113.56
329.515	99.56
329.744	107.56
329.972	90.56
330.201	94.56
330.43	109.56
330.658	105.56
330.887	129.56
331.115	97.56
331.344	99.56
331.572	96.56
331.801	94.56
332.03	107.56
332.258	86.56
332.486	89.56
332.715	109.56
332.943	99.56
333.172	105.56
333.4	89.56
333.629	88.56
333.857	93.56
334.085	99.56
334.314	105.56
334.542	128.56
334.771	118.56
334.999	94.56
335.227	89.56
335.455	87.56
335.684	96.56
335.912	79.56
336.14	102.56
336.369	88.56
336.597	115.56
336.825	94.56
337.053	79.56
337.281	93.56
337.51	94.56
337.738	83.56
337.966	93.56
338.194	93.56
338.422	97.56
338.65	95.56
338.878	92.56
339.106	81.56
339.334	90.56
339.562	93.56
339.79	95.56
340.018	89.56
340.246	87.56
340.474	99.56
340.702	101.56
340.93	91.56
341.158	93.56
341.386	95.56
341.614	97.56
341.842	82.56
342.07	77.56
342.298	89.56
342.526	78.56
342.754	86.56
342.981	87.56
343.209	87.56
343.437	99.56
343.665	94.56
343.893	91.56
344.12	103.56
344.348	87.56
344.576	76.56
344.804	91.56
345.031	92.56
345.259	93.56
345.487	99.56
345.714	108.56
345.942	91.56
346.17	93.56
346.397	84.56
346.625	103.56
346.853	89.56
347.08	101.56
347.308	87.56
347.535	99.56
347.763	97.56
347.99	95.56
348.218	110.56
348.445	99.56
348.673	86.56
348.9	99.56
349.128	91.56
349.355	93.56
349.583	94.56
349.81	93.56
350.037	103.56
350.265	97.56
350.492	98.56
350.72	81.56
350.947	100.56
351.174	113.56
351.402	105.56
351.629	100.56
351.856	93.56
352.083	102.56
352.311	87.56
352.538	112.56
352.765	99.56
352.992	103.56
353.22	100.56
353.447	107.56
353.674	91.56
353.901	92.56
354.128	105.56
354.355	87.56
354.583	97.56
354.81	105.56
355.037	102.56
355.264	97.56
355.491	101.56
355.718	91.56
355.945	106.56
356.172	90.56
356.399	90.56
356.626	97.56
356.853	85.56
357.08	87.56
357.307	100.56
357.534	99.56
357.761	109.56
357.988	93.56
358.215	99.56
358.441	107.56
358.668	87.56
358.895	80.56
359.122	94.56
359.349	99.56
359.576	84.56
359.802	95.56
360.029	113.56
360.256	100.56
360.483	94.56
360.709	84.56
360.936	98.56
361.163	108.56
361.39	85.56
361.616	86.56
361.843	89.56
362.07	86.56
362.296	85.56
362.523	88.56
362.749	100.56
362.976	84.56
363.203	79.56
363.429	94.56
363.656	94.56
363.882	91.56
364.109	103.56
364.335	100.56
364.562	89.56
364.788	89.56
365.015	98.56
365.241	98.56
365.468	110.56
365.694	93.56
365.92	83.56
366.147	87.56
366.373	82.56
366.599	85.56
366.826	95.56
367.052	105.56
367.278	86.56
367.505	97.56
367.731	78.56
367.957	95.56
368.184	94.56
368.41	84.56
368.636	97.56
368.862	119.56
369.089	107.56
369.315	87.56
369.541	83.56
369.767	104.56
369.993	88.56
370.219	82.56
370.445	93.56
370.672	97.56
370.898	96.56
371.124	93.56
371.35	96.56
371.576	95.56
371.802	81.56
372.028	84.56
372.254	93.56
372.48	83.56
372.706	76.56
372.932	98.56
373.158	100.56
373.384	88.56
373.61	83.56
373.835	92.56
374.061	85.56
374.287	90.56
374.513	86.56
374.739	95.56
374.965	99.56
375.191	97.56
375.416	74.56
375.642	94.56
375.868	87.56
376.094	83.56
376.319	88.56
376.545	109.56
376.771	88.56
376.997	87.56
377.222	91.56
377.448	108.56
377.674	100.56
377.899	97.56
378.125	86.56
378.35	92.56
378.576	92.56
378.802	86.56
379.027	103.56
379.253	98.56
379.478	91.56
379.704	81.56
379.929	111.56
380.155	103.56
380.38	101.56
380.606	98.56
380.831	80.56
381.057	108.56
381.282	109.56
381.507	93.56
381.733	106.56
381.958	91.56
382.184	108.56
382.409	93.56
382.634	108.56
382.86	97.56
383.085	100.56
383.31	105.56
383.535	113.56
383.761	105.56
383.986	90.56
384.211	98.56
384.436	102.56
384.662	99.56
384.887	100.56
385.112	101.56
385.337	107.56
385.562	118.56
385.787	116.56
386.013	122.56
386.238	111.56
386.463	97.56
386.688	119.56
386.913	113.56
387.138	102.56
387.363	113.56
387.588	107.56
387.813	95.56
388.038	102.56
388.263	111.56
388.488	121.56
388.713	104.56
388.938	93.56
389.163	98.56
389.387	90.56
389.612	100.56
389.837	102.56
390.062	98.56
390.287	91.56
390.512	75.56
390.736	89.56
390.961	90.56
391.186	82.56
391.411	101.56
391.636	101.56
391.86	90.56
392.085	93.56
392.31	70.56
392.534	91.56
392.759	87.56
392.984	78.56
393.208	89.56
393.433	107.56
393.658	102.56
393.882	99.56
394.107	89.56
394.331	93.56
394.556	96.56
394.78	93.56
395.005	95.56
395.229	78.56
395.454	95.56
395.678	72.56
395.903	93.56
396.127	81.56
396.352	95.56
396.576	89.56
396.801	99.56
397.025	104.56
397.249	87.56
397.474	87.56
397.698	101.56
397.922	84.56
398.147	91.56
398.371	87.56
398.595	93.56
398.82	87.56
399.044	81.56
399.268	89.56
399.492	86.56
399.717	84.56
399.941	91.56
400.165	90.56
400.389	86.56
400.613	74.56
400.837	85.56
401.062	100.56
401.286	82.56
401.51	76.56
401.734	88.56
401.958	94.56
402.182	111.56
402.406	128.56
402.63	84.56
402.854	86.56
403.078	105.56
403.302	77.56
403.526	99.56
403.75	89.56
403.974	82.56
404.198	87.56
404.422	97.56
404.645	96.56
404.869	89.56
405.093	98.56
405.317	101.56
405.541	99.56
405.765	99.56
405.988	108.56
406.212	134.56
406.436	170.56
406.66	132.56
406.883	95.56
407.107	100.56
407.331	103.56
407.555	104.56
407.778	101.56
408.002	77.56
408.226	80.56
408.449	86.56
408.673	88.56
408.896	92.56
409.12	86.56
409.344	98.56
409.567	84.56
409.791	92.56
410.014	86.56
410.238	92.56
410.461	96.56
410.685	85.56
410.908	94.56
411.132	106.56
411.355	103.56
411.578	104.56
411.802	84.56
412.025	82.56
412.249	75.56
412.472	104.56
412.695	87.56
412.919	93.56
413.142	89.56
413.365	94.56
413.589	87.56
413.812	89.56
414.035	99.56
414.258	75.56
414.482	92.56
414.705	86.56
414.928	89.56
415.151	110.56
415.374	105.56
415.597	83.56
415.821	85.56
416.044	81.56
416.267	88.56
416.49	80.56
416.713	88.56
416.936	74.56
417.159	94.56
417.382	92.56
417.605	97.56
417.828	100.56
418.051	76.56
418.274	93.56
418.497	93.56
418.72	92.56
418.943	105.56
419.166	87.56
419.389	101.56
419.611	93.56
419.834	89.56
420.057	93.56
420.28	93.56
420.503	95.56
420.726	85.56
420.948	84.56
421.171	88.56
421.394	103.56
421.617	85.56
421.839	99.56
422.062	75.56
422.285	78.56
422.507	106.56
422.73	97.56
422.953	89.56
423.175	85.56
423.398	88.56
423.621	100.56
423.843	86.56
424.066	97.56
424.288	85.56
424.511	87.56
424.733	86.56
424.956	94.56
425.178	92.56
425.401	100.56
425.623	96.56
425.846	95.56
426.068	83.56
426.291	92.56
426.513	78.56
426.735	79.56
426.958	105.56
427.18	108.56
427.402	120.56
427.625	122.56
427.847	109.56
428.069	107.56
428.292	75.56
428.514	87.56
428.736	92.56
428.958	78.56
429.181	94.56
429.403	76.56
429.625	75.56
429.847	78.56
430.069	87.56
430.292	85.56
430.514	85.56
430.736	98.56
430.958	98.56
431.18	90.56
431.402	82.56
431.624	75.56
431.846	90.56
432.068	82.56
432.29	81.56
432.512	89.56
432.734	82.56
432.956	89.56
433.178	101.56
433.4	93.56
433.622	99.56
433.844	91.56
434.066	83.56
434.287	97.56
434.509	98.56
434.731	78.56
434.953	90.56
435.175	105.56
435.397	92.56
435.618	105.56
435.84	93.56
436.062	98.56
436.284	101.56
436.505	94.56
436.727	93.56
436.949	94.56
437.17	92.56
437.392	65.56
437.614	86.56
437.835	71.56
438.057	108.56
438.278	87.56
438.5	91.56
438.721	98.56
438.943	90.56
439.165	86.56
439.386	103.56
439.608	92.56
439.829	99.56
440.05	95.56
440.272	129.56
440.493	106.56
440.715	89.56
440.936	81.56
441.158	81.56
441.379	88.56
441.6	71.56
441.822	87.56
442.043	85.56
442.264	85.56
442.486	93.56
442.707	97.56
442.928	112.56
443.149	120.56
443.371	110.56
443.592	108.56
443.813	101.56
444.034	103.56
444.255	94.56
444.476	87.56
444.698	98.56
444.919	92.56
445.14	136.56
445.361	117.56
445.582	110.56
445.803	108.56
446.024	105.56
446.245	101.56
446.466	104.56
446.687	93.56
446.908	93.56
447.129	98.56
447.35	87.56
447.571	100.56
447.792	85.56
448.013	87.56
448.234	97.56
448.455	102.56
448.675	97.56
448.896	106.56
449.117	95.56
449.338	104.56
449.559	118.56
449.779	119.56
450	86.56
450.221	94.56
450.442	76.56
450.662	76.56
450.883	93.56
451.104	102.56
451.324	96.56
451.545	79.56
451.766	88.56
451.986	73.56
452.207	81.56
452.428	82.56
452.648	84.56
452.869	107.56
453.089	93.56
453.31	84.56
453.53	88.56
453.751	94.56
453.971	111.56
454.192	95.56
454.412	77.56
454.633	76.56
454.853	97.56
455.073	93.56
455.294	83.56
455.514	86.56
455.734	86.56
455.955	95.56
456.175	76.56
456.395	89.56
456.616	93.56
456.836	92.56
457.056	94.56
457.276	101.56
457.497	77.56
457.717	91.56
457.937	78.56
458.157	79.56
458.377	88.56
458.598	87.56
458.818	123.56
459.038	130.56
459.258	98.56
459.478	91.56
459.698	85.56
459.918	85.56
460.138	86.56
460.358	78.56
460.578	86.56
460.798	84.56
461.018	83.56
461.238	78.56
461.458	79.56
461.678	78.56
461.898	86.56
462.118	93.56
462.338	78.56
462.558	89.56
462.777	86.56
462.997	88.56
463.217	73.56
463.437	74.56
463.657	75.56
463.876	90.56
464.096	69.56
464.316	99.56
464.536	74.56
464.755	79.56
464.975	102.56
465.195	128.56
465.414	127.56
465.634	88.56
465.854	84.56
466.073	92.56
466.293	94.56
466.512	101.56
466.732	90.56
466.951	95.56
467.171	95.56
467.391	83.56
467.61	92.56
467.829	83.56
468.049	114.56
468.268	101.56
468.488	77.56
468.707	90.56
468.927	86.56
469.146	87.56
469.365	91.56
469.585	97.56
469.804	87.56
470.023	87.56
470.243	107.56
470.462	97.56
470.681	100.56
470.901	81.56
471.12	85.56
471.339	86.56
471.558	88.56
471.777	74.56
471.997	93.56
472.216	99.56
472.435	113.56
472.654	77.56
472.873	82.56
473.092	94.56
473.311	77.56
473.53	87.56
473.749	77.56
473.968	85.56
474.187	106.56
474.406	91.56
474.625	89.56
474.844	95.56
475.063	87.56
475.282	86.56
475.501	92.56
475.72	70.56
475.939	101.56
476.158	89.56
476.377	89.56
476.596	86.56
476.814	91.56
477.033	78.56
477.252	74.56
477.471	78.56
477.69	89.56
477.908	85.56
478.127	92.56
478.346	73.56
478.564	97.56
478.783	92.56
479.002	81.56
479.22	105.56
479.439	101.56
479.658	105.56
479.876	84.56
480.095	77.56
480.313	89.56
480.532	87.56
480.751	91.56
480.969	82.56
481.188	140.56
481.406	133.56
481.624	101.56
481.843	93.56
482.061	94.56
482.28	75.56
482.498	87.56
482.717	88.56
482.935	90.56
483.153	85.56
483.372	92.56
483.59	89.56
483.808	83.56
484.027	86.56
484.245	117.56
484.463	76.56
484.681	103.56
484.9	91.56
485.118	107.56
485.336	93.56
485.554	97.56
485.772	104.56
485.99	105.56
486.209	100.56
486.427	108.56
486.645	106.56
486.863	105.56
487.081	109.56
487.299	101.56
487.517	100.56
487.735	103.56
487.953	95.56
488.171	99.56
488.389	88.56
488.607	92.56
488.825	86.56
489.043	88.56
489.261	88.56
489.479	94.56
489.696	104.56
489.914	97.56
490.132	92.56
490.35	90.56
490.568	83.56
490.786	98.56
491.003	80.56
491.221	100.56
491.439	95.56
491.657	86.56
491.874	91.56
492.092	89.56
492.31	97.56
492.527	95.56
492.745	97.56
492.963	78.56
493.18	83.56
493.398	70.56
493.615	86.56
493.833	91.56
494.05	86.56
494.268	92.56
494.485	82.56
494.703	87.56
494.92	85.56
495.138	97.56
495.355	90.56
495.573	98.56
495.79	89.56
496.008	80.56
496.225	93.56
496.442	90.56
496.66	88.56
496.877	82.56
497.094	70.56
497.312	91.56
497.529	83.56
497.746	83.56
497.963	107.56
498.181	87.56
498.398	106.56
498.615	114.56
498.832	106.56
499.049	98.56
499.267	89.56
499.484	94.56
499.701	88.56
499.918	98.56
500.135	79.56
500.352	88.56
500.569	86.56
500.786	95.56
501.003	93.56
501.22	97.56
501.437	95.56
501.654	94.56
501.871	104.56
502.088	88.56
502.305	85.56
502.522	101.56
502.739	75.56
502.956	84.56
503.172	83.56
503.389	92.56
503.606	104.56
503.823	87.56
504.04	99.56
504.256	94.56
504.473	88.56
504.69	91.56
504.907	94.56
505.123	90.56
505.34	94.56
505.557	90.56
505.773	99.56
505.99	81.56
506.207	91.56
506.423	100.56
506.64	95.56
506.856	85.56
507.073	71.56
507.289	93.56
507.506	97.56
507.722	107.56
507.939	106.56
508.155	95.56
508.372	96.56
508.588	77.56
508.805	89.56
509.021	89.56
509.238	81.56
509.454	86.56
509.67	94.56
509.887	121.56
510.103	106.56
510.319	180.56
510.536	513.56
510.752	1447.56
510.968	421.56
511.184	130.56
511.401	93.56
511.617	94.56
511.833	99.56
512.049	94.56
512.265	109.56
512.481	103.56
512.698	98.56
512.914	89.56
513.13	99.56
513.346	98.56
513.562	100.56
513.778	85.56
513.994	100.56
514.21	97.56
514.426	115.56
514.642	104.56
514.858	104.56
515.074	131.56
515.29	301.56
515.506	865.56
515.721	335.56
515.937	106.56
516.153	89.56
