Data from Circ_1982_H10_HRD10591_00096.txt Node
Date: Wed Jan 03 12:31:00 EST 2024
User: Yrep
Spectrometer: HR+D1059
Trigger mode: 1
Integration Time (sec): 1.000000E-1
Scans to average: 1
Electric dark correction enabled: true
Nonlinearity correction enabled: false
Boxcar width: 0
XAxis mode: Wavelengths
Number of Pixels in Spectrum: 2048
>>>>>Begin Spectral Data<<<<<
223.165	-12.44
223.4	-12.44
223.635	-12.44
223.869	-15.44
224.104	-17.44
224.338	-12.44
224.573	-12.44
224.808	-17.44
225.042	-13.44
225.277	-0.44
225.511	-1.44
225.746	-8.44
225.98	-1.44
226.215	6.56
226.449	11.56
226.683	25.56
226.918	34.56
227.152	34.56
227.387	33.56
227.621	60.56
227.856	52.56
228.09	58.56
228.324	48.56
228.559	88.56
228.793	46.56
229.027	71.56
229.262	90.56
229.496	87.56
229.73	78.56
229.964	79.56
230.199	90.56
230.433	79.56
230.667	75.56
230.901	84.56
231.136	75.56
231.37	80.56
231.604	80.56
231.838	91.56
232.072	93.56
232.306	86.56
232.541	80.56
232.775	87.56
233.009	87.56
233.243	93.56
233.477	83.56
233.711	83.56
233.945	100.56
234.179	86.56
234.413	94.56
234.647	97.56
234.881	81.56
235.115	94.56
235.349	90.56
235.583	87.56
235.817	83.56
236.051	84.56
236.285	88.56
236.519	82.56
236.753	89.56
236.987	80.56
237.221	97.56
237.455	94.56
237.689	88.56
237.922	80.56
238.156	81.56
238.39	80.56
238.624	81.56
238.858	74.56
239.091	67.56
239.325	85.56
239.559	92.56
239.793	90.56
240.027	87.56
240.26	90.56
240.494	75.56
240.728	80.56
240.961	82.56
241.195	83.56
241.429	89.56
241.662	81.56
241.896	90.56
242.13	74.56
242.363	81.56
242.597	77.56
242.83	74.56
243.064	80.56
243.298	90.56
243.531	86.56
243.765	83.56
243.998	76.56
244.232	82.56
244.465	81.56
244.699	80.56
244.932	99.56
245.166	81.56
245.399	82.56
245.633	88.56
245.866	87.56
246.099	82.56
246.333	86.56
246.566	78.56
246.8	79.56
247.033	78.56
247.266	82.56
247.5	75.56
247.733	83.56
247.966	103.56
248.2	88.56
248.433	102.56
248.666	84.56
248.899	82.56
249.133	91.56
249.366	94.56
249.599	91.56
249.832	87.56
250.066	87.56
250.299	97.56
250.532	92.56
250.765	94.56
250.998	87.56
251.231	82.56
251.465	92.56
251.698	92.56
251.931	85.56
252.164	78.56
252.397	96.56
252.63	102.56
252.863	76.56
253.096	82.56
253.329	89.56
253.562	108.56
253.795	94.56
254.028	96.56
254.261	79.56
254.494	84.56
254.727	62.56
254.96	76.56
255.193	86.56
255.426	73.56
255.659	76.56
255.892	89.56
256.124	85.56
256.357	85.56
256.59	102.56
256.823	89.56
257.056	71.56
257.289	106.56
257.521	82.56
257.754	76.56
257.987	78.56
258.22	94.56
258.452	83.56
258.685	88.56
258.918	86.56
259.151	78.56
259.383	92.56
259.616	93.56
259.849	88.56
260.081	82.56
260.314	91.56
260.547	98.56
260.779	91.56
261.012	100.56
261.244	75.56
261.477	100.56
261.71	87.56
261.942	99.56
262.175	111.56
262.407	80.56
262.64	79.56
262.872	106.56
263.105	94.56
263.337	79.56
263.57	98.56
263.802	94.56
264.035	86.56
264.267	96.56
264.499	88.56
264.732	80.56
264.964	93.56
265.197	98.56
265.429	96.56
265.661	87.56
265.894	81.56
266.126	74.56
266.358	104.56
266.591	81.56
266.823	74.56
267.055	87.56
267.287	101.56
267.52	83.56
267.752	106.56
267.984	93.56
268.216	80.56
268.448	98.56
268.681	92.56
268.913	89.56
269.145	83.56
269.377	92.56
269.609	82.56
269.841	89.56
270.073	107.56
270.306	84.56
270.538	77.56
270.77	91.56
271.002	88.56
271.234	78.56
271.466	86.56
271.698	88.56
271.93	97.56
272.162	102.56
272.394	89.56
272.626	57.56
272.858	96.56
273.09	99.56
273.322	107.56
273.553	88.56
273.785	83.56
274.017	90.56
274.249	93.56
274.481	80.56
274.713	100.56
274.945	99.56
275.176	81.56
275.408	88.56
275.64	94.56
275.872	82.56
276.104	89.56
276.335	97.56
276.567	114.56
276.799	120.56
277.031	114.56
277.262	114.56
277.494	87.56
277.726	68.56
277.957	82.56
278.189	86.56
278.421	92.56
278.652	102.56
278.884	106.56
279.115	97.56
279.347	99.56
279.579	85.56
279.81	90.56
280.042	98.56
280.273	87.56
280.505	84.56
280.736	91.56
280.968	82.56
281.199	101.56
281.431	109.56
281.662	102.56
281.894	95.56
282.125	104.56
282.356	107.56
282.588	131.56
282.819	111.56
283.051	90.56
283.282	104.56
283.513	93.56
283.745	81.56
283.976	86.56
284.207	96.56
284.439	92.56
284.67	92.56
284.901	87.56
285.132	89.56
285.364	88.56
285.595	90.56
285.826	88.56
286.057	94.56
286.288	88.56
286.52	81.56
286.751	88.56
286.982	100.56
287.213	81.56
287.444	86.56
287.675	93.56
287.906	110.56
288.138	99.56
288.369	116.56
288.6	105.56
288.831	93.56
289.062	89.56
289.293	62.56
289.524	79.56
289.755	95.56
289.986	83.56
290.217	80.56
290.448	97.56
290.679	94.56
290.91	112.56
291.141	79.56
291.371	94.56
291.602	99.56
291.833	95.56
292.064	90.56
292.295	89.56
292.526	92.56
292.757	78.56
292.987	82.56
293.218	89.56
293.449	98.56
293.68	88.56
293.91	103.56
294.141	88.56
294.372	84.56
294.603	92.56
294.833	100.56
295.064	86.56
295.295	113.56
295.525	92.56
295.756	97.56
295.987	104.56
296.217	119.56
296.448	115.56
296.679	103.56
296.909	106.56
297.14	112.56
297.37	97.56
297.601	75.56
297.831	89.56
298.062	100.56
298.292	84.56
298.523	94.56
298.753	106.56
298.984	97.56
299.214	99.56
299.445	98.56
299.675	107.56
299.905	100.56
300.136	95.56
300.366	102.56
300.597	87.56
300.827	102.56
301.057	89.56
301.288	90.56
301.518	97.56
301.748	96.56
301.979	100.56
302.209	104.56
302.439	103.56
302.669	90.56
302.9	100.56
303.13	108.56
303.36	98.56
303.59	110.56
303.82	113.56
304.051	96.56
304.281	106.56
304.511	89.56
304.741	100.56
304.971	86.56
305.201	84.56
305.431	82.56
305.661	92.56
305.891	94.56
306.121	78.56
306.352	101.56
306.582	110.56
306.812	94.56
307.042	77.56
307.272	92.56
307.502	94.56
307.731	102.56
307.961	95.56
308.191	91.56
308.421	104.56
308.651	101.56
308.881	102.56
309.111	102.56
309.341	95.56
309.571	91.56
309.8	99.56
310.03	95.56
310.26	103.56
310.49	103.56
310.72	115.56
310.949	100.56
311.179	95.56
311.409	92.56
311.639	99.56
311.868	113.56
312.098	98.56
312.328	94.56
312.557	99.56
312.787	97.56
313.017	104.56
313.246	107.56
313.476	103.56
313.706	103.56
313.935	98.56
314.165	95.56
314.394	90.56
314.624	88.56
314.853	96.56
315.083	100.56
315.312	96.56
315.542	107.56
315.771	97.56
316.001	83.56
316.23	104.56
316.46	90.56
316.689	96.56
316.919	115.56
317.148	116.56
317.377	111.56
317.607	101.56
317.836	83.56
318.065	79.56
318.295	100.56
318.524	94.56
318.753	94.56
318.983	86.56
319.212	88.56
319.441	100.56
319.67	95.56
319.9	105.56
320.129	81.56
320.358	102.56
320.587	90.56
320.816	98.56
321.046	106.56
321.275	96.56
321.504	98.56
321.733	101.56
321.962	95.56
322.191	100.56
322.42	111.56
322.649	102.56
322.878	128.56
323.108	128.56
323.337	131.56
323.566	129.56
323.795	136.56
324.024	179.56
324.253	304.56
324.482	634.56
324.71	1254.56
324.939	1605.56
325.168	622.56
325.397	209.56
325.626	136.56
325.855	119.56
326.084	118.56
326.313	121.56
326.542	142.56
326.77	190.56
326.999	358.56
327.228	698.56
327.457	1274.56
327.686	998.56
327.914	283.56
328.143	163.56
328.372	125.56
328.6	110.56
328.829	128.56
329.058	114.56
329.287	123.56
329.515	110.56
329.744	116.56
329.972	118.56
330.201	126.56
330.43	120.56
330.658	116.56
330.887	129.56
331.115	115.56
331.344	88.56
331.572	107.56
331.801	97.56
332.03	108.56
332.258	98.56
332.486	94.56
332.715	85.56
332.943	83.56
333.172	94.56
333.4	102.56
333.629	108.56
333.857	126.56
334.085	109.56
334.314	117.56
334.542	113.56
334.771	115.56
334.999	110.56
335.227	110.56
335.455	96.56
335.684	97.56
335.912	118.56
336.14	109.56
336.369	98.56
336.597	94.56
336.825	107.56
337.053	95.56
337.281	113.56
337.51	100.56
337.738	103.56
337.966	106.56
338.194	97.56
338.422	106.56
338.65	107.56
338.878	108.56
339.106	91.56
339.334	105.56
339.562	89.56
339.79	83.56
340.018	98.56
340.246	100.56
340.474	98.56
340.702	113.56
340.93	91.56
341.158	81.56
341.386	95.56
341.614	92.56
341.842	107.56
342.07	107.56
342.298	97.56
342.526	93.56
342.754	99.56
342.981	96.56
343.209	96.56
343.437	97.56
343.665	90.56
343.893	102.56
344.12	105.56
344.348	92.56
344.576	84.56
344.804	93.56
345.031	99.56
345.259	103.56
345.487	124.56
345.714	103.56
345.942	103.56
346.17	99.56
346.397	98.56
346.625	83.56
346.853	94.56
347.08	106.56
347.308	104.56
347.535	117.56
347.763	98.56
347.99	109.56
348.218	101.56
348.445	92.56
348.673	101.56
348.9	99.56
349.128	104.56
349.355	105.56
349.583	101.56
349.81	100.56
350.037	113.56
350.265	105.56
350.492	92.56
350.72	99.56
350.947	98.56
351.174	109.56
351.402	105.56
351.629	113.56
351.856	91.56
352.083	110.56
352.311	104.56
352.538	110.56
352.765	117.56
352.992	114.56
353.22	115.56
353.447	123.56
353.674	86.56
353.901	103.56
354.128	93.56
354.355	116.56
354.583	111.56
354.81	103.56
355.037	98.56
355.264	90.56
355.491	98.56
355.718	97.56
355.945	104.56
356.172	104.56
356.399	100.56
356.626	96.56
356.853	95.56
357.08	93.56
357.307	101.56
357.534	99.56
357.761	112.56
357.988	105.56
358.215	92.56
358.441	90.56
358.668	98.56
358.895	102.56
359.122	98.56
359.349	111.56
359.576	95.56
359.802	108.56
360.029	105.56
360.256	115.56
360.483	102.56
360.709	96.56
360.936	86.56
361.163	90.56
361.39	100.56
361.616	103.56
361.843	103.56
362.07	116.56
362.296	101.56
362.523	97.56
362.749	101.56
362.976	83.56
363.203	94.56
363.429	78.56
363.656	99.56
363.882	94.56
364.109	88.56
364.335	83.56
364.562	100.56
364.788	101.56
365.015	92.56
365.241	95.56
365.468	119.56
365.694	93.56
365.92	82.56
366.147	91.56
366.373	96.56
366.599	92.56
366.826	91.56
367.052	95.56
367.278	96.56
367.505	95.56
367.731	102.56
367.957	94.56
368.184	83.56
368.41	98.56
368.636	98.56
368.862	107.56
369.089	100.56
369.315	103.56
369.541	102.56
369.767	87.56
369.993	91.56
370.219	104.56
370.445	95.56
370.672	97.56
370.898	113.56
371.124	81.56
371.35	91.56
371.576	93.56
371.802	96.56
372.028	92.56
372.254	94.56
372.48	86.56
372.706	99.56
372.932	104.56
373.158	96.56
373.384	106.56
373.61	91.56
373.835	90.56
374.061	88.56
374.287	98.56
374.513	90.56
374.739	97.56
374.965	96.56
375.191	81.56
375.416	105.56
375.642	93.56
375.868	109.56
376.094	100.56
376.319	81.56
376.545	93.56
376.771	107.56
376.997	92.56
377.222	102.56
377.448	88.56
377.674	96.56
377.899	95.56
378.125	97.56
378.35	95.56
378.576	98.56
378.802	107.56
379.027	90.56
379.253	83.56
379.478	97.56
379.704	98.56
379.929	83.56
380.155	98.56
380.38	102.56
380.606	95.56
380.831	98.56
381.057	103.56
381.282	102.56
381.507	104.56
381.733	94.56
381.958	106.56
382.184	96.56
382.409	103.56
382.634	102.56
382.86	120.56
383.085	95.56
383.31	106.56
383.535	109.56
383.761	91.56
383.986	101.56
384.211	98.56
384.436	112.56
384.662	103.56
384.887	109.56
385.112	116.56
385.337	93.56
385.562	92.56
385.787	98.56
386.013	120.56
386.238	113.56
386.463	108.56
386.688	113.56
386.913	110.56
387.138	94.56
387.363	91.56
387.588	95.56
387.813	102.56
388.038	108.56
388.263	95.56
388.488	115.56
388.713	96.56
388.938	105.56
389.163	87.56
389.387	111.56
389.612	94.56
389.837	90.56
390.062	102.56
390.287	92.56
390.512	106.56
390.736	83.56
390.961	88.56
391.186	89.56
391.411	94.56
391.636	98.56
391.86	108.56
392.085	90.56
392.31	78.56
392.534	89.56
392.759	109.56
392.984	90.56
393.208	81.56
393.433	89.56
393.658	98.56
393.882	106.56
394.107	105.56
394.331	91.56
394.556	93.56
394.78	81.56
395.005	86.56
395.229	103.56
395.454	90.56
395.678	103.56
395.903	101.56
396.127	107.56
396.352	96.56
396.576	107.56
396.801	103.56
397.025	90.56
397.249	87.56
397.474	80.56
397.698	97.56
397.922	96.56
398.147	88.56
398.371	86.56
398.595	94.56
398.82	74.56
399.044	90.56
399.268	93.56
399.492	90.56
399.717	83.56
399.941	100.56
400.165	97.56
400.389	90.56
400.613	100.56
400.837	90.56
401.062	93.56
401.286	98.56
401.51	105.56
401.734	100.56
401.958	105.56
402.182	129.56
402.406	147.56
402.63	126.56
402.854	103.56
403.078	92.56
403.302	102.56
403.526	88.56
403.75	94.56
403.974	86.56
404.198	83.56
404.422	84.56
404.645	86.56
404.869	88.56
405.093	104.56
405.317	110.56
405.541	121.56
405.765	105.56
405.988	97.56
406.212	159.56
406.436	199.56
406.66	123.56
406.883	92.56
407.107	98.56
407.331	105.56
407.555	101.56
407.778	98.56
408.002	104.56
408.226	99.56
408.449	92.56
408.673	82.56
408.896	96.56
409.12	92.56
409.344	93.56
409.567	106.56
409.791	84.56
410.014	83.56
410.238	104.56
410.461	95.56
410.685	100.56
410.908	82.56
411.132	103.56
411.355	106.56
411.578	92.56
411.802	75.56
412.025	96.56
412.249	99.56
412.472	87.56
412.695	112.56
412.919	107.56
413.142	73.56
413.365	92.56
413.589	88.56
413.812	99.56
414.035	103.56
414.258	99.56
414.482	95.56
414.705	88.56
414.928	94.56
415.151	102.56
415.374	94.56
415.597	98.56
415.821	82.56
416.044	99.56
416.267	90.56
416.49	106.56
416.713	87.56
416.936	104.56
417.159	88.56
417.382	96.56
417.605	98.56
417.828	98.56
418.051	94.56
418.274	95.56
418.497	94.56
418.72	99.56
418.943	99.56
419.166	99.56
419.389	93.56
419.611	98.56
419.834	83.56
420.057	91.56
420.28	96.56
420.503	102.56
420.726	105.56
420.948	111.56
421.171	101.56
421.394	91.56
421.617	95.56
421.839	96.56
422.062	86.56
422.285	91.56
422.507	103.56
422.73	99.56
422.953	91.56
423.175	110.56
423.398	97.56
423.621	96.56
423.843	83.56
424.066	103.56
424.288	86.56
424.511	98.56
424.733	105.56
424.956	101.56
425.178	100.56
425.401	97.56
425.623	98.56
425.846	94.56
426.068	102.56
426.291	99.56
426.513	88.56
426.735	85.56
426.958	92.56
427.18	95.56
427.402	123.56
427.625	142.56
427.847	112.56
428.069	120.56
428.292	93.56
428.514	96.56
428.736	85.56
428.958	94.56
429.181	92.56
429.403	89.56
429.625	106.56
429.847	108.56
430.069	107.56
430.292	110.56
430.514	85.56
430.736	87.56
430.958	88.56
431.18	85.56
431.402	82.56
431.624	88.56
431.846	105.56
432.068	98.56
432.29	91.56
432.512	86.56
432.734	86.56
432.956	98.56
433.178	108.56
433.4	105.56
433.622	102.56
433.844	96.56
434.066	97.56
434.287	85.56
434.509	88.56
434.731	96.56
434.953	84.56
435.175	104.56
435.397	100.56
435.618	95.56
435.84	109.56
436.062	100.56
436.284	109.56
436.505	106.56
436.727	106.56
436.949	96.56
437.17	88.56
437.392	89.56
437.614	88.56
437.835	104.56
438.057	116.56
438.278	108.56
438.5	98.56
438.721	127.56
438.943	96.56
439.165	88.56
439.386	89.56
439.608	100.56
439.829	97.56
440.05	120.56
440.272	136.56
440.493	106.56
440.715	106.56
440.936	100.56
441.158	92.56
441.379	92.56
441.6	90.56
441.822	103.56
442.043	99.56
442.264	108.56
442.486	84.56
442.707	105.56
442.928	99.56
443.149	125.56
443.371	132.56
443.592	107.56
443.813	109.56
444.034	107.56
444.255	84.56
444.476	92.56
444.698	99.56
444.919	96.56
445.14	133.56
445.361	112.56
445.582	106.56
445.803	133.56
446.024	124.56
446.245	115.56
446.466	99.56
446.687	95.56
446.908	94.56
447.129	96.56
447.35	72.56
447.571	83.56
447.792	80.56
448.013	102.56
448.234	110.56
448.455	107.56
448.675	123.56
448.896	119.56
449.117	96.56
449.338	99.56
449.559	116.56
449.779	122.56
450	109.56
450.221	88.56
450.442	97.56
450.662	100.56
450.883	99.56
451.104	101.56
451.324	96.56
451.545	79.56
451.766	90.56
451.986	87.56
452.207	100.56
452.428	84.56
452.648	99.56
452.869	104.56
453.089	106.56
453.31	109.56
453.53	104.56
453.751	97.56
453.971	95.56
454.192	102.56
454.412	89.56
454.633	87.56
454.853	94.56
455.073	82.56
455.294	77.56
455.514	97.56
455.734	84.56
455.955	103.56
456.175	95.56
456.395	99.56
456.616	90.56
456.836	92.56
457.056	96.56
457.276	92.56
457.497	95.56
457.717	83.56
457.937	88.56
458.157	86.56
458.377	77.56
458.598	107.56
458.818	140.56
459.038	131.56
459.258	105.56
459.478	95.56
459.698	81.56
459.918	91.56
460.138	99.56
460.358	84.56
460.578	85.56
460.798	98.56
461.018	90.56
461.238	78.56
461.458	99.56
461.678	82.56
461.898	95.56
462.118	91.56
462.338	74.56
462.558	94.56
462.777	90.56
462.997	75.56
463.217	91.56
463.437	84.56
463.657	99.56
463.876	91.56
464.096	96.56
464.316	77.56
464.536	91.56
464.755	100.56
464.975	108.56
465.195	144.56
465.414	134.56
465.634	99.56
465.854	90.56
466.073	74.56
466.293	85.56
466.512	79.56
466.732	102.56
466.951	76.56
467.171	106.56
467.391	84.56
467.61	105.56
467.829	91.56
468.049	104.56
468.268	107.56
468.488	95.56
468.707	94.56
468.927	97.56
469.146	97.56
469.365	92.56
469.585	89.56
469.804	100.56
470.023	103.56
470.243	92.56
470.462	95.56
470.681	102.56
470.901	89.56
471.12	94.56
471.339	102.56
471.558	102.56
471.777	80.56
471.997	82.56
472.216	111.56
472.435	140.56
472.654	98.56
472.873	101.56
473.092	90.56
473.311	90.56
473.53	87.56
473.749	90.56
473.968	104.56
474.187	100.56
474.406	75.56
474.625	94.56
474.844	86.56
475.063	96.56
475.282	91.56
475.501	100.56
475.72	96.56
475.939	87.56
476.158	96.56
476.377	91.56
476.596	97.56
476.814	87.56
477.033	99.56
477.252	95.56
477.471	98.56
477.69	95.56
477.908	92.56
478.127	93.56
478.346	78.56
478.564	90.56
478.783	100.56
479.002	91.56
479.22	89.56
479.439	110.56
479.658	96.56
479.876	93.56
480.095	105.56
480.313	99.56
480.532	99.56
480.751	106.56
480.969	117.56
481.188	172.56
481.406	141.56
481.624	86.56
481.843	96.56
482.061	97.56
482.28	93.56
482.498	89.56
482.717	91.56
482.935	102.56
483.153	104.56
483.372	100.56
483.59	91.56
483.808	98.56
484.027	101.56
484.245	102.56
484.463	93.56
484.681	105.56
484.9	110.56
485.118	99.56
485.336	111.56
485.554	101.56
485.772	105.56
485.99	113.56
486.209	110.56
486.427	114.56
486.645	102.56
486.863	111.56
487.081	99.56
487.299	105.56
487.517	113.56
487.735	98.56
487.953	100.56
488.171	84.56
488.389	116.56
488.607	109.56
488.825	94.56
489.043	100.56
489.261	97.56
489.479	91.56
489.696	97.56
489.914	88.56
490.132	88.56
490.35	99.56
490.568	99.56
490.786	94.56
491.003	110.56
491.221	90.56
491.439	94.56
491.657	90.56
491.874	111.56
492.092	81.56
492.31	93.56
492.527	91.56
492.745	107.56
492.963	89.56
493.18	100.56
493.398	106.56
493.615	104.56
493.833	88.56
494.05	104.56
494.268	92.56
494.485	93.56
494.703	87.56
494.92	102.56
495.138	92.56
495.355	96.56
495.573	99.56
495.79	84.56
496.008	96.56
496.225	86.56
496.442	95.56
496.66	100.56
496.877	106.56
497.094	85.56
497.312	89.56
497.529	97.56
497.746	88.56
497.963	101.56
498.181	99.56
498.398	104.56
498.615	120.56
498.832	98.56
499.049	95.56
499.267	97.56
499.484	88.56
499.701	92.56
499.918	104.56
500.135	97.56
500.352	86.56
500.569	94.56
500.786	93.56
501.003	101.56
501.22	99.56
501.437	96.56
501.654	93.56
501.871	104.56
502.088	91.56
502.305	98.56
502.522	115.56
502.739	95.56
502.956	86.56
503.172	87.56
503.389	97.56
503.606	90.56
503.823	95.56
504.04	93.56
504.256	91.56
504.473	115.56
504.69	100.56
504.907	99.56
505.123	110.56
505.34	100.56
505.557	91.56
505.773	91.56
505.99	100.56
506.207	102.56
506.423	86.56
506.64	87.56
506.856	88.56
507.073	98.56
507.289	113.56
507.506	100.56
507.722	106.56
507.939	99.56
508.155	97.56
508.372	110.56
508.588	95.56
508.805	94.56
509.021	104.56
509.238	107.56
509.454	108.56
509.67	102.56
509.887	103.56
510.103	132.56
510.319	203.56
510.536	642.56
510.752	1932.56
510.968	537.56
511.184	150.56
511.401	119.56
511.617	102.56
511.833	89.56
512.049	106.56
512.265	103.56
512.481	88.56
512.698	92.56
512.914	105.56
513.13	86.56
513.346	94.56
513.562	103.56
