Data from Circ_1982_H10_HRD10591_00021.txt Node
Date: Wed Jan 03 12:30:45 EST 2024
User: Yrep
Spectrometer: HR+D1059
Trigger mode: 1
Integration Time (sec): 1.000000E-1
Scans to average: 1
Electric dark correction enabled: true
Nonlinearity correction enabled: false
Boxcar width: 0
XAxis mode: Wavelengths
Number of Pixels in Spectrum: 2048
>>>>>Begin Spectral Data<<<<<
223.165	-8.81
223.4	-8.81
223.635	-8.81
223.869	-19.81
224.104	-20.81
224.338	-30.81
224.573	-8.81
224.808	-22.81
225.042	-5.81
225.277	6.19
225.511	0.19
225.746	1.19
225.98	7.19
226.215	12.19
226.449	15.19
226.683	8.19
226.918	29.19
227.152	38.19
227.387	56.19
227.621	36.19
227.856	55.19
228.09	58.19
228.324	54.19
228.559	54.19
228.793	64.19
229.027	56.19
229.262	73.19
229.496	69.19
229.73	66.19
229.964	69.19
230.199	74.19
230.433	63.19
230.667	80.19
230.901	71.19
231.136	71.19
231.37	85.19
231.604	72.19
231.838	83.19
232.072	79.19
232.306	80.19
232.541	73.19
232.775	88.19
233.009	84.19
233.243	78.19
233.477	88.19
233.711	87.19
233.945	86.19
234.179	75.19
234.413	74.19
234.647	84.19
234.881	72.19
235.115	80.19
235.349	85.19
235.583	82.19
235.817	78.19
236.051	65.19
236.285	82.19
236.519	67.19
236.753	70.19
236.987	78.19
237.221	63.19
237.455	78.19
237.689	71.19
237.922	74.19
238.156	77.19
238.39	72.19
238.624	62.19
238.858	73.19
239.091	78.19
239.325	77.19
239.559	92.19
239.793	80.19
240.027	82.19
240.26	90.19
240.494	78.19
240.728	84.19
240.961	76.19
241.195	77.19
241.429	86.19
241.662	73.19
241.896	67.19
242.13	74.19
242.363	78.19
242.597	79.19
242.83	74.19
243.064	91.19
243.298	84.19
243.531	82.19
243.765	73.19
243.998	77.19
244.232	75.19
244.465	74.19
244.699	88.19
244.932	76.19
245.166	70.19
245.399	79.19
245.633	77.19
245.866	92.19
246.099	86.19
246.333	84.19
246.566	74.19
246.8	79.19
247.033	103.19
247.266	81.19
247.5	72.19
247.733	78.19
247.966	96.19
248.2	78.19
248.433	76.19
248.666	81.19
248.899	98.19
249.133	96.19
249.366	93.19
249.599	96.19
249.832	82.19
250.066	87.19
250.299	93.19
250.532	91.19
250.765	84.19
250.998	90.19
251.231	82.19
251.465	86.19
251.698	80.19
251.931	79.19
252.164	86.19
252.397	79.19
252.63	67.19
252.863	75.19
253.096	66.19
253.329	78.19
253.562	79.19
253.795	69.19
254.028	87.19
254.261	87.19
254.494	92.19
254.727	86.19
254.96	92.19
255.193	94.19
255.426	80.19
255.659	93.19
255.892	77.19
256.124	76.19
256.357	100.19
256.59	92.19
256.823	75.19
257.056	68.19
257.289	86.19
257.521	90.19
257.754	77.19
257.987	74.19
258.22	84.19
258.452	82.19
258.685	85.19
258.918	93.19
259.151	85.19
259.383	95.19
259.616	95.19
259.849	70.19
260.081	88.19
260.314	94.19
260.547	85.19
260.779	78.19
261.012	63.19
261.244	87.19
261.477	92.19
261.71	88.19
261.942	107.19
262.175	108.19
262.407	88.19
262.64	88.19
262.872	81.19
263.105	82.19
263.337	82.19
263.57	89.19
263.802	88.19
264.035	83.19
264.267	80.19
264.499	87.19
264.732	77.19
264.964	79.19
265.197	83.19
265.429	82.19
265.661	84.19
265.894	77.19
266.126	78.19
266.358	86.19
266.591	81.19
266.823	77.19
267.055	86.19
267.287	76.19
267.52	85.19
267.752	74.19
267.984	90.19
268.216	90.19
268.448	82.19
268.681	92.19
268.913	71.19
269.145	104.19
269.377	83.19
269.609	76.19
269.841	78.19
270.073	86.19
270.306	73.19
270.538	90.19
270.77	94.19
271.002	86.19
271.234	86.19
271.466	76.19
271.698	86.19
271.93	84.19
272.162	92.19
272.394	74.19
272.626	85.19
272.858	92.19
273.09	86.19
273.322	79.19
273.553	84.19
273.785	84.19
274.017	90.19
274.249	88.19
274.481	89.19
274.713	76.19
274.945	84.19
275.176	75.19
275.408	92.19
275.64	84.19
275.872	79.19
276.104	110.19
276.335	88.19
276.567	98.19
276.799	92.19
277.031	99.19
277.262	84.19
277.494	110.19
277.726	90.19
277.957	92.19
278.189	96.19
278.421	77.19
278.652	90.19
278.884	88.19
279.115	86.19
279.347	85.19
279.579	89.19
279.81	95.19
280.042	101.19
280.273	97.19
280.505	85.19
280.736	76.19
280.968	94.19
281.199	100.19
281.431	86.19
281.662	102.19
281.894	96.19
282.125	93.19
282.356	107.19
282.588	120.19
282.819	111.19
283.051	86.19
283.282	94.19
283.513	92.19
283.745	94.19
283.976	96.19
284.207	91.19
284.439	92.19
284.67	91.19
284.901	91.19
285.132	103.19
285.364	97.19
285.595	97.19
285.826	89.19
286.057	88.19
286.288	84.19
286.52	91.19
286.751	82.19
286.982	90.19
287.213	85.19
287.444	101.19
287.675	92.19
287.906	104.19
288.138	84.19
288.369	96.19
288.6	83.19
288.831	80.19
289.062	82.19
289.293	90.19
289.524	89.19
289.755	91.19
289.986	93.19
290.217	104.19
290.448	96.19
290.679	82.19
290.91	89.19
291.141	107.19
291.371	100.19
291.602	94.19
291.833	90.19
292.064	102.19
292.295	82.19
292.526	99.19
292.757	96.19
292.987	105.19
293.218	78.19
293.449	88.19
293.68	90.19
293.91	103.19
294.141	98.19
294.372	107.19
294.603	97.19
294.833	88.19
295.064	105.19
295.295	97.19
295.525	83.19
295.756	99.19
295.987	103.19
296.217	109.19
296.448	113.19
296.679	87.19
296.909	85.19
297.14	91.19
297.37	98.19
297.601	90.19
297.831	94.19
298.062	80.19
298.292	87.19
298.523	92.19
298.753	96.19
298.984	86.19
299.214	81.19
299.445	86.19
299.675	99.19
299.905	101.19
300.136	75.19
300.366	90.19
300.597	102.19
300.827	87.19
301.057	107.19
301.288	110.19
301.518	109.19
301.748	103.19
301.979	94.19
302.209	90.19
302.439	85.19
302.669	93.19
302.9	100.19
303.13	95.19
303.36	90.19
303.59	95.19
303.82	89.19
304.051	91.19
304.281	98.19
304.511	79.19
304.741	86.19
304.971	86.19
305.201	108.19
305.431	92.19
305.661	99.19
305.891	74.19
306.121	86.19
306.352	94.19
306.582	102.19
306.812	113.19
307.042	100.19
307.272	105.19
307.502	86.19
307.731	94.19
307.961	78.19
308.191	94.19
308.421	92.19
308.651	102.19
308.881	105.19
309.111	100.19
309.341	89.19
309.571	95.19
309.8	95.19
310.03	99.19
310.26	87.19
310.49	86.19
310.72	89.19
310.949	105.19
311.179	95.19
311.409	93.19
311.639	110.19
311.868	109.19
312.098	107.19
312.328	106.19
312.557	100.19
312.787	103.19
313.017	106.19
313.246	102.19
313.476	95.19
313.706	91.19
313.935	91.19
314.165	98.19
314.394	106.19
314.624	95.19
314.853	102.19
315.083	102.19
315.312	94.19
315.542	92.19
315.771	102.19
316.001	98.19
316.23	91.19
316.46	104.19
316.689	90.19
316.919	100.19
317.148	96.19
317.377	90.19
317.607	83.19
317.836	82.19
318.065	100.19
318.295	91.19
318.524	94.19
318.753	83.19
318.983	107.19
319.212	88.19
319.441	103.19
319.67	112.19
319.9	94.19
320.129	84.19
320.358	92.19
320.587	78.19
320.816	93.19
321.046	85.19
321.275	90.19
321.504	100.19
321.733	102.19
321.962	95.19
322.191	100.19
322.42	108.19
322.649	102.19
322.878	107.19
323.108	106.19
323.337	111.19
323.566	107.19
323.795	122.19
324.024	141.19
324.253	274.19
324.482	566.19
324.71	1092.19
324.939	1443.19
325.168	542.19
325.397	191.19
325.626	124.19
325.855	116.19
326.084	132.19
326.313	119.19
326.542	131.19
326.77	179.19
326.999	326.19
327.228	643.19
327.457	1144.19
327.686	912.19
327.914	262.19
328.143	123.19
328.372	134.19
328.6	114.19
328.829	111.19
329.058	94.19
329.287	115.19
329.515	107.19
329.744	112.19
329.972	92.19
330.201	100.19
330.43	102.19
330.658	110.19
330.887	128.19
331.115	112.19
331.344	89.19
331.572	100.19
331.801	98.19
332.03	88.19
332.258	96.19
332.486	95.19
332.715	86.19
332.943	105.19
333.172	85.19
333.4	96.19
333.629	90.19
333.857	100.19
334.085	113.19
334.314	115.19
334.542	115.19
334.771	115.19
334.999	92.19
335.227	86.19
335.455	91.19
335.684	98.19
335.912	94.19
336.14	106.19
336.369	114.19
336.597	108.19
336.825	99.19
337.053	93.19
337.281	108.19
337.51	96.19
337.738	102.19
337.966	103.19
338.194	85.19
338.422	104.19
338.65	79.19
338.878	77.19
339.106	94.19
339.334	96.19
339.562	91.19
339.79	94.19
340.018	77.19
340.246	102.19
340.474	106.19
340.702	77.19
340.93	94.19
341.158	90.19
341.386	82.19
341.614	96.19
341.842	94.19
342.07	96.19
342.298	92.19
342.526	99.19
342.754	95.19
342.981	91.19
343.209	94.19
343.437	99.19
343.665	104.19
343.893	91.19
344.12	94.19
344.348	95.19
344.576	100.19
344.804	86.19
345.031	96.19
345.259	99.19
345.487	79.19
345.714	100.19
345.942	88.19
346.17	87.19
346.397	97.19
346.625	100.19
346.853	90.19
347.08	88.19
347.308	76.19
347.535	88.19
347.763	93.19
347.99	101.19
348.218	103.19
348.445	98.19
348.673	98.19
348.9	96.19
349.128	105.19
349.355	88.19
349.583	87.19
349.81	95.19
350.037	93.19
350.265	95.19
350.492	106.19
350.72	108.19
350.947	113.19
351.174	102.19
351.402	103.19
351.629	88.19
351.856	94.19
352.083	78.19
352.311	106.19
352.538	119.19
352.765	101.19
352.992	99.19
353.22	124.19
353.447	105.19
353.674	100.19
353.901	104.19
354.128	101.19
354.355	105.19
354.583	103.19
354.81	89.19
355.037	93.19
355.264	99.19
355.491	87.19
355.718	95.19
355.945	97.19
356.172	103.19
356.399	86.19
356.626	100.19
356.853	104.19
357.08	95.19
357.307	100.19
357.534	93.19
357.761	98.19
357.988	112.19
358.215	102.19
358.441	99.19
358.668	104.19
358.895	106.19
359.122	85.19
359.349	74.19
359.576	103.19
359.802	92.19
360.029	103.19
360.256	117.19
360.483	97.19
360.709	85.19
360.936	102.19
361.163	103.19
361.39	91.19
361.616	90.19
361.843	90.19
362.07	101.19
362.296	98.19
362.523	85.19
362.749	89.19
362.976	95.19
363.203	101.19
363.429	106.19
363.656	98.19
363.882	89.19
364.109	83.19
364.335	104.19
364.562	82.19
364.788	88.19
365.015	99.19
365.241	98.19
365.468	95.19
365.694	111.19
365.92	100.19
366.147	90.19
366.373	95.19
366.599	87.19
366.826	83.19
367.052	87.19
367.278	104.19
367.505	98.19
367.731	95.19
367.957	86.19
368.184	90.19
368.41	109.19
368.636	107.19
368.862	109.19
369.089	91.19
369.315	103.19
369.541	85.19
369.767	90.19
369.993	105.19
370.219	83.19
370.445	107.19
370.672	89.19
370.898	102.19
371.124	94.19
371.35	108.19
371.576	87.19
371.802	81.19
372.028	89.19
372.254	70.19
372.48	96.19
372.706	90.19
372.932	102.19
373.158	96.19
373.384	98.19
373.61	85.19
373.835	77.19
374.061	99.19
374.287	97.19
374.513	87.19
374.739	91.19
374.965	103.19
375.191	91.19
375.416	98.19
375.642	93.19
375.868	78.19
376.094	94.19
376.319	73.19
376.545	93.19
376.771	86.19
376.997	90.19
377.222	99.19
377.448	102.19
377.674	86.19
377.899	98.19
378.125	95.19
378.35	76.19
378.576	90.19
378.802	101.19
379.027	94.19
379.253	106.19
379.478	92.19
379.704	93.19
379.929	94.19
380.155	91.19
380.38	87.19
380.606	84.19
380.831	93.19
381.057	105.19
381.282	92.19
381.507	114.19
381.733	104.19
381.958	107.19
382.184	109.19
382.409	90.19
382.634	102.19
382.86	96.19
383.085	111.19
383.31	113.19
383.535	106.19
383.761	89.19
383.986	95.19
384.211	87.19
384.436	101.19
384.662	95.19
384.887	100.19
385.112	114.19
385.337	109.19
385.562	116.19
385.787	117.19
386.013	119.19
386.238	116.19
386.463	102.19
386.688	113.19
386.913	92.19
387.138	110.19
387.363	100.19
387.588	106.19
387.813	109.19
388.038	119.19
388.263	117.19
388.488	120.19
388.713	93.19
388.938	97.19
389.163	103.19
389.387	91.19
389.612	96.19
389.837	96.19
390.062	90.19
390.287	102.19
390.512	92.19
390.736	102.19
390.961	84.19
391.186	92.19
391.411	86.19
391.636	89.19
391.86	96.19
392.085	93.19
392.31	87.19
392.534	87.19
392.759	98.19
392.984	77.19
393.208	96.19
393.433	98.19
393.658	103.19
393.882	90.19
394.107	90.19
394.331	88.19
394.556	90.19
394.78	89.19
395.005	85.19
395.229	79.19
395.454	76.19
395.678	79.19
395.903	88.19
396.127	87.19
396.352	93.19
396.576	92.19
396.801	79.19
397.025	87.19
397.249	100.19
397.474	89.19
397.698	77.19
397.922	95.19
398.147	79.19
398.371	90.19
398.595	90.19
398.82	90.19
399.044	101.19
399.268	96.19
399.492	75.19
399.717	98.19
399.941	74.19
400.165	103.19
400.389	86.19
400.613	91.19
400.837	106.19
401.062	108.19
401.286	96.19
401.51	98.19
401.734	98.19
401.958	105.19
402.182	110.19
402.406	127.19
402.63	102.19
402.854	100.19
403.078	84.19
403.302	91.19
403.526	77.19
403.75	84.19
403.974	96.19
404.198	84.19
404.422	86.19
404.645	88.19
404.869	106.19
405.093	95.19
405.317	104.19
405.541	101.19
405.765	90.19
405.988	99.19
406.212	141.19
406.436	170.19
406.66	126.19
406.883	107.19
407.107	89.19
407.331	90.19
407.555	94.19
407.778	89.19
408.002	72.19
408.226	84.19
408.449	86.19
408.673	90.19
408.896	86.19
409.12	82.19
409.344	97.19
409.567	94.19
409.791	92.19
410.014	103.19
410.238	100.19
410.461	88.19
410.685	93.19
410.908	96.19
411.132	113.19
411.355	103.19
411.578	104.19
411.802	75.19
412.025	93.19
412.249	85.19
412.472	106.19
412.695	96.19
412.919	101.19
413.142	91.19
413.365	86.19
413.589	116.19
413.812	88.19
414.035	86.19
414.258	76.19
414.482	86.19
414.705	97.19
414.928	102.19
415.151	117.19
415.374	95.19
415.597	88.19
415.821	88.19
416.044	86.19
416.267	92.19
416.49	94.19
416.713	95.19
416.936	105.19
417.159	68.19
417.382	89.19
417.605	102.19
417.828	84.19
418.051	91.19
418.274	90.19
418.497	78.19
418.72	86.19
418.943	96.19
419.166	90.19
419.389	86.19
419.611	99.19
419.834	78.19
420.057	94.19
420.28	78.19
420.503	78.19
420.726	93.19
420.948	99.19
421.171	91.19
421.394	96.19
421.617	105.19
421.839	94.19
422.062	84.19
422.285	90.19
422.507	94.19
422.73	98.19
422.953	102.19
423.175	87.19
423.398	105.19
423.621	78.19
423.843	73.19
424.066	90.19
424.288	85.19
424.511	100.19
424.733	107.19
424.956	98.19
425.178	109.19
425.401	102.19
425.623	106.19
425.846	92.19
426.068	99.19
426.291	74.19
426.513	89.19
426.735	90.19
426.958	98.19
427.18	110.19
427.402	107.19
427.625	137.19
427.847	106.19
428.069	90.19
428.292	108.19
428.514	99.19
428.736	101.19
428.958	85.19
429.181	88.19
429.403	85.19
429.625	88.19
429.847	88.19
430.069	93.19
430.292	93.19
430.514	85.19
430.736	93.19
430.958	87.19
431.18	76.19
431.402	92.19
431.624	87.19
431.846	83.19
432.068	87.19
432.29	92.19
432.512	88.19
432.734	90.19
432.956	100.19
433.178	106.19
433.4	109.19
433.622	105.19
433.844	88.19
434.066	95.19
434.287	88.19
434.509	91.19
434.731	94.19
434.953	82.19
435.175	87.19
435.397	78.19
435.618	84.19
435.84	93.19
436.062	99.19
436.284	105.19
436.505	102.19
436.727	88.19
436.949	95.19
437.17	91.19
437.392	70.19
437.614	74.19
437.835	105.19
438.057	124.19
438.278	118.19
438.5	83.19
438.721	96.19
438.943	89.19
439.165	94.19
439.386	98.19
439.608	106.19
439.829	98.19
440.05	104.19
440.272	118.19
440.493	105.19
440.715	94.19
440.936	97.19
441.158	79.19
441.379	93.19
441.6	110.19
441.822	100.19
442.043	95.19
442.264	98.19
442.486	94.19
442.707	91.19
442.928	111.19
443.149	119.19
443.371	117.19
443.592	90.19
443.813	113.19
444.034	106.19
444.255	96.19
444.476	85.19
444.698	92.19
444.919	98.19
445.14	126.19
445.361	111.19
445.582	90.19
445.803	105.19
446.024	119.19
446.245	108.19
446.466	112.19
446.687	95.19
446.908	99.19
447.129	92.19
447.35	77.19
447.571	95.19
447.792	98.19
448.013	92.19
448.234	105.19
448.455	98.19
448.675	98.19
448.896	103.19
449.117	91.19
449.338	102.19
449.559	90.19
449.779	118.19
450	92.19
450.221	83.19
450.442	90.19
450.662	93.19
450.883	95.19
451.104	106.19
451.324	88.19
451.545	93.19
451.766	96.19
451.986	93.19
452.207	103.19
452.428	78.19
452.648	95.19
452.869	91.19
453.089	96.19
453.31	108.19
453.53	87.19
453.751	85.19
453.971	102.19
454.192	109.19
454.412	86.19
454.633	101.19
454.853	85.19
455.073	94.19
455.294	87.19
455.514	85.19
455.734	90.19
455.955	88.19
456.175	82.19
456.395	87.19
456.616	93.19
456.836	88.19
457.056	88.19
457.276	86.19
457.497	82.19
457.717	111.19
457.937	95.19
458.157	80.19
458.377	84.19
458.598	100.19
458.818	120.19
459.038	118.19
459.258	100.19
459.478	82.19
459.698	106.19
459.918	90.19
460.138	95.19
460.358	90.19
460.578	107.19
460.798	82.19
461.018	86.19
461.238	73.19
461.458	92.19
461.678	85.19
461.898	88.19
462.118	96.19
462.338	84.19
462.558	90.19
462.777	73.19
462.997	83.19
463.217	92.19
463.437	91.19
463.657	87.19
463.876	82.19
464.096	99.19
464.316	96.19
464.536	79.19
464.755	79.19
464.975	116.19
465.195	139.19
465.414	127.19
465.634	90.19
465.854	96.19
466.073	87.19
466.293	95.19
466.512	101.19
466.732	95.19
466.951	91.19
467.171	96.19
467.391	106.19
467.61	97.19
467.829	96.19
468.049	97.19
468.268	109.19
468.488	103.19
468.707	103.19
468.927	86.19
469.146	88.19
469.365	86.19
469.585	88.19
469.804	92.19
470.023	92.19
470.243	89.19
470.462	82.19
470.681	90.19
470.901	92.19
471.12	92.19
471.339	83.19
471.558	85.19
471.777	99.19
471.997	86.19
472.216	100.19
472.435	120.19
472.654	96.19
472.873	100.19
473.092	89.19
473.311	107.19
473.53	95.19
473.749	103.19
473.968	115.19
474.187	93.19
474.406	91.19
474.625	80.19
474.844	93.19
475.063	92.19
475.282	77.19
475.501	88.19
475.72	92.19
475.939	91.19
476.158	90.19
476.377	100.19
476.596	85.19
476.814	96.19
477.033	89.19
477.252	90.19
477.471	89.19
477.69	103.19
477.908	89.19
478.127	101.19
478.346	104.19
478.564	82.19
478.783	103.19
479.002	96.19
479.22	100.19
479.439	83.19
479.658	99.19
479.876	88.19
480.095	88.19
480.313	87.19
480.532	86.19
480.751	109.19
480.969	118.19
481.188	168.19
481.406	141.19
481.624	98.19
481.843	86.19
482.061	87.19
482.28	97.19
482.498	74.19
482.717	90.19
482.935	92.19
483.153	89.19
483.372	96.19
483.59	93.19
483.808	92.19
484.027	86.19
484.245	79.19
484.463	81.19
484.681	96.19
484.9	95.19
485.118	104.19
485.336	94.19
485.554	88.19
485.772	107.19
485.99	98.19
486.209	112.19
486.427	115.19
486.645	91.19
486.863	93.19
487.081	107.19
487.299	95.19
487.517	96.19
487.735	95.19
487.953	80.19
488.171	91.19
488.389	95.19
488.607	88.19
488.825	99.19
489.043	85.19
489.261	99.19
489.479	102.19
489.696	97.19
489.914	80.19
490.132	97.19
490.35	95.19
490.568	84.19
490.786	97.19
491.003	106.19
491.221	92.19
491.439	86.19
491.657	83.19
491.874	93.19
492.092	91.19
492.31	84.19
492.527	102.19
492.745	93.19
492.963	78.19
493.18	97.19
493.398	96.19
493.615	93.19
493.833	92.19
494.05	93.19
494.268	91.19
494.485	83.19
494.703	84.19
494.92	88.19
495.138	104.19
495.355	95.19
495.573	88.19
495.79	92.19
496.008	109.19
496.225	99.19
496.442	100.19
496.66	107.19
496.877	92.19
497.094	96.19
497.312	92.19
497.529	105.19
497.746	102.19
497.963	100.19
498.181	95.19
498.398	90.19
498.615	111.19
498.832	112.19
499.049	96.19
499.267	92.19
499.484	90.19
499.701	94.19
499.918	78.19
500.135	97.19
500.352	97.19
500.569	91.19
500.786	86.19
501.003	82.19
501.22	80.19
501.437	85.19
501.654	75.19
501.871	95.19
502.088	91.19
502.305	92.19
502.522	90.19
502.739	85.19
502.956	90.19
503.172	83.19
503.389	97.19
503.606	102.19
503.823	87.19
504.04	98.19
504.256	86.19
504.473	103.19
504.69	90.19
504.907	89.19
505.123	85.19
505.34	82.19
505.557	90.19
505.773	84.19
505.99	78.19
506.207	89.19
506.423	96.19
506.64	97.19
506.856	95.19
507.073	95.19
507.289	74.19
507.506	99.19
507.722	100.19
507.939	102.19
508.155	92.19
508.372	102.19
508.588	103.19
508.805	84.19
509.021	75.19
509.238	93.19
509.454	107.19
509.67	101.19
509.887	93.19
510.103	111.19
510.319	154.19
510.536	520.19
510.752	1518.19
510.968	453.19
511.184	117.19
511.401	102.19
511.617	111.19
511.833	96.19
512.049	105.19
512.265	83.19
512.481	91.19
512.698	86.19
512.914	105.19
513.13	99.19
513.346	79.19
513.562	80.19
513.778	102.19
513.994	101.19
514.21	114.19
514.426	102.19
514.642	124.19
514.858	111.19
515.074	150.19
