Data from Circ_1982_H10_HRD10591_00071.txt Node
Date: Wed Jan 03 12:30:55 EST 2024
User: Yrep
Spectrometer: HR+D1059
Trigger mode: 1
Integration Time (sec): 1.000000E-1
Scans to average: 1
Electric dark correction enabled: true
Nonlinearity correction enabled: false
Boxcar width: 0
XAxis mode: Wavelengths
Number of Pixels in Spectrum: 2048
>>>>>Begin Spectral Data<<<<<
223.165	-19.38
223.4	-19.38
223.635	-19.38
223.869	-26.38
224.104	-19.38
224.338	-24.38
224.573	-10.38
224.808	-3.38
225.042	-12.38
225.277	-22.38
225.511	0.62
225.746	3.62
225.98	6.62
226.215	17.62
226.449	14.62
226.683	36.62
226.918	30.62
227.152	27.62
227.387	44.62
227.621	41.62
227.856	32.62
228.09	57.62
228.324	56.62
228.559	51.62
228.793	64.62
229.027	56.62
229.262	70.62
229.496	83.62
229.73	86.62
229.964	75.62
230.199	80.62
230.433	75.62
230.667	87.62
230.901	78.62
231.136	93.62
231.37	84.62
231.604	78.62
231.838	90.62
232.072	82.62
232.306	84.62
232.541	94.62
232.775	86.62
233.009	77.62
233.243	90.62
233.477	80.62
233.711	82.62
233.945	75.62
234.179	77.62
234.413	75.62
234.647	97.62
234.881	72.62
235.115	76.62
235.349	76.62
235.583	84.62
235.817	75.62
236.051	72.62
236.285	89.62
236.519	73.62
236.753	97.62
236.987	69.62
237.221	69.62
237.455	84.62
237.689	80.62
237.922	84.62
238.156	73.62
238.39	83.62
238.624	86.62
238.858	68.62
239.091	87.62
239.325	81.62
239.559	85.62
239.793	79.62
240.027	81.62
240.26	76.62
240.494	89.62
240.728	62.62
240.961	76.62
241.195	96.62
241.429	69.62
241.662	69.62
241.896	86.62
242.13	68.62
242.363	77.62
242.597	74.62
242.83	88.62
243.064	70.62
243.298	82.62
243.531	80.62
243.765	77.62
243.998	77.62
244.232	77.62
244.465	83.62
244.699	86.62
244.932	60.62
245.166	78.62
245.399	80.62
245.633	69.62
245.866	78.62
246.099	72.62
246.333	82.62
246.566	73.62
246.8	80.62
247.033	73.62
247.266	86.62
247.5	82.62
247.733	70.62
247.966	61.62
248.2	82.62
248.433	72.62
248.666	81.62
248.899	89.62
249.133	72.62
249.366	103.62
249.599	76.62
249.832	80.62
250.066	76.62
250.299	92.62
250.532	86.62
250.765	69.62
250.998	84.62
251.231	86.62
251.465	83.62
251.698	84.62
251.931	76.62
252.164	84.62
252.397	87.62
252.63	81.62
252.863	70.62
253.096	80.62
253.329	74.62
253.562	75.62
253.795	71.62
254.028	69.62
254.261	83.62
254.494	86.62
254.727	86.62
254.96	61.62
255.193	76.62
255.426	86.62
255.659	77.62
255.892	85.62
256.124	83.62
256.357	67.62
256.59	88.62
256.823	76.62
257.056	65.62
257.289	84.62
257.521	80.62
257.754	84.62
257.987	81.62
258.22	90.62
258.452	87.62
258.685	82.62
258.918	74.62
259.151	60.62
259.383	80.62
259.616	65.62
259.849	70.62
260.081	90.62
260.314	82.62
260.547	74.62
260.779	86.62
261.012	88.62
261.244	87.62
261.477	74.62
261.71	97.62
261.942	89.62
262.175	98.62
262.407	113.62
262.64	84.62
262.872	86.62
263.105	88.62
263.337	99.62
263.57	81.62
263.802	84.62
264.035	85.62
264.267	90.62
264.499	100.62
264.732	87.62
264.964	90.62
265.197	84.62
265.429	72.62
265.661	93.62
265.894	96.62
266.126	95.62
266.358	99.62
266.591	70.62
266.823	83.62
267.055	99.62
267.287	85.62
267.52	82.62
267.752	92.62
267.984	76.62
268.216	86.62
268.448	81.62
268.681	91.62
268.913	74.62
269.145	88.62
269.377	89.62
269.609	84.62
269.841	76.62
270.073	93.62
270.306	84.62
270.538	92.62
270.77	91.62
271.002	93.62
271.234	84.62
271.466	98.62
271.698	78.62
271.93	76.62
272.162	85.62
272.394	89.62
272.626	93.62
272.858	81.62
273.09	91.62
273.322	86.62
273.553	80.62
273.785	75.62
274.017	75.62
274.249	85.62
274.481	74.62
274.713	91.62
274.945	91.62
275.176	78.62
275.408	91.62
275.64	73.62
275.872	81.62
276.104	95.62
276.335	86.62
276.567	86.62
276.799	89.62
277.031	97.62
277.262	87.62
277.494	90.62
277.726	89.62
277.957	93.62
278.189	88.62
278.421	96.62
278.652	100.62
278.884	74.62
279.115	92.62
279.347	97.62
279.579	96.62
279.81	96.62
280.042	89.62
280.273	76.62
280.505	92.62
280.736	82.62
280.968	85.62
281.199	87.62
281.431	85.62
281.662	82.62
281.894	90.62
282.125	97.62
282.356	95.62
282.588	124.62
282.819	105.62
283.051	68.62
283.282	86.62
283.513	87.62
283.745	86.62
283.976	84.62
284.207	89.62
284.439	93.62
284.67	89.62
284.901	90.62
285.132	96.62
285.364	95.62
285.595	83.62
285.826	86.62
286.057	84.62
286.288	93.62
286.52	87.62
286.751	94.62
286.982	83.62
287.213	96.62
287.444	100.62
287.675	93.62
287.906	68.62
288.138	84.62
288.369	94.62
288.6	83.62
288.831	82.62
289.062	89.62
289.293	87.62
289.524	86.62
289.755	83.62
289.986	84.62
290.217	100.62
290.448	82.62
290.679	90.62
290.91	81.62
291.141	94.62
291.371	80.62
291.602	88.62
291.833	83.62
292.064	97.62
292.295	89.62
292.526	96.62
292.757	92.62
292.987	101.62
293.218	80.62
293.449	87.62
293.68	85.62
293.91	84.62
294.141	65.62
294.372	84.62
294.603	88.62
294.833	77.62
295.064	88.62
295.295	100.62
295.525	93.62
295.756	85.62
295.987	90.62
296.217	125.62
296.448	103.62
296.679	92.62
296.909	102.62
297.14	99.62
297.37	104.62
297.601	92.62
297.831	82.62
298.062	93.62
298.292	81.62
298.523	82.62
298.753	75.62
298.984	82.62
299.214	89.62
299.445	102.62
299.675	90.62
299.905	94.62
300.136	87.62
300.366	100.62
300.597	92.62
300.827	92.62
301.057	104.62
301.288	89.62
301.518	91.62
301.748	89.62
301.979	96.62
302.209	100.62
302.439	71.62
302.669	91.62
302.9	90.62
303.13	80.62
303.36	78.62
303.59	102.62
303.82	93.62
304.051	79.62
304.281	93.62
304.511	82.62
304.741	92.62
304.971	90.62
305.201	79.62
305.431	82.62
305.661	88.62
305.891	95.62
306.121	88.62
306.352	86.62
306.582	101.62
306.812	90.62
307.042	90.62
307.272	89.62
307.502	86.62
307.731	96.62
307.961	88.62
308.191	100.62
308.421	100.62
308.651	96.62
308.881	97.62
309.111	88.62
309.341	98.62
309.571	96.62
309.8	98.62
310.03	102.62
310.26	88.62
310.49	92.62
310.72	86.62
310.949	84.62
311.179	99.62
311.409	105.62
311.639	89.62
311.868	94.62
312.098	86.62
312.328	100.62
312.557	102.62
312.787	98.62
313.017	96.62
313.246	97.62
313.476	81.62
313.706	90.62
313.935	92.62
314.165	75.62
314.394	93.62
314.624	92.62
314.853	83.62
315.083	97.62
315.312	96.62
315.542	85.62
315.771	90.62
316.001	97.62
316.23	91.62
316.46	73.62
316.689	97.62
316.919	86.62
317.148	81.62
317.377	85.62
317.607	95.62
317.836	96.62
318.065	97.62
318.295	83.62
318.524	91.62
318.753	77.62
318.983	96.62
319.212	92.62
319.441	92.62
319.67	103.62
319.9	87.62
320.129	82.62
320.358	84.62
320.587	91.62
320.816	83.62
321.046	97.62
321.275	97.62
321.504	82.62
321.733	89.62
321.962	110.62
322.191	107.62
322.42	88.62
322.649	107.62
322.878	101.62
323.108	106.62
323.337	106.62
323.566	125.62
323.795	123.62
324.024	161.62
324.253	290.62
324.482	540.62
324.71	1058.62
324.939	1413.62
325.168	532.62
325.397	184.62
325.626	134.62
325.855	104.62
326.084	124.62
326.313	121.62
326.542	140.62
326.77	182.62
326.999	332.62
327.228	635.62
327.457	1104.62
327.686	899.62
327.914	273.62
328.143	170.62
328.372	135.62
328.6	116.62
328.829	97.62
329.058	104.62
329.287	113.62
329.515	111.62
329.744	104.62
329.972	104.62
330.201	113.62
330.43	124.62
330.658	93.62
330.887	111.62
331.115	102.62
331.344	103.62
331.572	100.62
331.801	94.62
332.03	96.62
332.258	100.62
332.486	102.62
332.715	98.62
332.943	98.62
333.172	88.62
333.4	96.62
333.629	117.62
333.857	120.62
334.085	123.62
334.314	105.62
334.542	117.62
334.771	105.62
334.999	97.62
335.227	96.62
335.455	86.62
335.684	96.62
335.912	94.62
336.14	92.62
336.369	105.62
336.597	84.62
336.825	102.62
337.053	98.62
337.281	103.62
337.51	90.62
337.738	101.62
337.966	96.62
338.194	92.62
338.422	84.62
338.65	94.62
338.878	82.62
339.106	101.62
339.334	76.62
339.562	87.62
339.79	93.62
340.018	86.62
340.246	87.62
340.474	100.62
340.702	88.62
340.93	100.62
341.158	99.62
341.386	90.62
341.614	91.62
341.842	85.62
342.07	97.62
342.298	94.62
342.526	82.62
342.754	93.62
342.981	92.62
343.209	88.62
343.437	99.62
343.665	102.62
343.893	105.62
344.12	96.62
344.348	101.62
344.576	95.62
344.804	85.62
345.031	88.62
345.259	106.62
345.487	85.62
345.714	86.62
345.942	109.62
346.17	100.62
346.397	87.62
346.625	94.62
346.853	83.62
347.08	92.62
347.308	89.62
347.535	88.62
347.763	97.62
347.99	93.62
348.218	93.62
348.445	89.62
348.673	92.62
348.9	102.62
349.128	106.62
349.355	88.62
349.583	96.62
349.81	90.62
350.037	94.62
350.265	89.62
350.492	101.62
350.72	99.62
350.947	98.62
351.174	114.62
351.402	102.62
351.629	100.62
351.856	105.62
352.083	96.62
352.311	97.62
352.538	94.62
352.765	94.62
352.992	109.62
353.22	98.62
353.447	110.62
353.674	105.62
353.901	106.62
354.128	109.62
354.355	99.62
354.583	83.62
354.81	86.62
355.037	96.62
355.264	80.62
355.491	104.62
355.718	97.62
355.945	100.62
356.172	103.62
356.399	110.62
356.626	91.62
356.853	93.62
357.08	94.62
357.307	76.62
357.534	90.62
357.761	85.62
357.988	103.62
358.215	115.62
358.441	96.62
358.668	95.62
358.895	90.62
359.122	83.62
359.349	77.62
359.576	83.62
359.802	91.62
360.029	96.62
360.256	101.62
360.483	98.62
360.709	84.62
360.936	84.62
361.163	91.62
361.39	106.62
361.616	109.62
361.843	89.62
362.07	88.62
362.296	97.62
362.523	96.62
362.749	86.62
362.976	82.62
363.203	84.62
363.429	90.62
363.656	97.62
363.882	82.62
364.109	87.62
364.335	94.62
364.562	91.62
364.788	78.62
365.015	92.62
365.241	109.62
365.468	115.62
365.694	94.62
365.92	101.62
366.147	92.62
366.373	98.62
366.599	78.62
366.826	97.62
367.052	96.62
367.278	102.62
367.505	104.62
367.731	104.62
367.957	94.62
368.184	100.62
368.41	94.62
368.636	100.62
368.862	106.62
369.089	91.62
369.315	85.62
369.541	100.62
369.767	109.62
369.993	105.62
370.219	91.62
370.445	90.62
370.672	78.62
370.898	75.62
371.124	70.62
371.35	96.62
371.576	79.62
371.802	97.62
372.028	94.62
372.254	87.62
372.48	90.62
372.706	78.62
372.932	68.62
373.158	76.62
373.384	86.62
373.61	84.62
373.835	83.62
374.061	95.62
374.287	97.62
374.513	94.62
374.739	91.62
374.965	79.62
375.191	88.62
375.416	80.62
375.642	80.62
375.868	90.62
376.094	85.62
376.319	83.62
376.545	97.62
376.771	103.62
376.997	76.62
377.222	88.62
377.448	93.62
377.674	88.62
377.899	84.62
378.125	98.62
378.35	86.62
378.576	72.62
378.802	100.62
379.027	93.62
379.253	94.62
379.478	89.62
379.704	96.62
379.929	94.62
380.155	101.62
380.38	99.62
380.606	99.62
380.831	76.62
381.057	107.62
381.282	93.62
381.507	82.62
381.733	89.62
381.958	97.62
382.184	105.62
382.409	94.62
382.634	88.62
382.86	101.62
383.085	98.62
383.31	106.62
383.535	95.62
383.761	97.62
383.986	96.62
384.211	97.62
384.436	92.62
384.662	91.62
384.887	100.62
385.112	94.62
385.337	96.62
385.562	104.62
385.787	102.62
386.013	113.62
386.238	111.62
386.463	91.62
386.688	95.62
386.913	89.62
387.138	84.62
387.363	98.62
387.588	93.62
387.813	91.62
388.038	108.62
388.263	111.62
388.488	100.62
388.713	93.62
388.938	88.62
389.163	96.62
389.387	94.62
389.612	107.62
389.837	86.62
390.062	89.62
390.287	92.62
390.512	87.62
390.736	98.62
390.961	97.62
391.186	93.62
391.411	99.62
391.636	106.62
391.86	107.62
392.085	101.62
392.31	63.62
392.534	88.62
392.759	83.62
392.984	101.62
393.208	113.62
393.433	83.62
393.658	85.62
393.882	88.62
394.107	86.62
394.331	78.62
394.556	92.62
394.78	84.62
395.005	76.62
395.229	69.62
395.454	103.62
395.678	93.62
395.903	95.62
396.127	78.62
396.352	96.62
396.576	86.62
396.801	80.62
397.025	90.62
397.249	68.62
397.474	88.62
397.698	80.62
397.922	86.62
398.147	87.62
398.371	76.62
398.595	93.62
398.82	76.62
399.044	82.62
399.268	84.62
399.492	92.62
399.717	92.62
399.941	84.62
400.165	75.62
400.389	91.62
400.613	90.62
400.837	76.62
401.062	89.62
401.286	80.62
401.51	84.62
401.734	96.62
401.958	90.62
402.182	120.62
402.406	128.62
402.63	100.62
402.854	99.62
403.078	91.62
403.302	100.62
403.526	89.62
403.75	100.62
403.974	81.62
404.198	88.62
404.422	70.62
404.645	90.62
404.869	86.62
405.093	80.62
405.317	110.62
405.541	94.62
405.765	85.62
405.988	97.62
406.212	119.62
406.436	172.62
406.66	120.62
406.883	93.62
407.107	65.62
407.331	93.62
407.555	95.62
407.778	81.62
408.002	84.62
408.226	92.62
408.449	82.62
408.673	97.62
408.896	89.62
409.12	97.62
409.344	103.62
409.567	104.62
409.791	89.62
410.014	84.62
410.238	76.62
410.461	96.62
410.685	96.62
410.908	96.62
411.132	106.62
411.355	105.62
411.578	89.62
411.802	74.62
412.025	80.62
412.249	79.62
412.472	97.62
412.695	97.62
412.919	91.62
413.142	107.62
413.365	87.62
413.589	94.62
413.812	86.62
414.035	92.62
414.258	98.62
414.482	80.62
414.705	97.62
414.928	92.62
415.151	104.62
415.374	90.62
415.597	93.62
415.821	83.62
416.044	88.62
416.267	78.62
416.49	87.62
416.713	101.62
416.936	84.62
417.159	94.62
417.382	97.62
417.605	78.62
417.828	91.62
418.051	100.62
418.274	82.62
418.497	90.62
418.72	87.62
418.943	80.62
419.166	94.62
419.389	105.62
419.611	83.62
419.834	88.62
420.057	73.62
420.28	80.62
420.503	96.62
420.726	94.62
420.948	83.62
421.171	83.62
421.394	101.62
421.617	105.62
421.839	102.62
422.062	90.62
422.285	102.62
422.507	103.62
422.73	100.62
422.953	97.62
423.175	98.62
423.398	74.62
423.621	74.62
423.843	93.62
424.066	81.62
424.288	88.62
424.511	93.62
424.733	93.62
424.956	96.62
425.178	96.62
425.401	101.62
425.623	106.62
425.846	96.62
426.068	92.62
426.291	90.62
426.513	84.62
426.735	90.62
426.958	84.62
427.18	93.62
427.402	128.62
427.625	133.62
427.847	120.62
428.069	101.62
428.292	82.62
428.514	80.62
428.736	93.62
428.958	74.62
429.181	84.62
429.403	80.62
429.625	77.62
429.847	84.62
430.069	91.62
430.292	90.62
430.514	90.62
430.736	75.62
430.958	75.62
431.18	86.62
431.402	84.62
431.624	75.62
431.846	72.62
432.068	90.62
432.29	87.62
432.512	99.62
432.734	91.62
432.956	101.62
433.178	101.62
433.4	98.62
433.622	88.62
433.844	87.62
434.066	80.62
434.287	102.62
434.509	88.62
434.731	92.62
434.953	87.62
435.175	89.62
435.397	96.62
435.618	93.62
435.84	101.62
436.062	96.62
436.284	95.62
436.505	101.62
436.727	77.62
436.949	100.62
437.17	93.62
437.392	84.62
437.614	95.62
437.835	88.62
438.057	78.62
438.278	102.62
438.5	83.62
438.721	119.62
438.943	96.62
439.165	88.62
439.386	90.62
439.608	96.62
439.829	86.62
440.05	102.62
440.272	112.62
440.493	111.62
440.715	101.62
440.936	64.62
441.158	88.62
441.379	82.62
441.6	78.62
441.822	84.62
442.043	92.62
442.264	94.62
442.486	92.62
442.707	95.62
442.928	105.62
443.149	109.62
443.371	104.62
443.592	98.62
443.813	103.62
444.034	100.62
444.255	84.62
444.476	78.62
444.698	104.62
444.919	68.62
445.14	120.62
445.361	119.62
445.582	109.62
445.803	122.62
446.024	120.62
446.245	114.62
446.466	99.62
446.687	93.62
446.908	89.62
447.129	84.62
447.35	85.62
447.571	93.62
447.792	97.62
448.013	101.62
448.234	86.62
448.455	94.62
448.675	104.62
448.896	113.62
449.117	97.62
449.338	94.62
449.559	95.62
449.779	108.62
450	89.62
450.221	99.62
450.442	80.62
450.662	94.62
450.883	94.62
451.104	97.62
451.324	95.62
451.545	93.62
451.766	89.62
451.986	77.62
452.207	90.62
452.428	106.62
452.648	78.62
452.869	107.62
453.089	92.62
453.31	105.62
453.53	77.62
453.751	94.62
453.971	89.62
454.192	86.62
454.412	86.62
454.633	84.62
454.853	87.62
455.073	81.62
455.294	81.62
455.514	94.62
455.734	81.62
455.955	85.62
456.175	89.62
456.395	77.62
456.616	88.62
456.836	88.62
457.056	88.62
457.276	85.62
457.497	86.62
457.717	90.62
457.937	76.62
458.157	88.62
458.377	96.62
458.598	99.62
458.818	136.62
459.038	136.62
459.258	101.62
459.478	76.62
459.698	84.62
459.918	81.62
460.138	77.62
460.358	90.62
460.578	84.62
460.798	80.62
461.018	90.62
461.238	97.62
461.458	80.62
461.678	98.62
461.898	83.62
462.118	91.62
462.338	77.62
462.558	93.62
462.777	89.62
462.997	92.62
463.217	90.62
463.437	83.62
463.657	85.62
463.876	90.62
464.096	95.62
464.316	80.62
464.536	87.62
464.755	92.62
464.975	97.62
465.195	133.62
465.414	132.62
465.634	70.62
465.854	89.62
466.073	71.62
466.293	88.62
466.512	90.62
466.732	70.62
466.951	82.62
467.171	98.62
467.391	81.62
467.61	96.62
467.829	99.62
468.049	88.62
468.268	95.62
468.488	86.62
468.707	96.62
468.927	88.62
469.146	83.62
469.365	96.62
469.585	81.62
469.804	100.62
470.023	102.62
470.243	84.62
470.462	94.62
470.681	114.62
470.901	77.62
471.12	88.62
471.339	90.62
471.558	93.62
471.777	93.62
471.997	92.62
472.216	113.62
472.435	110.62
472.654	98.62
472.873	92.62
473.092	96.62
473.311	84.62
473.53	96.62
473.749	99.62
473.968	94.62
474.187	75.62
474.406	83.62
474.625	94.62
474.844	87.62
475.063	84.62
475.282	90.62
475.501	77.62
475.72	90.62
475.939	94.62
476.158	96.62
476.377	89.62
476.596	92.62
476.814	82.62
477.033	107.62
477.252	84.62
477.471	94.62
477.69	96.62
477.908	84.62
478.127	91.62
478.346	98.62
478.564	96.62
478.783	98.62
479.002	81.62
479.22	102.62
479.439	95.62
479.658	92.62
479.876	92.62
480.095	91.62
480.313	78.62
480.532	89.62
480.751	89.62
480.969	115.62
481.188	161.62
481.406	142.62
481.624	96.62
481.843	100.62
482.061	84.62
482.28	87.62
482.498	86.62
482.717	78.62
482.935	91.62
483.153	89.62
483.372	88.62
483.59	94.62
483.808	94.62
484.027	78.62
484.245	77.62
484.463	89.62
484.681	92.62
484.9	92.62
485.118	100.62
485.336	102.62
485.554	100.62
485.772	101.62
485.99	100.62
486.209	107.62
486.427	98.62
486.645	98.62
486.863	97.62
487.081	85.62
487.299	107.62
487.517	82.62
487.735	93.62
487.953	89.62
488.171	86.62
488.389	83.62
488.607	86.62
488.825	76.62
489.043	83.62
489.261	88.62
489.479	72.62
489.696	83.62
489.914	96.62
490.132	90.62
490.35	82.62
490.568	100.62
490.786	88.62
491.003	99.62
491.221	82.62
491.439	86.62
491.657	82.62
491.874	88.62
492.092	88.62
492.31	96.62
492.527	90.62
492.745	102.62
492.963	98.62
493.18	90.62
493.398	81.62
493.615	86.62
493.833	101.62
494.05	86.62
494.268	87.62
494.485	89.62
494.703	92.62
494.92	80.62
495.138	80.62
495.355	85.62
495.573	92.62
495.79	104.62
496.008	102.62
496.225	81.62
496.442	84.62
496.66	106.62
496.877	72.62
497.094	96.62
497.312	77.62
497.529	102.62
497.746	99.62
497.963	78.62
498.181	90.62
498.398	94.62
498.615	94.62
498.832	99.62
499.049	100.62
499.267	91.62
499.484	90.62
499.701	101.62
499.918	95.62
500.135	93.62
500.352	98.62
500.569	88.62
500.786	104.62
501.003	98.62
501.22	91.62
501.437	92.62
501.654	93.62
501.871	104.62
502.088	108.62
502.305	78.62
502.522	84.62
502.739	94.62
502.956	87.62
503.172	96.62
503.389	87.62
503.606	92.62
503.823	89.62
504.04	99.62
504.256	95.62
504.473	84.62
504.69	92.62
504.907	82.62
505.123	104.62
505.34	106.62
505.557	93.62
505.773	83.62
505.99	83.62
506.207	85.62
506.423	73.62
506.64	75.62
506.856	84.62
507.073	92.62
507.289	92.62
507.506	89.62
507.722	88.62
507.939	107.62
508.155	109.62
508.372	90.62
508.588	97.62
508.805	92.62
509.021	100.62
509.238	100.62
509.454	98.62
509.67	80.62
509.887	97.62
510.103	116.62
510.319	167.62
510.536	552.62
510.752	1520.62
510.968	448.62
511.184	125.62
511.401	89.62
511.617	87.62
511.833	97.62
512.049	93.62
512.265	83.62
512.481	85.62
512.698	89.62
512.914	84.62
513.13	92.62
513.346	88.62
513.562	86.62
513.778	91.62
513.994	93.62
514.21	95.62
514.426	113.62
514.642	117.62
514.858	102.62
515.074	126.62
515.29	298.62
515.506	897.62
515.721	343.62
515.937	133.62
516.153	110.62
516.369	99.62
