Data from Circ_1982_H10_HRD10591_00041.txt Node
Date: Wed Jan 03 12:30:49 EST 2024
User: Yrep
Spectrometer: HR+D1059
Trigger mode: 1
Integration Time (sec): 1.000000E-1
Scans to average: 1
Electric dark correction enabled: true
Nonlinearity correction enabled: false
Boxcar width: 0
XAxis mode: Wavelengths
Number of Pixels in Spectrum: 2048
>>>>>Begin Spectral Data<<<<<
223.165	-7.88
223.4	-7.88
223.635	-7.88
223.869	-22.88
224.104	-6.88
224.338	-13.88
224.573	-6.88
224.808	-13.88
225.042	-15.88
225.277	-17.88
225.511	5.12
225.746	-13.88
225.98	-2.88
226.215	13.12
226.449	26.12
226.683	23.12
226.918	20.12
227.152	35.12
227.387	31.12
227.621	28.12
227.856	55.12
228.09	50.12
228.324	45.12
228.559	52.12
228.793	65.12
229.027	75.12
229.262	63.12
229.496	62.12
229.73	70.12
229.964	77.12
230.199	81.12
230.433	87.12
230.667	87.12
230.901	87.12
231.136	68.12
231.37	66.12
231.604	80.12
231.838	76.12
232.072	78.12
232.306	79.12
232.541	78.12
232.775	96.12
233.009	84.12
233.243	80.12
233.477	81.12
233.711	77.12
233.945	86.12
234.179	79.12
234.413	79.12
234.647	88.12
234.881	79.12
235.115	95.12
235.349	86.12
235.583	83.12
235.817	70.12
236.051	72.12
236.285	84.12
236.519	85.12
236.753	78.12
236.987	69.12
237.221	71.12
237.455	79.12
237.689	89.12
237.922	71.12
238.156	87.12
238.39	79.12
238.624	71.12
238.858	95.12
239.091	85.12
239.325	69.12
239.559	72.12
239.793	85.12
240.027	83.12
240.26	68.12
240.494	76.12
240.728	78.12
240.961	90.12
241.195	78.12
241.429	79.12
241.662	76.12
241.896	69.12
242.13	72.12
242.363	79.12
242.597	72.12
242.83	99.12
243.064	69.12
243.298	82.12
243.531	76.12
243.765	84.12
243.998	69.12
244.232	70.12
244.465	90.12
244.699	85.12
244.932	72.12
245.166	81.12
245.399	83.12
245.633	77.12
245.866	76.12
246.099	69.12
246.333	89.12
246.566	75.12
246.8	73.12
247.033	70.12
247.266	71.12
247.5	82.12
247.733	77.12
247.966	63.12
248.2	98.12
248.433	87.12
248.666	74.12
248.899	75.12
249.133	84.12
249.366	97.12
249.599	81.12
249.832	85.12
250.066	90.12
250.299	88.12
250.532	85.12
250.765	89.12
250.998	76.12
251.231	69.12
251.465	71.12
251.698	76.12
251.931	71.12
252.164	76.12
252.397	69.12
252.63	88.12
252.863	69.12
253.096	83.12
253.329	85.12
253.562	96.12
253.795	81.12
254.028	69.12
254.261	75.12
254.494	83.12
254.727	87.12
254.96	84.12
255.193	90.12
255.426	79.12
255.659	91.12
255.892	77.12
256.124	76.12
256.357	69.12
256.59	89.12
256.823	70.12
257.056	89.12
257.289	85.12
257.521	99.12
257.754	85.12
257.987	85.12
258.22	82.12
258.452	90.12
258.685	76.12
258.918	85.12
259.151	83.12
259.383	80.12
259.616	77.12
259.849	87.12
260.081	72.12
260.314	87.12
260.547	79.12
260.779	80.12
261.012	79.12
261.244	83.12
261.477	83.12
261.71	96.12
261.942	96.12
262.175	99.12
262.407	71.12
262.64	65.12
262.872	76.12
263.105	85.12
263.337	86.12
263.57	82.12
263.802	77.12
264.035	78.12
264.267	72.12
264.499	78.12
264.732	92.12
264.964	86.12
265.197	85.12
265.429	93.12
265.661	91.12
265.894	81.12
266.126	91.12
266.358	72.12
266.591	74.12
266.823	73.12
267.055	81.12
267.287	72.12
267.52	103.12
267.752	89.12
267.984	67.12
268.216	74.12
268.448	67.12
268.681	74.12
268.913	95.12
269.145	90.12
269.377	84.12
269.609	84.12
269.841	83.12
270.073	82.12
270.306	89.12
270.538	77.12
270.77	82.12
271.002	79.12
271.234	98.12
271.466	82.12
271.698	81.12
271.93	74.12
272.162	85.12
272.394	90.12
272.626	94.12
272.858	84.12
273.09	92.12
273.322	83.12
273.553	86.12
273.785	83.12
274.017	83.12
274.249	92.12
274.481	78.12
274.713	88.12
274.945	95.12
275.176	75.12
275.408	87.12
275.64	94.12
275.872	78.12
276.104	96.12
276.335	92.12
276.567	111.12
276.799	98.12
277.031	99.12
277.262	90.12
277.494	93.12
277.726	84.12
277.957	86.12
278.189	84.12
278.421	87.12
278.652	92.12
278.884	76.12
279.115	80.12
279.347	93.12
279.579	88.12
279.81	82.12
280.042	73.12
280.273	83.12
280.505	83.12
280.736	91.12
280.968	89.12
281.199	77.12
281.431	89.12
281.662	83.12
281.894	90.12
282.125	106.12
282.356	100.12
282.588	113.12
282.819	99.12
283.051	113.12
283.282	89.12
283.513	84.12
283.745	87.12
283.976	79.12
284.207	88.12
284.439	95.12
284.67	99.12
284.901	101.12
285.132	90.12
285.364	84.12
285.595	80.12
285.826	80.12
286.057	93.12
286.288	91.12
286.52	86.12
286.751	86.12
286.982	81.12
287.213	81.12
287.444	82.12
287.675	102.12
287.906	86.12
288.138	91.12
288.369	91.12
288.6	72.12
288.831	83.12
289.062	80.12
289.293	86.12
289.524	84.12
289.755	88.12
289.986	103.12
290.217	80.12
290.448	83.12
290.679	85.12
290.91	85.12
291.141	87.12
291.371	90.12
291.602	89.12
291.833	93.12
292.064	95.12
292.295	80.12
292.526	95.12
292.757	100.12
292.987	85.12
293.218	99.12
293.449	87.12
293.68	88.12
293.91	89.12
294.141	81.12
294.372	92.12
294.603	85.12
294.833	94.12
295.064	84.12
295.295	98.12
295.525	90.12
295.756	92.12
295.987	97.12
296.217	124.12
296.448	99.12
296.679	84.12
296.909	91.12
297.14	76.12
297.37	89.12
297.601	99.12
297.831	85.12
298.062	83.12
298.292	88.12
298.523	83.12
298.753	91.12
298.984	91.12
299.214	74.12
299.445	79.12
299.675	85.12
299.905	110.12
300.136	92.12
300.366	97.12
300.597	84.12
300.827	85.12
301.057	99.12
301.288	82.12
301.518	82.12
301.748	76.12
301.979	97.12
302.209	103.12
302.439	82.12
302.669	93.12
302.9	92.12
303.13	85.12
303.36	95.12
303.59	97.12
303.82	83.12
304.051	84.12
304.281	93.12
304.511	99.12
304.741	99.12
304.971	89.12
305.201	74.12
305.431	89.12
305.661	85.12
305.891	84.12
306.121	99.12
306.352	116.12
306.582	91.12
306.812	99.12
307.042	79.12
307.272	88.12
307.502	90.12
307.731	99.12
307.961	80.12
308.191	83.12
308.421	93.12
308.651	96.12
308.881	100.12
309.111	81.12
309.341	92.12
309.571	93.12
309.8	85.12
310.03	91.12
310.26	97.12
310.49	89.12
310.72	84.12
310.949	112.12
311.179	100.12
311.409	80.12
311.639	92.12
311.868	92.12
312.098	83.12
312.328	85.12
312.557	99.12
312.787	96.12
313.017	106.12
313.246	87.12
313.476	74.12
313.706	91.12
313.935	88.12
314.165	82.12
314.394	107.12
314.624	97.12
314.853	115.12
315.083	95.12
315.312	95.12
315.542	106.12
315.771	97.12
316.001	86.12
316.23	89.12
316.46	87.12
316.689	80.12
316.919	84.12
317.148	99.12
317.377	96.12
317.607	99.12
317.836	95.12
318.065	83.12
318.295	85.12
318.524	90.12
318.753	76.12
318.983	81.12
319.212	81.12
319.441	102.12
319.67	89.12
319.9	95.12
320.129	83.12
320.358	89.12
320.587	94.12
320.816	97.12
321.046	90.12
321.275	92.12
321.504	90.12
321.733	93.12
321.962	98.12
322.191	95.12
322.42	85.12
322.649	99.12
322.878	96.12
323.108	85.12
323.337	107.12
323.566	115.12
323.795	119.12
324.024	172.12
324.253	281.12
324.482	563.12
324.71	1136.12
324.939	1495.12
325.168	570.12
325.397	193.12
325.626	128.12
325.855	109.12
326.084	117.12
326.313	116.12
326.542	130.12
326.77	193.12
326.999	349.12
327.228	646.12
327.457	1185.12
327.686	963.12
327.914	273.12
328.143	163.12
328.372	133.12
328.6	108.12
328.829	104.12
329.058	115.12
329.287	111.12
329.515	87.12
329.744	99.12
329.972	91.12
330.201	110.12
330.43	121.12
330.658	99.12
330.887	112.12
331.115	111.12
331.344	90.12
331.572	93.12
331.801	97.12
332.03	88.12
332.258	97.12
332.486	99.12
332.715	112.12
332.943	78.12
333.172	81.12
333.4	99.12
333.629	101.12
333.857	104.12
334.085	105.12
334.314	122.12
334.542	117.12
334.771	97.12
334.999	91.12
335.227	95.12
335.455	83.12
335.684	92.12
335.912	103.12
336.14	93.12
336.369	91.12
336.597	90.12
336.825	91.12
337.053	96.12
337.281	95.12
337.51	84.12
337.738	88.12
337.966	93.12
338.194	98.12
338.422	93.12
338.65	95.12
338.878	92.12
339.106	93.12
339.334	85.12
339.562	85.12
339.79	74.12
340.018	69.12
340.246	91.12
340.474	102.12
340.702	102.12
340.93	84.12
341.158	87.12
341.386	99.12
341.614	85.12
341.842	97.12
342.07	93.12
342.298	98.12
342.526	113.12
342.754	82.12
342.981	92.12
343.209	98.12
343.437	110.12
343.665	92.12
343.893	87.12
344.12	92.12
344.348	87.12
344.576	98.12
344.804	96.12
345.031	92.12
345.259	106.12
345.487	98.12
345.714	93.12
345.942	98.12
346.17	90.12
346.397	82.12
346.625	88.12
346.853	101.12
347.08	93.12
347.308	90.12
347.535	99.12
347.763	104.12
347.99	103.12
348.218	103.12
348.445	96.12
348.673	102.12
348.9	91.12
349.128	97.12
349.355	89.12
349.583	91.12
349.81	89.12
350.037	100.12
350.265	91.12
350.492	96.12
350.72	92.12
350.947	100.12
351.174	90.12
351.402	106.12
351.629	100.12
351.856	90.12
352.083	93.12
352.311	105.12
352.538	99.12
352.765	95.12
352.992	104.12
353.22	103.12
353.447	96.12
353.674	95.12
353.901	105.12
354.128	84.12
354.355	99.12
354.583	101.12
354.81	96.12
355.037	109.12
355.264	82.12
355.491	91.12
355.718	96.12
355.945	95.12
356.172	75.12
356.399	94.12
356.626	97.12
356.853	106.12
357.08	91.12
357.307	95.12
357.534	80.12
357.761	100.12
357.988	98.12
358.215	88.12
358.441	105.12
358.668	105.12
358.895	100.12
359.122	97.12
359.349	91.12
359.576	85.12
359.802	83.12
360.029	109.12
360.256	96.12
360.483	96.12
360.709	86.12
360.936	101.12
361.163	87.12
361.39	92.12
361.616	74.12
361.843	92.12
362.07	89.12
362.296	83.12
362.523	76.12
362.749	97.12
362.976	86.12
363.203	89.12
363.429	93.12
363.656	86.12
363.882	96.12
364.109	97.12
364.335	98.12
364.562	86.12
364.788	94.12
365.015	87.12
365.241	90.12
365.468	96.12
365.694	85.12
365.92	73.12
366.147	91.12
366.373	87.12
366.599	93.12
366.826	81.12
367.052	90.12
367.278	87.12
367.505	98.12
367.731	105.12
367.957	86.12
368.184	93.12
368.41	89.12
368.636	108.12
368.862	120.12
369.089	103.12
369.315	92.12
369.541	89.12
369.767	85.12
369.993	89.12
370.219	86.12
370.445	90.12
370.672	83.12
370.898	93.12
371.124	102.12
371.35	99.12
371.576	81.12
371.802	90.12
372.028	99.12
372.254	95.12
372.48	85.12
372.706	91.12
372.932	79.12
373.158	95.12
373.384	99.12
373.61	91.12
373.835	91.12
374.061	85.12
374.287	83.12
374.513	88.12
374.739	105.12
374.965	88.12
375.191	76.12
375.416	90.12
375.642	87.12
375.868	96.12
376.094	86.12
376.319	99.12
376.545	97.12
376.771	74.12
376.997	81.12
377.222	76.12
377.448	82.12
377.674	83.12
377.899	91.12
378.125	91.12
378.35	86.12
378.576	83.12
378.802	103.12
379.027	89.12
379.253	84.12
379.478	95.12
379.704	90.12
379.929	80.12
380.155	75.12
380.38	89.12
380.606	92.12
380.831	91.12
381.057	97.12
381.282	79.12
381.507	87.12
381.733	99.12
381.958	102.12
382.184	91.12
382.409	99.12
382.634	101.12
382.86	103.12
383.085	101.12
383.31	82.12
383.535	97.12
383.761	99.12
383.986	94.12
384.211	88.12
384.436	98.12
384.662	87.12
384.887	109.12
385.112	91.12
385.337	99.12
385.562	91.12
385.787	106.12
386.013	117.12
386.238	108.12
386.463	105.12
386.688	104.12
386.913	100.12
387.138	101.12
387.363	97.12
387.588	96.12
387.813	99.12
388.038	100.12
388.263	120.12
388.488	108.12
388.713	103.12
388.938	90.12
389.163	111.12
389.387	76.12
389.612	91.12
389.837	101.12
390.062	95.12
390.287	106.12
390.512	77.12
390.736	91.12
390.961	99.12
391.186	76.12
391.411	93.12
391.636	78.12
391.86	86.12
392.085	84.12
392.31	79.12
392.534	76.12
392.759	87.12
392.984	100.12
393.208	86.12
393.433	86.12
393.658	85.12
393.882	87.12
394.107	84.12
394.331	81.12
394.556	102.12
394.78	92.12
395.005	73.12
395.229	91.12
395.454	85.12
395.678	97.12
395.903	89.12
396.127	83.12
396.352	97.12
396.576	74.12
396.801	79.12
397.025	86.12
397.249	74.12
397.474	91.12
397.698	81.12
397.922	96.12
398.147	90.12
398.371	99.12
398.595	79.12
398.82	76.12
399.044	85.12
399.268	71.12
399.492	99.12
399.717	83.12
399.941	88.12
400.165	93.12
400.389	87.12
400.613	82.12
400.837	85.12
401.062	86.12
401.286	67.12
401.51	85.12
401.734	105.12
401.958	95.12
402.182	103.12
402.406	129.12
402.63	99.12
402.854	75.12
403.078	92.12
403.302	91.12
403.526	80.12
403.75	90.12
403.974	84.12
404.198	95.12
404.422	81.12
404.645	92.12
404.869	99.12
405.093	91.12
405.317	76.12
405.541	88.12
405.765	101.12
405.988	101.12
406.212	138.12
406.436	163.12
406.66	105.12
406.883	83.12
407.107	89.12
407.331	98.12
407.555	106.12
407.778	87.12
408.002	93.12
408.226	91.12
408.449	92.12
408.673	85.12
408.896	86.12
409.12	86.12
409.344	82.12
409.567	84.12
409.791	81.12
410.014	104.12
410.238	85.12
410.461	92.12
410.685	86.12
410.908	79.12
411.132	92.12
411.355	92.12
411.578	95.12
411.802	85.12
412.025	92.12
412.249	93.12
412.472	88.12
412.695	96.12
412.919	101.12
413.142	76.12
413.365	76.12
413.589	87.12
413.812	87.12
414.035	99.12
414.258	93.12
414.482	91.12
414.705	101.12
414.928	87.12
415.151	87.12
415.374	76.12
415.597	84.12
415.821	94.12
416.044	88.12
416.267	74.12
416.49	87.12
416.713	74.12
416.936	80.12
417.159	95.12
417.382	81.12
417.605	79.12
417.828	97.12
418.051	76.12
418.274	99.12
418.497	95.12
418.72	104.12
418.943	91.12
419.166	86.12
419.389	89.12
419.611	93.12
419.834	92.12
420.057	97.12
420.28	89.12
420.503	84.12
420.726	87.12
420.948	100.12
421.171	102.12
421.394	96.12
421.617	79.12
421.839	88.12
422.062	84.12
422.285	81.12
422.507	95.12
422.73	113.12
422.953	98.12
423.175	94.12
423.398	84.12
423.621	73.12
423.843	98.12
424.066	86.12
424.288	81.12
424.511	87.12
424.733	90.12
424.956	112.12
425.178	100.12
425.401	97.12
425.623	102.12
425.846	101.12
426.068	83.12
426.291	83.12
426.513	88.12
426.735	94.12
426.958	81.12
427.18	90.12
427.402	116.12
427.625	130.12
427.847	118.12
428.069	94.12
428.292	98.12
428.514	83.12
428.736	67.12
428.958	73.12
429.181	80.12
429.403	88.12
429.625	84.12
429.847	84.12
430.069	100.12
430.292	77.12
430.514	80.12
430.736	83.12
430.958	77.12
431.18	73.12
431.402	80.12
431.624	91.12
431.846	79.12
432.068	77.12
432.29	83.12
432.512	87.12
432.734	81.12
432.956	99.12
433.178	89.12
433.4	104.12
433.622	100.12
433.844	76.12
434.066	87.12
434.287	97.12
434.509	83.12
434.731	93.12
434.953	87.12
435.175	84.12
435.397	87.12
435.618	91.12
435.84	99.12
436.062	104.12
436.284	91.12
436.505	90.12
436.727	105.12
436.949	90.12
437.17	98.12
437.392	87.12
437.614	83.12
437.835	99.12
438.057	99.12
438.278	96.12
438.5	93.12
438.721	127.12
438.943	76.12
439.165	85.12
439.386	75.12
439.608	89.12
439.829	89.12
440.05	129.12
440.272	135.12
440.493	85.12
440.715	79.12
440.936	74.12
441.158	94.12
441.379	96.12
441.6	68.12
441.822	87.12
442.043	84.12
442.264	98.12
442.486	92.12
442.707	82.12
442.928	95.12
443.149	107.12
443.371	101.12
443.592	103.12
443.813	100.12
444.034	92.12
444.255	83.12
444.476	78.12
444.698	75.12
444.919	98.12
445.14	122.12
445.361	104.12
445.582	114.12
445.803	117.12
446.024	115.12
446.245	113.12
446.466	101.12
446.687	102.12
446.908	96.12
447.129	84.12
447.35	88.12
447.571	77.12
447.792	99.12
448.013	90.12
448.234	93.12
448.455	78.12
448.675	121.12
448.896	112.12
449.117	92.12
449.338	102.12
449.559	125.12
449.779	113.12
450	83.12
450.221	83.12
450.442	79.12
450.662	81.12
450.883	91.12
451.104	98.12
451.324	77.12
451.545	85.12
451.766	85.12
451.986	80.12
452.207	93.12
452.428	92.12
452.648	90.12
452.869	90.12
453.089	100.12
453.31	99.12
453.53	84.12
453.751	87.12
453.971	101.12
454.192	96.12
454.412	92.12
454.633	97.12
454.853	92.12
455.073	88.12
455.294	83.12
455.514	100.12
455.734	96.12
455.955	85.12
456.175	81.12
456.395	88.12
456.616	79.12
456.836	81.12
457.056	84.12
457.276	90.12
457.497	85.12
457.717	91.12
457.937	72.12
458.157	73.12
458.377	81.12
458.598	90.12
458.818	120.12
459.038	125.12
459.258	92.12
459.478	93.12
459.698	86.12
459.918	92.12
460.138	72.12
460.358	96.12
460.578	81.12
460.798	97.12
461.018	86.12
461.238	88.12
461.458	82.12
461.678	95.12
461.898	86.12
462.118	81.12
462.338	89.12
462.558	77.12
462.777	89.12
462.997	85.12
463.217	83.12
463.437	87.12
463.657	95.12
463.876	90.12
464.096	81.12
464.316	93.12
464.536	93.12
464.755	93.12
464.975	99.12
465.195	133.12
465.414	124.12
465.634	87.12
465.854	90.12
466.073	77.12
466.293	79.12
466.512	83.12
466.732	98.12
466.951	86.12
467.171	88.12
467.391	103.12
467.61	94.12
467.829	95.12
468.049	88.12
468.268	79.12
468.488	90.12
468.707	92.12
468.927	82.12
469.146	92.12
469.365	86.12
469.585	76.12
469.804	81.12
470.023	85.12
470.243	75.12
470.462	103.12
470.681	102.12
470.901	97.12
471.12	77.12
471.339	90.12
471.558	98.12
471.777	96.12
471.997	89.12
472.216	88.12
472.435	107.12
472.654	92.12
472.873	97.12
473.092	85.12
473.311	79.12
473.53	80.12
473.749	61.12
473.968	83.12
474.187	89.12
474.406	83.12
474.625	89.12
474.844	94.12
475.063	84.12
475.282	89.12
475.501	84.12
475.72	76.12
475.939	75.12
476.158	76.12
476.377	95.12
476.596	81.12
476.814	96.12
477.033	99.12
477.252	86.12
477.471	87.12
477.69	88.12
477.908	83.12
478.127	89.12
478.346	95.12
478.564	93.12
478.783	85.12
479.002	95.12
479.22	89.12
479.439	81.12
479.658	99.12
479.876	91.12
480.095	103.12
480.313	87.12
480.532	81.12
480.751	87.12
480.969	107.12
481.188	146.12
481.406	128.12
481.624	96.12
481.843	101.12
482.061	79.12
482.28	69.12
482.498	75.12
482.717	88.12
482.935	87.12
483.153	91.12
483.372	103.12
483.59	102.12
483.808	82.12
484.027	94.12
484.245	102.12
484.463	87.12
484.681	102.12
484.9	86.12
485.118	86.12
485.336	92.12
485.554	88.12
485.772	90.12
485.99	102.12
486.209	97.12
486.427	102.12
486.645	113.12
486.863	106.12
487.081	83.12
487.299	91.12
487.517	102.12
487.735	87.12
487.953	97.12
488.171	97.12
488.389	95.12
488.607	100.12
488.825	89.12
489.043	82.12
489.261	90.12
489.479	82.12
489.696	91.12
489.914	89.12
490.132	77.12
490.35	85.12
490.568	81.12
490.786	80.12
491.003	87.12
491.221	79.12
491.439	94.12
491.657	97.12
491.874	94.12
492.092	97.12
492.31	85.12
492.527	89.12
492.745	95.12
492.963	93.12
493.18	87.12
493.398	91.12
493.615	91.12
493.833	89.12
494.05	87.12
494.268	97.12
494.485	78.12
494.703	99.12
494.92	72.12
495.138	73.12
495.355	88.12
495.573	97.12
495.79	93.12
496.008	84.12
496.225	84.12
496.442	80.12
496.66	92.12
496.877	83.12
497.094	105.12
497.312	82.12
497.529	87.12
497.746	95.12
497.963	99.12
498.181	100.12
498.398	92.12
498.615	112.12
498.832	93.12
499.049	96.12
499.267	90.12
499.484	96.12
499.701	84.12
499.918	104.12
500.135	96.12
500.352	95.12
500.569	98.12
500.786	84.12
501.003	74.12
501.22	70.12
501.437	88.12
501.654	92.12
501.871	101.12
502.088	94.12
502.305	84.12
502.522	91.12
502.739	93.12
502.956	93.12
503.172	99.12
503.389	104.12
503.606	82.12
503.823	80.12
504.04	97.12
504.256	95.12
504.473	88.12
504.69	101.12
504.907	95.12
505.123	92.12
505.34	93.12
505.557	91.12
505.773	84.12
505.99	96.12
506.207	87.12
506.423	86.12
506.64	93.12
506.856	92.12
507.073	81.12
507.289	98.12
507.506	76.12
507.722	91.12
507.939	99.12
508.155	87.12
508.372	113.12
508.588	115.12
508.805	101.12
509.021	94.12
509.238	95.12
509.454	85.12
509.67	87.12
509.887	87.12
510.103	124.12
510.319	172.12
510.536	520.12
510.752	1508.12
510.968	445.12
511.184	140.12
511.401	102.12
511.617	86.12
511.833	92.12
512.049	80.12
512.265	97.12
512.481	96.12
512.698	87.12
512.914	82.12
513.13	92.12
513.346	81.12
513.562	104.12
513.778	93.12
513.994	92.12
514.21	108.12
514.426	103.12
514.642	107.12
514.858	104.12
515.074	134.12
515.29	309.12
515.506	883.12
515.721	345.12
515.937	110.12
516.153	111.12
516.369	90.12
516.585	88.12
516.801	98.12
517.016	95.12
