Data from Circ_1982_H10_HRD10591_00076.txt Node
Date: Wed Jan 03 12:30:56 EST 2024
User: Yrep
Spectrometer: HR+D1059
Trigger mode: 1
Integration Time (sec): 1.000000E-1
Scans to average: 1
Electric dark correction enabled: true
Nonlinearity correction enabled: false
Boxcar width: 0
XAxis mode: Wavelengths
Number of Pixels in Spectrum: 2048
>>>>>Begin Spectral Data<<<<<
223.165	-16.25
223.4	-16.25
223.635	-16.25
223.869	-18.25
224.104	-15.25
224.338	-13.25
224.573	-26.25
224.808	-22.25
225.042	-8.25
225.277	-8.25
225.511	-8.25
225.746	9.75
225.98	11.75
226.215	5.75
226.449	19.75
226.683	24.75
226.918	32.75
227.152	31.75
227.387	44.75
227.621	38.75
227.856	47.75
228.09	46.75
228.324	50.75
228.559	47.75
228.793	62.75
229.027	59.75
229.262	76.75
229.496	68.75
229.73	66.75
229.964	66.75
230.199	73.75
230.433	69.75
230.667	73.75
230.901	88.75
231.136	72.75
231.37	84.75
231.604	82.75
231.838	76.75
232.072	70.75
232.306	89.75
232.541	80.75
232.775	77.75
233.009	85.75
233.243	89.75
233.477	80.75
233.711	91.75
233.945	78.75
234.179	79.75
234.413	76.75
234.647	80.75
234.881	77.75
235.115	70.75
235.349	71.75
235.583	86.75
235.817	72.75
236.051	84.75
236.285	67.75
236.519	84.75
236.753	78.75
236.987	85.75
237.221	73.75
237.455	84.75
237.689	74.75
237.922	65.75
238.156	66.75
238.39	83.75
238.624	64.75
238.858	75.75
239.091	75.75
239.325	83.75
239.559	77.75
239.793	83.75
240.027	83.75
240.26	73.75
240.494	72.75
240.728	75.75
240.961	92.75
241.195	66.75
241.429	74.75
241.662	64.75
241.896	77.75
242.13	89.75
242.363	65.75
242.597	80.75
242.83	96.75
243.064	90.75
243.298	76.75
243.531	72.75
243.765	75.75
243.998	67.75
244.232	64.75
244.465	79.75
244.699	84.75
244.932	70.75
245.166	72.75
245.399	64.75
245.633	83.75
245.866	77.75
246.099	77.75
246.333	76.75
246.566	83.75
246.8	72.75
247.033	76.75
247.266	82.75
247.5	77.75
247.733	84.75
247.966	85.75
248.2	66.75
248.433	81.75
248.666	74.75
248.899	88.75
249.133	80.75
249.366	97.75
249.599	98.75
249.832	82.75
250.066	91.75
250.299	91.75
250.532	66.75
250.765	83.75
250.998	73.75
251.231	82.75
251.465	80.75
251.698	84.75
251.931	81.75
252.164	69.75
252.397	96.75
252.63	70.75
252.863	80.75
253.096	80.75
253.329	81.75
253.562	73.75
253.795	85.75
254.028	82.75
254.261	93.75
254.494	76.75
254.727	88.75
254.96	93.75
255.193	85.75
255.426	84.75
255.659	101.75
255.892	80.75
256.124	80.75
256.357	78.75
256.59	84.75
256.823	80.75
257.056	78.75
257.289	84.75
257.521	91.75
257.754	87.75
257.987	65.75
258.22	76.75
258.452	80.75
258.685	64.75
258.918	67.75
259.151	87.75
259.383	86.75
259.616	85.75
259.849	92.75
260.081	86.75
260.314	78.75
260.547	94.75
260.779	92.75
261.012	85.75
261.244	75.75
261.477	94.75
261.71	90.75
261.942	92.75
262.175	112.75
262.407	89.75
262.64	88.75
262.872	100.75
263.105	78.75
263.337	84.75
263.57	84.75
263.802	81.75
264.035	86.75
264.267	91.75
264.499	66.75
264.732	97.75
264.964	92.75
265.197	79.75
265.429	86.75
265.661	77.75
265.894	87.75
266.126	88.75
266.358	92.75
266.591	81.75
266.823	91.75
267.055	91.75
267.287	88.75
267.52	75.75
267.752	80.75
267.984	83.75
268.216	91.75
268.448	99.75
268.681	77.75
268.913	93.75
269.145	93.75
269.377	81.75
269.609	89.75
269.841	94.75
270.073	64.75
270.306	84.75
270.538	80.75
270.77	77.75
271.002	77.75
271.234	88.75
271.466	92.75
271.698	74.75
271.93	88.75
272.162	73.75
272.394	84.75
272.626	90.75
272.858	72.75
273.09	66.75
273.322	88.75
273.553	85.75
273.785	75.75
274.017	95.75
274.249	88.75
274.481	77.75
274.713	81.75
274.945	92.75
275.176	76.75
275.408	92.75
275.64	79.75
275.872	90.75
276.104	93.75
276.335	77.75
276.567	106.75
276.799	100.75
277.031	81.75
277.262	81.75
277.494	94.75
277.726	75.75
277.957	82.75
278.189	82.75
278.421	82.75
278.652	86.75
278.884	95.75
279.115	77.75
279.347	94.75
279.579	86.75
279.81	80.75
280.042	78.75
280.273	89.75
280.505	87.75
280.736	91.75
280.968	100.75
281.199	84.75
281.431	94.75
281.662	86.75
281.894	85.75
282.125	96.75
282.356	103.75
282.588	106.75
282.819	102.75
283.051	89.75
283.282	88.75
283.513	99.75
283.745	96.75
283.976	84.75
284.207	98.75
284.439	98.75
284.67	81.75
284.901	90.75
285.132	89.75
285.364	83.75
285.595	81.75
285.826	86.75
286.057	85.75
286.288	104.75
286.52	80.75
286.751	82.75
286.982	86.75
287.213	82.75
287.444	72.75
287.675	78.75
287.906	78.75
288.138	84.75
288.369	75.75
288.6	88.75
288.831	76.75
289.062	85.75
289.293	88.75
289.524	87.75
289.755	83.75
289.986	81.75
290.217	77.75
290.448	96.75
290.679	82.75
290.91	83.75
291.141	68.75
291.371	92.75
291.602	75.75
291.833	74.75
292.064	98.75
292.295	99.75
292.526	76.75
292.757	89.75
292.987	78.75
293.218	94.75
293.449	90.75
293.68	87.75
293.91	76.75
294.141	82.75
294.372	76.75
294.603	83.75
294.833	88.75
295.064	89.75
295.295	82.75
295.525	78.75
295.756	88.75
295.987	93.75
296.217	111.75
296.448	116.75
296.679	82.75
296.909	99.75
297.14	78.75
297.37	81.75
297.601	70.75
297.831	86.75
298.062	84.75
298.292	90.75
298.523	98.75
298.753	77.75
298.984	89.75
299.214	88.75
299.445	88.75
299.675	97.75
299.905	99.75
300.136	91.75
300.366	94.75
300.597	98.75
300.827	88.75
301.057	91.75
301.288	83.75
301.518	105.75
301.748	93.75
301.979	88.75
302.209	91.75
302.439	86.75
302.669	86.75
302.9	83.75
303.13	88.75
303.36	76.75
303.59	90.75
303.82	94.75
304.051	93.75
304.281	98.75
304.511	86.75
304.741	83.75
304.971	83.75
305.201	107.75
305.431	92.75
305.661	84.75
305.891	97.75
306.121	104.75
306.352	92.75
306.582	97.75
306.812	90.75
307.042	98.75
307.272	87.75
307.502	100.75
307.731	93.75
307.961	104.75
308.191	90.75
308.421	71.75
308.651	91.75
308.881	95.75
309.111	87.75
309.341	94.75
309.571	81.75
309.8	82.75
310.03	91.75
310.26	92.75
310.49	85.75
310.72	94.75
310.949	90.75
311.179	92.75
311.409	92.75
311.639	96.75
311.868	88.75
312.098	96.75
312.328	97.75
312.557	89.75
312.787	95.75
313.017	89.75
313.246	90.75
313.476	73.75
313.706	83.75
313.935	94.75
314.165	98.75
314.394	83.75
314.624	97.75
314.853	98.75
315.083	86.75
315.312	96.75
315.542	89.75
315.771	92.75
316.001	98.75
316.23	102.75
316.46	84.75
316.689	102.75
316.919	83.75
317.148	102.75
317.377	94.75
317.607	71.75
317.836	89.75
318.065	80.75
318.295	92.75
318.524	90.75
318.753	84.75
318.983	99.75
319.212	99.75
319.441	106.75
319.67	73.75
319.9	91.75
320.129	81.75
320.358	85.75
320.587	82.75
320.816	97.75
321.046	100.75
321.275	92.75
321.504	100.75
321.733	68.75
321.962	90.75
322.191	84.75
322.42	88.75
322.649	115.75
322.878	94.75
323.108	108.75
323.337	113.75
323.566	106.75
323.795	131.75
324.024	173.75
324.253	294.75
324.482	560.75
324.71	1164.75
324.939	1477.75
325.168	575.75
325.397	164.75
325.626	132.75
325.855	113.75
326.084	106.75
326.313	114.75
326.542	119.75
326.77	184.75
326.999	334.75
327.228	635.75
327.457	1140.75
327.686	906.75
327.914	272.75
328.143	171.75
328.372	132.75
328.6	111.75
328.829	98.75
329.058	117.75
329.287	102.75
329.515	112.75
329.744	108.75
329.972	105.75
330.201	105.75
330.43	100.75
330.658	116.75
330.887	115.75
331.115	117.75
331.344	96.75
331.572	96.75
331.801	83.75
332.03	103.75
332.258	103.75
332.486	94.75
332.715	94.75
332.943	82.75
333.172	82.75
333.4	91.75
333.629	100.75
333.857	107.75
334.085	90.75
334.314	95.75
334.542	126.75
334.771	121.75
334.999	102.75
335.227	99.75
335.455	77.75
335.684	90.75
335.912	99.75
336.14	95.75
336.369	95.75
336.597	93.75
336.825	92.75
337.053	96.75
337.281	88.75
337.51	87.75
337.738	89.75
337.966	77.75
338.194	88.75
338.422	97.75
338.65	109.75
338.878	108.75
339.106	85.75
339.334	105.75
339.562	74.75
339.79	70.75
340.018	97.75
340.246	105.75
340.474	82.75
340.702	96.75
340.93	81.75
341.158	78.75
341.386	93.75
341.614	90.75
341.842	90.75
342.07	94.75
342.298	106.75
342.526	81.75
342.754	70.75
342.981	87.75
343.209	84.75
343.437	99.75
343.665	89.75
343.893	75.75
344.12	103.75
344.348	79.75
344.576	91.75
344.804	89.75
345.031	94.75
345.259	87.75
345.487	101.75
345.714	106.75
345.942	95.75
346.17	93.75
346.397	92.75
346.625	92.75
346.853	91.75
347.08	96.75
347.308	96.75
347.535	104.75
347.763	92.75
347.99	90.75
348.218	81.75
348.445	102.75
348.673	82.75
348.9	91.75
349.128	104.75
349.355	74.75
349.583	99.75
349.81	90.75
350.037	103.75
350.265	97.75
350.492	97.75
350.72	90.75
350.947	89.75
351.174	98.75
351.402	96.75
351.629	98.75
351.856	91.75
352.083	92.75
352.311	93.75
352.538	96.75
352.765	108.75
352.992	108.75
353.22	99.75
353.447	86.75
353.674	89.75
353.901	100.75
354.128	92.75
354.355	104.75
354.583	85.75
354.81	86.75
355.037	85.75
355.264	98.75
355.491	90.75
355.718	95.75
355.945	106.75
356.172	100.75
356.399	87.75
356.626	102.75
356.853	92.75
357.08	87.75
357.307	83.75
357.534	102.75
357.761	96.75
357.988	91.75
358.215	84.75
358.441	99.75
358.668	90.75
358.895	100.75
359.122	86.75
359.349	87.75
359.576	97.75
359.802	80.75
360.029	101.75
360.256	106.75
360.483	100.75
360.709	75.75
360.936	88.75
361.163	96.75
361.39	85.75
361.616	78.75
361.843	89.75
362.07	85.75
362.296	96.75
362.523	101.75
362.749	81.75
362.976	88.75
363.203	94.75
363.429	89.75
363.656	73.75
363.882	97.75
364.109	98.75
364.335	96.75
364.562	108.75
364.788	88.75
365.015	93.75
365.241	102.75
365.468	101.75
365.694	93.75
365.92	92.75
366.147	98.75
366.373	91.75
366.599	82.75
366.826	82.75
367.052	88.75
367.278	91.75
367.505	75.75
367.731	90.75
367.957	84.75
368.184	104.75
368.41	92.75
368.636	87.75
368.862	94.75
369.089	98.75
369.315	88.75
369.541	96.75
369.767	86.75
369.993	80.75
370.219	84.75
370.445	82.75
370.672	92.75
370.898	86.75
371.124	87.75
371.35	84.75
371.576	84.75
371.802	77.75
372.028	75.75
372.254	100.75
372.48	84.75
372.706	99.75
372.932	96.75
373.158	96.75
373.384	93.75
373.61	96.75
373.835	95.75
374.061	87.75
374.287	73.75
374.513	88.75
374.739	83.75
374.965	93.75
375.191	81.75
375.416	83.75
375.642	96.75
375.868	82.75
376.094	87.75
376.319	76.75
376.545	90.75
376.771	87.75
376.997	92.75
377.222	78.75
377.448	86.75
377.674	96.75
377.899	104.75
378.125	88.75
378.35	86.75
378.576	74.75
378.802	81.75
379.027	94.75
379.253	93.75
379.478	87.75
379.704	82.75
379.929	87.75
380.155	84.75
380.38	101.75
380.606	99.75
380.831	102.75
381.057	80.75
381.282	95.75
381.507	92.75
381.733	82.75
381.958	81.75
382.184	88.75
382.409	104.75
382.634	104.75
382.86	97.75
383.085	97.75
383.31	99.75
383.535	86.75
383.761	97.75
383.986	91.75
384.211	104.75
384.436	104.75
384.662	81.75
384.887	103.75
385.112	100.75
385.337	90.75
385.562	102.75
385.787	98.75
386.013	106.75
386.238	110.75
386.463	89.75
386.688	98.75
386.913	88.75
387.138	103.75
387.363	113.75
387.588	89.75
387.813	91.75
388.038	100.75
388.263	101.75
388.488	104.75
388.713	84.75
388.938	99.75
389.163	82.75
389.387	93.75
389.612	100.75
389.837	107.75
390.062	92.75
390.287	94.75
390.512	92.75
390.736	74.75
390.961	96.75
391.186	92.75
391.411	96.75
391.636	98.75
391.86	94.75
392.085	71.75
392.31	88.75
392.534	88.75
392.759	91.75
392.984	82.75
393.208	85.75
393.433	93.75
393.658	85.75
393.882	78.75
394.107	75.75
394.331	98.75
394.556	91.75
394.78	93.75
395.005	89.75
395.229	86.75
395.454	72.75
395.678	92.75
395.903	90.75
396.127	86.75
396.352	93.75
396.576	87.75
396.801	83.75
397.025	83.75
397.249	81.75
397.474	82.75
397.698	76.75
397.922	72.75
398.147	86.75
398.371	75.75
398.595	81.75
398.82	81.75
399.044	93.75
399.268	80.75
399.492	79.75
399.717	85.75
399.941	91.75
400.165	103.75
400.389	105.75
400.613	87.75
400.837	88.75
401.062	80.75
401.286	85.75
401.51	84.75
401.734	94.75
401.958	88.75
402.182	116.75
402.406	140.75
402.63	104.75
402.854	90.75
403.078	81.75
403.302	104.75
403.526	87.75
403.75	83.75
403.974	83.75
404.198	88.75
404.422	80.75
404.645	95.75
404.869	101.75
405.093	82.75
405.317	91.75
405.541	96.75
405.765	88.75
405.988	102.75
406.212	135.75
406.436	180.75
406.66	107.75
406.883	94.75
407.107	78.75
407.331	97.75
407.555	89.75
407.778	96.75
408.002	87.75
408.226	88.75
408.449	84.75
408.673	90.75
408.896	98.75
409.12	106.75
409.344	87.75
409.567	77.75
409.791	95.75
410.014	91.75
410.238	98.75
410.461	96.75
410.685	98.75
410.908	93.75
411.132	106.75
411.355	104.75
411.578	108.75
411.802	66.75
412.025	86.75
412.249	75.75
412.472	88.75
412.695	88.75
412.919	97.75
413.142	91.75
413.365	86.75
413.589	76.75
413.812	90.75
414.035	98.75
414.258	90.75
414.482	85.75
414.705	91.75
414.928	85.75
415.151	91.75
415.374	102.75
415.597	84.75
415.821	76.75
416.044	80.75
416.267	89.75
416.49	87.75
416.713	72.75
416.936	84.75
417.159	80.75
417.382	88.75
417.605	73.75
417.828	86.75
418.051	89.75
418.274	88.75
418.497	89.75
418.72	91.75
418.943	91.75
419.166	98.75
419.389	86.75
419.611	82.75
419.834	84.75
420.057	83.75
420.28	89.75
420.503	86.75
420.726	97.75
420.948	84.75
421.171	98.75
421.394	89.75
421.617	89.75
421.839	83.75
422.062	90.75
422.285	77.75
422.507	99.75
422.73	94.75
422.953	84.75
423.175	82.75
423.398	76.75
423.621	89.75
423.843	73.75
424.066	82.75
424.288	75.75
424.511	96.75
424.733	92.75
424.956	108.75
425.178	95.75
425.401	81.75
425.623	93.75
425.846	94.75
426.068	89.75
426.291	97.75
426.513	75.75
426.735	88.75
426.958	82.75
427.18	89.75
427.402	101.75
427.625	127.75
427.847	118.75
428.069	98.75
428.292	82.75
428.514	86.75
428.736	85.75
428.958	84.75
429.181	78.75
429.403	87.75
429.625	81.75
429.847	76.75
430.069	108.75
430.292	90.75
430.514	84.75
430.736	100.75
430.958	73.75
431.18	83.75
431.402	84.75
431.624	77.75
431.846	94.75
432.068	75.75
432.29	95.75
432.512	86.75
432.734	73.75
432.956	86.75
433.178	84.75
433.4	98.75
433.622	77.75
433.844	94.75
434.066	104.75
434.287	81.75
434.509	90.75
434.731	81.75
434.953	80.75
435.175	83.75
435.397	100.75
435.618	89.75
435.84	76.75
436.062	105.75
436.284	96.75
436.505	97.75
436.727	85.75
436.949	99.75
437.17	106.75
437.392	73.75
437.614	89.75
437.835	99.75
438.057	114.75
438.278	103.75
438.5	96.75
438.721	110.75
438.943	97.75
439.165	72.75
439.386	90.75
439.608	85.75
439.829	98.75
440.05	107.75
440.272	117.75
440.493	71.75
440.715	84.75
440.936	93.75
441.158	95.75
441.379	92.75
441.6	98.75
441.822	88.75
442.043	87.75
442.264	101.75
442.486	89.75
442.707	77.75
442.928	96.75
443.149	110.75
443.371	102.75
443.592	90.75
443.813	101.75
444.034	97.75
444.255	97.75
444.476	88.75
444.698	80.75
444.919	84.75
445.14	135.75
445.361	112.75
445.582	118.75
445.803	120.75
446.024	108.75
446.245	119.75
446.466	87.75
446.687	82.75
446.908	89.75
447.129	81.75
447.35	84.75
447.571	88.75
447.792	87.75
448.013	105.75
448.234	109.75
448.455	91.75
448.675	108.75
448.896	98.75
449.117	99.75
449.338	104.75
449.559	117.75
449.779	115.75
450	79.75
450.221	81.75
450.442	93.75
450.662	86.75
450.883	98.75
451.104	86.75
451.324	93.75
451.545	85.75
451.766	83.75
451.986	87.75
452.207	86.75
452.428	91.75
452.648	91.75
452.869	101.75
453.089	99.75
453.31	102.75
453.53	92.75
453.751	85.75
453.971	105.75
454.192	110.75
454.412	102.75
454.633	93.75
454.853	105.75
455.073	77.75
455.294	91.75
455.514	87.75
455.734	93.75
455.955	83.75
456.175	84.75
456.395	92.75
456.616	103.75
456.836	92.75
457.056	88.75
457.276	93.75
457.497	89.75
457.717	87.75
457.937	89.75
458.157	88.75
458.377	81.75
458.598	92.75
458.818	115.75
459.038	114.75
459.258	98.75
459.478	88.75
459.698	90.75
459.918	83.75
460.138	84.75
460.358	93.75
460.578	88.75
460.798	95.75
461.018	80.75
461.238	71.75
461.458	82.75
461.678	88.75
461.898	82.75
462.118	107.75
462.338	86.75
462.558	82.75
462.777	86.75
462.997	92.75
463.217	82.75
463.437	75.75
463.657	96.75
463.876	92.75
464.096	85.75
464.316	79.75
464.536	83.75
464.755	90.75
464.975	93.75
465.195	124.75
465.414	117.75
465.634	85.75
465.854	92.75
466.073	75.75
466.293	99.75
466.512	76.75
466.732	89.75
466.951	95.75
467.171	83.75
467.391	87.75
467.61	88.75
467.829	88.75
468.049	87.75
468.268	94.75
468.488	75.75
468.707	86.75
468.927	88.75
469.146	88.75
469.365	85.75
469.585	98.75
469.804	87.75
470.023	81.75
470.243	76.75
470.462	90.75
470.681	100.75
470.901	87.75
471.12	91.75
471.339	93.75
471.558	93.75
471.777	74.75
471.997	88.75
472.216	107.75
472.435	134.75
472.654	92.75
472.873	85.75
473.092	105.75
473.311	91.75
473.53	92.75
473.749	70.75
473.968	89.75
474.187	112.75
474.406	85.75
474.625	91.75
474.844	98.75
475.063	76.75
475.282	89.75
475.501	82.75
475.72	89.75
475.939	99.75
476.158	87.75
476.377	99.75
476.596	88.75
476.814	86.75
477.033	91.75
477.252	80.75
477.471	86.75
477.69	80.75
477.908	69.75
478.127	100.75
478.346	99.75
478.564	87.75
478.783	99.75
479.002	89.75
479.22	88.75
479.439	97.75
479.658	95.75
479.876	94.75
480.095	92.75
480.313	80.75
480.532	95.75
480.751	95.75
480.969	105.75
481.188	172.75
481.406	137.75
481.624	90.75
481.843	83.75
482.061	92.75
482.28	97.75
482.498	101.75
482.717	96.75
482.935	92.75
483.153	83.75
483.372	91.75
483.59	92.75
483.808	88.75
484.027	80.75
484.245	96.75
484.463	104.75
484.681	99.75
484.9	92.75
485.118	98.75
485.336	88.75
485.554	77.75
485.772	95.75
485.99	106.75
486.209	109.75
486.427	96.75
486.645	101.75
486.863	96.75
487.081	89.75
487.299	92.75
487.517	97.75
487.735	84.75
487.953	99.75
488.171	89.75
488.389	96.75
488.607	104.75
488.825	107.75
489.043	97.75
489.261	91.75
489.479	76.75
489.696	103.75
489.914	86.75
490.132	86.75
490.35	86.75
490.568	97.75
490.786	84.75
491.003	90.75
491.221	87.75
491.439	96.75
491.657	86.75
491.874	92.75
492.092	95.75
492.31	89.75
492.527	106.75
492.745	115.75
492.963	94.75
493.18	105.75
493.398	91.75
493.615	96.75
493.833	94.75
494.05	90.75
494.268	98.75
494.485	103.75
494.703	85.75
494.92	88.75
495.138	93.75
495.355	92.75
495.573	87.75
495.79	103.75
496.008	97.75
496.225	94.75
496.442	80.75
496.66	96.75
496.877	83.75
497.094	95.75
497.312	80.75
497.529	89.75
497.746	84.75
497.963	98.75
498.181	91.75
498.398	101.75
498.615	114.75
498.832	90.75
499.049	92.75
499.267	97.75
499.484	82.75
499.701	101.75
499.918	77.75
500.135	75.75
500.352	87.75
500.569	96.75
500.786	77.75
501.003	94.75
501.22	90.75
501.437	90.75
501.654	86.75
501.871	101.75
502.088	71.75
502.305	82.75
502.522	95.75
502.739	95.75
502.956	85.75
503.172	107.75
503.389	90.75
503.606	105.75
503.823	96.75
504.04	92.75
504.256	92.75
504.473	98.75
504.69	92.75
504.907	95.75
505.123	87.75
505.34	91.75
505.557	77.75
505.773	92.75
505.99	96.75
506.207	87.75
506.423	85.75
506.64	101.75
506.856	102.75
507.073	90.75
507.289	75.75
507.506	100.75
507.722	104.75
507.939	91.75
508.155	94.75
508.372	82.75
508.588	95.75
508.805	93.75
509.021	107.75
509.238	93.75
509.454	99.75
509.67	93.75
509.887	115.75
510.103	125.75
510.319	167.75
510.536	564.75
510.752	1698.75
510.968	476.75
511.184	122.75
511.401	93.75
511.617	89.75
511.833	98.75
512.049	88.75
512.265	84.75
512.481	96.75
512.698	94.75
512.914	93.75
513.13	96.75
513.346	101.75
513.562	89.75
513.778	99.75
513.994	78.75
514.21	97.75
514.426	111.75
514.642	100.75
514.858	99.75
515.074	133.75
515.29	341.75
515.506	957.75
515.721	360.75
515.937	110.75
516.153	98.75
516.369	97.75
516.585	91.75
516.801	100.75
517.016	96.75
