Data from Circ_1982_H10_HRD10591_00087.txt Node
Date: Wed Jan 03 12:30:58 EST 2024
User: Yrep
Spectrometer: HR+D1059
Trigger mode: 1
Integration Time (sec): 1.000000E-1
Scans to average: 1
Electric dark correction enabled: true
Nonlinearity correction enabled: false
Boxcar width: 0
XAxis mode: Wavelengths
Number of Pixels in Spectrum: 2048
>>>>>Begin Spectral Data<<<<<
223.165	-18.44
223.4	-18.44
223.635	-18.44
223.869	-19.44
224.104	-23.44
224.338	-15.44
224.573	-9.44
224.808	-15.44
225.042	-0.44
225.277	4.56
225.511	-9.44
225.746	7.56
225.98	-1.44
226.215	9.56
226.449	22.56
226.683	17.56
226.918	23.56
227.152	27.56
227.387	33.56
227.621	43.56
227.856	42.56
228.09	42.56
228.324	53.56
228.559	44.56
228.793	53.56
229.027	66.56
229.262	66.56
229.496	61.56
229.73	73.56
229.964	79.56
230.199	74.56
230.433	80.56
230.667	75.56
230.901	68.56
231.136	79.56
231.37	79.56
231.604	82.56
231.838	75.56
232.072	85.56
232.306	80.56
232.541	65.56
232.775	83.56
233.009	80.56
233.243	75.56
233.477	78.56
233.711	67.56
233.945	75.56
234.179	73.56
234.413	79.56
234.647	98.56
234.881	68.56
235.115	80.56
235.349	82.56
235.583	74.56
235.817	73.56
236.051	70.56
236.285	72.56
236.519	73.56
236.753	65.56
236.987	78.56
237.221	86.56
237.455	66.56
237.689	80.56
237.922	69.56
238.156	71.56
238.39	68.56
238.624	74.56
238.858	71.56
239.091	75.56
239.325	79.56
239.559	78.56
239.793	74.56
240.027	86.56
240.26	67.56
240.494	72.56
240.728	70.56
240.961	73.56
241.195	79.56
241.429	82.56
241.662	66.56
241.896	83.56
242.13	72.56
242.363	63.56
242.597	81.56
242.83	88.56
243.064	65.56
243.298	80.56
243.531	70.56
243.765	74.56
243.998	99.56
244.232	82.56
244.465	83.56
244.699	83.56
244.932	79.56
245.166	71.56
245.399	78.56
245.633	62.56
245.866	94.56
246.099	69.56
246.333	67.56
246.566	78.56
246.8	80.56
247.033	97.56
247.266	79.56
247.5	74.56
247.733	70.56
247.966	73.56
248.2	90.56
248.433	79.56
248.666	75.56
248.899	83.56
249.133	70.56
249.366	92.56
249.599	73.56
249.832	73.56
250.066	74.56
250.299	79.56
250.532	72.56
250.765	73.56
250.998	76.56
251.231	93.56
251.465	87.56
251.698	88.56
251.931	87.56
252.164	65.56
252.397	74.56
252.63	86.56
252.863	67.56
253.096	72.56
253.329	78.56
253.562	84.56
253.795	83.56
254.028	91.56
254.261	80.56
254.494	69.56
254.727	87.56
254.96	89.56
255.193	94.56
255.426	72.56
255.659	80.56
255.892	73.56
256.124	73.56
256.357	71.56
256.59	89.56
256.823	75.56
257.056	74.56
257.289	73.56
257.521	73.56
257.754	72.56
257.987	85.56
258.22	95.56
258.452	69.56
258.685	78.56
258.918	73.56
259.151	75.56
259.383	82.56
259.616	86.56
259.849	87.56
260.081	84.56
260.314	77.56
260.547	71.56
260.779	78.56
261.012	80.56
261.244	91.56
261.477	76.56
261.71	87.56
261.942	102.56
262.175	96.56
262.407	81.56
262.64	62.56
262.872	68.56
263.105	79.56
263.337	81.56
263.57	97.56
263.802	92.56
264.035	56.56
264.267	89.56
264.499	77.56
264.732	84.56
264.964	71.56
265.197	72.56
265.429	76.56
265.661	86.56
265.894	83.56
266.126	83.56
266.358	71.56
266.591	84.56
266.823	78.56
267.055	63.56
267.287	84.56
267.52	76.56
267.752	73.56
267.984	91.56
268.216	82.56
268.448	73.56
268.681	75.56
268.913	85.56
269.145	94.56
269.377	88.56
269.609	72.56
269.841	74.56
270.073	96.56
270.306	74.56
270.538	89.56
270.77	74.56
271.002	82.56
271.234	74.56
271.466	72.56
271.698	92.56
271.93	83.56
272.162	96.56
272.394	97.56
272.626	74.56
272.858	76.56
273.09	93.56
273.322	82.56
273.553	90.56
273.785	74.56
274.017	82.56
274.249	83.56
274.481	76.56
274.713	88.56
274.945	84.56
275.176	94.56
275.408	77.56
275.64	69.56
275.872	90.56
276.104	90.56
276.335	89.56
276.567	82.56
276.799	86.56
277.031	83.56
277.262	94.56
277.494	88.56
277.726	80.56
277.957	81.56
278.189	79.56
278.421	90.56
278.652	90.56
278.884	79.56
279.115	83.56
279.347	84.56
279.579	94.56
279.81	81.56
280.042	87.56
280.273	88.56
280.505	86.56
280.736	90.56
280.968	74.56
281.199	83.56
281.431	88.56
281.662	99.56
281.894	86.56
282.125	96.56
282.356	112.56
282.588	119.56
282.819	111.56
283.051	83.56
283.282	85.56
283.513	91.56
283.745	87.56
283.976	83.56
284.207	84.56
284.439	83.56
284.67	95.56
284.901	103.56
285.132	71.56
285.364	93.56
285.595	83.56
285.826	81.56
286.057	90.56
286.288	96.56
286.52	78.56
286.751	103.56
286.982	98.56
287.213	84.56
287.444	78.56
287.675	83.56
287.906	86.56
288.138	81.56
288.369	77.56
288.6	82.56
288.831	81.56
289.062	94.56
289.293	76.56
289.524	68.56
289.755	79.56
289.986	72.56
290.217	98.56
290.448	86.56
290.679	87.56
290.91	89.56
291.141	82.56
291.371	89.56
291.602	82.56
291.833	88.56
292.064	81.56
292.295	86.56
292.526	78.56
292.757	94.56
292.987	85.56
293.218	96.56
293.449	83.56
293.68	105.56
293.91	79.56
294.141	82.56
294.372	79.56
294.603	88.56
294.833	96.56
295.064	83.56
295.295	83.56
295.525	94.56
295.756	90.56
295.987	95.56
296.217	124.56
296.448	103.56
296.679	90.56
296.909	93.56
297.14	91.56
297.37	91.56
297.601	82.56
297.831	79.56
298.062	88.56
298.292	103.56
298.523	86.56
298.753	90.56
298.984	90.56
299.214	78.56
299.445	87.56
299.675	82.56
299.905	98.56
300.136	83.56
300.366	83.56
300.597	88.56
300.827	82.56
301.057	90.56
301.288	99.56
301.518	82.56
301.748	91.56
301.979	103.56
302.209	93.56
302.439	86.56
302.669	98.56
302.9	88.56
303.13	96.56
303.36	88.56
303.59	101.56
303.82	91.56
304.051	82.56
304.281	94.56
304.511	99.56
304.741	95.56
304.971	75.56
305.201	91.56
305.431	85.56
305.661	82.56
305.891	84.56
306.121	89.56
306.352	94.56
306.582	71.56
306.812	102.56
307.042	104.56
307.272	97.56
307.502	82.56
307.731	90.56
307.961	90.56
308.191	89.56
308.421	81.56
308.651	96.56
308.881	82.56
309.111	82.56
309.341	103.56
309.571	91.56
309.8	88.56
310.03	84.56
310.26	97.56
310.49	106.56
310.72	99.56
310.949	96.56
311.179	99.56
311.409	85.56
311.639	73.56
311.868	87.56
312.098	85.56
312.328	91.56
312.557	100.56
312.787	99.56
313.017	99.56
313.246	81.56
313.476	90.56
313.706	84.56
313.935	90.56
314.165	88.56
314.394	111.56
314.624	101.56
314.853	85.56
315.083	96.56
315.312	93.56
315.542	86.56
315.771	99.56
316.001	93.56
316.23	87.56
316.46	89.56
316.689	86.56
316.919	90.56
317.148	86.56
317.377	97.56
317.607	104.56
317.836	78.56
318.065	82.56
318.295	80.56
318.524	82.56
318.753	92.56
318.983	97.56
319.212	106.56
319.441	110.56
319.67	105.56
319.9	78.56
320.129	92.56
320.358	104.56
320.587	100.56
320.816	108.56
321.046	116.56
321.275	106.56
321.504	70.56
321.733	100.56
321.962	111.56
322.191	97.56
322.42	87.56
322.649	108.56
322.878	93.56
323.108	102.56
323.337	98.56
323.566	104.56
323.795	137.56
324.024	164.56
324.253	278.56
324.482	585.56
324.71	1154.56
324.939	1505.56
325.168	562.56
325.397	183.56
325.626	127.56
325.855	130.56
326.084	116.56
326.313	131.56
326.542	130.56
326.77	189.56
326.999	334.56
327.228	664.56
327.457	1185.56
327.686	938.56
327.914	272.56
328.143	162.56
328.372	132.56
328.6	130.56
328.829	106.56
329.058	122.56
329.287	109.56
329.515	92.56
329.744	80.56
329.972	103.56
330.201	106.56
330.43	121.56
330.658	108.56
330.887	111.56
331.115	100.56
331.344	98.56
331.572	105.56
331.801	97.56
332.03	97.56
332.258	85.56
332.486	91.56
332.715	84.56
332.943	100.56
333.172	89.56
333.4	90.56
333.629	102.56
333.857	99.56
334.085	113.56
334.314	106.56
334.542	114.56
334.771	116.56
334.999	97.56
335.227	99.56
335.455	104.56
335.684	98.56
335.912	96.56
336.14	80.56
336.369	97.56
336.597	90.56
336.825	93.56
337.053	105.56
337.281	90.56
337.51	90.56
337.738	103.56
337.966	102.56
338.194	114.56
338.422	98.56
338.65	84.56
338.878	86.56
339.106	89.56
339.334	93.56
339.562	90.56
339.79	92.56
340.018	76.56
340.246	90.56
340.474	81.56
340.702	87.56
340.93	93.56
341.158	98.56
341.386	97.56
341.614	99.56
341.842	109.56
342.07	86.56
342.298	95.56
342.526	88.56
342.754	90.56
342.981	92.56
343.209	82.56
343.437	110.56
343.665	80.56
343.893	88.56
344.12	99.56
344.348	85.56
344.576	88.56
344.804	91.56
345.031	92.56
345.259	83.56
345.487	88.56
345.714	79.56
345.942	84.56
346.17	74.56
346.397	86.56
346.625	87.56
346.853	97.56
347.08	96.56
347.308	94.56
347.535	83.56
347.763	88.56
347.99	86.56
348.218	96.56
348.445	96.56
348.673	94.56
348.9	106.56
349.128	104.56
349.355	99.56
349.583	84.56
349.81	102.56
350.037	76.56
350.265	91.56
350.492	91.56
350.72	91.56
350.947	88.56
351.174	89.56
351.402	94.56
351.629	86.56
351.856	80.56
352.083	86.56
352.311	96.56
352.538	96.56
352.765	102.56
352.992	109.56
353.22	88.56
353.447	99.56
353.674	94.56
353.901	84.56
354.128	93.56
354.355	100.56
354.583	106.56
354.81	97.56
355.037	102.56
355.264	97.56
355.491	100.56
355.718	91.56
355.945	82.56
356.172	91.56
356.399	100.56
356.626	107.56
356.853	101.56
357.08	91.56
357.307	103.56
357.534	98.56
357.761	80.56
357.988	93.56
358.215	92.56
358.441	85.56
358.668	89.56
358.895	99.56
359.122	97.56
359.349	92.56
359.576	101.56
359.802	95.56
360.029	101.56
360.256	107.56
360.483	97.56
360.709	99.56
360.936	94.56
361.163	96.56
361.39	76.56
361.616	85.56
361.843	90.56
362.07	87.56
362.296	96.56
362.523	94.56
362.749	99.56
362.976	94.56
363.203	88.56
363.429	88.56
363.656	78.56
363.882	82.56
364.109	83.56
364.335	88.56
364.562	86.56
364.788	94.56
365.015	92.56
365.241	96.56
365.468	97.56
365.694	86.56
365.92	90.56
366.147	86.56
366.373	88.56
366.599	89.56
366.826	86.56
367.052	84.56
367.278	79.56
367.505	90.56
367.731	96.56
367.957	74.56
368.184	86.56
368.41	108.56
368.636	86.56
368.862	103.56
369.089	94.56
369.315	98.56
369.541	88.56
369.767	100.56
369.993	80.56
370.219	91.56
370.445	81.56
370.672	91.56
370.898	93.56
371.124	70.56
371.35	75.56
371.576	89.56
371.802	78.56
372.028	65.56
372.254	86.56
372.48	83.56
372.706	96.56
372.932	98.56
373.158	82.56
373.384	89.56
373.61	87.56
373.835	74.56
374.061	86.56
374.287	75.56
374.513	84.56
374.739	85.56
374.965	97.56
375.191	80.56
375.416	92.56
375.642	72.56
375.868	93.56
376.094	90.56
376.319	90.56
376.545	87.56
376.771	89.56
376.997	95.56
377.222	89.56
377.448	94.56
377.674	82.56
377.899	80.56
378.125	91.56
378.35	92.56
378.576	86.56
378.802	91.56
379.027	93.56
379.253	89.56
379.478	102.56
379.704	92.56
379.929	102.56
380.155	99.56
380.38	99.56
380.606	85.56
380.831	85.56
381.057	105.56
381.282	68.56
381.507	85.56
381.733	90.56
381.958	83.56
382.184	92.56
382.409	98.56
382.634	90.56
382.86	83.56
383.085	94.56
383.31	89.56
383.535	85.56
383.761	87.56
383.986	91.56
384.211	102.56
384.436	98.56
384.662	90.56
384.887	99.56
385.112	93.56
385.337	108.56
385.562	101.56
385.787	101.56
386.013	111.56
386.238	92.56
386.463	94.56
386.688	94.56
386.913	86.56
387.138	105.56
387.363	91.56
387.588	106.56
387.813	91.56
388.038	99.56
388.263	107.56
388.488	97.56
388.713	75.56
388.938	87.56
389.163	100.56
389.387	92.56
389.612	90.56
389.837	100.56
390.062	92.56
390.287	78.56
390.512	95.56
390.736	82.56
390.961	86.56
391.186	105.56
391.411	95.56
391.636	83.56
391.86	86.56
392.085	92.56
392.31	87.56
392.534	97.56
392.759	93.56
392.984	69.56
393.208	90.56
393.433	96.56
393.658	91.56
393.882	87.56
394.107	81.56
394.331	88.56
394.556	103.56
394.78	86.56
395.005	83.56
395.229	80.56
395.454	91.56
395.678	76.56
395.903	83.56
396.127	90.56
396.352	90.56
396.576	84.56
396.801	86.56
397.025	81.56
397.249	91.56
397.474	81.56
397.698	71.56
397.922	89.56
398.147	80.56
398.371	87.56
398.595	104.56
398.82	92.56
399.044	85.56
399.268	75.56
399.492	96.56
399.717	82.56
399.941	76.56
400.165	102.56
400.389	74.56
400.613	80.56
400.837	80.56
401.062	79.56
401.286	89.56
401.51	89.56
401.734	86.56
401.958	87.56
402.182	105.56
402.406	115.56
402.63	110.56
402.854	93.56
403.078	96.56
403.302	92.56
403.526	92.56
403.75	83.56
403.974	94.56
404.198	87.56
404.422	70.56
404.645	74.56
404.869	82.56
405.093	92.56
405.317	105.56
405.541	85.56
405.765	90.56
405.988	97.56
406.212	119.56
406.436	187.56
406.66	120.56
406.883	102.56
407.107	99.56
407.331	86.56
407.555	99.56
407.778	83.56
408.002	94.56
408.226	74.56
408.449	90.56
408.673	80.56
408.896	86.56
409.12	93.56
409.344	90.56
409.567	89.56
409.791	80.56
410.014	106.56
410.238	86.56
410.461	86.56
410.685	87.56
410.908	103.56
411.132	91.56
411.355	98.56
411.578	86.56
411.802	89.56
412.025	91.56
412.249	91.56
412.472	87.56
412.695	89.56
412.919	97.56
413.142	96.56
413.365	85.56
413.589	96.56
413.812	86.56
414.035	94.56
414.258	90.56
414.482	96.56
414.705	82.56
414.928	91.56
415.151	76.56
415.374	87.56
415.597	91.56
415.821	94.56
416.044	80.56
416.267	92.56
416.49	106.56
416.713	86.56
416.936	86.56
417.159	87.56
417.382	68.56
417.605	85.56
417.828	86.56
418.051	92.56
418.274	75.56
418.497	72.56
418.72	78.56
418.943	91.56
419.166	101.56
419.389	102.56
419.611	82.56
419.834	94.56
420.057	86.56
420.28	78.56
420.503	98.56
420.726	72.56
420.948	79.56
421.171	72.56
421.394	82.56
421.617	78.56
421.839	92.56
422.062	81.56
422.285	80.56
422.507	85.56
422.73	90.56
422.953	74.56
423.175	76.56
423.398	95.56
423.621	86.56
423.843	97.56
424.066	83.56
424.288	82.56
424.511	91.56
424.733	96.56
424.956	92.56
425.178	105.56
425.401	80.56
425.623	88.56
425.846	97.56
426.068	86.56
426.291	95.56
426.513	84.56
426.735	103.56
426.958	76.56
427.18	98.56
427.402	116.56
427.625	116.56
427.847	119.56
428.069	94.56
428.292	83.56
428.514	103.56
428.736	78.56
428.958	73.56
429.181	87.56
429.403	88.56
429.625	70.56
429.847	76.56
430.069	90.56
430.292	94.56
430.514	88.56
430.736	82.56
430.958	89.56
431.18	88.56
431.402	73.56
431.624	78.56
431.846	88.56
432.068	84.56
432.29	89.56
432.512	78.56
432.734	85.56
432.956	85.56
433.178	95.56
433.4	94.56
433.622	89.56
433.844	74.56
434.066	91.56
434.287	90.56
434.509	99.56
434.731	82.56
434.953	83.56
435.175	80.56
435.397	86.56
435.618	73.56
435.84	87.56
436.062	101.56
436.284	97.56
436.505	88.56
436.727	102.56
436.949	94.56
437.17	85.56
437.392	94.56
437.614	102.56
437.835	99.56
438.057	103.56
438.278	108.56
438.5	97.56
438.721	113.56
438.943	87.56
439.165	82.56
439.386	68.56
439.608	90.56
439.829	101.56
440.05	100.56
440.272	123.56
440.493	79.56
440.715	86.56
440.936	80.56
441.158	81.56
441.379	72.56
441.6	84.56
441.822	89.56
442.043	97.56
442.264	108.56
442.486	85.56
442.707	85.56
442.928	87.56
443.149	125.56
443.371	111.56
443.592	112.56
443.813	105.56
444.034	96.56
444.255	82.56
444.476	88.56
444.698	94.56
444.919	92.56
445.14	117.56
445.361	103.56
445.582	90.56
445.803	113.56
446.024	115.56
446.245	133.56
446.466	105.56
446.687	83.56
446.908	73.56
447.129	81.56
447.35	84.56
447.571	92.56
447.792	82.56
448.013	100.56
448.234	99.56
448.455	99.56
448.675	93.56
448.896	106.56
449.117	84.56
449.338	111.56
449.559	110.56
449.779	125.56
450	85.56
450.221	92.56
450.442	104.56
450.662	92.56
450.883	99.56
451.104	87.56
451.324	94.56
451.545	100.56
451.766	77.56
451.986	89.56
452.207	92.56
452.428	95.56
452.648	63.56
452.869	96.56
453.089	80.56
453.31	96.56
453.53	95.56
453.751	91.56
453.971	96.56
454.192	91.56
454.412	90.56
454.633	88.56
454.853	84.56
455.073	86.56
455.294	78.56
455.514	85.56
455.734	85.56
455.955	90.56
456.175	79.56
456.395	83.56
456.616	92.56
456.836	82.56
457.056	70.56
457.276	79.56
457.497	90.56
457.717	91.56
457.937	88.56
458.157	98.56
458.377	83.56
458.598	99.56
458.818	107.56
459.038	135.56
459.258	116.56
459.478	82.56
459.698	78.56
459.918	89.56
460.138	75.56
460.358	73.56
460.578	71.56
460.798	94.56
461.018	83.56
461.238	84.56
461.458	86.56
461.678	75.56
461.898	83.56
462.118	69.56
462.338	74.56
462.558	96.56
462.777	86.56
462.997	86.56
463.217	81.56
463.437	97.56
463.657	80.56
463.876	96.56
464.096	90.56
464.316	88.56
464.536	84.56
464.755	77.56
464.975	101.56
465.195	126.56
465.414	135.56
465.634	89.56
465.854	96.56
466.073	91.56
466.293	89.56
466.512	75.56
466.732	87.56
466.951	80.56
467.171	89.56
467.391	82.56
467.61	71.56
467.829	77.56
468.049	105.56
468.268	95.56
468.488	78.56
468.707	74.56
468.927	86.56
469.146	74.56
469.365	77.56
469.585	80.56
469.804	82.56
470.023	94.56
470.243	101.56
470.462	94.56
470.681	88.56
470.901	74.56
471.12	68.56
471.339	79.56
471.558	82.56
471.777	89.56
471.997	79.56
472.216	96.56
472.435	119.56
472.654	78.56
472.873	87.56
473.092	76.56
473.311	90.56
473.53	80.56
473.749	83.56
473.968	96.56
474.187	99.56
474.406	90.56
474.625	86.56
474.844	73.56
475.063	78.56
475.282	84.56
475.501	88.56
475.72	83.56
475.939	86.56
476.158	84.56
476.377	87.56
476.596	84.56
476.814	96.56
477.033	89.56
477.252	96.56
477.471	93.56
477.69	81.56
477.908	91.56
478.127	90.56
478.346	87.56
478.564	91.56
478.783	84.56
479.002	78.56
479.22	100.56
479.439	102.56
479.658	88.56
479.876	76.56
480.095	82.56
480.313	102.56
480.532	81.56
480.751	94.56
480.969	84.56
481.188	160.56
481.406	126.56
481.624	92.56
481.843	99.56
482.061	84.56
482.28	85.56
482.498	90.56
482.717	85.56
482.935	86.56
483.153	91.56
483.372	86.56
483.59	87.56
483.808	102.56
484.027	82.56
484.245	92.56
484.463	87.56
484.681	99.56
484.9	103.56
485.118	92.56
485.336	99.56
485.554	97.56
485.772	110.56
485.99	104.56
486.209	103.56
486.427	110.56
486.645	94.56
486.863	114.56
487.081	102.56
487.299	95.56
487.517	98.56
487.735	105.56
487.953	93.56
488.171	82.56
488.389	80.56
488.607	100.56
488.825	80.56
489.043	88.56
489.261	78.56
489.479	82.56
489.696	89.56
489.914	84.56
490.132	78.56
490.35	93.56
490.568	97.56
490.786	86.56
491.003	94.56
491.221	90.56
491.439	100.56
491.657	90.56
491.874	87.56
492.092	85.56
492.31	84.56
492.527	75.56
492.745	96.56
492.963	80.56
493.18	85.56
493.398	90.56
493.615	85.56
493.833	70.56
494.05	92.56
494.268	85.56
494.485	85.56
494.703	89.56
494.92	86.56
495.138	92.56
495.355	66.56
495.573	87.56
495.79	92.56
496.008	90.56
496.225	82.56
496.442	81.56
496.66	94.56
496.877	82.56
497.094	80.56
497.312	89.56
497.529	81.56
497.746	89.56
497.963	112.56
498.181	95.56
498.398	90.56
498.615	95.56
498.832	98.56
499.049	98.56
499.267	74.56
499.484	80.56
499.701	86.56
499.918	89.56
500.135	94.56
500.352	86.56
500.569	100.56
500.786	97.56
501.003	90.56
501.22	92.56
501.437	87.56
501.654	81.56
501.871	99.56
502.088	87.56
502.305	82.56
502.522	73.56
502.739	91.56
502.956	88.56
503.172	70.56
503.389	78.56
503.606	111.56
503.823	79.56
504.04	94.56
504.256	94.56
504.473	78.56
504.69	80.56
504.907	97.56
505.123	81.56
505.34	88.56
505.557	86.56
505.773	75.56
505.99	87.56
506.207	98.56
506.423	80.56
506.64	100.56
506.856	92.56
507.073	90.56
507.289	78.56
507.506	73.56
507.722	101.56
507.939	96.56
508.155	109.56
508.372	79.56
508.588	66.56
508.805	87.56
509.021	95.56
509.238	99.56
509.454	106.56
509.67	84.56
509.887	106.56
510.103	111.56
510.319	170.56
510.536	564.56
510.752	1682.56
510.968	486.56
511.184	137.56
511.401	98.56
511.617	92.56
511.833	76.56
512.049	82.56
512.265	92.56
512.481	93.56
512.698	94.56
512.914	83.56
513.13	64.56
513.346	87.56
513.562	94.56
513.778	77.56
513.994	99.56
514.21	97.56
514.426	91.56
514.642	115.56
514.858	108.56
515.074	138.56
515.29	327.56
515.506	1000.56
515.721	378.56
515.937	119.56
516.153	104.56
516.369	89.56
516.585	106.56
516.801	88.56
517.016	99.56
517.232	80.56
