Data from Circ_1982_H10_HRD10591_00097.txt Node
Date: Wed Jan 03 12:31:00 EST 2024
User: Yrep
Spectrometer: HR+D1059
Trigger mode: 1
Integration Time (sec): 1.000000E-1
Scans to average: 1
Electric dark correction enabled: true
Nonlinearity correction enabled: false
Boxcar width: 0
XAxis mode: Wavelengths
Number of Pixels in Spectrum: 2048
>>>>>Begin Spectral Data<<<<<
223.165	-10.88
223.4	-10.88
223.635	-10.88
223.869	-27.88
224.104	-20.88
224.338	-9.88
224.573	-16.88
224.808	-0.88
225.042	-7.88
225.277	-1.88
225.511	-11.88
225.746	2.12
225.98	11.12
226.215	15.12
226.449	14.12
226.683	12.12
226.918	34.12
227.152	20.12
227.387	45.12
227.621	30.12
227.856	44.12
228.09	50.12
228.324	52.12
228.559	54.12
228.793	59.12
229.027	71.12
229.262	64.12
229.496	76.12
229.73	94.12
229.964	91.12
230.199	74.12
230.433	72.12
230.667	79.12
230.901	86.12
231.136	73.12
231.37	71.12
231.604	74.12
231.838	82.12
232.072	73.12
232.306	72.12
232.541	67.12
232.775	79.12
233.009	79.12
233.243	87.12
233.477	76.12
233.711	77.12
233.945	88.12
234.179	86.12
234.413	87.12
234.647	90.12
234.881	74.12
235.115	81.12
235.349	73.12
235.583	73.12
235.817	73.12
236.051	95.12
236.285	86.12
236.519	87.12
236.753	84.12
236.987	79.12
237.221	77.12
237.455	86.12
237.689	76.12
237.922	82.12
238.156	82.12
238.39	76.12
238.624	84.12
238.858	75.12
239.091	59.12
239.325	89.12
239.559	91.12
239.793	80.12
240.027	87.12
240.26	89.12
240.494	74.12
240.728	73.12
240.961	93.12
241.195	73.12
241.429	88.12
241.662	86.12
241.896	90.12
242.13	85.12
242.363	80.12
242.597	72.12
242.83	89.12
243.064	74.12
243.298	80.12
243.531	80.12
243.765	79.12
243.998	73.12
244.232	73.12
244.465	75.12
244.699	83.12
244.932	72.12
245.166	92.12
245.399	82.12
245.633	82.12
245.866	74.12
246.099	79.12
246.333	72.12
246.566	68.12
246.8	86.12
247.033	84.12
247.266	69.12
247.5	78.12
247.733	86.12
247.966	66.12
248.2	86.12
248.433	83.12
248.666	84.12
248.899	84.12
249.133	84.12
249.366	90.12
249.599	101.12
249.832	86.12
250.066	75.12
250.299	88.12
250.532	74.12
250.765	70.12
250.998	75.12
251.231	67.12
251.465	79.12
251.698	67.12
251.931	71.12
252.164	86.12
252.397	70.12
252.63	84.12
252.863	85.12
253.096	84.12
253.329	90.12
253.562	86.12
253.795	88.12
254.028	87.12
254.261	76.12
254.494	80.12
254.727	79.12
254.96	77.12
255.193	86.12
255.426	84.12
255.659	63.12
255.892	79.12
256.124	80.12
256.357	70.12
256.59	83.12
256.823	86.12
257.056	92.12
257.289	85.12
257.521	82.12
257.754	87.12
257.987	83.12
258.22	80.12
258.452	84.12
258.685	90.12
258.918	77.12
259.151	78.12
259.383	71.12
259.616	85.12
259.849	86.12
260.081	84.12
260.314	79.12
260.547	86.12
260.779	80.12
261.012	94.12
261.244	96.12
261.477	100.12
261.71	101.12
261.942	94.12
262.175	122.12
262.407	96.12
262.64	85.12
262.872	84.12
263.105	92.12
263.337	86.12
263.57	90.12
263.802	90.12
264.035	79.12
264.267	87.12
264.499	98.12
264.732	71.12
264.964	91.12
265.197	77.12
265.429	78.12
265.661	92.12
265.894	87.12
266.126	79.12
266.358	90.12
266.591	95.12
266.823	79.12
267.055	77.12
267.287	88.12
267.52	79.12
267.752	82.12
267.984	88.12
268.216	78.12
268.448	71.12
268.681	85.12
268.913	87.12
269.145	77.12
269.377	87.12
269.609	82.12
269.841	70.12
270.073	86.12
270.306	88.12
270.538	87.12
270.77	83.12
271.002	88.12
271.234	74.12
271.466	84.12
271.698	88.12
271.93	97.12
272.162	94.12
272.394	72.12
272.626	84.12
272.858	88.12
273.09	89.12
273.322	96.12
273.553	78.12
273.785	90.12
274.017	78.12
274.249	92.12
274.481	90.12
274.713	77.12
274.945	99.12
275.176	88.12
275.408	90.12
275.64	86.12
275.872	97.12
276.104	104.12
276.335	90.12
276.567	99.12
276.799	95.12
277.031	96.12
277.262	83.12
277.494	85.12
277.726	98.12
277.957	83.12
278.189	86.12
278.421	78.12
278.652	83.12
278.884	78.12
279.115	90.12
279.347	79.12
279.579	106.12
279.81	83.12
280.042	96.12
280.273	82.12
280.505	84.12
280.736	86.12
280.968	101.12
281.199	96.12
281.431	86.12
281.662	84.12
281.894	98.12
282.125	110.12
282.356	116.12
282.588	126.12
282.819	107.12
283.051	84.12
283.282	92.12
283.513	94.12
283.745	97.12
283.976	103.12
284.207	83.12
284.439	83.12
284.67	76.12
284.901	86.12
285.132	85.12
285.364	94.12
285.595	107.12
285.826	91.12
286.057	95.12
286.288	105.12
286.52	94.12
286.751	76.12
286.982	92.12
287.213	98.12
287.444	93.12
287.675	96.12
287.906	87.12
288.138	85.12
288.369	108.12
288.6	90.12
288.831	84.12
289.062	86.12
289.293	90.12
289.524	86.12
289.755	89.12
289.986	102.12
290.217	86.12
290.448	90.12
290.679	93.12
290.91	91.12
291.141	97.12
291.371	88.12
291.602	90.12
291.833	88.12
292.064	111.12
292.295	94.12
292.526	92.12
292.757	82.12
292.987	80.12
293.218	80.12
293.449	107.12
293.68	80.12
293.91	90.12
294.141	79.12
294.372	100.12
294.603	78.12
294.833	89.12
295.064	74.12
295.295	97.12
295.525	90.12
295.756	101.12
295.987	116.12
296.217	136.12
296.448	108.12
296.679	101.12
296.909	86.12
297.14	75.12
297.37	96.12
297.601	78.12
297.831	76.12
298.062	105.12
298.292	99.12
298.523	98.12
298.753	93.12
298.984	82.12
299.214	85.12
299.445	93.12
299.675	100.12
299.905	93.12
300.136	94.12
300.366	91.12
300.597	86.12
300.827	83.12
301.057	106.12
301.288	103.12
301.518	92.12
301.748	90.12
301.979	99.12
302.209	94.12
302.439	105.12
302.669	111.12
302.9	103.12
303.13	99.12
303.36	92.12
303.59	114.12
303.82	93.12
304.051	103.12
304.281	90.12
304.511	98.12
304.741	83.12
304.971	88.12
305.201	106.12
305.431	94.12
305.661	91.12
305.891	102.12
306.121	98.12
306.352	92.12
306.582	112.12
306.812	88.12
307.042	96.12
307.272	98.12
307.502	102.12
307.731	92.12
307.961	108.12
308.191	86.12
308.421	94.12
308.651	99.12
308.881	81.12
309.111	85.12
309.341	90.12
309.571	104.12
309.8	107.12
310.03	96.12
310.26	100.12
310.49	102.12
310.72	98.12
310.949	108.12
311.179	107.12
311.409	102.12
311.639	99.12
311.868	90.12
312.098	113.12
312.328	107.12
312.557	94.12
312.787	112.12
313.017	112.12
313.246	90.12
313.476	87.12
313.706	90.12
313.935	87.12
314.165	88.12
314.394	94.12
314.624	98.12
314.853	97.12
315.083	104.12
315.312	99.12
315.542	102.12
315.771	100.12
316.001	86.12
316.23	89.12
316.46	90.12
316.689	87.12
316.919	86.12
317.148	103.12
317.377	88.12
317.607	99.12
317.836	82.12
318.065	91.12
318.295	86.12
318.524	98.12
318.753	82.12
318.983	81.12
319.212	110.12
319.441	101.12
319.67	103.12
319.9	88.12
320.129	86.12
320.358	93.12
320.587	99.12
320.816	91.12
321.046	95.12
321.275	84.12
321.504	76.12
321.733	109.12
321.962	93.12
322.191	86.12
322.42	110.12
322.649	120.12
322.878	110.12
323.108	123.12
323.337	100.12
323.566	108.12
323.795	140.12
324.024	171.12
324.253	324.12
324.482	642.12
324.71	1271.12
324.939	1618.12
325.168	616.12
325.397	195.12
325.626	133.12
325.855	118.12
326.084	114.12
326.313	138.12
326.542	135.12
326.77	178.12
326.999	354.12
327.228	703.12
327.457	1231.12
327.686	975.12
327.914	284.12
328.143	175.12
328.372	139.12
328.6	122.12
328.829	113.12
329.058	126.12
329.287	123.12
329.515	110.12
329.744	88.12
329.972	97.12
330.201	118.12
330.43	132.12
330.658	119.12
330.887	135.12
331.115	116.12
331.344	104.12
331.572	91.12
331.801	101.12
332.03	99.12
332.258	91.12
332.486	73.12
332.715	103.12
332.943	100.12
333.172	93.12
333.4	94.12
333.629	124.12
333.857	115.12
334.085	97.12
334.314	123.12
334.542	141.12
334.771	132.12
334.999	104.12
335.227	86.12
335.455	83.12
335.684	104.12
335.912	104.12
336.14	108.12
336.369	95.12
336.597	77.12
336.825	106.12
337.053	108.12
337.281	106.12
337.51	89.12
337.738	95.12
337.966	101.12
338.194	100.12
338.422	108.12
338.65	103.12
338.878	103.12
339.106	96.12
339.334	94.12
339.562	79.12
339.79	91.12
340.018	88.12
340.246	98.12
340.474	98.12
340.702	119.12
340.93	108.12
341.158	100.12
341.386	99.12
341.614	102.12
341.842	87.12
342.07	90.12
342.298	104.12
342.526	94.12
342.754	68.12
342.981	93.12
343.209	92.12
343.437	106.12
343.665	92.12
343.893	95.12
344.12	91.12
344.348	103.12
344.576	110.12
344.804	107.12
345.031	84.12
345.259	92.12
345.487	87.12
345.714	89.12
345.942	114.12
346.17	94.12
346.397	95.12
346.625	82.12
346.853	92.12
347.08	90.12
347.308	87.12
347.535	89.12
347.763	93.12
347.99	98.12
348.218	98.12
348.445	102.12
348.673	106.12
348.9	99.12
349.128	93.12
349.355	105.12
349.583	98.12
349.81	94.12
350.037	84.12
350.265	114.12
350.492	103.12
350.72	93.12
350.947	114.12
351.174	111.12
351.402	105.12
351.629	114.12
351.856	106.12
352.083	114.12
352.311	107.12
352.538	105.12
352.765	109.12
352.992	111.12
353.22	102.12
353.447	103.12
353.674	106.12
353.901	96.12
354.128	98.12
354.355	90.12
354.583	91.12
354.81	102.12
355.037	91.12
355.264	110.12
355.491	102.12
355.718	95.12
355.945	84.12
356.172	101.12
356.399	99.12
356.626	112.12
356.853	101.12
357.08	100.12
357.307	93.12
357.534	76.12
357.761	98.12
357.988	102.12
358.215	96.12
358.441	83.12
358.668	92.12
358.895	95.12
359.122	90.12
359.349	85.12
359.576	85.12
359.802	106.12
360.029	103.12
360.256	99.12
360.483	92.12
360.709	79.12
360.936	104.12
361.163	79.12
361.39	83.12
361.616	84.12
361.843	86.12
362.07	104.12
362.296	95.12
362.523	105.12
362.749	105.12
362.976	80.12
363.203	85.12
363.429	96.12
363.656	95.12
363.882	86.12
364.109	106.12
364.335	96.12
364.562	79.12
364.788	95.12
365.015	90.12
365.241	94.12
365.468	96.12
365.694	101.12
365.92	82.12
366.147	92.12
366.373	88.12
366.599	94.12
366.826	88.12
367.052	84.12
367.278	94.12
367.505	71.12
367.731	86.12
367.957	95.12
368.184	95.12
368.41	100.12
368.636	100.12
368.862	115.12
369.089	103.12
369.315	90.12
369.541	99.12
369.767	100.12
369.993	94.12
370.219	107.12
370.445	95.12
370.672	94.12
370.898	92.12
371.124	90.12
371.35	80.12
371.576	89.12
371.802	103.12
372.028	98.12
372.254	82.12
372.48	101.12
372.706	102.12
372.932	93.12
373.158	78.12
373.384	89.12
373.61	93.12
373.835	94.12
374.061	101.12
374.287	95.12
374.513	103.12
374.739	90.12
374.965	86.12
375.191	87.12
375.416	85.12
375.642	98.12
375.868	91.12
376.094	78.12
376.319	92.12
376.545	92.12
376.771	80.12
376.997	107.12
377.222	82.12
377.448	94.12
377.674	90.12
377.899	95.12
378.125	91.12
378.35	86.12
378.576	100.12
378.802	77.12
379.027	94.12
379.253	90.12
379.478	95.12
379.704	101.12
379.929	88.12
380.155	88.12
380.38	85.12
380.606	99.12
380.831	95.12
381.057	88.12
381.282	89.12
381.507	93.12
381.733	100.12
381.958	108.12
382.184	88.12
382.409	100.12
382.634	102.12
382.86	103.12
383.085	99.12
383.31	88.12
383.535	92.12
383.761	95.12
383.986	109.12
384.211	91.12
384.436	86.12
384.662	103.12
384.887	98.12
385.112	104.12
385.337	111.12
385.562	100.12
385.787	100.12
386.013	99.12
386.238	106.12
386.463	101.12
386.688	111.12
386.913	107.12
387.138	96.12
387.363	107.12
387.588	88.12
387.813	107.12
388.038	106.12
388.263	112.12
388.488	112.12
388.713	110.12
388.938	96.12
389.163	107.12
389.387	93.12
389.612	89.12
389.837	104.12
390.062	85.12
390.287	109.12
390.512	85.12
390.736	95.12
390.961	79.12
391.186	90.12
391.411	105.12
391.636	88.12
391.86	82.12
392.085	82.12
392.31	77.12
392.534	74.12
392.759	84.12
392.984	97.12
393.208	85.12
393.433	98.12
393.658	79.12
393.882	84.12
394.107	88.12
394.331	83.12
394.556	78.12
394.78	96.12
395.005	94.12
395.229	101.12
395.454	103.12
395.678	88.12
395.903	99.12
396.127	82.12
396.352	83.12
396.576	92.12
396.801	93.12
397.025	86.12
397.249	79.12
397.474	90.12
397.698	86.12
397.922	78.12
398.147	97.12
398.371	77.12
398.595	93.12
398.82	92.12
399.044	72.12
399.268	93.12
399.492	86.12
399.717	90.12
399.941	78.12
400.165	78.12
400.389	77.12
400.613	89.12
400.837	91.12
401.062	93.12
401.286	85.12
401.51	87.12
401.734	101.12
401.958	88.12
402.182	114.12
402.406	140.12
402.63	103.12
402.854	110.12
403.078	101.12
403.302	90.12
403.526	96.12
403.75	86.12
403.974	86.12
404.198	99.12
404.422	91.12
404.645	89.12
404.869	89.12
405.093	94.12
405.317	98.12
405.541	107.12
405.765	102.12
405.988	113.12
406.212	145.12
406.436	214.12
406.66	146.12
406.883	101.12
407.107	91.12
407.331	103.12
407.555	108.12
407.778	91.12
408.002	95.12
408.226	88.12
408.449	95.12
408.673	89.12
408.896	89.12
409.12	91.12
409.344	72.12
409.567	89.12
409.791	92.12
410.014	87.12
410.238	96.12
410.461	100.12
410.685	101.12
410.908	109.12
411.132	93.12
411.355	90.12
411.578	89.12
411.802	92.12
412.025	100.12
412.249	94.12
412.472	93.12
412.695	94.12
412.919	88.12
413.142	76.12
413.365	94.12
413.589	93.12
413.812	87.12
414.035	84.12
414.258	85.12
414.482	87.12
414.705	90.12
414.928	90.12
415.151	109.12
415.374	94.12
415.597	84.12
415.821	88.12
416.044	92.12
416.267	92.12
416.49	83.12
416.713	84.12
416.936	75.12
417.159	86.12
417.382	84.12
417.605	102.12
417.828	97.12
418.051	105.12
418.274	92.12
418.497	86.12
418.72	77.12
418.943	76.12
419.166	85.12
419.389	75.12
419.611	87.12
419.834	95.12
420.057	83.12
420.28	96.12
420.503	93.12
420.726	79.12
420.948	93.12
421.171	94.12
421.394	101.12
421.617	94.12
421.839	77.12
422.062	88.12
422.285	98.12
422.507	106.12
422.73	96.12
422.953	93.12
423.175	96.12
423.398	93.12
423.621	94.12
423.843	84.12
424.066	80.12
424.288	96.12
424.511	94.12
424.733	76.12
424.956	110.12
425.178	90.12
425.401	111.12
425.623	83.12
425.846	108.12
426.068	105.12
426.291	105.12
426.513	101.12
426.735	95.12
426.958	96.12
427.18	91.12
427.402	123.12
427.625	136.12
427.847	118.12
428.069	100.12
428.292	90.12
428.514	82.12
428.736	90.12
428.958	88.12
429.181	104.12
429.403	97.12
429.625	83.12
429.847	89.12
430.069	107.12
430.292	102.12
430.514	82.12
430.736	77.12
430.958	94.12
431.18	82.12
431.402	78.12
431.624	89.12
431.846	82.12
432.068	94.12
432.29	87.12
432.512	82.12
432.734	84.12
432.956	98.12
433.178	103.12
433.4	82.12
433.622	98.12
433.844	83.12
434.066	91.12
434.287	100.12
434.509	75.12
434.731	97.12
434.953	77.12
435.175	98.12
435.397	91.12
435.618	88.12
435.84	99.12
436.062	119.12
436.284	108.12
436.505	101.12
436.727	100.12
436.949	89.12
437.17	96.12
437.392	91.12
437.614	88.12
437.835	100.12
438.057	107.12
438.278	102.12
438.5	95.12
438.721	109.12
438.943	107.12
439.165	90.12
439.386	88.12
439.608	96.12
439.829	94.12
440.05	105.12
440.272	119.12
440.493	86.12
440.715	99.12
440.936	86.12
441.158	74.12
441.379	84.12
441.6	83.12
441.822	87.12
442.043	98.12
442.264	107.12
442.486	106.12
442.707	104.12
442.928	92.12
443.149	115.12
443.371	115.12
443.592	101.12
443.813	100.12
444.034	106.12
444.255	96.12
444.476	83.12
444.698	94.12
444.919	99.12
445.14	134.12
445.361	132.12
445.582	111.12
445.803	110.12
446.024	130.12
446.245	127.12
446.466	98.12
446.687	90.12
446.908	70.12
447.129	96.12
447.35	106.12
447.571	91.12
447.792	94.12
448.013	102.12
448.234	101.12
448.455	90.12
448.675	106.12
448.896	104.12
449.117	81.12
449.338	106.12
449.559	121.12
449.779	134.12
450	89.12
450.221	95.12
450.442	89.12
450.662	110.12
450.883	100.12
451.104	104.12
451.324	103.12
451.545	101.12
451.766	98.12
451.986	80.12
452.207	88.12
452.428	88.12
452.648	91.12
452.869	127.12
453.089	107.12
453.31	117.12
453.53	89.12
453.751	87.12
453.971	102.12
454.192	102.12
454.412	100.12
454.633	74.12
454.853	87.12
455.073	94.12
455.294	82.12
455.514	98.12
455.734	74.12
455.955	79.12
456.175	87.12
456.395	90.12
456.616	82.12
456.836	102.12
457.056	88.12
457.276	79.12
457.497	74.12
457.717	85.12
457.937	94.12
458.157	99.12
458.377	82.12
458.598	100.12
458.818	125.12
459.038	133.12
459.258	110.12
459.478	94.12
459.698	96.12
459.918	86.12
460.138	96.12
460.358	96.12
460.578	91.12
460.798	89.12
461.018	86.12
461.238	95.12
461.458	87.12
461.678	91.12
461.898	85.12
462.118	90.12
462.338	92.12
462.558	88.12
462.777	84.12
462.997	89.12
463.217	86.12
463.437	73.12
463.657	86.12
463.876	98.12
464.096	89.12
464.316	96.12
464.536	84.12
464.755	96.12
464.975	84.12
465.195	151.12
465.414	158.12
465.634	98.12
465.854	93.12
466.073	84.12
466.293	94.12
466.512	88.12
466.732	101.12
466.951	84.12
467.171	86.12
467.391	96.12
467.61	98.12
467.829	94.12
468.049	100.12
468.268	119.12
468.488	88.12
468.707	81.12
468.927	84.12
469.146	91.12
469.365	87.12
469.585	79.12
469.804	103.12
470.023	81.12
470.243	90.12
470.462	114.12
470.681	110.12
470.901	91.12
471.12	92.12
471.339	92.12
471.558	87.12
471.777	100.12
471.997	104.12
472.216	102.12
472.435	136.12
472.654	102.12
472.873	87.12
473.092	91.12
473.311	87.12
473.53	71.12
473.749	84.12
473.968	86.12
474.187	100.12
474.406	110.12
474.625	92.12
474.844	89.12
475.063	92.12
475.282	89.12
475.501	100.12
475.72	96.12
475.939	94.12
476.158	87.12
476.377	96.12
476.596	93.12
476.814	83.12
477.033	95.12
477.252	84.12
477.471	82.12
477.69	56.12
477.908	91.12
478.127	105.12
478.346	100.12
478.564	100.12
478.783	98.12
479.002	84.12
479.22	96.12
479.439	103.12
479.658	93.12
479.876	95.12
480.095	81.12
480.313	91.12
480.532	98.12
480.751	91.12
480.969	98.12
481.188	191.12
481.406	142.12
481.624	96.12
481.843	102.12
482.061	82.12
482.28	104.12
482.498	87.12
482.717	77.12
482.935	98.12
483.153	90.12
483.372	93.12
483.59	99.12
483.808	79.12
484.027	92.12
484.245	90.12
484.463	99.12
484.681	100.12
484.9	99.12
485.118	90.12
485.336	103.12
485.554	100.12
485.772	105.12
485.99	116.12
486.209	100.12
486.427	108.12
486.645	108.12
486.863	104.12
487.081	103.12
487.299	103.12
487.517	104.12
487.735	86.12
487.953	92.12
488.171	93.12
488.389	94.12
488.607	93.12
488.825	95.12
489.043	93.12
489.261	85.12
489.479	75.12
489.696	88.12
489.914	74.12
490.132	97.12
490.35	101.12
490.568	95.12
490.786	95.12
491.003	90.12
491.221	98.12
491.439	99.12
491.657	75.12
491.874	102.12
492.092	86.12
492.31	87.12
492.527	95.12
492.745	89.12
492.963	87.12
493.18	85.12
493.398	88.12
493.615	87.12
493.833	90.12
494.05	95.12
494.268	88.12
494.485	83.12
494.703	81.12
494.92	80.12
495.138	102.12
495.355	85.12
495.573	90.12
495.79	82.12
496.008	88.12
496.225	75.12
496.442	81.12
496.66	90.12
496.877	96.12
497.094	90.12
497.312	91.12
497.529	87.12
497.746	96.12
497.963	98.12
498.181	93.12
498.398	109.12
498.615	100.12
498.832	95.12
499.049	88.12
499.267	99.12
499.484	99.12
499.701	88.12
499.918	98.12
500.135	83.12
500.352	107.12
500.569	100.12
500.786	103.12
501.003	102.12
501.22	90.12
501.437	83.12
501.654	93.12
501.871	104.12
502.088	94.12
502.305	90.12
502.522	76.12
502.739	85.12
502.956	95.12
503.172	85.12
503.389	102.12
503.606	83.12
503.823	102.12
504.04	90.12
504.256	85.12
504.473	84.12
504.69	78.12
504.907	101.12
505.123	102.12
505.34	96.12
505.557	94.12
505.773	90.12
505.99	79.12
506.207	84.12
506.423	99.12
506.64	74.12
506.856	86.12
507.073	98.12
507.289	96.12
507.506	96.12
507.722	121.12
507.939	120.12
508.155	98.12
508.372	80.12
508.588	90.12
508.805	103.12
509.021	102.12
509.238	111.12
509.454	98.12
509.67	114.12
509.887	116.12
510.103	137.12
510.319	210.12
510.536	660.12
510.752	1986.12
510.968	546.12
511.184	147.12
511.401	106.12
511.617	101.12
511.833	99.12
512.049	100.12
512.265	96.12
512.481	86.12
512.698	90.12
512.914	109.12
513.13	98.12
513.346	93.12
513.562	98.12
513.778	100.12
513.994	95.12
514.21	112.12
514.426	104.12
514.642	136.12
514.858	120.12
