Data from Circ_1982_H10_HRD10591_00051.txt Node
Date: Wed Jan 03 12:30:51 EST 2024
User: Yrep
Spectrometer: HR+D1059
Trigger mode: 1
Integration Time (sec): 1.000000E-1
Scans to average: 1
Electric dark correction enabled: true
Nonlinearity correction enabled: false
Boxcar width: 0
XAxis mode: Wavelengths
Number of Pixels in Spectrum: 2048
>>>>>Begin Spectral Data<<<<<
223.165	-25.75
223.4	-25.75
223.635	-25.75
223.869	-18.75
224.104	-8.75
224.338	-20.75
224.573	-16.75
224.808	-2.75
225.042	-13.75
225.277	0.25
225.511	-0.75
225.746	4.25
225.98	0.25
226.215	8.25
226.449	4.25
226.683	20.25
226.918	35.25
227.152	35.25
227.387	34.25
227.621	37.25
227.856	61.25
228.09	56.25
228.324	55.25
228.559	53.25
228.793	71.25
229.027	77.25
229.262	63.25
229.496	84.25
229.73	75.25
229.964	84.25
230.199	86.25
230.433	80.25
230.667	93.25
230.901	73.25
231.136	86.25
231.37	78.25
231.604	78.25
231.838	76.25
232.072	93.25
232.306	93.25
232.541	88.25
232.775	74.25
233.009	94.25
233.243	86.25
233.477	90.25
233.711	92.25
233.945	75.25
234.179	79.25
234.413	80.25
234.647	83.25
234.881	87.25
235.115	81.25
235.349	71.25
235.583	88.25
235.817	96.25
236.051	89.25
236.285	86.25
236.519	81.25
236.753	80.25
236.987	77.25
237.221	70.25
237.455	88.25
237.689	78.25
237.922	77.25
238.156	69.25
238.39	81.25
238.624	79.25
238.858	89.25
239.091	75.25
239.325	79.25
239.559	92.25
239.793	79.25
240.027	83.25
240.26	70.25
240.494	84.25
240.728	76.25
240.961	96.25
241.195	81.25
241.429	75.25
241.662	79.25
241.896	79.25
242.13	83.25
242.363	61.25
242.597	72.25
242.83	88.25
243.064	80.25
243.298	93.25
243.531	69.25
243.765	81.25
243.998	89.25
244.232	76.25
244.465	86.25
244.699	83.25
244.932	83.25
245.166	76.25
245.399	71.25
245.633	52.25
245.866	79.25
246.099	86.25
246.333	87.25
246.566	73.25
246.8	78.25
247.033	84.25
247.266	77.25
247.5	90.25
247.733	81.25
247.966	95.25
248.2	74.25
248.433	71.25
248.666	86.25
248.899	81.25
249.133	91.25
249.366	94.25
249.599	95.25
249.832	87.25
250.066	80.25
250.299	79.25
250.532	91.25
250.765	85.25
250.998	75.25
251.231	83.25
251.465	85.25
251.698	80.25
251.931	74.25
252.164	76.25
252.397	76.25
252.63	80.25
252.863	75.25
253.096	84.25
253.329	79.25
253.562	77.25
253.795	77.25
254.028	77.25
254.261	73.25
254.494	80.25
254.727	77.25
254.96	78.25
255.193	83.25
255.426	81.25
255.659	95.25
255.892	89.25
256.124	90.25
256.357	90.25
256.59	90.25
256.823	83.25
257.056	87.25
257.289	78.25
257.521	85.25
257.754	93.25
257.987	99.25
258.22	79.25
258.452	77.25
258.685	81.25
258.918	80.25
259.151	76.25
259.383	95.25
259.616	91.25
259.849	88.25
260.081	95.25
260.314	83.25
260.547	88.25
260.779	91.25
261.012	94.25
261.244	95.25
261.477	95.25
261.71	95.25
261.942	100.25
262.175	110.25
262.407	84.25
262.64	98.25
262.872	89.25
263.105	81.25
263.337	91.25
263.57	86.25
263.802	88.25
264.035	92.25
264.267	80.25
264.499	83.25
264.732	88.25
264.964	73.25
265.197	85.25
265.429	86.25
265.661	91.25
265.894	71.25
266.126	96.25
266.358	83.25
266.591	83.25
266.823	77.25
267.055	92.25
267.287	93.25
267.52	100.25
267.752	87.25
267.984	87.25
268.216	72.25
268.448	86.25
268.681	88.25
268.913	85.25
269.145	87.25
269.377	85.25
269.609	85.25
269.841	89.25
270.073	70.25
270.306	86.25
270.538	94.25
270.77	78.25
271.002	96.25
271.234	80.25
271.466	89.25
271.698	83.25
271.93	88.25
272.162	81.25
272.394	96.25
272.626	87.25
272.858	75.25
273.09	93.25
273.322	90.25
273.553	75.25
273.785	86.25
274.017	92.25
274.249	90.25
274.481	76.25
274.713	71.25
274.945	80.25
275.176	87.25
275.408	83.25
275.64	95.25
275.872	84.25
276.104	92.25
276.335	99.25
276.567	98.25
276.799	95.25
277.031	81.25
277.262	87.25
277.494	102.25
277.726	96.25
277.957	100.25
278.189	89.25
278.421	95.25
278.652	93.25
278.884	92.25
279.115	85.25
279.347	98.25
279.579	84.25
279.81	84.25
280.042	99.25
280.273	116.25
280.505	79.25
280.736	85.25
280.968	75.25
281.199	87.25
281.431	87.25
281.662	89.25
281.894	87.25
282.125	96.25
282.356	117.25
282.588	128.25
282.819	102.25
283.051	91.25
283.282	95.25
283.513	94.25
283.745	94.25
283.976	85.25
284.207	95.25
284.439	93.25
284.67	97.25
284.901	78.25
285.132	87.25
285.364	79.25
285.595	100.25
285.826	95.25
286.057	103.25
286.288	99.25
286.52	88.25
286.751	83.25
286.982	89.25
287.213	82.25
287.444	95.25
287.675	95.25
287.906	96.25
288.138	83.25
288.369	91.25
288.6	88.25
288.831	79.25
289.062	88.25
289.293	89.25
289.524	87.25
289.755	99.25
289.986	90.25
290.217	78.25
290.448	84.25
290.679	89.25
290.91	97.25
291.141	91.25
291.371	83.25
291.602	94.25
291.833	84.25
292.064	89.25
292.295	96.25
292.526	93.25
292.757	96.25
292.987	100.25
293.218	103.25
293.449	92.25
293.68	80.25
293.91	88.25
294.141	83.25
294.372	84.25
294.603	80.25
294.833	75.25
295.064	100.25
295.295	95.25
295.525	97.25
295.756	108.25
295.987	111.25
296.217	121.25
296.448	113.25
296.679	96.25
296.909	88.25
297.14	103.25
297.37	94.25
297.601	95.25
297.831	88.25
298.062	90.25
298.292	91.25
298.523	94.25
298.753	98.25
298.984	99.25
299.214	104.25
299.445	77.25
299.675	90.25
299.905	93.25
300.136	75.25
300.366	95.25
300.597	101.25
300.827	102.25
301.057	87.25
301.288	100.25
301.518	88.25
301.748	86.25
301.979	105.25
302.209	94.25
302.439	99.25
302.669	91.25
302.9	92.25
303.13	95.25
303.36	87.25
303.59	111.25
303.82	95.25
304.051	89.25
304.281	94.25
304.511	99.25
304.741	96.25
304.971	106.25
305.201	97.25
305.431	95.25
305.661	112.25
305.891	79.25
306.121	95.25
306.352	109.25
306.582	111.25
306.812	117.25
307.042	94.25
307.272	94.25
307.502	103.25
307.731	95.25
307.961	81.25
308.191	83.25
308.421	80.25
308.651	92.25
308.881	101.25
309.111	99.25
309.341	110.25
309.571	103.25
309.8	81.25
310.03	86.25
310.26	95.25
310.49	96.25
310.72	96.25
310.949	112.25
311.179	102.25
311.409	96.25
311.639	92.25
311.868	99.25
312.098	107.25
312.328	99.25
312.557	114.25
312.787	90.25
313.017	95.25
313.246	97.25
313.476	80.25
313.706	93.25
313.935	95.25
314.165	97.25
314.394	107.25
314.624	95.25
314.853	94.25
315.083	99.25
315.312	92.25
315.542	99.25
315.771	99.25
316.001	87.25
316.23	85.25
316.46	92.25
316.689	80.25
316.919	87.25
317.148	102.25
317.377	88.25
317.607	104.25
317.836	101.25
318.065	103.25
318.295	89.25
318.524	88.25
318.753	101.25
318.983	96.25
319.212	99.25
319.441	110.25
319.67	100.25
319.9	100.25
320.129	89.25
320.358	87.25
320.587	95.25
320.816	98.25
321.046	96.25
321.275	101.25
321.504	89.25
321.733	91.25
321.962	99.25
322.191	107.25
322.42	100.25
322.649	88.25
322.878	119.25
323.108	122.25
323.337	123.25
323.566	127.25
323.795	127.25
324.024	167.25
324.253	309.25
324.482	614.25
324.71	1256.25
324.939	1665.25
325.168	593.25
325.397	201.25
325.626	134.25
325.855	117.25
326.084	120.25
326.313	119.25
326.542	139.25
326.77	206.25
326.999	349.25
327.228	718.25
327.457	1325.25
327.686	1040.25
327.914	295.25
328.143	170.25
328.372	147.25
328.6	115.25
328.829	106.25
329.058	125.25
329.287	131.25
329.515	103.25
329.744	101.25
329.972	88.25
330.201	107.25
330.43	115.25
330.658	124.25
330.887	125.25
331.115	116.25
331.344	97.25
331.572	103.25
331.801	108.25
332.03	111.25
332.258	95.25
332.486	91.25
332.715	100.25
332.943	89.25
333.172	93.25
333.4	97.25
333.629	91.25
333.857	100.25
334.085	94.25
334.314	119.25
334.542	121.25
334.771	107.25
334.999	97.25
335.227	93.25
335.455	92.25
335.684	88.25
335.912	102.25
336.14	105.25
336.369	103.25
336.597	95.25
336.825	85.25
337.053	96.25
337.281	94.25
337.51	91.25
337.738	96.25
337.966	117.25
338.194	81.25
338.422	104.25
338.65	97.25
338.878	89.25
339.106	96.25
339.334	96.25
339.562	104.25
339.79	97.25
340.018	92.25
340.246	89.25
340.474	83.25
340.702	80.25
340.93	80.25
341.158	85.25
341.386	96.25
341.614	88.25
341.842	80.25
342.07	94.25
342.298	91.25
342.526	106.25
342.754	103.25
342.981	99.25
343.209	95.25
343.437	93.25
343.665	81.25
343.893	77.25
344.12	93.25
344.348	101.25
344.576	86.25
344.804	94.25
345.031	95.25
345.259	108.25
345.487	103.25
345.714	91.25
345.942	92.25
346.17	92.25
346.397	97.25
346.625	94.25
346.853	93.25
347.08	99.25
347.308	80.25
347.535	87.25
347.763	93.25
347.99	90.25
348.218	114.25
348.445	104.25
348.673	117.25
348.9	96.25
349.128	105.25
349.355	86.25
349.583	99.25
349.81	88.25
350.037	87.25
350.265	102.25
350.492	87.25
350.72	97.25
350.947	95.25
351.174	112.25
351.402	105.25
351.629	103.25
351.856	99.25
352.083	112.25
352.311	107.25
352.538	112.25
352.765	109.25
352.992	123.25
353.22	103.25
353.447	96.25
353.674	88.25
353.901	113.25
354.128	109.25
354.355	107.25
354.583	105.25
354.81	111.25
355.037	104.25
355.264	104.25
355.491	88.25
355.718	90.25
355.945	107.25
356.172	105.25
356.399	105.25
356.626	100.25
356.853	109.25
357.08	92.25
357.307	90.25
357.534	101.25
357.761	92.25
357.988	85.25
358.215	93.25
358.441	91.25
358.668	99.25
358.895	90.25
359.122	94.25
359.349	89.25
359.576	86.25
359.802	89.25
360.029	119.25
360.256	96.25
360.483	91.25
360.709	104.25
360.936	103.25
361.163	95.25
361.39	91.25
361.616	90.25
361.843	90.25
362.07	101.25
362.296	93.25
362.523	92.25
362.749	91.25
362.976	87.25
363.203	76.25
363.429	90.25
363.656	103.25
363.882	89.25
364.109	94.25
364.335	99.25
364.562	104.25
364.788	96.25
365.015	91.25
365.241	92.25
365.468	113.25
365.694	105.25
365.92	109.25
366.147	80.25
366.373	99.25
366.599	82.25
366.826	81.25
367.052	91.25
367.278	103.25
367.505	87.25
367.731	100.25
367.957	69.25
368.184	91.25
368.41	101.25
368.636	100.25
368.862	110.25
369.089	115.25
369.315	75.25
369.541	99.25
369.767	83.25
369.993	93.25
370.219	94.25
370.445	83.25
370.672	103.25
370.898	83.25
371.124	87.25
371.35	92.25
371.576	90.25
371.802	110.25
372.028	86.25
372.254	97.25
372.48	91.25
372.706	83.25
372.932	84.25
373.158	92.25
373.384	101.25
373.61	94.25
373.835	119.25
374.061	87.25
374.287	102.25
374.513	84.25
374.739	84.25
374.965	90.25
375.191	89.25
375.416	83.25
375.642	94.25
375.868	93.25
376.094	97.25
376.319	91.25
376.545	91.25
376.771	93.25
376.997	97.25
377.222	104.25
377.448	113.25
377.674	93.25
377.899	87.25
378.125	90.25
378.35	93.25
378.576	93.25
378.802	88.25
379.027	103.25
379.253	87.25
379.478	69.25
379.704	83.25
379.929	87.25
380.155	93.25
380.38	106.25
380.606	92.25
380.831	93.25
381.057	108.25
381.282	105.25
381.507	116.25
381.733	91.25
381.958	96.25
382.184	94.25
382.409	104.25
382.634	91.25
382.86	90.25
383.085	91.25
383.31	110.25
383.535	109.25
383.761	99.25
383.986	108.25
384.211	117.25
384.436	112.25
384.662	109.25
384.887	98.25
385.112	110.25
385.337	128.25
385.562	100.25
385.787	118.25
386.013	123.25
386.238	117.25
386.463	107.25
386.688	112.25
386.913	99.25
387.138	104.25
387.363	96.25
387.588	94.25
387.813	109.25
388.038	103.25
388.263	110.25
388.488	107.25
388.713	114.25
388.938	85.25
389.163	93.25
389.387	102.25
389.612	94.25
389.837	94.25
390.062	69.25
390.287	107.25
390.512	99.25
390.736	92.25
390.961	89.25
391.186	83.25
391.411	89.25
391.636	84.25
391.86	99.25
392.085	89.25
392.31	87.25
392.534	96.25
392.759	69.25
392.984	92.25
393.208	94.25
393.433	92.25
393.658	106.25
393.882	91.25
394.107	89.25
394.331	86.25
394.556	90.25
394.78	97.25
395.005	84.25
395.229	85.25
395.454	93.25
395.678	75.25
395.903	88.25
396.127	97.25
396.352	96.25
396.576	87.25
396.801	89.25
397.025	89.25
397.249	82.25
397.474	84.25
397.698	99.25
397.922	87.25
398.147	92.25
398.371	88.25
398.595	110.25
398.82	100.25
399.044	77.25
399.268	79.25
399.492	100.25
399.717	93.25
399.941	88.25
400.165	97.25
400.389	92.25
400.613	84.25
400.837	86.25
401.062	94.25
401.286	93.25
401.51	88.25
401.734	100.25
401.958	88.25
402.182	110.25
402.406	140.25
402.63	102.25
402.854	96.25
403.078	96.25
403.302	101.25
403.526	92.25
403.75	102.25
403.974	97.25
404.198	99.25
404.422	93.25
404.645	104.25
404.869	101.25
405.093	91.25
405.317	122.25
405.541	96.25
405.765	95.25
405.988	110.25
406.212	144.25
406.436	163.25
406.66	127.25
406.883	92.25
407.107	96.25
407.331	99.25
407.555	100.25
407.778	97.25
408.002	87.25
408.226	89.25
408.449	87.25
408.673	96.25
408.896	89.25
409.12	87.25
409.344	99.25
409.567	78.25
409.791	89.25
410.014	78.25
410.238	89.25
410.461	108.25
410.685	100.25
410.908	91.25
411.132	109.25
411.355	98.25
411.578	77.25
411.802	97.25
412.025	87.25
412.249	92.25
412.472	94.25
412.695	87.25
412.919	107.25
413.142	112.25
413.365	101.25
413.589	76.25
413.812	94.25
414.035	95.25
414.258	92.25
414.482	73.25
414.705	76.25
414.928	92.25
415.151	110.25
415.374	95.25
415.597	85.25
415.821	84.25
416.044	89.25
416.267	92.25
416.49	96.25
416.713	89.25
416.936	76.25
417.159	95.25
417.382	100.25
417.605	76.25
417.828	93.25
418.051	87.25
418.274	89.25
418.497	88.25
418.72	92.25
418.943	81.25
419.166	83.25
419.389	95.25
419.611	87.25
419.834	99.25
420.057	96.25
420.28	85.25
420.503	78.25
420.726	96.25
420.948	73.25
421.171	83.25
421.394	83.25
421.617	89.25
421.839	94.25
422.062	80.25
422.285	106.25
422.507	98.25
422.73	102.25
422.953	88.25
423.175	93.25
423.398	90.25
423.621	84.25
423.843	92.25
424.066	96.25
424.288	91.25
424.511	91.25
424.733	114.25
424.956	92.25
425.178	95.25
425.401	90.25
425.623	101.25
425.846	83.25
426.068	70.25
426.291	89.25
426.513	94.25
426.735	106.25
426.958	96.25
427.18	97.25
427.402	126.25
427.625	160.25
427.847	108.25
428.069	100.25
428.292	91.25
428.514	101.25
428.736	80.25
428.958	87.25
429.181	91.25
429.403	82.25
429.625	87.25
429.847	100.25
430.069	91.25
430.292	78.25
430.514	84.25
430.736	82.25
430.958	109.25
431.18	93.25
431.402	80.25
431.624	101.25
431.846	80.25
432.068	89.25
432.29	95.25
432.512	89.25
432.734	85.25
432.956	94.25
433.178	99.25
433.4	95.25
433.622	96.25
433.844	96.25
434.066	95.25
434.287	96.25
434.509	90.25
434.731	92.25
434.953	96.25
435.175	81.25
435.397	93.25
435.618	93.25
435.84	100.25
436.062	118.25
436.284	123.25
436.505	111.25
436.727	95.25
436.949	99.25
437.17	87.25
437.392	84.25
437.614	87.25
437.835	109.25
438.057	110.25
438.278	98.25
438.5	101.25
438.721	115.25
438.943	93.25
439.165	91.25
439.386	84.25
439.608	91.25
439.829	104.25
440.05	110.25
440.272	123.25
440.493	93.25
440.715	92.25
440.936	87.25
441.158	98.25
441.379	76.25
441.6	89.25
441.822	92.25
442.043	99.25
442.264	101.25
442.486	93.25
442.707	115.25
442.928	104.25
443.149	115.25
443.371	115.25
443.592	79.25
443.813	109.25
444.034	99.25
444.255	102.25
444.476	88.25
444.698	100.25
444.919	99.25
445.14	132.25
445.361	116.25
445.582	112.25
445.803	117.25
446.024	122.25
446.245	113.25
446.466	105.25
446.687	89.25
446.908	78.25
447.129	83.25
447.35	89.25
447.571	99.25
447.792	101.25
448.013	103.25
448.234	99.25
448.455	96.25
448.675	95.25
448.896	113.25
449.117	98.25
449.338	103.25
449.559	128.25
449.779	127.25
450	91.25
450.221	107.25
450.442	86.25
450.662	91.25
450.883	99.25
451.104	113.25
451.324	86.25
451.545	106.25
451.766	95.25
451.986	92.25
452.207	96.25
452.428	96.25
452.648	96.25
452.869	106.25
453.089	110.25
453.31	113.25
453.53	93.25
453.751	94.25
453.971	103.25
454.192	100.25
454.412	87.25
454.633	90.25
454.853	85.25
455.073	81.25
455.294	100.25
455.514	97.25
455.734	96.25
455.955	80.25
456.175	95.25
456.395	92.25
456.616	93.25
456.836	90.25
457.056	88.25
457.276	89.25
457.497	91.25
457.717	85.25
457.937	81.25
458.157	83.25
458.377	91.25
458.598	90.25
458.818	126.25
459.038	120.25
459.258	112.25
459.478	88.25
459.698	92.25
459.918	73.25
460.138	90.25
460.358	71.25
460.578	84.25
460.798	77.25
461.018	99.25
461.238	87.25
461.458	89.25
461.678	77.25
461.898	91.25
462.118	78.25
462.338	83.25
462.558	79.25
462.777	89.25
462.997	95.25
463.217	97.25
463.437	86.25
463.657	97.25
463.876	99.25
464.096	74.25
464.316	103.25
464.536	95.25
464.755	98.25
464.975	110.25
465.195	142.25
465.414	131.25
465.634	89.25
465.854	99.25
466.073	100.25
466.293	89.25
466.512	86.25
466.732	77.25
466.951	94.25
467.171	89.25
467.391	91.25
467.61	88.25
467.829	99.25
468.049	81.25
468.268	79.25
468.488	79.25
468.707	98.25
468.927	84.25
469.146	101.25
469.365	86.25
469.585	93.25
469.804	110.25
470.023	103.25
470.243	100.25
470.462	114.25
470.681	89.25
470.901	94.25
471.12	75.25
471.339	101.25
471.558	80.25
471.777	76.25
471.997	101.25
472.216	97.25
472.435	124.25
472.654	89.25
472.873	76.25
473.092	92.25
473.311	102.25
473.53	85.25
473.749	86.25
473.968	95.25
474.187	103.25
474.406	83.25
474.625	97.25
474.844	85.25
475.063	92.25
475.282	83.25
475.501	95.25
475.72	95.25
475.939	92.25
476.158	96.25
476.377	103.25
476.596	92.25
476.814	87.25
477.033	91.25
477.252	92.25
477.471	65.25
477.69	73.25
477.908	93.25
478.127	95.25
478.346	96.25
478.564	95.25
478.783	104.25
479.002	103.25
479.22	100.25
479.439	115.25
479.658	101.25
479.876	105.25
480.095	91.25
480.313	90.25
480.532	103.25
480.751	102.25
480.969	102.25
481.188	167.25
481.406	120.25
481.624	95.25
481.843	77.25
482.061	95.25
482.28	86.25
482.498	93.25
482.717	98.25
482.935	94.25
483.153	104.25
483.372	100.25
483.59	99.25
483.808	86.25
484.027	109.25
484.245	95.25
484.463	99.25
484.681	108.25
484.9	102.25
485.118	88.25
485.336	88.25
485.554	100.25
485.772	99.25
485.99	112.25
486.209	108.25
486.427	98.25
486.645	106.25
486.863	105.25
487.081	111.25
487.299	106.25
487.517	104.25
487.735	101.25
487.953	88.25
488.171	83.25
488.389	95.25
488.607	109.25
488.825	86.25
489.043	85.25
489.261	87.25
489.479	71.25
489.696	90.25
489.914	98.25
490.132	95.25
490.35	84.25
490.568	96.25
490.786	87.25
491.003	95.25
491.221	81.25
491.439	104.25
491.657	86.25
491.874	95.25
492.092	90.25
492.31	98.25
492.527	98.25
492.745	99.25
492.963	97.25
493.18	78.25
493.398	103.25
493.615	95.25
493.833	99.25
494.05	104.25
494.268	95.25
494.485	98.25
494.703	95.25
494.92	95.25
495.138	96.25
495.355	93.25
495.573	98.25
495.79	94.25
496.008	103.25
496.225	95.25
496.442	99.25
496.66	109.25
496.877	90.25
497.094	92.25
497.312	99.25
497.529	79.25
497.746	77.25
497.963	91.25
498.181	93.25
498.398	95.25
498.615	108.25
498.832	93.25
499.049	86.25
499.267	94.25
499.484	92.25
499.701	86.25
499.918	88.25
500.135	96.25
500.352	92.25
500.569	95.25
500.786	100.25
501.003	103.25
501.22	104.25
501.437	89.25
501.654	76.25
501.871	91.25
502.088	92.25
502.305	102.25
502.522	94.25
502.739	100.25
502.956	88.25
503.172	83.25
503.389	95.25
503.606	99.25
503.823	88.25
504.04	103.25
504.256	99.25
504.473	78.25
504.69	104.25
504.907	80.25
505.123	86.25
505.34	92.25
505.557	84.25
505.773	95.25
505.99	92.25
506.207	83.25
506.423	104.25
506.64	88.25
506.856	90.25
507.073	89.25
507.289	91.25
507.506	84.25
507.722	99.25
507.939	102.25
508.155	93.25
508.372	93.25
508.588	96.25
508.805	93.25
509.021	80.25
509.238	88.25
509.454	90.25
509.67	100.25
509.887	88.25
510.103	113.25
510.319	180.25
510.536	547.25
510.752	1608.25
510.968	460.25
511.184	142.25
511.401	105.25
511.617	92.25
511.833	76.25
512.049	105.25
512.265	97.25
512.481	93.25
512.698	79.25
512.914	99.25
513.13	91.25
513.346	86.25
513.562	105.25
513.778	111.25
513.994	107.25
514.21	95.25
514.426	106.25
514.642	109.25
514.858	117.25
515.074	139.25
515.29	306.25
