Data from Circ_1982_H10_HRD10591_00089.txt Node
Date: Wed Jan 03 12:30:59 EST 2024
User: Yrep
Spectrometer: HR+D1059
Trigger mode: 1
Integration Time (sec): 1.000000E-1
Scans to average: 1
Electric dark correction enabled: true
Nonlinearity correction enabled: false
Boxcar width: 0
XAxis mode: Wavelengths
Number of Pixels in Spectrum: 2048
>>>>>Begin Spectral Data<<<<<
223.165	-4.44
223.4	-4.44
223.635	-4.44
223.869	-25.44
224.104	-16.44
224.338	-22.44
224.573	-8.44
224.808	-1.44
225.042	3.56
225.277	-3.44
225.511	-18.44
225.746	-15.44
225.98	-3.44
226.215	19.56
226.449	23.56
226.683	17.56
226.918	19.56
227.152	35.56
227.387	41.56
227.621	50.56
227.856	43.56
228.09	43.56
228.324	45.56
228.559	54.56
228.793	60.56
229.027	58.56
229.262	74.56
229.496	65.56
229.73	87.56
229.964	79.56
230.199	86.56
230.433	72.56
230.667	87.56
230.901	85.56
231.136	78.56
231.37	69.56
231.604	83.56
231.838	81.56
232.072	89.56
232.306	76.56
232.541	80.56
232.775	84.56
233.009	77.56
233.243	72.56
233.477	72.56
233.711	91.56
233.945	69.56
234.179	76.56
234.413	76.56
234.647	85.56
234.881	76.56
235.115	93.56
235.349	85.56
235.583	87.56
235.817	76.56
236.051	74.56
236.285	71.56
236.519	73.56
236.753	79.56
236.987	81.56
237.221	67.56
237.455	96.56
237.689	98.56
237.922	65.56
238.156	76.56
238.39	67.56
238.624	80.56
238.858	72.56
239.091	73.56
239.325	85.56
239.559	85.56
239.793	79.56
240.027	71.56
240.26	72.56
240.494	83.56
240.728	76.56
240.961	78.56
241.195	65.56
241.429	81.56
241.662	75.56
241.896	77.56
242.13	83.56
242.363	79.56
242.597	69.56
242.83	74.56
243.064	74.56
243.298	75.56
243.531	90.56
243.765	94.56
243.998	92.56
244.232	84.56
244.465	86.56
244.699	79.56
244.932	90.56
245.166	87.56
245.399	67.56
245.633	91.56
245.866	79.56
246.099	91.56
246.333	84.56
246.566	88.56
246.8	60.56
247.033	72.56
247.266	67.56
247.5	78.56
247.733	90.56
247.966	79.56
248.2	92.56
248.433	63.56
248.666	65.56
248.899	83.56
249.133	97.56
249.366	104.56
249.599	97.56
249.832	78.56
250.066	95.56
250.299	79.56
250.532	76.56
250.765	104.56
250.998	95.56
251.231	71.56
251.465	80.56
251.698	69.56
251.931	78.56
252.164	77.56
252.397	81.56
252.63	73.56
252.863	87.56
253.096	85.56
253.329	74.56
253.562	79.56
253.795	76.56
254.028	87.56
254.261	78.56
254.494	91.56
254.727	87.56
254.96	81.56
255.193	87.56
255.426	71.56
255.659	92.56
255.892	85.56
256.124	78.56
256.357	73.56
256.59	82.56
256.823	83.56
257.056	80.56
257.289	74.56
257.521	96.56
257.754	92.56
257.987	94.56
258.22	80.56
258.452	85.56
258.685	87.56
258.918	82.56
259.151	87.56
259.383	92.56
259.616	88.56
259.849	89.56
260.081	77.56
260.314	83.56
260.547	73.56
260.779	76.56
261.012	79.56
261.244	95.56
261.477	90.56
261.71	91.56
261.942	84.56
262.175	92.56
262.407	78.56
262.64	94.56
262.872	80.56
263.105	106.56
263.337	64.56
263.57	85.56
263.802	78.56
264.035	94.56
264.267	93.56
264.499	73.56
264.732	93.56
264.964	92.56
265.197	84.56
265.429	93.56
265.661	101.56
265.894	86.56
266.126	92.56
266.358	102.56
266.591	87.56
266.823	78.56
267.055	77.56
267.287	92.56
267.52	84.56
267.752	79.56
267.984	85.56
268.216	102.56
268.448	75.56
268.681	83.56
268.913	95.56
269.145	81.56
269.377	80.56
269.609	87.56
269.841	81.56
270.073	65.56
270.306	77.56
270.538	90.56
270.77	93.56
271.002	101.56
271.234	100.56
271.466	90.56
271.698	100.56
271.93	72.56
272.162	103.56
272.394	83.56
272.626	89.56
272.858	83.56
273.09	93.56
273.322	88.56
273.553	91.56
273.785	95.56
274.017	91.56
274.249	85.56
274.481	77.56
274.713	101.56
274.945	111.56
275.176	85.56
275.408	86.56
275.64	91.56
275.872	61.56
276.104	93.56
276.335	87.56
276.567	91.56
276.799	89.56
277.031	95.56
277.262	104.56
277.494	91.56
277.726	90.56
277.957	74.56
278.189	85.56
278.421	76.56
278.652	99.56
278.884	86.56
279.115	94.56
279.347	97.56
279.579	88.56
279.81	83.56
280.042	77.56
280.273	87.56
280.505	95.56
280.736	85.56
280.968	96.56
281.199	81.56
281.431	75.56
281.662	88.56
281.894	78.56
282.125	85.56
282.356	97.56
282.588	112.56
282.819	105.56
283.051	101.56
283.282	94.56
283.513	78.56
283.745	91.56
283.976	87.56
284.207	96.56
284.439	80.56
284.67	109.56
284.901	93.56
285.132	91.56
285.364	105.56
285.595	79.56
285.826	83.56
286.057	92.56
286.288	92.56
286.52	94.56
286.751	95.56
286.982	87.56
287.213	88.56
287.444	93.56
287.675	87.56
287.906	94.56
288.138	81.56
288.369	100.56
288.6	82.56
288.831	92.56
289.062	94.56
289.293	87.56
289.524	91.56
289.755	102.56
289.986	90.56
290.217	85.56
290.448	80.56
290.679	96.56
290.91	88.56
291.141	83.56
291.371	101.56
291.602	99.56
291.833	88.56
292.064	107.56
292.295	85.56
292.526	73.56
292.757	83.56
292.987	93.56
293.218	95.56
293.449	77.56
293.68	110.56
293.91	92.56
294.141	91.56
294.372	92.56
294.603	88.56
294.833	92.56
295.064	80.56
295.295	93.56
295.525	85.56
295.756	109.56
295.987	101.56
296.217	125.56
296.448	107.56
296.679	82.56
296.909	96.56
297.14	100.56
297.37	107.56
297.601	91.56
297.831	96.56
298.062	91.56
298.292	92.56
298.523	90.56
298.753	91.56
298.984	89.56
299.214	102.56
299.445	102.56
299.675	83.56
299.905	87.56
300.136	91.56
300.366	81.56
300.597	105.56
300.827	88.56
301.057	105.56
301.288	97.56
301.518	88.56
301.748	91.56
301.979	93.56
302.209	107.56
302.439	86.56
302.669	79.56
302.9	89.56
303.13	77.56
303.36	95.56
303.59	107.56
303.82	111.56
304.051	95.56
304.281	101.56
304.511	89.56
304.741	99.56
304.971	88.56
305.201	100.56
305.431	95.56
305.661	83.56
305.891	98.56
306.121	95.56
306.352	109.56
306.582	95.56
306.812	78.56
307.042	88.56
307.272	92.56
307.502	85.56
307.731	100.56
307.961	91.56
308.191	89.56
308.421	113.56
308.651	95.56
308.881	91.56
309.111	95.56
309.341	103.56
309.571	100.56
309.8	101.56
310.03	95.56
310.26	94.56
310.49	94.56
310.72	99.56
310.949	115.56
311.179	100.56
311.409	77.56
311.639	79.56
311.868	98.56
312.098	90.56
312.328	101.56
312.557	95.56
312.787	109.56
313.017	97.56
313.246	87.56
313.476	92.56
313.706	85.56
313.935	103.56
314.165	85.56
314.394	78.56
314.624	85.56
314.853	95.56
315.083	84.56
315.312	91.56
315.542	90.56
315.771	89.56
316.001	86.56
316.23	98.56
316.46	93.56
316.689	84.56
316.919	97.56
317.148	97.56
317.377	99.56
317.607	90.56
317.836	105.56
318.065	93.56
318.295	83.56
318.524	76.56
318.753	90.56
318.983	104.56
319.212	95.56
319.441	103.56
319.67	111.56
319.9	95.56
320.129	94.56
320.358	96.56
320.587	93.56
320.816	86.56
321.046	107.56
321.275	102.56
321.504	106.56
321.733	85.56
321.962	88.56
322.191	93.56
322.42	105.56
322.649	105.56
322.878	97.56
323.108	102.56
323.337	113.56
323.566	113.56
323.795	144.56
324.024	169.56
324.253	285.56
324.482	585.56
324.71	1167.56
324.939	1495.56
325.168	563.56
325.397	195.56
325.626	126.56
325.855	128.56
326.084	117.56
326.313	102.56
326.542	131.56
326.77	173.56
326.999	341.56
327.228	693.56
327.457	1222.56
327.686	929.56
327.914	291.56
328.143	155.56
328.372	126.56
328.6	102.56
328.829	95.56
329.058	127.56
329.287	111.56
329.515	102.56
329.744	99.56
329.972	122.56
330.201	115.56
330.43	124.56
330.658	108.56
330.887	99.56
331.115	122.56
331.344	95.56
331.572	96.56
331.801	103.56
332.03	100.56
332.258	93.56
332.486	91.56
332.715	92.56
332.943	85.56
333.172	90.56
333.4	101.56
333.629	108.56
333.857	113.56
334.085	113.56
334.314	113.56
334.542	118.56
334.771	123.56
334.999	90.56
335.227	87.56
335.455	102.56
335.684	100.56
335.912	93.56
336.14	95.56
336.369	104.56
336.597	84.56
336.825	128.56
337.053	85.56
337.281	106.56
337.51	100.56
337.738	104.56
337.966	85.56
338.194	102.56
338.422	113.56
338.65	95.56
338.878	86.56
339.106	84.56
339.334	91.56
339.562	93.56
339.79	93.56
340.018	95.56
340.246	101.56
340.474	78.56
340.702	95.56
340.93	91.56
341.158	72.56
341.386	102.56
341.614	101.56
341.842	92.56
342.07	83.56
342.298	108.56
342.526	80.56
342.754	86.56
342.981	95.56
343.209	96.56
343.437	104.56
343.665	107.56
343.893	101.56
344.12	101.56
344.348	99.56
344.576	89.56
344.804	95.56
345.031	103.56
345.259	89.56
345.487	96.56
345.714	95.56
345.942	92.56
346.17	97.56
346.397	111.56
346.625	95.56
346.853	90.56
347.08	87.56
347.308	102.56
347.535	90.56
347.763	97.56
347.99	92.56
348.218	111.56
348.445	109.56
348.673	103.56
348.9	87.56
349.128	99.56
349.355	87.56
349.583	86.56
349.81	105.56
350.037	88.56
350.265	95.56
350.492	105.56
350.72	87.56
350.947	104.56
351.174	93.56
351.402	95.56
351.629	106.56
351.856	96.56
352.083	101.56
352.311	96.56
352.538	96.56
352.765	112.56
352.992	112.56
353.22	106.56
353.447	99.56
353.674	112.56
353.901	111.56
354.128	105.56
354.355	86.56
354.583	105.56
354.81	106.56
355.037	99.56
355.264	102.56
355.491	93.56
355.718	88.56
355.945	91.56
356.172	96.56
356.399	110.56
356.626	99.56
356.853	93.56
357.08	105.56
357.307	100.56
357.534	94.56
357.761	93.56
357.988	95.56
358.215	110.56
358.441	111.56
358.668	92.56
358.895	85.56
359.122	84.56
359.349	91.56
359.576	94.56
359.802	110.56
360.029	101.56
360.256	109.56
360.483	100.56
360.709	85.56
360.936	99.56
361.163	103.56
361.39	108.56
361.616	102.56
361.843	83.56
362.07	88.56
362.296	97.56
362.523	93.56
362.749	90.56
362.976	91.56
363.203	81.56
363.429	95.56
363.656	74.56
363.882	94.56
364.109	97.56
364.335	93.56
364.562	99.56
364.788	95.56
365.015	92.56
365.241	109.56
365.468	110.56
365.694	99.56
365.92	93.56
366.147	117.56
366.373	104.56
366.599	93.56
366.826	72.56
367.052	81.56
367.278	98.56
367.505	105.56
367.731	97.56
367.957	94.56
368.184	79.56
368.41	93.56
368.636	110.56
368.862	113.56
369.089	98.56
369.315	87.56
369.541	91.56
369.767	99.56
369.993	93.56
370.219	90.56
370.445	103.56
370.672	91.56
370.898	101.56
371.124	88.56
371.35	77.56
371.576	86.56
371.802	85.56
372.028	95.56
372.254	91.56
372.48	99.56
372.706	76.56
372.932	92.56
373.158	87.56
373.384	87.56
373.61	105.56
373.835	99.56
374.061	91.56
374.287	94.56
374.513	102.56
374.739	71.56
374.965	91.56
375.191	97.56
375.416	84.56
375.642	95.56
375.868	77.56
376.094	107.56
376.319	95.56
376.545	87.56
376.771	77.56
376.997	88.56
377.222	95.56
377.448	106.56
377.674	99.56
377.899	88.56
378.125	102.56
378.35	97.56
378.576	86.56
378.802	95.56
379.027	94.56
379.253	112.56
379.478	80.56
379.704	93.56
379.929	100.56
380.155	104.56
380.38	95.56
380.606	88.56
380.831	89.56
381.057	88.56
381.282	107.56
381.507	103.56
381.733	97.56
381.958	99.56
382.184	105.56
382.409	108.56
382.634	119.56
382.86	102.56
383.085	105.56
383.31	99.56
383.535	92.56
383.761	103.56
383.986	87.56
384.211	111.56
384.436	102.56
384.662	86.56
384.887	95.56
385.112	87.56
385.337	93.56
385.562	116.56
385.787	99.56
386.013	108.56
386.238	104.56
386.463	115.56
386.688	109.56
386.913	113.56
387.138	104.56
387.363	112.56
387.588	96.56
387.813	105.56
388.038	104.56
388.263	107.56
388.488	110.56
388.713	100.56
388.938	91.56
389.163	103.56
389.387	92.56
389.612	96.56
389.837	98.56
390.062	84.56
390.287	89.56
390.512	92.56
390.736	89.56
390.961	81.56
391.186	100.56
391.411	107.56
391.636	92.56
391.86	108.56
392.085	97.56
392.31	82.56
392.534	93.56
392.759	73.56
392.984	104.56
393.208	92.56
393.433	92.56
393.658	87.56
393.882	89.56
394.107	95.56
394.331	97.56
394.556	92.56
394.78	99.56
395.005	91.56
395.229	92.56
395.454	77.56
395.678	91.56
395.903	77.56
396.127	89.56
396.352	74.56
396.576	85.56
396.801	70.56
397.025	84.56
397.249	72.56
397.474	99.56
397.698	83.56
397.922	89.56
398.147	93.56
398.371	91.56
398.595	90.56
398.82	96.56
399.044	83.56
399.268	91.56
399.492	105.56
399.717	85.56
399.941	84.56
400.165	83.56
400.389	88.56
400.613	80.56
400.837	91.56
401.062	80.56
401.286	95.56
401.51	97.56
401.734	85.56
401.958	104.56
402.182	123.56
402.406	139.56
402.63	112.56
402.854	95.56
403.078	90.56
403.302	89.56
403.526	95.56
403.75	102.56
403.974	91.56
404.198	98.56
404.422	85.56
404.645	76.56
404.869	95.56
405.093	92.56
405.317	84.56
405.541	102.56
405.765	97.56
405.988	114.56
406.212	141.56
406.436	195.56
406.66	127.56
406.883	101.56
407.107	103.56
407.331	102.56
407.555	102.56
407.778	99.56
408.002	101.56
408.226	93.56
408.449	93.56
408.673	103.56
408.896	108.56
409.12	85.56
409.344	86.56
409.567	87.56
409.791	104.56
410.014	105.56
410.238	94.56
410.461	104.56
410.685	95.56
410.908	123.56
411.132	104.56
411.355	100.56
411.578	98.56
411.802	99.56
412.025	87.56
412.249	94.56
412.472	80.56
412.695	96.56
412.919	87.56
413.142	91.56
413.365	91.56
413.589	107.56
413.812	92.56
414.035	85.56
414.258	95.56
414.482	86.56
414.705	95.56
414.928	89.56
415.151	101.56
415.374	112.56
415.597	93.56
415.821	93.56
416.044	88.56
416.267	104.56
416.49	85.56
416.713	91.56
416.936	91.56
417.159	84.56
417.382	89.56
417.605	91.56
417.828	106.56
418.051	100.56
418.274	90.56
418.497	77.56
418.72	100.56
418.943	85.56
419.166	83.56
419.389	88.56
419.611	92.56
419.834	80.56
420.057	100.56
420.28	95.56
420.503	88.56
420.726	105.56
420.948	87.56
421.171	100.56
421.394	89.56
421.617	89.56
421.839	98.56
422.062	101.56
422.285	87.56
422.507	89.56
422.73	117.56
422.953	99.56
423.175	92.56
423.398	91.56
423.621	97.56
423.843	92.56
424.066	80.56
424.288	83.56
424.511	77.56
424.733	98.56
424.956	112.56
425.178	94.56
425.401	92.56
425.623	92.56
425.846	96.56
426.068	86.56
426.291	75.56
426.513	96.56
426.735	86.56
426.958	96.56
427.18	91.56
427.402	121.56
427.625	142.56
427.847	126.56
428.069	112.56
428.292	84.56
428.514	87.56
428.736	87.56
428.958	91.56
429.181	88.56
429.403	90.56
429.625	79.56
429.847	87.56
430.069	91.56
430.292	86.56
430.514	77.56
430.736	71.56
430.958	74.56
431.18	86.56
431.402	87.56
431.624	86.56
431.846	89.56
432.068	99.56
432.29	87.56
432.512	83.56
432.734	86.56
432.956	85.56
433.178	100.56
433.4	106.56
433.622	96.56
433.844	99.56
434.066	103.56
434.287	100.56
434.509	96.56
434.731	91.56
434.953	96.56
435.175	99.56
435.397	101.56
435.618	95.56
435.84	105.56
436.062	110.56
436.284	99.56
436.505	97.56
436.727	101.56
436.949	100.56
437.17	90.56
437.392	86.56
437.614	86.56
437.835	104.56
438.057	105.56
438.278	107.56
438.5	103.56
438.721	113.56
438.943	104.56
439.165	104.56
439.386	92.56
439.608	84.56
439.829	92.56
440.05	105.56
440.272	112.56
440.493	89.56
440.715	96.56
440.936	84.56
441.158	80.56
441.379	97.56
441.6	104.56
441.822	106.56
442.043	105.56
442.264	101.56
442.486	112.56
442.707	83.56
442.928	87.56
443.149	135.56
443.371	130.56
443.592	101.56
443.813	105.56
444.034	96.56
444.255	88.56
444.476	88.56
444.698	90.56
444.919	97.56
445.14	137.56
445.361	107.56
445.582	95.56
445.803	129.56
446.024	116.56
446.245	111.56
446.466	90.56
446.687	97.56
446.908	106.56
447.129	86.56
447.35	93.56
447.571	95.56
447.792	101.56
448.013	101.56
448.234	109.56
448.455	95.56
448.675	110.56
448.896	106.56
449.117	88.56
449.338	107.56
449.559	126.56
449.779	117.56
450	87.56
450.221	91.56
450.442	72.56
450.662	91.56
450.883	90.56
451.104	100.56
451.324	92.56
451.545	99.56
451.766	87.56
451.986	88.56
452.207	84.56
452.428	99.56
452.648	116.56
452.869	100.56
453.089	102.56
453.31	104.56
453.53	89.56
453.751	91.56
453.971	90.56
454.192	104.56
454.412	83.56
454.633	93.56
454.853	86.56
455.073	83.56
455.294	110.56
455.514	105.56
455.734	93.56
455.955	89.56
456.175	89.56
456.395	91.56
456.616	92.56
456.836	100.56
457.056	90.56
457.276	80.56
457.497	96.56
457.717	101.56
457.937	87.56
458.157	86.56
458.377	100.56
458.598	105.56
458.818	131.56
459.038	142.56
459.258	85.56
459.478	98.56
459.698	76.56
459.918	100.56
460.138	89.56
460.358	100.56
460.578	99.56
460.798	85.56
461.018	105.56
461.238	87.56
461.458	80.56
461.678	87.56
461.898	94.56
462.118	87.56
462.338	82.56
462.558	78.56
462.777	91.56
462.997	83.56
463.217	97.56
463.437	76.56
463.657	80.56
463.876	92.56
464.096	89.56
464.316	85.56
464.536	81.56
464.755	96.56
464.975	107.56
465.195	129.56
465.414	126.56
465.634	104.56
465.854	85.56
466.073	82.56
466.293	99.56
466.512	86.56
466.732	77.56
466.951	89.56
467.171	101.56
467.391	92.56
467.61	91.56
467.829	88.56
468.049	103.56
468.268	101.56
468.488	79.56
468.707	87.56
468.927	104.56
469.146	79.56
469.365	80.56
469.585	69.56
469.804	93.56
470.023	115.56
470.243	88.56
470.462	101.56
470.681	112.56
470.901	96.56
471.12	99.56
471.339	92.56
471.558	90.56
471.777	91.56
471.997	89.56
472.216	108.56
472.435	112.56
472.654	81.56
472.873	99.56
473.092	87.56
473.311	70.56
473.53	86.56
473.749	73.56
473.968	92.56
474.187	107.56
474.406	106.56
474.625	87.56
474.844	80.56
475.063	105.56
475.282	96.56
475.501	85.56
475.72	95.56
475.939	96.56
476.158	92.56
476.377	93.56
476.596	85.56
476.814	96.56
477.033	101.56
477.252	99.56
477.471	93.56
477.69	83.56
477.908	94.56
478.127	106.56
478.346	94.56
478.564	102.56
478.783	97.56
479.002	112.56
479.22	90.56
479.439	108.56
479.658	101.56
479.876	91.56
480.095	89.56
480.313	105.56
480.532	105.56
480.751	88.56
480.969	115.56
481.188	161.56
481.406	132.56
481.624	87.56
481.843	97.56
482.061	84.56
482.28	89.56
482.498	80.56
482.717	86.56
482.935	98.56
483.153	95.56
483.372	87.56
483.59	89.56
483.808	101.56
484.027	95.56
484.245	93.56
484.463	101.56
484.681	100.56
484.9	99.56
485.118	92.56
485.336	96.56
485.554	108.56
485.772	94.56
485.99	112.56
486.209	117.56
486.427	112.56
486.645	104.56
486.863	116.56
487.081	87.56
487.299	92.56
487.517	91.56
487.735	87.56
487.953	86.56
488.171	100.56
488.389	97.56
488.607	105.56
488.825	95.56
489.043	83.56
489.261	99.56
489.479	97.56
489.696	103.56
489.914	104.56
490.132	95.56
490.35	102.56
490.568	86.56
490.786	88.56
491.003	87.56
491.221	80.56
491.439	96.56
491.657	102.56
491.874	95.56
492.092	95.56
492.31	96.56
492.527	89.56
492.745	104.56
492.963	98.56
493.18	91.56
493.398	92.56
493.615	96.56
493.833	97.56
494.05	93.56
494.268	85.56
494.485	89.56
494.703	90.56
494.92	101.56
495.138	99.56
495.355	106.56
495.573	100.56
495.79	85.56
496.008	106.56
496.225	93.56
496.442	93.56
496.66	99.56
496.877	115.56
497.094	99.56
497.312	95.56
497.529	100.56
497.746	99.56
497.963	90.56
498.181	99.56
498.398	81.56
498.615	99.56
498.832	88.56
499.049	89.56
499.267	106.56
499.484	87.56
499.701	104.56
499.918	83.56
500.135	88.56
500.352	104.56
500.569	80.56
500.786	105.56
501.003	88.56
501.22	85.56
501.437	88.56
501.654	90.56
501.871	91.56
502.088	96.56
502.305	95.56
502.522	104.56
502.739	86.56
502.956	80.56
503.172	98.56
503.389	91.56
503.606	107.56
503.823	101.56
504.04	93.56
504.256	96.56
504.473	98.56
504.69	103.56
504.907	105.56
505.123	104.56
505.34	84.56
505.557	103.56
505.773	109.56
505.99	83.56
506.207	106.56
506.423	95.56
506.64	100.56
506.856	91.56
507.073	99.56
507.289	104.56
507.506	84.56
507.722	100.56
507.939	100.56
508.155	101.56
508.372	97.56
508.588	98.56
508.805	109.56
509.021	95.56
509.238	106.56
509.454	92.56
509.67	104.56
509.887	119.56
510.103	127.56
510.319	187.56
510.536	540.56
510.752	1593.56
510.968	455.56
511.184	142.56
511.401	102.56
511.617	96.56
511.833	94.56
512.049	97.56
512.265	96.56
512.481	99.56
512.698	109.56
512.914	86.56
513.13	94.56
513.346	105.56
513.562	112.56
513.778	95.56
513.994	88.56
514.21	104.56
514.426	104.56
514.642	128.56
