Data from Circ_1982_H10_HRD10591_00054.txt Node
Date: Wed Jan 03 12:30:52 EST 2024
User: Yrep
Spectrometer: HR+D1059
Trigger mode: 1
Integration Time (sec): 1.000000E-1
Scans to average: 1
Electric dark correction enabled: true
Nonlinearity correction enabled: false
Boxcar width: 0
XAxis mode: Wavelengths
Number of Pixels in Spectrum: 2048
>>>>>Begin Spectral Data<<<<<
223.165	-24.56
223.4	-24.56
223.635	-24.56
223.869	-16.56
224.104	-22.56
224.338	-21.56
224.573	-9.56
224.808	-11.56
225.042	-7.56
225.277	-5.56
225.511	-4.56
225.746	0.44
225.98	17.44
226.215	13.44
226.449	6.44
226.683	30.44
226.918	29.44
227.152	26.44
227.387	30.44
227.621	37.44
227.856	36.44
228.09	33.44
228.324	49.44
228.559	35.44
228.793	55.44
229.027	59.44
229.262	51.44
229.496	74.44
229.73	75.44
229.964	80.44
230.199	74.44
230.433	65.44
230.667	70.44
230.901	78.44
231.136	73.44
231.37	73.44
231.604	69.44
231.838	83.44
232.072	87.44
232.306	59.44
232.541	93.44
232.775	85.44
233.009	86.44
233.243	77.44
233.477	85.44
233.711	74.44
233.945	85.44
234.179	81.44
234.413	79.44
234.647	74.44
234.881	65.44
235.115	82.44
235.349	75.44
235.583	74.44
235.817	60.44
236.051	59.44
236.285	76.44
236.519	74.44
236.753	89.44
236.987	63.44
237.221	78.44
237.455	78.44
237.689	82.44
237.922	69.44
238.156	73.44
238.39	83.44
238.624	82.44
238.858	78.44
239.091	75.44
239.325	81.44
239.559	76.44
239.793	65.44
240.027	70.44
240.26	85.44
240.494	68.44
240.728	79.44
240.961	69.44
241.195	72.44
241.429	86.44
241.662	66.44
241.896	61.44
242.13	67.44
242.363	72.44
242.597	73.44
242.83	81.44
243.064	81.44
243.298	62.44
243.531	82.44
243.765	72.44
243.998	73.44
244.232	96.44
244.465	71.44
244.699	85.44
244.932	65.44
245.166	75.44
245.399	72.44
245.633	81.44
245.866	74.44
246.099	93.44
246.333	96.44
246.566	73.44
246.8	73.44
247.033	61.44
247.266	79.44
247.5	71.44
247.733	74.44
247.966	65.44
248.2	68.44
248.433	79.44
248.666	90.44
248.899	86.44
249.133	80.44
249.366	86.44
249.599	82.44
249.832	81.44
250.066	85.44
250.299	85.44
250.532	73.44
250.765	73.44
250.998	77.44
251.231	70.44
251.465	82.44
251.698	77.44
251.931	73.44
252.164	69.44
252.397	86.44
252.63	69.44
252.863	73.44
253.096	63.44
253.329	88.44
253.562	94.44
253.795	85.44
254.028	84.44
254.261	92.44
254.494	95.44
254.727	81.44
254.96	77.44
255.193	74.44
255.426	57.44
255.659	82.44
255.892	74.44
256.124	87.44
256.357	93.44
256.59	88.44
256.823	93.44
257.056	73.44
257.289	89.44
257.521	82.44
257.754	73.44
257.987	83.44
258.22	82.44
258.452	99.44
258.685	85.44
258.918	86.44
259.151	77.44
259.383	65.44
259.616	84.44
259.849	81.44
260.081	80.44
260.314	89.44
260.547	81.44
260.779	76.44
261.012	74.44
261.244	85.44
261.477	87.44
261.71	74.44
261.942	81.44
262.175	105.44
262.407	97.44
262.64	83.44
262.872	77.44
263.105	80.44
263.337	70.44
263.57	85.44
263.802	69.44
264.035	71.44
264.267	91.44
264.499	93.44
264.732	95.44
264.964	87.44
265.197	68.44
265.429	74.44
265.661	77.44
265.894	73.44
266.126	76.44
266.358	81.44
266.591	87.44
266.823	78.44
267.055	77.44
267.287	82.44
267.52	79.44
267.752	77.44
267.984	74.44
268.216	71.44
268.448	78.44
268.681	75.44
268.913	83.44
269.145	82.44
269.377	84.44
269.609	89.44
269.841	93.44
270.073	75.44
270.306	79.44
270.538	79.44
270.77	85.44
271.002	78.44
271.234	72.44
271.466	89.44
271.698	87.44
271.93	85.44
272.162	87.44
272.394	87.44
272.626	90.44
272.858	80.44
273.09	97.44
273.322	85.44
273.553	94.44
273.785	82.44
274.017	86.44
274.249	87.44
274.481	79.44
274.713	83.44
274.945	88.44
275.176	87.44
275.408	81.44
275.64	84.44
275.872	90.44
276.104	95.44
276.335	96.44
276.567	97.44
276.799	102.44
277.031	96.44
277.262	81.44
277.494	81.44
277.726	93.44
277.957	88.44
278.189	78.44
278.421	89.44
278.652	89.44
278.884	81.44
279.115	88.44
279.347	82.44
279.579	100.44
279.81	83.44
280.042	88.44
280.273	81.44
280.505	81.44
280.736	91.44
280.968	74.44
281.199	92.44
281.431	86.44
281.662	84.44
281.894	92.44
282.125	87.44
282.356	103.44
282.588	110.44
282.819	94.44
283.051	74.44
283.282	84.44
283.513	91.44
283.745	85.44
283.976	80.44
284.207	89.44
284.439	83.44
284.67	83.44
284.901	95.44
285.132	78.44
285.364	92.44
285.595	80.44
285.826	89.44
286.057	95.44
286.288	104.44
286.52	84.44
286.751	83.44
286.982	87.44
287.213	81.44
287.444	86.44
287.675	82.44
287.906	66.44
288.138	77.44
288.369	103.44
288.6	77.44
288.831	88.44
289.062	93.44
289.293	91.44
289.524	80.44
289.755	78.44
289.986	82.44
290.217	87.44
290.448	72.44
290.679	81.44
290.91	98.44
291.141	93.44
291.371	86.44
291.602	67.44
291.833	80.44
292.064	100.44
292.295	87.44
292.526	81.44
292.757	95.44
292.987	93.44
293.218	82.44
293.449	78.44
293.68	82.44
293.91	71.44
294.141	68.44
294.372	72.44
294.603	80.44
294.833	85.44
295.064	83.44
295.295	83.44
295.525	70.44
295.756	103.44
295.987	108.44
296.217	128.44
296.448	111.44
296.679	92.44
296.909	91.44
297.14	79.44
297.37	85.44
297.601	83.44
297.831	84.44
298.062	95.44
298.292	83.44
298.523	86.44
298.753	70.44
298.984	77.44
299.214	91.44
299.445	90.44
299.675	78.44
299.905	87.44
300.136	86.44
300.366	95.44
300.597	85.44
300.827	96.44
301.057	89.44
301.288	86.44
301.518	87.44
301.748	83.44
301.979	102.44
302.209	87.44
302.439	89.44
302.669	96.44
302.9	87.44
303.13	89.44
303.36	98.44
303.59	102.44
303.82	97.44
304.051	91.44
304.281	88.44
304.511	83.44
304.741	68.44
304.971	94.44
305.201	96.44
305.431	86.44
305.661	87.44
305.891	90.44
306.121	93.44
306.352	95.44
306.582	105.44
306.812	89.44
307.042	85.44
307.272	92.44
307.502	82.44
307.731	83.44
307.961	85.44
308.191	81.44
308.421	73.44
308.651	82.44
308.881	99.44
309.111	93.44
309.341	92.44
309.571	89.44
309.8	101.44
310.03	98.44
310.26	95.44
310.49	94.44
310.72	101.44
310.949	103.44
311.179	105.44
311.409	98.44
311.639	93.44
311.868	104.44
312.098	101.44
312.328	93.44
312.557	89.44
312.787	100.44
313.017	90.44
313.246	102.44
313.476	90.44
313.706	90.44
313.935	89.44
314.165	86.44
314.394	86.44
314.624	78.44
314.853	78.44
315.083	70.44
315.312	77.44
315.542	95.44
315.771	98.44
316.001	74.44
316.23	68.44
316.46	77.44
316.689	94.44
316.919	87.44
317.148	93.44
317.377	96.44
317.607	81.44
317.836	99.44
318.065	97.44
318.295	90.44
318.524	93.44
318.753	93.44
318.983	92.44
319.212	100.44
319.441	104.44
319.67	99.44
319.9	92.44
320.129	87.44
320.358	95.44
320.587	103.44
320.816	104.44
321.046	93.44
321.275	89.44
321.504	97.44
321.733	94.44
321.962	78.44
322.191	93.44
322.42	98.44
322.649	89.44
322.878	107.44
323.108	105.44
323.337	98.44
323.566	128.44
323.795	125.44
324.024	182.44
324.253	291.44
324.482	603.44
324.71	1176.44
324.939	1514.44
325.168	581.44
325.397	188.44
325.626	132.44
325.855	110.44
326.084	106.44
326.313	117.44
326.542	133.44
326.77	177.44
326.999	340.44
327.228	679.44
327.457	1200.44
327.686	952.44
327.914	277.44
328.143	165.44
328.372	123.44
328.6	108.44
328.829	114.44
329.058	107.44
329.287	106.44
329.515	88.44
329.744	89.44
329.972	106.44
330.201	120.44
330.43	112.44
330.658	114.44
330.887	121.44
331.115	106.44
331.344	86.44
331.572	94.44
331.801	100.44
332.03	87.44
332.258	84.44
332.486	97.44
332.715	73.44
332.943	91.44
333.172	80.44
333.4	92.44
333.629	81.44
333.857	116.44
334.085	113.44
334.314	109.44
334.542	118.44
334.771	113.44
334.999	90.44
335.227	83.44
335.455	95.44
335.684	84.44
335.912	101.44
336.14	104.44
336.369	95.44
336.597	94.44
336.825	93.44
337.053	98.44
337.281	83.44
337.51	94.44
337.738	93.44
337.966	87.44
338.194	89.44
338.422	107.44
338.65	87.44
338.878	88.44
339.106	89.44
339.334	96.44
339.562	90.44
339.79	85.44
340.018	81.44
340.246	86.44
340.474	93.44
340.702	85.44
340.93	71.44
341.158	79.44
341.386	84.44
341.614	81.44
341.842	87.44
342.07	78.44
342.298	93.44
342.526	80.44
342.754	76.44
342.981	86.44
343.209	85.44
343.437	104.44
343.665	96.44
343.893	87.44
344.12	88.44
344.348	79.44
344.576	80.44
344.804	80.44
345.031	84.44
345.259	80.44
345.487	89.44
345.714	96.44
345.942	108.44
346.17	83.44
346.397	90.44
346.625	85.44
346.853	107.44
347.08	93.44
347.308	86.44
347.535	95.44
347.763	87.44
347.99	102.44
348.218	88.44
348.445	93.44
348.673	81.44
348.9	77.44
349.128	103.44
349.355	88.44
349.583	90.44
349.81	88.44
350.037	83.44
350.265	75.44
350.492	87.44
350.72	103.44
350.947	88.44
351.174	91.44
351.402	103.44
351.629	83.44
351.856	107.44
352.083	90.44
352.311	97.44
352.538	79.44
352.765	101.44
352.992	102.44
353.22	96.44
353.447	99.44
353.674	96.44
353.901	93.44
354.128	96.44
354.355	96.44
354.583	94.44
354.81	94.44
355.037	87.44
355.264	84.44
355.491	84.44
355.718	81.44
355.945	89.44
356.172	83.44
356.399	91.44
356.626	78.44
356.853	84.44
357.08	91.44
357.307	82.44
357.534	93.44
357.761	102.44
357.988	84.44
358.215	87.44
358.441	99.44
358.668	89.44
358.895	83.44
359.122	90.44
359.349	85.44
359.576	90.44
359.802	85.44
360.029	92.44
360.256	107.44
360.483	96.44
360.709	96.44
360.936	80.44
361.163	84.44
361.39	90.44
361.616	98.44
361.843	101.44
362.07	81.44
362.296	78.44
362.523	70.44
362.749	71.44
362.976	75.44
363.203	85.44
363.429	81.44
363.656	97.44
363.882	85.44
364.109	91.44
364.335	91.44
364.562	94.44
364.788	74.44
365.015	86.44
365.241	97.44
365.468	106.44
365.694	104.44
365.92	94.44
366.147	82.44
366.373	91.44
366.599	79.44
366.826	85.44
367.052	88.44
367.278	85.44
367.505	84.44
367.731	88.44
367.957	84.44
368.184	93.44
368.41	98.44
368.636	98.44
368.862	96.44
369.089	81.44
369.315	79.44
369.541	73.44
369.767	73.44
369.993	87.44
370.219	83.44
370.445	73.44
370.672	80.44
370.898	82.44
371.124	74.44
371.35	82.44
371.576	83.44
371.802	88.44
372.028	86.44
372.254	92.44
372.48	93.44
372.706	82.44
372.932	85.44
373.158	73.44
373.384	87.44
373.61	99.44
373.835	84.44
374.061	81.44
374.287	84.44
374.513	81.44
374.739	83.44
374.965	94.44
375.191	85.44
375.416	75.44
375.642	91.44
375.868	77.44
376.094	86.44
376.319	82.44
376.545	86.44
376.771	92.44
376.997	97.44
377.222	81.44
377.448	70.44
377.674	90.44
377.899	77.44
378.125	86.44
378.35	77.44
378.576	80.44
378.802	96.44
379.027	88.44
379.253	89.44
379.478	87.44
379.704	87.44
379.929	81.44
380.155	88.44
380.38	97.44
380.606	83.44
380.831	88.44
381.057	103.44
381.282	95.44
381.507	89.44
381.733	89.44
381.958	86.44
382.184	78.44
382.409	104.44
382.634	86.44
382.86	99.44
383.085	96.44
383.31	90.44
383.535	102.44
383.761	109.44
383.986	93.44
384.211	103.44
384.436	93.44
384.662	99.44
384.887	87.44
385.112	102.44
385.337	101.44
385.562	101.44
385.787	99.44
386.013	95.44
386.238	93.44
386.463	89.44
386.688	101.44
386.913	95.44
387.138	103.44
387.363	95.44
387.588	104.44
387.813	85.44
388.038	91.44
388.263	104.44
388.488	114.44
388.713	96.44
388.938	94.44
389.163	85.44
389.387	97.44
389.612	82.44
389.837	98.44
390.062	90.44
390.287	78.44
390.512	81.44
390.736	88.44
390.961	88.44
391.186	84.44
391.411	83.44
391.636	93.44
391.86	87.44
392.085	74.44
392.31	82.44
392.534	71.44
392.759	74.44
392.984	94.44
393.208	77.44
393.433	89.44
393.658	74.44
393.882	87.44
394.107	86.44
394.331	83.44
394.556	72.44
394.78	85.44
395.005	74.44
395.229	78.44
395.454	85.44
395.678	79.44
395.903	88.44
396.127	88.44
396.352	83.44
396.576	78.44
396.801	81.44
397.025	75.44
397.249	77.44
397.474	87.44
397.698	82.44
397.922	86.44
398.147	89.44
398.371	76.44
398.595	73.44
398.82	72.44
399.044	73.44
399.268	83.44
399.492	81.44
399.717	79.44
399.941	88.44
400.165	98.44
400.389	68.44
400.613	81.44
400.837	76.44
401.062	80.44
401.286	98.44
401.51	75.44
401.734	75.44
401.958	85.44
402.182	101.44
402.406	128.44
402.63	93.44
402.854	95.44
403.078	75.44
403.302	84.44
403.526	84.44
403.75	88.44
403.974	83.44
404.198	87.44
404.422	87.44
404.645	78.44
404.869	79.44
405.093	91.44
405.317	81.44
405.541	85.44
405.765	85.44
405.988	97.44
406.212	117.44
406.436	168.44
406.66	113.44
406.883	97.44
407.107	83.44
407.331	78.44
407.555	96.44
407.778	102.44
408.002	83.44
408.226	89.44
408.449	91.44
408.673	77.44
408.896	101.44
409.12	70.44
409.344	91.44
409.567	84.44
409.791	91.44
410.014	85.44
410.238	81.44
410.461	91.44
410.685	85.44
410.908	85.44
411.132	93.44
411.355	79.44
411.578	95.44
411.802	74.44
412.025	87.44
412.249	77.44
412.472	81.44
412.695	93.44
412.919	85.44
413.142	87.44
413.365	75.44
413.589	89.44
413.812	98.44
414.035	80.44
414.258	84.44
414.482	89.44
414.705	80.44
414.928	69.44
415.151	82.44
415.374	88.44
415.597	85.44
415.821	89.44
416.044	76.44
416.267	85.44
416.49	73.44
416.713	80.44
416.936	77.44
417.159	93.44
417.382	77.44
417.605	67.44
417.828	88.44
418.051	87.44
418.274	96.44
418.497	72.44
418.72	90.44
418.943	73.44
419.166	86.44
419.389	85.44
419.611	87.44
419.834	101.44
420.057	89.44
420.28	86.44
420.503	79.44
420.726	69.44
420.948	76.44
421.171	96.44
421.394	101.44
421.617	97.44
421.839	89.44
422.062	83.44
422.285	88.44
422.507	95.44
422.73	105.44
422.953	90.44
423.175	78.44
423.398	70.44
423.621	87.44
423.843	72.44
424.066	89.44
424.288	77.44
424.511	88.44
424.733	86.44
424.956	109.44
425.178	97.44
425.401	86.44
425.623	94.44
425.846	104.44
426.068	80.44
426.291	62.44
426.513	75.44
426.735	91.44
426.958	88.44
427.18	111.44
427.402	119.44
427.625	128.44
427.847	119.44
428.069	104.44
428.292	86.44
428.514	89.44
428.736	81.44
428.958	90.44
429.181	87.44
429.403	85.44
429.625	88.44
429.847	83.44
430.069	81.44
430.292	90.44
430.514	80.44
430.736	93.44
430.958	87.44
431.18	95.44
431.402	77.44
431.624	83.44
431.846	84.44
432.068	98.44
432.29	81.44
432.512	89.44
432.734	87.44
432.956	92.44
433.178	91.44
433.4	89.44
433.622	103.44
433.844	87.44
434.066	82.44
434.287	80.44
434.509	82.44
434.731	103.44
434.953	87.44
435.175	78.44
435.397	86.44
435.618	78.44
435.84	92.44
436.062	107.44
436.284	86.44
436.505	89.44
436.727	93.44
436.949	84.44
437.17	103.44
437.392	90.44
437.614	70.44
437.835	93.44
438.057	93.44
438.278	96.44
438.5	85.44
438.721	104.44
438.943	91.44
439.165	92.44
439.386	71.44
439.608	87.44
439.829	78.44
440.05	107.44
440.272	119.44
440.493	91.44
440.715	74.44
440.936	90.44
441.158	78.44
441.379	92.44
441.6	97.44
441.822	95.44
442.043	84.44
442.264	83.44
442.486	91.44
442.707	89.44
442.928	81.44
443.149	112.44
443.371	114.44
443.592	96.44
443.813	87.44
444.034	89.44
444.255	83.44
444.476	63.44
444.698	74.44
444.919	74.44
445.14	125.44
445.361	118.44
445.582	109.44
445.803	121.44
446.024	118.44
446.245	106.44
446.466	108.44
446.687	97.44
446.908	70.44
447.129	87.44
447.35	78.44
447.571	97.44
447.792	85.44
448.013	101.44
448.234	102.44
448.455	92.44
448.675	102.44
448.896	95.44
449.117	93.44
449.338	102.44
449.559	117.44
449.779	108.44
450	89.44
450.221	84.44
450.442	69.44
450.662	78.44
450.883	91.44
451.104	89.44
451.324	96.44
451.545	69.44
451.766	80.44
451.986	89.44
452.207	78.44
452.428	77.44
452.648	94.44
452.869	92.44
453.089	95.44
453.31	101.44
453.53	80.44
453.751	102.44
453.971	97.44
454.192	89.44
454.412	90.44
454.633	86.44
454.853	71.44
455.073	70.44
455.294	96.44
455.514	93.44
455.734	80.44
455.955	75.44
456.175	85.44
456.395	82.44
456.616	82.44
456.836	89.44
457.056	82.44
457.276	74.44
457.497	90.44
457.717	82.44
457.937	79.44
458.157	85.44
458.377	85.44
458.598	98.44
458.818	126.44
459.038	126.44
459.258	103.44
459.478	96.44
459.698	73.44
459.918	83.44
460.138	88.44
460.358	92.44
460.578	91.44
460.798	83.44
461.018	77.44
461.238	74.44
461.458	90.44
461.678	70.44
461.898	89.44
462.118	91.44
462.338	73.44
462.558	74.44
462.777	87.44
462.997	89.44
463.217	89.44
463.437	93.44
463.657	71.44
463.876	78.44
464.096	81.44
464.316	82.44
464.536	95.44
464.755	95.44
464.975	102.44
465.195	136.44
465.414	131.44
465.634	94.44
465.854	86.44
466.073	77.44
466.293	86.44
466.512	68.44
466.732	85.44
466.951	89.44
467.171	94.44
467.391	81.44
467.61	100.44
467.829	89.44
468.049	79.44
468.268	88.44
468.488	82.44
468.707	82.44
468.927	85.44
469.146	75.44
469.365	71.44
469.585	76.44
469.804	84.44
470.023	93.44
470.243	89.44
470.462	95.44
470.681	109.44
470.901	92.44
471.12	81.44
471.339	73.44
471.558	89.44
471.777	89.44
471.997	73.44
472.216	101.44
472.435	124.44
472.654	95.44
472.873	79.44
473.092	82.44
473.311	81.44
473.53	91.44
473.749	87.44
473.968	106.44
474.187	82.44
474.406	81.44
474.625	99.44
474.844	95.44
475.063	82.44
475.282	97.44
475.501	90.44
475.72	81.44
475.939	82.44
476.158	80.44
476.377	88.44
476.596	91.44
476.814	75.44
477.033	90.44
477.252	78.44
477.471	89.44
477.69	102.44
477.908	82.44
478.127	86.44
478.346	104.44
478.564	94.44
478.783	90.44
479.002	77.44
479.22	87.44
479.439	87.44
479.658	87.44
479.876	88.44
480.095	93.44
480.313	83.44
480.532	82.44
480.751	103.44
480.969	113.44
481.188	151.44
481.406	113.44
481.624	89.44
481.843	94.44
482.061	91.44
482.28	81.44
482.498	99.44
482.717	81.44
482.935	81.44
483.153	88.44
483.372	93.44
483.59	87.44
483.808	85.44
484.027	85.44
484.245	83.44
484.463	90.44
484.681	91.44
484.9	81.44
485.118	98.44
485.336	83.44
485.554	101.44
485.772	95.44
485.99	100.44
486.209	98.44
486.427	107.44
486.645	111.44
486.863	104.44
487.081	85.44
487.299	100.44
487.517	94.44
487.735	80.44
487.953	81.44
488.171	82.44
488.389	101.44
488.607	101.44
488.825	84.44
489.043	89.44
489.261	99.44
489.479	83.44
489.696	93.44
489.914	75.44
490.132	82.44
490.35	90.44
490.568	88.44
490.786	73.44
491.003	90.44
491.221	82.44
491.439	97.44
491.657	85.44
491.874	96.44
492.092	83.44
492.31	85.44
492.527	87.44
492.745	88.44
492.963	90.44
493.18	96.44
493.398	88.44
493.615	99.44
493.833	81.44
494.05	87.44
494.268	90.44
494.485	83.44
494.703	103.44
494.92	87.44
495.138	95.44
495.355	89.44
495.573	91.44
495.79	94.44
496.008	103.44
496.225	93.44
496.442	93.44
496.66	88.44
496.877	93.44
497.094	81.44
497.312	90.44
497.529	93.44
497.746	81.44
497.963	87.44
498.181	83.44
498.398	103.44
498.615	102.44
498.832	85.44
499.049	82.44
499.267	79.44
499.484	83.44
499.701	97.44
499.918	96.44
500.135	83.44
500.352	74.44
500.569	90.44
500.786	77.44
501.003	102.44
501.22	93.44
501.437	91.44
501.654	75.44
501.871	91.44
502.088	88.44
502.305	86.44
502.522	89.44
502.739	91.44
502.956	103.44
503.172	93.44
503.389	88.44
503.606	100.44
503.823	93.44
504.04	84.44
504.256	96.44
504.473	82.44
504.69	93.44
504.907	104.44
505.123	83.44
505.34	81.44
505.557	96.44
505.773	83.44
505.99	85.44
506.207	90.44
506.423	81.44
506.64	87.44
506.856	101.44
507.073	97.44
507.289	97.44
507.506	92.44
507.722	98.44
507.939	106.44
508.155	77.44
508.372	81.44
508.588	97.44
508.805	96.44
509.021	87.44
509.238	103.44
509.454	96.44
509.67	107.44
509.887	100.44
510.103	128.44
510.319	171.44
510.536	557.44
510.752	1644.44
510.968	472.44
511.184	136.44
511.401	114.44
511.617	96.44
511.833	107.44
512.049	91.44
512.265	102.44
512.481	91.44
512.698	74.44
512.914	72.44
513.13	80.44
513.346	94.44
513.562	86.44
513.778	90.44
513.994	107.44
514.21	99.44
514.426	105.44
514.642	117.44
514.858	107.44
515.074	125.44
515.29	317.44
515.506	977.44
515.721	362.44
515.937	132.44
516.153	121.44
516.369	94.44
516.585	86.44
516.801	85.44
517.016	98.44
517.232	91.44
517.448	88.44
