Data from Circ_1982_H10_HRD10591_00031.txt Node
Date: Wed Jan 03 12:30:47 EST 2024
User: Yrep
Spectrometer: HR+D1059
Trigger mode: 1
Integration Time (sec): 1.000000E-1
Scans to average: 1
Electric dark correction enabled: true
Nonlinearity correction enabled: false
Boxcar width: 0
XAxis mode: Wavelengths
Number of Pixels in Spectrum: 2048
>>>>>Begin Spectral Data<<<<<
223.165	-8.75
223.4	-8.75
223.635	-8.75
223.869	-20.75
224.104	-21.75
224.338	-13.75
224.573	-10.75
224.808	-12.75
225.042	-7.75
225.277	-10.75
225.511	-8.75
225.746	-1.75
225.98	1.25
226.215	4.25
226.449	33.25
226.683	25.25
226.918	28.25
227.152	25.25
227.387	41.25
227.621	49.25
227.856	43.25
228.09	54.25
228.324	52.25
228.559	38.25
228.793	47.25
229.027	76.25
229.262	57.25
229.496	72.25
229.73	77.25
229.964	53.25
230.199	78.25
230.433	68.25
230.667	87.25
230.901	84.25
231.136	72.25
231.37	73.25
231.604	75.25
231.838	85.25
232.072	87.25
232.306	75.25
232.541	85.25
232.775	80.25
233.009	86.25
233.243	94.25
233.477	93.25
233.711	76.25
233.945	75.25
234.179	69.25
234.413	92.25
234.647	77.25
234.881	83.25
235.115	80.25
235.349	79.25
235.583	79.25
235.817	77.25
236.051	67.25
236.285	69.25
236.519	88.25
236.753	89.25
236.987	72.25
237.221	76.25
237.455	81.25
237.689	78.25
237.922	80.25
238.156	71.25
238.39	70.25
238.624	80.25
238.858	83.25
239.091	79.25
239.325	90.25
239.559	80.25
239.793	91.25
240.027	79.25
240.26	74.25
240.494	68.25
240.728	76.25
240.961	61.25
241.195	71.25
241.429	92.25
241.662	91.25
241.896	73.25
242.13	87.25
242.363	81.25
242.597	78.25
242.83	61.25
243.064	81.25
243.298	76.25
243.531	78.25
243.765	86.25
243.998	74.25
244.232	79.25
244.465	78.25
244.699	76.25
244.932	76.25
245.166	80.25
245.399	74.25
245.633	80.25
245.866	72.25
246.099	76.25
246.333	74.25
246.566	83.25
246.8	78.25
247.033	103.25
247.266	85.25
247.5	81.25
247.733	81.25
247.966	89.25
248.2	63.25
248.433	85.25
248.666	78.25
248.899	92.25
249.133	77.25
249.366	78.25
249.599	77.25
249.832	79.25
250.066	88.25
250.299	83.25
250.532	95.25
250.765	95.25
250.998	73.25
251.231	76.25
251.465	77.25
251.698	68.25
251.931	89.25
252.164	98.25
252.397	79.25
252.63	72.25
252.863	90.25
253.096	81.25
253.329	81.25
253.562	95.25
253.795	84.25
254.028	68.25
254.261	84.25
254.494	84.25
254.727	93.25
254.96	97.25
255.193	88.25
255.426	71.25
255.659	91.25
255.892	79.25
256.124	90.25
256.357	77.25
256.59	87.25
256.823	70.25
257.056	78.25
257.289	88.25
257.521	93.25
257.754	75.25
257.987	89.25
258.22	83.25
258.452	94.25
258.685	85.25
258.918	74.25
259.151	87.25
259.383	84.25
259.616	83.25
259.849	91.25
260.081	97.25
260.314	86.25
260.547	70.25
260.779	97.25
261.012	58.25
261.244	85.25
261.477	91.25
261.71	94.25
261.942	97.25
262.175	94.25
262.407	87.25
262.64	85.25
262.872	100.25
263.105	75.25
263.337	73.25
263.57	86.25
263.802	81.25
264.035	79.25
264.267	73.25
264.499	77.25
264.732	85.25
264.964	93.25
265.197	86.25
265.429	105.25
265.661	79.25
265.894	88.25
266.126	87.25
266.358	109.25
266.591	83.25
266.823	80.25
267.055	78.25
267.287	93.25
267.52	69.25
267.752	93.25
267.984	91.25
268.216	94.25
268.448	77.25
268.681	87.25
268.913	95.25
269.145	98.25
269.377	98.25
269.609	92.25
269.841	81.25
270.073	84.25
270.306	83.25
270.538	84.25
270.77	88.25
271.002	84.25
271.234	85.25
271.466	97.25
271.698	79.25
271.93	89.25
272.162	88.25
272.394	84.25
272.626	91.25
272.858	100.25
273.09	96.25
273.322	96.25
273.553	95.25
273.785	87.25
274.017	93.25
274.249	89.25
274.481	91.25
274.713	78.25
274.945	89.25
275.176	80.25
275.408	88.25
275.64	91.25
275.872	78.25
276.104	88.25
276.335	85.25
276.567	96.25
276.799	98.25
277.031	87.25
277.262	102.25
277.494	85.25
277.726	77.25
277.957	80.25
278.189	88.25
278.421	85.25
278.652	87.25
278.884	104.25
279.115	94.25
279.347	75.25
279.579	89.25
279.81	88.25
280.042	91.25
280.273	99.25
280.505	87.25
280.736	100.25
280.968	73.25
281.199	92.25
281.431	89.25
281.662	84.25
281.894	87.25
282.125	86.25
282.356	99.25
282.588	131.25
282.819	112.25
283.051	92.25
283.282	85.25
283.513	87.25
283.745	96.25
283.976	87.25
284.207	97.25
284.439	99.25
284.67	94.25
284.901	96.25
285.132	86.25
285.364	87.25
285.595	94.25
285.826	99.25
286.057	109.25
286.288	78.25
286.52	93.25
286.751	91.25
286.982	80.25
287.213	91.25
287.444	95.25
287.675	81.25
287.906	100.25
288.138	87.25
288.369	107.25
288.6	85.25
288.831	89.25
289.062	94.25
289.293	109.25
289.524	76.25
289.755	86.25
289.986	96.25
290.217	85.25
290.448	104.25
290.679	101.25
290.91	97.25
291.141	93.25
291.371	87.25
291.602	92.25
291.833	93.25
292.064	92.25
292.295	96.25
292.526	108.25
292.757	93.25
292.987	100.25
293.218	93.25
293.449	101.25
293.68	96.25
293.91	83.25
294.141	95.25
294.372	87.25
294.603	93.25
294.833	95.25
295.064	84.25
295.295	105.25
295.525	88.25
295.756	97.25
295.987	112.25
296.217	143.25
296.448	101.25
296.679	83.25
296.909	87.25
297.14	109.25
297.37	94.25
297.601	70.25
297.831	83.25
298.062	76.25
298.292	80.25
298.523	92.25
298.753	96.25
298.984	82.25
299.214	88.25
299.445	90.25
299.675	93.25
299.905	86.25
300.136	92.25
300.366	100.25
300.597	95.25
300.827	102.25
301.057	93.25
301.288	93.25
301.518	94.25
301.748	88.25
301.979	99.25
302.209	101.25
302.439	86.25
302.669	94.25
302.9	96.25
303.13	95.25
303.36	89.25
303.59	92.25
303.82	96.25
304.051	81.25
304.281	90.25
304.511	73.25
304.741	110.25
304.971	95.25
305.201	104.25
305.431	90.25
305.661	90.25
305.891	83.25
306.121	93.25
306.352	105.25
306.582	97.25
306.812	103.25
307.042	101.25
307.272	101.25
307.502	94.25
307.731	110.25
307.961	93.25
308.191	104.25
308.421	103.25
308.651	94.25
308.881	95.25
309.111	95.25
309.341	101.25
309.571	93.25
309.8	88.25
310.03	79.25
310.26	83.25
310.49	98.25
310.72	87.25
310.949	95.25
311.179	95.25
311.409	98.25
311.639	93.25
311.868	86.25
312.098	91.25
312.328	112.25
312.557	91.25
312.787	99.25
313.017	107.25
313.246	101.25
313.476	102.25
313.706	91.25
313.935	101.25
314.165	101.25
314.394	95.25
314.624	99.25
314.853	92.25
315.083	88.25
315.312	94.25
315.542	102.25
315.771	95.25
316.001	95.25
316.23	90.25
316.46	92.25
316.689	91.25
316.919	97.25
317.148	84.25
317.377	95.25
317.607	93.25
317.836	87.25
318.065	83.25
318.295	88.25
318.524	108.25
318.753	93.25
318.983	86.25
319.212	98.25
319.441	107.25
319.67	110.25
319.9	88.25
320.129	99.25
320.358	110.25
320.587	92.25
320.816	94.25
321.046	117.25
321.275	101.25
321.504	112.25
321.733	93.25
321.962	99.25
322.191	101.25
322.42	101.25
322.649	99.25
322.878	107.25
323.108	106.25
323.337	106.25
323.566	116.25
323.795	126.25
324.024	150.25
324.253	281.25
324.482	509.25
324.71	1046.25
324.939	1402.25
325.168	517.25
325.397	195.25
325.626	121.25
325.855	123.25
326.084	111.25
326.313	120.25
326.542	140.25
326.77	183.25
326.999	317.25
327.228	626.25
327.457	1126.25
327.686	889.25
327.914	261.25
328.143	145.25
328.372	120.25
328.6	107.25
328.829	109.25
329.058	115.25
329.287	106.25
329.515	99.25
329.744	97.25
329.972	103.25
330.201	102.25
330.43	123.25
330.658	119.25
330.887	127.25
331.115	94.25
331.344	105.25
331.572	103.25
331.801	105.25
332.03	108.25
332.258	99.25
332.486	92.25
332.715	83.25
332.943	101.25
333.172	97.25
333.4	86.25
333.629	87.25
333.857	113.25
334.085	120.25
334.314	113.25
334.542	130.25
334.771	109.25
334.999	105.25
335.227	102.25
335.455	88.25
335.684	110.25
335.912	101.25
336.14	91.25
336.369	107.25
336.597	93.25
336.825	89.25
337.053	96.25
337.281	110.25
337.51	92.25
337.738	93.25
337.966	83.25
338.194	96.25
338.422	83.25
338.65	109.25
338.878	95.25
339.106	112.25
339.334	101.25
339.562	87.25
339.79	89.25
340.018	112.25
340.246	94.25
340.474	100.25
340.702	92.25
340.93	87.25
341.158	104.25
341.386	95.25
341.614	107.25
341.842	87.25
342.07	94.25
342.298	109.25
342.526	96.25
342.754	101.25
342.981	88.25
343.209	105.25
343.437	117.25
343.665	93.25
343.893	83.25
344.12	95.25
344.348	109.25
344.576	96.25
344.804	89.25
345.031	74.25
345.259	92.25
345.487	85.25
345.714	102.25
345.942	93.25
346.17	95.25
346.397	78.25
346.625	89.25
346.853	89.25
347.08	104.25
347.308	97.25
347.535	90.25
347.763	111.25
347.99	91.25
348.218	92.25
348.445	84.25
348.673	85.25
348.9	109.25
349.128	98.25
349.355	87.25
349.583	85.25
349.81	93.25
350.037	100.25
350.265	86.25
350.492	87.25
350.72	91.25
350.947	89.25
351.174	102.25
351.402	101.25
351.629	101.25
351.856	109.25
352.083	101.25
352.311	100.25
352.538	122.25
352.765	107.25
352.992	122.25
353.22	105.25
353.447	96.25
353.674	103.25
353.901	107.25
354.128	103.25
354.355	104.25
354.583	101.25
354.81	81.25
355.037	107.25
355.264	99.25
355.491	93.25
355.718	96.25
355.945	110.25
356.172	93.25
356.399	91.25
356.626	92.25
356.853	82.25
357.08	92.25
357.307	100.25
357.534	93.25
357.761	86.25
357.988	114.25
358.215	114.25
358.441	87.25
358.668	84.25
358.895	90.25
359.122	99.25
359.349	90.25
359.576	97.25
359.802	90.25
360.029	104.25
360.256	104.25
360.483	88.25
360.709	94.25
360.936	92.25
361.163	99.25
361.39	85.25
361.616	99.25
361.843	95.25
362.07	96.25
362.296	99.25
362.523	91.25
362.749	80.25
362.976	95.25
363.203	89.25
363.429	97.25
363.656	91.25
363.882	91.25
364.109	93.25
364.335	100.25
364.562	79.25
364.788	78.25
365.015	95.25
365.241	96.25
365.468	97.25
365.694	98.25
365.92	87.25
366.147	97.25
366.373	90.25
366.599	106.25
366.826	96.25
367.052	93.25
367.278	94.25
367.505	90.25
367.731	99.25
367.957	91.25
368.184	103.25
368.41	100.25
368.636	93.25
368.862	112.25
369.089	99.25
369.315	95.25
369.541	89.25
369.767	97.25
369.993	97.25
370.219	83.25
370.445	93.25
370.672	101.25
370.898	94.25
371.124	92.25
371.35	103.25
371.576	89.25
371.802	90.25
372.028	95.25
372.254	94.25
372.48	97.25
372.706	97.25
372.932	97.25
373.158	91.25
373.384	92.25
373.61	91.25
373.835	91.25
374.061	92.25
374.287	88.25
374.513	98.25
374.739	105.25
374.965	85.25
375.191	108.25
375.416	92.25
375.642	100.25
375.868	108.25
376.094	96.25
376.319	94.25
376.545	88.25
376.771	87.25
376.997	100.25
377.222	96.25
377.448	89.25
377.674	99.25
377.899	92.25
378.125	91.25
378.35	92.25
378.576	85.25
378.802	80.25
379.027	97.25
379.253	92.25
379.478	96.25
379.704	104.25
379.929	108.25
380.155	99.25
380.38	93.25
380.606	104.25
380.831	110.25
381.057	96.25
381.282	98.25
381.507	112.25
381.733	101.25
381.958	94.25
382.184	97.25
382.409	99.25
382.634	104.25
382.86	88.25
383.085	97.25
383.31	93.25
383.535	93.25
383.761	109.25
383.986	96.25
384.211	99.25
384.436	109.25
384.662	92.25
384.887	101.25
385.112	101.25
385.337	102.25
385.562	107.25
385.787	103.25
386.013	104.25
386.238	116.25
386.463	98.25
386.688	104.25
386.913	98.25
387.138	109.25
387.363	103.25
387.588	117.25
387.813	101.25
388.038	111.25
388.263	111.25
388.488	102.25
388.713	102.25
388.938	88.25
389.163	98.25
389.387	99.25
389.612	94.25
389.837	87.25
390.062	101.25
390.287	87.25
390.512	89.25
390.736	92.25
390.961	97.25
391.186	77.25
391.411	97.25
391.636	103.25
391.86	93.25
392.085	91.25
392.31	72.25
392.534	81.25
392.759	95.25
392.984	86.25
393.208	84.25
393.433	97.25
393.658	88.25
393.882	94.25
394.107	87.25
394.331	76.25
394.556	93.25
394.78	95.25
395.005	100.25
395.229	75.25
395.454	89.25
395.678	94.25
395.903	104.25
396.127	107.25
396.352	94.25
396.576	103.25
396.801	89.25
397.025	96.25
397.249	77.25
397.474	81.25
397.698	86.25
397.922	83.25
398.147	99.25
398.371	97.25
398.595	86.25
398.82	108.25
399.044	92.25
399.268	79.25
399.492	90.25
399.717	93.25
399.941	85.25
400.165	96.25
400.389	95.25
400.613	103.25
400.837	87.25
401.062	101.25
401.286	102.25
401.51	107.25
401.734	103.25
401.958	97.25
402.182	96.25
402.406	126.25
402.63	88.25
402.854	83.25
403.078	89.25
403.302	88.25
403.526	87.25
403.75	94.25
403.974	76.25
404.198	76.25
404.422	89.25
404.645	89.25
404.869	85.25
405.093	87.25
405.317	91.25
405.541	104.25
405.765	99.25
405.988	95.25
406.212	126.25
406.436	157.25
406.66	116.25
406.883	104.25
407.107	101.25
407.331	92.25
407.555	93.25
407.778	91.25
408.002	84.25
408.226	81.25
408.449	89.25
408.673	89.25
408.896	96.25
409.12	87.25
409.344	107.25
409.567	80.25
409.791	83.25
410.014	97.25
410.238	99.25
410.461	99.25
410.685	86.25
410.908	99.25
411.132	106.25
411.355	109.25
411.578	91.25
411.802	80.25
412.025	100.25
412.249	79.25
412.472	93.25
412.695	96.25
412.919	96.25
413.142	96.25
413.365	82.25
413.589	102.25
413.812	103.25
414.035	95.25
414.258	83.25
414.482	102.25
414.705	92.25
414.928	102.25
415.151	107.25
415.374	88.25
415.597	104.25
415.821	84.25
416.044	99.25
416.267	87.25
416.49	92.25
416.713	88.25
416.936	93.25
417.159	85.25
417.382	107.25
417.605	91.25
417.828	91.25
418.051	91.25
418.274	100.25
418.497	90.25
418.72	81.25
418.943	89.25
419.166	90.25
419.389	85.25
419.611	91.25
419.834	98.25
420.057	76.25
420.28	77.25
420.503	78.25
420.726	93.25
420.948	99.25
421.171	89.25
421.394	106.25
421.617	88.25
421.839	92.25
422.062	89.25
422.285	100.25
422.507	96.25
422.73	95.25
422.953	91.25
423.175	100.25
423.398	91.25
423.621	87.25
423.843	78.25
424.066	96.25
424.288	95.25
424.511	92.25
424.733	106.25
424.956	77.25
425.178	86.25
425.401	98.25
425.623	106.25
425.846	79.25
426.068	95.25
426.291	94.25
426.513	84.25
426.735	97.25
426.958	95.25
427.18	105.25
427.402	119.25
427.625	133.25
427.847	113.25
428.069	101.25
428.292	93.25
428.514	98.25
428.736	97.25
428.958	80.25
429.181	94.25
429.403	84.25
429.625	88.25
429.847	79.25
430.069	101.25
430.292	101.25
430.514	92.25
430.736	83.25
430.958	79.25
431.18	75.25
431.402	77.25
431.624	103.25
431.846	100.25
432.068	94.25
432.29	76.25
432.512	72.25
432.734	73.25
432.956	89.25
433.178	94.25
433.4	90.25
433.622	88.25
433.844	78.25
434.066	100.25
434.287	92.25
434.509	95.25
434.731	91.25
434.953	80.25
435.175	103.25
435.397	87.25
435.618	98.25
435.84	101.25
436.062	91.25
436.284	99.25
436.505	78.25
436.727	100.25
436.949	104.25
437.17	79.25
437.392	80.25
437.614	78.25
437.835	103.25
438.057	93.25
438.278	92.25
438.5	101.25
438.721	107.25
438.943	99.25
439.165	93.25
439.386	93.25
439.608	93.25
439.829	97.25
440.05	94.25
440.272	108.25
440.493	92.25
440.715	80.25
440.936	97.25
441.158	89.25
441.379	88.25
441.6	92.25
441.822	77.25
442.043	92.25
442.264	92.25
442.486	78.25
442.707	93.25
442.928	83.25
443.149	120.25
443.371	101.25
443.592	104.25
443.813	107.25
444.034	108.25
444.255	104.25
444.476	91.25
444.698	93.25
444.919	78.25
445.14	131.25
445.361	119.25
445.582	110.25
445.803	120.25
446.024	115.25
446.245	121.25
446.466	102.25
446.687	85.25
446.908	94.25
447.129	94.25
447.35	94.25
447.571	86.25
447.792	95.25
448.013	96.25
448.234	99.25
448.455	95.25
448.675	93.25
448.896	96.25
449.117	97.25
449.338	77.25
449.559	105.25
449.779	119.25
450	90.25
450.221	94.25
450.442	95.25
450.662	88.25
450.883	98.25
451.104	103.25
451.324	91.25
451.545	91.25
451.766	81.25
451.986	89.25
452.207	87.25
452.428	96.25
452.648	110.25
452.869	111.25
453.089	95.25
453.31	103.25
453.53	104.25
453.751	87.25
453.971	96.25
454.192	93.25
454.412	89.25
454.633	89.25
454.853	88.25
455.073	96.25
455.294	87.25
455.514	111.25
455.734	88.25
455.955	81.25
456.175	86.25
456.395	79.25
456.616	81.25
456.836	75.25
457.056	67.25
457.276	77.25
457.497	88.25
457.717	85.25
457.937	92.25
458.157	81.25
458.377	86.25
458.598	95.25
458.818	115.25
459.038	112.25
459.258	95.25
459.478	80.25
459.698	88.25
459.918	77.25
460.138	89.25
460.358	90.25
460.578	90.25
460.798	89.25
461.018	89.25
461.238	84.25
461.458	87.25
461.678	92.25
461.898	97.25
462.118	87.25
462.338	92.25
462.558	91.25
462.777	96.25
462.997	75.25
463.217	91.25
463.437	71.25
463.657	95.25
463.876	99.25
464.096	83.25
464.316	100.25
464.536	98.25
464.755	94.25
464.975	78.25
465.195	121.25
465.414	117.25
465.634	95.25
465.854	98.25
466.073	102.25
466.293	94.25
466.512	94.25
466.732	84.25
466.951	83.25
467.171	87.25
467.391	77.25
467.61	103.25
467.829	102.25
468.049	107.25
468.268	101.25
468.488	91.25
468.707	96.25
468.927	84.25
469.146	79.25
469.365	97.25
469.585	94.25
469.804	104.25
470.023	96.25
470.243	95.25
470.462	91.25
470.681	84.25
470.901	93.25
471.12	65.25
471.339	88.25
471.558	89.25
471.777	88.25
471.997	83.25
472.216	110.25
472.435	124.25
472.654	107.25
472.873	108.25
473.092	91.25
473.311	85.25
473.53	97.25
473.749	94.25
473.968	92.25
474.187	89.25
474.406	88.25
474.625	98.25
474.844	109.25
475.063	89.25
475.282	80.25
475.501	101.25
475.72	88.25
475.939	96.25
476.158	90.25
476.377	94.25
476.596	96.25
476.814	88.25
477.033	89.25
477.252	86.25
477.471	81.25
477.69	89.25
477.908	83.25
478.127	85.25
478.346	92.25
478.564	93.25
478.783	93.25
479.002	85.25
479.22	96.25
479.439	101.25
479.658	113.25
479.876	84.25
480.095	81.25
480.313	87.25
480.532	88.25
480.751	100.25
480.969	94.25
481.188	154.25
481.406	115.25
481.624	106.25
481.843	94.25
482.061	83.25
482.28	104.25
482.498	73.25
482.717	88.25
482.935	89.25
483.153	99.25
483.372	92.25
483.59	96.25
483.808	88.25
484.027	95.25
484.245	93.25
484.463	81.25
484.681	98.25
484.9	104.25
485.118	101.25
485.336	99.25
485.554	107.25
485.772	123.25
485.99	103.25
486.209	108.25
486.427	92.25
486.645	103.25
486.863	98.25
487.081	87.25
487.299	98.25
487.517	106.25
487.735	83.25
487.953	97.25
488.171	103.25
488.389	89.25
488.607	96.25
488.825	101.25
489.043	90.25
489.261	83.25
489.479	96.25
489.696	87.25
489.914	77.25
490.132	105.25
490.35	94.25
490.568	88.25
490.786	100.25
491.003	93.25
491.221	94.25
491.439	102.25
491.657	97.25
491.874	104.25
492.092	95.25
492.31	96.25
492.527	97.25
492.745	89.25
492.963	100.25
493.18	86.25
493.398	86.25
493.615	99.25
493.833	100.25
494.05	108.25
494.268	103.25
494.485	96.25
494.703	101.25
494.92	104.25
495.138	80.25
495.355	87.25
495.573	80.25
495.79	78.25
496.008	88.25
496.225	90.25
496.442	96.25
496.66	99.25
496.877	92.25
497.094	93.25
497.312	89.25
497.529	94.25
497.746	93.25
497.963	80.25
498.181	92.25
498.398	97.25
498.615	107.25
498.832	94.25
499.049	83.25
499.267	99.25
499.484	88.25
499.701	87.25
499.918	94.25
500.135	83.25
500.352	87.25
500.569	88.25
500.786	88.25
501.003	80.25
501.22	102.25
501.437	99.25
501.654	92.25
501.871	89.25
502.088	83.25
502.305	94.25
502.522	88.25
502.739	93.25
502.956	98.25
503.172	83.25
503.389	102.25
503.606	103.25
503.823	90.25
504.04	84.25
504.256	86.25
504.473	87.25
504.69	98.25
504.907	91.25
505.123	91.25
505.34	96.25
505.557	88.25
505.773	89.25
505.99	103.25
506.207	84.25
506.423	85.25
506.64	100.25
506.856	97.25
507.073	95.25
507.289	93.25
507.506	83.25
507.722	111.25
507.939	105.25
508.155	87.25
508.372	99.25
508.588	97.25
508.805	99.25
509.021	93.25
509.238	96.25
509.454	106.25
509.67	99.25
509.887	93.25
510.103	115.25
510.319	135.25
510.536	497.25
510.752	1431.25
510.968	415.25
511.184	125.25
511.401	103.25
511.617	95.25
511.833	106.25
512.049	93.25
512.265	93.25
512.481	97.25
512.698	96.25
512.914	75.25
513.13	102.25
513.346	83.25
513.562	75.25
513.778	101.25
513.994	81.25
514.21	87.25
514.426	117.25
514.642	120.25
514.858	116.25
515.074	130.25
515.29	283.25
515.506	811.25
