Data from Circ_1982_H10_HRD10591_00026.txt Node
Date: Wed Jan 03 12:30:46 EST 2024
User: Yrep
Spectrometer: HR+D1059
Trigger mode: 1
Integration Time (sec): 1.000000E-1
Scans to average: 1
Electric dark correction enabled: true
Nonlinearity correction enabled: false
Boxcar width: 0
XAxis mode: Wavelengths
Number of Pixels in Spectrum: 2048
>>>>>Begin Spectral Data<<<<<
223.165	-26.81
223.4	-26.81
223.635	-26.81
223.869	-23.81
224.104	-33.81
224.338	-14.81
224.573	-27.81
224.808	4.19
225.042	-14.81
225.277	-10.81
225.511	-4.81
225.746	-0.81
225.98	23.19
226.215	18.19
226.449	26.19
226.683	20.19
226.918	28.19
227.152	38.19
227.387	25.19
227.621	36.19
227.856	36.19
228.09	47.19
228.324	54.19
228.559	54.19
228.793	57.19
229.027	78.19
229.262	59.19
229.496	71.19
229.73	69.19
229.964	72.19
230.199	68.19
230.433	73.19
230.667	74.19
230.901	86.19
231.136	77.19
231.37	83.19
231.604	83.19
231.838	73.19
232.072	86.19
232.306	62.19
232.541	72.19
232.775	83.19
233.009	74.19
233.243	88.19
233.477	63.19
233.711	91.19
233.945	87.19
234.179	85.19
234.413	79.19
234.647	99.19
234.881	76.19
235.115	74.19
235.349	60.19
235.583	67.19
235.817	66.19
236.051	68.19
236.285	85.19
236.519	80.19
236.753	81.19
236.987	90.19
237.221	91.19
237.455	83.19
237.689	74.19
237.922	73.19
238.156	73.19
238.39	83.19
238.624	79.19
238.858	84.19
239.091	73.19
239.325	68.19
239.559	70.19
239.793	72.19
240.027	82.19
240.26	66.19
240.494	55.19
240.728	77.19
240.961	78.19
241.195	85.19
241.429	83.19
241.662	71.19
241.896	62.19
242.13	71.19
242.363	79.19
242.597	86.19
242.83	96.19
243.064	78.19
243.298	80.19
243.531	87.19
243.765	79.19
243.998	68.19
244.232	78.19
244.465	84.19
244.699	85.19
244.932	80.19
245.166	79.19
245.399	76.19
245.633	80.19
245.866	83.19
246.099	73.19
246.333	88.19
246.566	72.19
246.8	78.19
247.033	78.19
247.266	84.19
247.5	68.19
247.733	82.19
247.966	66.19
248.2	79.19
248.433	64.19
248.666	67.19
248.899	84.19
249.133	76.19
249.366	101.19
249.599	91.19
249.832	94.19
250.066	86.19
250.299	74.19
250.532	64.19
250.765	71.19
250.998	78.19
251.231	78.19
251.465	80.19
251.698	83.19
251.931	70.19
252.164	72.19
252.397	75.19
252.63	82.19
252.863	87.19
253.096	80.19
253.329	73.19
253.562	66.19
253.795	95.19
254.028	80.19
254.261	67.19
254.494	72.19
254.727	83.19
254.96	73.19
255.193	57.19
255.426	68.19
255.659	86.19
255.892	78.19
256.124	63.19
256.357	74.19
256.59	89.19
256.823	84.19
257.056	79.19
257.289	79.19
257.521	68.19
257.754	82.19
257.987	82.19
258.22	83.19
258.452	81.19
258.685	85.19
258.918	86.19
259.151	90.19
259.383	64.19
259.616	62.19
259.849	95.19
260.081	90.19
260.314	64.19
260.547	72.19
260.779	81.19
261.012	77.19
261.244	90.19
261.477	86.19
261.71	77.19
261.942	104.19
262.175	89.19
262.407	89.19
262.64	70.19
262.872	83.19
263.105	75.19
263.337	80.19
263.57	87.19
263.802	71.19
264.035	81.19
264.267	90.19
264.499	78.19
264.732	67.19
264.964	84.19
265.197	82.19
265.429	86.19
265.661	87.19
265.894	79.19
266.126	79.19
266.358	80.19
266.591	90.19
266.823	90.19
267.055	74.19
267.287	92.19
267.52	76.19
267.752	79.19
267.984	79.19
268.216	73.19
268.448	67.19
268.681	80.19
268.913	66.19
269.145	82.19
269.377	84.19
269.609	86.19
269.841	88.19
270.073	87.19
270.306	84.19
270.538	86.19
270.77	68.19
271.002	84.19
271.234	87.19
271.466	84.19
271.698	100.19
271.93	75.19
272.162	80.19
272.394	96.19
272.626	72.19
272.858	95.19
273.09	74.19
273.322	84.19
273.553	90.19
273.785	86.19
274.017	94.19
274.249	71.19
274.481	91.19
274.713	88.19
274.945	79.19
275.176	84.19
275.408	91.19
275.64	72.19
275.872	76.19
276.104	80.19
276.335	75.19
276.567	73.19
276.799	79.19
277.031	89.19
277.262	87.19
277.494	88.19
277.726	80.19
277.957	86.19
278.189	82.19
278.421	84.19
278.652	99.19
278.884	66.19
279.115	91.19
279.347	79.19
279.579	73.19
279.81	84.19
280.042	79.19
280.273	89.19
280.505	78.19
280.736	73.19
280.968	87.19
281.199	92.19
281.431	84.19
281.662	96.19
281.894	93.19
282.125	95.19
282.356	108.19
282.588	103.19
282.819	95.19
283.051	87.19
283.282	83.19
283.513	78.19
283.745	82.19
283.976	95.19
284.207	83.19
284.439	88.19
284.67	85.19
284.901	86.19
285.132	85.19
285.364	98.19
285.595	88.19
285.826	106.19
286.057	92.19
286.288	83.19
286.52	82.19
286.751	86.19
286.982	75.19
287.213	79.19
287.444	86.19
287.675	103.19
287.906	84.19
288.138	93.19
288.369	89.19
288.6	76.19
288.831	94.19
289.062	81.19
289.293	82.19
289.524	94.19
289.755	81.19
289.986	85.19
290.217	99.19
290.448	81.19
290.679	80.19
290.91	76.19
291.141	86.19
291.371	80.19
291.602	101.19
291.833	88.19
292.064	86.19
292.295	99.19
292.526	83.19
292.757	86.19
292.987	87.19
293.218	89.19
293.449	86.19
293.68	81.19
293.91	104.19
294.141	83.19
294.372	82.19
294.603	92.19
294.833	86.19
295.064	76.19
295.295	88.19
295.525	86.19
295.756	79.19
295.987	95.19
296.217	116.19
296.448	101.19
296.679	91.19
296.909	86.19
297.14	83.19
297.37	81.19
297.601	71.19
297.831	79.19
298.062	100.19
298.292	82.19
298.523	79.19
298.753	87.19
298.984	90.19
299.214	82.19
299.445	81.19
299.675	85.19
299.905	79.19
300.136	92.19
300.366	98.19
300.597	86.19
300.827	95.19
301.057	92.19
301.288	91.19
301.518	93.19
301.748	81.19
301.979	102.19
302.209	91.19
302.439	74.19
302.669	96.19
302.9	75.19
303.13	100.19
303.36	99.19
303.59	87.19
303.82	101.19
304.051	98.19
304.281	81.19
304.511	93.19
304.741	91.19
304.971	82.19
305.201	80.19
305.431	91.19
305.661	91.19
305.891	83.19
306.121	91.19
306.352	97.19
306.582	98.19
306.812	95.19
307.042	82.19
307.272	92.19
307.502	92.19
307.731	98.19
307.961	88.19
308.191	99.19
308.421	78.19
308.651	84.19
308.881	89.19
309.111	101.19
309.341	90.19
309.571	93.19
309.8	96.19
310.03	87.19
310.26	81.19
310.49	90.19
310.72	108.19
310.949	106.19
311.179	95.19
311.409	107.19
311.639	86.19
311.868	80.19
312.098	70.19
312.328	87.19
312.557	89.19
312.787	107.19
313.017	95.19
313.246	91.19
313.476	86.19
313.706	86.19
313.935	109.19
314.165	105.19
314.394	92.19
314.624	101.19
314.853	91.19
315.083	88.19
315.312	96.19
315.542	88.19
315.771	88.19
316.001	84.19
316.23	84.19
316.46	72.19
316.689	87.19
316.919	94.19
317.148	85.19
317.377	103.19
317.607	85.19
317.836	94.19
318.065	93.19
318.295	94.19
318.524	84.19
318.753	76.19
318.983	93.19
319.212	83.19
319.441	96.19
319.67	100.19
319.9	80.19
320.129	91.19
320.358	90.19
320.587	90.19
320.816	93.19
321.046	94.19
321.275	104.19
321.504	76.19
321.733	94.19
321.962	80.19
322.191	83.19
322.42	94.19
322.649	114.19
322.878	101.19
323.108	103.19
323.337	119.19
323.566	112.19
323.795	121.19
324.024	162.19
324.253	280.19
324.482	566.19
324.71	1135.19
324.939	1458.19
325.168	542.19
325.397	186.19
325.626	120.19
325.855	115.19
326.084	114.19
326.313	111.19
326.542	126.19
326.77	171.19
326.999	320.19
327.228	666.19
327.457	1133.19
327.686	913.19
327.914	266.19
328.143	148.19
328.372	132.19
328.6	118.19
328.829	96.19
329.058	106.19
329.287	101.19
329.515	116.19
329.744	98.19
329.972	85.19
330.201	117.19
330.43	107.19
330.658	102.19
330.887	114.19
331.115	101.19
331.344	97.19
331.572	104.19
331.801	98.19
332.03	99.19
332.258	84.19
332.486	75.19
332.715	84.19
332.943	87.19
333.172	92.19
333.4	88.19
333.629	94.19
333.857	85.19
334.085	104.19
334.314	110.19
334.542	115.19
334.771	108.19
334.999	101.19
335.227	95.19
335.455	96.19
335.684	89.19
335.912	96.19
336.14	93.19
336.369	86.19
336.597	85.19
336.825	96.19
337.053	92.19
337.281	80.19
337.51	83.19
337.738	84.19
337.966	80.19
338.194	91.19
338.422	81.19
338.65	86.19
338.878	75.19
339.106	98.19
339.334	95.19
339.562	94.19
339.79	78.19
340.018	90.19
340.246	103.19
340.474	76.19
340.702	84.19
340.93	76.19
341.158	95.19
341.386	75.19
341.614	94.19
341.842	100.19
342.07	83.19
342.298	88.19
342.526	103.19
342.754	92.19
342.981	89.19
343.209	92.19
343.437	97.19
343.665	82.19
343.893	79.19
344.12	82.19
344.348	78.19
344.576	90.19
344.804	78.19
345.031	93.19
345.259	105.19
345.487	92.19
345.714	80.19
345.942	92.19
346.17	86.19
346.397	79.19
346.625	81.19
346.853	94.19
347.08	87.19
347.308	83.19
347.535	98.19
347.763	88.19
347.99	102.19
348.218	87.19
348.445	99.19
348.673	95.19
348.9	99.19
349.128	98.19
349.355	95.19
349.583	97.19
349.81	106.19
350.037	103.19
350.265	82.19
350.492	93.19
350.72	96.19
350.947	96.19
351.174	102.19
351.402	98.19
351.629	94.19
351.856	99.19
352.083	98.19
352.311	104.19
352.538	103.19
352.765	105.19
352.992	105.19
353.22	115.19
353.447	98.19
353.674	86.19
353.901	90.19
354.128	91.19
354.355	80.19
354.583	87.19
354.81	99.19
355.037	90.19
355.264	108.19
355.491	82.19
355.718	84.19
355.945	87.19
356.172	85.19
356.399	84.19
356.626	99.19
356.853	94.19
357.08	83.19
357.307	91.19
357.534	90.19
357.761	92.19
357.988	92.19
358.215	101.19
358.441	108.19
358.668	96.19
358.895	96.19
359.122	94.19
359.349	83.19
359.576	89.19
359.802	88.19
360.029	100.19
360.256	107.19
360.483	86.19
360.709	88.19
360.936	89.19
361.163	85.19
361.39	94.19
361.616	85.19
361.843	89.19
362.07	92.19
362.296	83.19
362.523	82.19
362.749	97.19
362.976	86.19
363.203	80.19
363.429	82.19
363.656	67.19
363.882	91.19
364.109	96.19
364.335	86.19
364.562	70.19
364.788	83.19
365.015	104.19
365.241	94.19
365.468	97.19
365.694	101.19
365.92	90.19
366.147	86.19
366.373	97.19
366.599	89.19
366.826	92.19
367.052	85.19
367.278	102.19
367.505	74.19
367.731	87.19
367.957	89.19
368.184	89.19
368.41	84.19
368.636	91.19
368.862	99.19
369.089	96.19
369.315	82.19
369.541	82.19
369.767	99.19
369.993	96.19
370.219	82.19
370.445	79.19
370.672	83.19
370.898	91.19
371.124	84.19
371.35	91.19
371.576	87.19
371.802	82.19
372.028	88.19
372.254	90.19
372.48	73.19
372.706	82.19
372.932	92.19
373.158	86.19
373.384	92.19
373.61	75.19
373.835	84.19
374.061	86.19
374.287	88.19
374.513	99.19
374.739	73.19
374.965	85.19
375.191	87.19
375.416	90.19
375.642	88.19
375.868	82.19
376.094	94.19
376.319	92.19
376.545	84.19
376.771	82.19
376.997	90.19
377.222	81.19
377.448	91.19
377.674	79.19
377.899	95.19
378.125	99.19
378.35	107.19
378.576	85.19
378.802	94.19
379.027	103.19
379.253	103.19
379.478	100.19
379.704	99.19
379.929	89.19
380.155	79.19
380.38	90.19
380.606	100.19
380.831	89.19
381.057	92.19
381.282	83.19
381.507	103.19
381.733	89.19
381.958	88.19
382.184	94.19
382.409	101.19
382.634	93.19
382.86	84.19
383.085	98.19
383.31	102.19
383.535	97.19
383.761	96.19
383.986	97.19
384.211	108.19
384.436	101.19
384.662	84.19
384.887	104.19
385.112	103.19
385.337	94.19
385.562	93.19
385.787	88.19
386.013	98.19
386.238	100.19
386.463	128.19
386.688	110.19
386.913	99.19
387.138	108.19
387.363	102.19
387.588	100.19
387.813	105.19
388.038	87.19
388.263	114.19
388.488	115.19
388.713	104.19
388.938	95.19
389.163	86.19
389.387	71.19
389.612	105.19
389.837	87.19
390.062	80.19
390.287	101.19
390.512	91.19
390.736	96.19
390.961	98.19
391.186	96.19
391.411	88.19
391.636	88.19
391.86	92.19
392.085	84.19
392.31	73.19
392.534	75.19
392.759	93.19
392.984	90.19
393.208	90.19
393.433	80.19
393.658	79.19
393.882	96.19
394.107	85.19
394.331	88.19
394.556	89.19
394.78	82.19
395.005	94.19
395.229	80.19
395.454	87.19
395.678	86.19
395.903	90.19
396.127	101.19
396.352	88.19
396.576	95.19
396.801	90.19
397.025	81.19
397.249	85.19
397.474	99.19
397.698	84.19
397.922	81.19
398.147	87.19
398.371	82.19
398.595	76.19
398.82	78.19
399.044	81.19
399.268	87.19
399.492	79.19
399.717	96.19
399.941	92.19
400.165	90.19
400.389	81.19
400.613	71.19
400.837	64.19
401.062	78.19
401.286	88.19
401.51	75.19
401.734	78.19
401.958	86.19
402.182	103.19
402.406	134.19
402.63	107.19
402.854	94.19
403.078	94.19
403.302	106.19
403.526	83.19
403.75	103.19
403.974	85.19
404.198	87.19
404.422	66.19
404.645	71.19
404.869	91.19
405.093	85.19
405.317	92.19
405.541	79.19
405.765	94.19
405.988	103.19
406.212	136.19
406.436	163.19
406.66	109.19
406.883	99.19
407.107	92.19
407.331	81.19
407.555	91.19
407.778	87.19
408.002	97.19
408.226	91.19
408.449	89.19
408.673	91.19
408.896	97.19
409.12	85.19
409.344	98.19
409.567	89.19
409.791	81.19
410.014	87.19
410.238	97.19
410.461	92.19
410.685	86.19
410.908	82.19
411.132	94.19
411.355	94.19
411.578	99.19
411.802	86.19
412.025	97.19
412.249	78.19
412.472	85.19
412.695	91.19
412.919	98.19
413.142	91.19
413.365	86.19
413.589	78.19
413.812	77.19
414.035	72.19
414.258	84.19
414.482	84.19
414.705	87.19
414.928	76.19
415.151	96.19
415.374	94.19
415.597	92.19
415.821	91.19
416.044	87.19
416.267	88.19
416.49	98.19
416.713	80.19
416.936	86.19
417.159	76.19
417.382	84.19
417.605	81.19
417.828	99.19
418.051	91.19
418.274	67.19
418.497	91.19
418.72	86.19
418.943	83.19
419.166	79.19
419.389	79.19
419.611	94.19
419.834	82.19
420.057	84.19
420.28	98.19
420.503	70.19
420.726	81.19
420.948	78.19
421.171	76.19
421.394	85.19
421.617	78.19
421.839	85.19
422.062	91.19
422.285	85.19
422.507	86.19
422.73	100.19
422.953	87.19
423.175	86.19
423.398	77.19
423.621	99.19
423.843	88.19
424.066	84.19
424.288	90.19
424.511	90.19
424.733	91.19
424.956	99.19
425.178	94.19
425.401	86.19
425.623	88.19
425.846	84.19
426.068	98.19
426.291	94.19
426.513	86.19
426.735	88.19
426.958	79.19
427.18	90.19
427.402	119.19
427.625	136.19
427.847	116.19
428.069	100.19
428.292	82.19
428.514	74.19
428.736	68.19
428.958	89.19
429.181	87.19
429.403	93.19
429.625	78.19
429.847	86.19
430.069	86.19
430.292	88.19
430.514	75.19
430.736	75.19
430.958	91.19
431.18	74.19
431.402	78.19
431.624	77.19
431.846	87.19
432.068	80.19
432.29	71.19
432.512	84.19
432.734	68.19
432.956	81.19
433.178	103.19
433.4	80.19
433.622	77.19
433.844	83.19
434.066	83.19
434.287	89.19
434.509	79.19
434.731	100.19
434.953	99.19
435.175	87.19
435.397	83.19
435.618	95.19
435.84	94.19
436.062	94.19
436.284	102.19
436.505	86.19
436.727	91.19
436.949	93.19
437.17	89.19
437.392	80.19
437.614	94.19
437.835	94.19
438.057	94.19
438.278	106.19
438.5	108.19
438.721	106.19
438.943	81.19
439.165	77.19
439.386	71.19
439.608	88.19
439.829	99.19
440.05	112.19
440.272	120.19
440.493	102.19
440.715	82.19
440.936	83.19
441.158	83.19
441.379	92.19
441.6	102.19
441.822	83.19
442.043	85.19
442.264	91.19
442.486	98.19
442.707	99.19
442.928	98.19
443.149	116.19
443.371	108.19
443.592	107.19
443.813	101.19
444.034	104.19
444.255	91.19
444.476	87.19
444.698	79.19
444.919	79.19
445.14	119.19
445.361	120.19
445.582	108.19
445.803	117.19
446.024	100.19
446.245	106.19
446.466	88.19
446.687	94.19
446.908	72.19
447.129	97.19
447.35	81.19
447.571	87.19
447.792	90.19
448.013	88.19
448.234	99.19
448.455	82.19
448.675	96.19
448.896	96.19
449.117	94.19
449.338	93.19
449.559	112.19
449.779	113.19
450	89.19
450.221	65.19
450.442	95.19
450.662	82.19
450.883	96.19
451.104	89.19
451.324	73.19
451.545	84.19
451.766	97.19
451.986	73.19
452.207	80.19
452.428	82.19
452.648	95.19
452.869	98.19
453.089	105.19
453.31	95.19
453.53	89.19
453.751	80.19
453.971	85.19
454.192	92.19
454.412	94.19
454.633	86.19
454.853	62.19
455.073	84.19
455.294	83.19
455.514	87.19
455.734	79.19
455.955	76.19
456.175	82.19
456.395	86.19
456.616	82.19
456.836	86.19
457.056	84.19
457.276	81.19
457.497	104.19
457.717	79.19
457.937	86.19
458.157	87.19
458.377	80.19
458.598	82.19
458.818	116.19
459.038	104.19
459.258	90.19
459.478	86.19
459.698	78.19
459.918	72.19
460.138	100.19
460.358	76.19
460.578	78.19
460.798	70.19
461.018	82.19
461.238	82.19
461.458	83.19
461.678	99.19
461.898	79.19
462.118	80.19
462.338	75.19
462.558	81.19
462.777	86.19
462.997	65.19
463.217	76.19
463.437	76.19
463.657	75.19
463.876	87.19
464.096	87.19
464.316	96.19
464.536	103.19
464.755	84.19
464.975	99.19
465.195	123.19
465.414	133.19
465.634	101.19
465.854	81.19
466.073	86.19
466.293	79.19
466.512	72.19
466.732	89.19
466.951	78.19
467.171	81.19
467.391	89.19
467.61	101.19
467.829	78.19
468.049	92.19
468.268	91.19
468.488	95.19
468.707	85.19
468.927	74.19
469.146	73.19
469.365	78.19
469.585	95.19
469.804	86.19
470.023	94.19
470.243	92.19
470.462	86.19
470.681	92.19
470.901	96.19
471.12	88.19
471.339	74.19
471.558	83.19
471.777	78.19
471.997	83.19
472.216	90.19
472.435	123.19
472.654	85.19
472.873	84.19
473.092	79.19
473.311	83.19
473.53	86.19
473.749	81.19
473.968	97.19
474.187	78.19
474.406	84.19
474.625	92.19
474.844	81.19
475.063	94.19
475.282	101.19
475.501	88.19
475.72	83.19
475.939	93.19
476.158	74.19
476.377	82.19
476.596	82.19
476.814	88.19
477.033	94.19
477.252	81.19
477.471	86.19
477.69	92.19
477.908	74.19
478.127	67.19
478.346	92.19
478.564	93.19
478.783	88.19
479.002	81.19
479.22	89.19
479.439	78.19
479.658	96.19
479.876	92.19
480.095	72.19
480.313	85.19
480.532	91.19
480.751	91.19
480.969	105.19
481.188	162.19
481.406	121.19
481.624	80.19
481.843	76.19
482.061	69.19
482.28	88.19
482.498	91.19
482.717	94.19
482.935	94.19
483.153	68.19
483.372	102.19
483.59	80.19
483.808	82.19
484.027	83.19
484.245	96.19
484.463	86.19
484.681	94.19
484.9	83.19
485.118	82.19
485.336	92.19
485.554	108.19
485.772	108.19
485.99	103.19
486.209	108.19
486.427	110.19
486.645	107.19
486.863	111.19
487.081	97.19
487.299	93.19
487.517	96.19
487.735	88.19
487.953	92.19
488.171	84.19
488.389	88.19
488.607	92.19
488.825	94.19
489.043	96.19
489.261	93.19
489.479	82.19
489.696	89.19
489.914	99.19
490.132	100.19
490.35	96.19
490.568	103.19
490.786	83.19
491.003	81.19
491.221	94.19
491.439	78.19
491.657	81.19
491.874	89.19
492.092	90.19
492.31	88.19
492.527	88.19
492.745	84.19
492.963	85.19
493.18	75.19
493.398	96.19
493.615	95.19
493.833	84.19
494.05	95.19
494.268	96.19
494.485	89.19
494.703	83.19
494.92	82.19
495.138	90.19
495.355	86.19
495.573	90.19
495.79	68.19
496.008	86.19
496.225	97.19
496.442	87.19
496.66	99.19
496.877	98.19
497.094	92.19
497.312	92.19
497.529	91.19
497.746	91.19
497.963	87.19
498.181	96.19
498.398	85.19
498.615	110.19
498.832	100.19
499.049	86.19
499.267	76.19
499.484	62.19
499.701	82.19
499.918	89.19
500.135	91.19
500.352	90.19
500.569	86.19
500.786	95.19
501.003	85.19
501.22	99.19
501.437	88.19
501.654	93.19
501.871	97.19
502.088	84.19
502.305	77.19
502.522	79.19
502.739	102.19
502.956	91.19
503.172	92.19
503.389	97.19
503.606	102.19
503.823	83.19
504.04	84.19
504.256	73.19
504.473	94.19
504.69	92.19
504.907	91.19
505.123	86.19
505.34	90.19
505.557	98.19
505.773	94.19
505.99	89.19
506.207	89.19
506.423	103.19
506.64	86.19
506.856	104.19
507.073	67.19
507.289	94.19
507.506	80.19
507.722	105.19
507.939	97.19
508.155	88.19
508.372	83.19
508.588	97.19
508.805	98.19
509.021	103.19
509.238	90.19
509.454	88.19
509.67	90.19
509.887	108.19
510.103	102.19
510.319	167.19
510.536	540.19
510.752	1492.19
510.968	439.19
511.184	134.19
511.401	94.19
511.617	73.19
511.833	90.19
512.049	104.19
512.265	76.19
512.481	88.19
512.698	84.19
512.914	95.19
513.13	85.19
513.346	105.19
513.562	100.19
513.778	88.19
513.994	83.19
514.21	91.19
514.426	111.19
514.642	90.19
514.858	102.19
515.074	118.19
515.29	300.19
515.506	865.19
515.721	328.19
515.937	122.19
516.153	98.19
516.369	90.19
516.585	104.19
516.801	91.19
517.016	99.19
517.232	75.19
