Data from Circ_1982_H10_HRD10591_00050.txt Node
Date: Wed Jan 03 12:30:51 EST 2024
User: Yrep
Spectrometer: HR+D1059
Trigger mode: 1
Integration Time (sec): 1.000000E-1
Scans to average: 1
Electric dark correction enabled: true
Nonlinearity correction enabled: false
Boxcar width: 0
XAxis mode: Wavelengths
Number of Pixels in Spectrum: 2048
>>>>>Begin Spectral Data<<<<<
223.165	-15.12
223.4	-15.12
223.635	-15.12
223.869	-25.12
224.104	-9.12
224.338	-29.12
224.573	-4.12
224.808	-21.12
225.042	1.88
225.277	-15.12
225.511	-4.12
225.746	9.88
225.98	2.88
226.215	14.88
226.449	12.88
226.683	20.88
226.918	30.88
227.152	28.88
227.387	43.88
227.621	30.88
227.856	45.88
228.09	39.88
228.324	49.88
228.559	44.88
228.793	52.88
229.027	66.88
229.262	50.88
229.496	81.88
229.73	77.88
229.964	72.88
230.199	61.88
230.433	48.88
230.667	70.88
230.901	78.88
231.136	89.88
231.37	85.88
231.604	69.88
231.838	81.88
232.072	78.88
232.306	81.88
232.541	81.88
232.775	79.88
233.009	79.88
233.243	80.88
233.477	85.88
233.711	70.88
233.945	84.88
234.179	77.88
234.413	81.88
234.647	77.88
234.881	80.88
235.115	79.88
235.349	76.88
235.583	67.88
235.817	78.88
236.051	82.88
236.285	65.88
236.519	72.88
236.753	73.88
236.987	62.88
237.221	70.88
237.455	89.88
237.689	87.88
237.922	67.88
238.156	76.88
238.39	63.88
238.624	51.88
238.858	73.88
239.091	83.88
239.325	65.88
239.559	66.88
239.793	78.88
240.027	58.88
240.26	71.88
240.494	76.88
240.728	56.88
240.961	88.88
241.195	74.88
241.429	83.88
241.662	79.88
241.896	66.88
242.13	80.88
242.363	76.88
242.597	88.88
242.83	84.88
243.064	67.88
243.298	74.88
243.531	80.88
243.765	50.88
243.998	83.88
244.232	87.88
244.465	74.88
244.699	93.88
244.932	66.88
245.166	72.88
245.399	72.88
245.633	65.88
245.866	82.88
246.099	85.88
246.333	68.88
246.566	73.88
246.8	78.88
247.033	85.88
247.266	69.88
247.5	81.88
247.733	73.88
247.966	64.88
248.2	68.88
248.433	71.88
248.666	69.88
248.899	73.88
249.133	74.88
249.366	89.88
249.599	83.88
249.832	87.88
250.066	65.88
250.299	70.88
250.532	63.88
250.765	83.88
250.998	76.88
251.231	74.88
251.465	64.88
251.698	71.88
251.931	78.88
252.164	71.88
252.397	82.88
252.63	70.88
252.863	72.88
253.096	65.88
253.329	72.88
253.562	81.88
253.795	78.88
254.028	61.88
254.261	82.88
254.494	75.88
254.727	92.88
254.96	83.88
255.193	76.88
255.426	71.88
255.659	60.88
255.892	90.88
256.124	84.88
256.357	73.88
256.59	73.88
256.823	69.88
257.056	71.88
257.289	78.88
257.521	77.88
257.754	73.88
257.987	91.88
258.22	74.88
258.452	78.88
258.685	84.88
258.918	69.88
259.151	75.88
259.383	77.88
259.616	92.88
259.849	70.88
260.081	94.88
260.314	67.88
260.547	64.88
260.779	80.88
261.012	73.88
261.244	71.88
261.477	67.88
261.71	78.88
261.942	94.88
262.175	103.88
262.407	80.88
262.64	70.88
262.872	64.88
263.105	86.88
263.337	69.88
263.57	64.88
263.802	83.88
264.035	74.88
264.267	82.88
264.499	77.88
264.732	88.88
264.964	80.88
265.197	79.88
265.429	56.88
265.661	63.88
265.894	66.88
266.126	78.88
266.358	77.88
266.591	84.88
266.823	83.88
267.055	79.88
267.287	84.88
267.52	69.88
267.752	75.88
267.984	79.88
268.216	71.88
268.448	89.88
268.681	89.88
268.913	73.88
269.145	84.88
269.377	82.88
269.609	80.88
269.841	81.88
270.073	86.88
270.306	79.88
270.538	87.88
270.77	86.88
271.002	71.88
271.234	84.88
271.466	88.88
271.698	80.88
271.93	68.88
272.162	85.88
272.394	87.88
272.626	82.88
272.858	73.88
273.09	81.88
273.322	77.88
273.553	86.88
273.785	86.88
274.017	79.88
274.249	72.88
274.481	80.88
274.713	87.88
274.945	82.88
275.176	85.88
275.408	85.88
275.64	61.88
275.872	89.88
276.104	87.88
276.335	89.88
276.567	83.88
276.799	94.88
277.031	88.88
277.262	89.88
277.494	77.88
277.726	86.88
277.957	70.88
278.189	66.88
278.421	84.88
278.652	82.88
278.884	82.88
279.115	86.88
279.347	82.88
279.579	72.88
279.81	76.88
280.042	82.88
280.273	81.88
280.505	81.88
280.736	75.88
280.968	76.88
281.199	82.88
281.431	79.88
281.662	82.88
281.894	72.88
282.125	87.88
282.356	105.88
282.588	124.88
282.819	99.88
283.051	95.88
283.282	86.88
283.513	76.88
283.745	79.88
283.976	82.88
284.207	89.88
284.439	85.88
284.67	86.88
284.901	84.88
285.132	79.88
285.364	96.88
285.595	81.88
285.826	84.88
286.057	82.88
286.288	78.88
286.52	95.88
286.751	78.88
286.982	93.88
287.213	86.88
287.444	103.88
287.675	88.88
287.906	83.88
288.138	87.88
288.369	94.88
288.6	88.88
288.831	90.88
289.062	86.88
289.293	70.88
289.524	79.88
289.755	84.88
289.986	57.88
290.217	85.88
290.448	67.88
290.679	75.88
290.91	90.88
291.141	74.88
291.371	78.88
291.602	92.88
291.833	90.88
292.064	87.88
292.295	87.88
292.526	80.88
292.757	76.88
292.987	89.88
293.218	74.88
293.449	79.88
293.68	76.88
293.91	97.88
294.141	80.88
294.372	90.88
294.603	77.88
294.833	87.88
295.064	95.88
295.295	88.88
295.525	96.88
295.756	95.88
295.987	101.88
296.217	114.88
296.448	118.88
296.679	77.88
296.909	81.88
297.14	76.88
297.37	72.88
297.601	80.88
297.831	81.88
298.062	83.88
298.292	74.88
298.523	76.88
298.753	86.88
298.984	70.88
299.214	70.88
299.445	80.88
299.675	92.88
299.905	84.88
300.136	88.88
300.366	77.88
300.597	91.88
300.827	92.88
301.057	96.88
301.288	89.88
301.518	98.88
301.748	86.88
301.979	98.88
302.209	104.88
302.439	86.88
302.669	84.88
302.9	73.88
303.13	86.88
303.36	95.88
303.59	95.88
303.82	96.88
304.051	83.88
304.281	99.88
304.511	89.88
304.741	91.88
304.971	89.88
305.201	87.88
305.431	66.88
305.661	95.88
305.891	94.88
306.121	89.88
306.352	93.88
306.582	91.88
306.812	83.88
307.042	81.88
307.272	80.88
307.502	75.88
307.731	94.88
307.961	81.88
308.191	92.88
308.421	92.88
308.651	91.88
308.881	86.88
309.111	101.88
309.341	92.88
309.571	93.88
309.8	93.88
310.03	92.88
310.26	90.88
310.49	86.88
310.72	81.88
310.949	97.88
311.179	97.88
311.409	88.88
311.639	81.88
311.868	100.88
312.098	92.88
312.328	85.88
312.557	97.88
312.787	94.88
313.017	94.88
313.246	94.88
313.476	96.88
313.706	96.88
313.935	90.88
314.165	86.88
314.394	97.88
314.624	92.88
314.853	101.88
315.083	90.88
315.312	90.88
315.542	78.88
315.771	86.88
316.001	87.88
316.23	74.88
316.46	71.88
316.689	82.88
316.919	96.88
317.148	90.88
317.377	76.88
317.607	94.88
317.836	77.88
318.065	99.88
318.295	86.88
318.524	77.88
318.753	84.88
318.983	91.88
319.212	97.88
319.441	104.88
319.67	101.88
319.9	90.88
320.129	88.88
320.358	71.88
320.587	91.88
320.816	88.88
321.046	92.88
321.275	74.88
321.504	66.88
321.733	94.88
321.962	86.88
322.191	81.88
322.42	92.88
322.649	97.88
322.878	94.88
323.108	107.88
323.337	116.88
323.566	113.88
323.795	124.88
324.024	169.88
324.253	303.88
324.482	576.88
324.71	1173.88
324.939	1521.88
325.168	576.88
325.397	194.88
325.626	121.88
325.855	117.88
326.084	105.88
326.313	101.88
326.542	136.88
326.77	177.88
326.999	340.88
327.228	676.88
327.457	1229.88
327.686	928.88
327.914	267.88
328.143	161.88
328.372	130.88
328.6	110.88
328.829	107.88
329.058	104.88
329.287	116.88
329.515	101.88
329.744	103.88
329.972	97.88
330.201	113.88
330.43	98.88
330.658	117.88
330.887	103.88
331.115	111.88
331.344	91.88
331.572	88.88
331.801	101.88
332.03	99.88
332.258	83.88
332.486	89.88
332.715	84.88
332.943	85.88
333.172	92.88
333.4	85.88
333.629	95.88
333.857	107.88
334.085	94.88
334.314	102.88
334.542	121.88
334.771	106.88
334.999	90.88
335.227	104.88
335.455	89.88
335.684	92.88
335.912	79.88
336.14	96.88
336.369	91.88
336.597	78.88
336.825	79.88
337.053	98.88
337.281	86.88
337.51	90.88
337.738	91.88
337.966	92.88
338.194	80.88
338.422	97.88
338.65	89.88
338.878	79.88
339.106	92.88
339.334	96.88
339.562	89.88
339.79	86.88
340.018	78.88
340.246	81.88
340.474	92.88
340.702	94.88
340.93	93.88
341.158	90.88
341.386	96.88
341.614	84.88
341.842	71.88
342.07	89.88
342.298	95.88
342.526	101.88
342.754	84.88
342.981	85.88
343.209	90.88
343.437	98.88
343.665	85.88
343.893	95.88
344.12	92.88
344.348	84.88
344.576	65.88
344.804	88.88
345.031	95.88
345.259	94.88
345.487	84.88
345.714	78.88
345.942	91.88
346.17	89.88
346.397	93.88
346.625	92.88
346.853	82.88
347.08	94.88
347.308	82.88
347.535	88.88
347.763	89.88
347.99	97.88
348.218	93.88
348.445	89.88
348.673	88.88
348.9	94.88
349.128	90.88
349.355	90.88
349.583	84.88
349.81	103.88
350.037	93.88
350.265	85.88
350.492	84.88
350.72	89.88
350.947	89.88
351.174	86.88
351.402	100.88
351.629	101.88
351.856	95.88
352.083	96.88
352.311	80.88
352.538	93.88
352.765	112.88
352.992	98.88
353.22	115.88
353.447	93.88
353.674	74.88
353.901	90.88
354.128	96.88
354.355	103.88
354.583	88.88
354.81	97.88
355.037	87.88
355.264	86.88
355.491	90.88
355.718	80.88
355.945	84.88
356.172	81.88
356.399	93.88
356.626	76.88
356.853	85.88
357.08	87.88
357.307	100.88
357.534	82.88
357.761	85.88
357.988	83.88
358.215	100.88
358.441	97.88
358.668	93.88
358.895	93.88
359.122	73.88
359.349	76.88
359.576	95.88
359.802	86.88
360.029	97.88
360.256	95.88
360.483	99.88
360.709	81.88
360.936	98.88
361.163	97.88
361.39	82.88
361.616	85.88
361.843	91.88
362.07	89.88
362.296	98.88
362.523	88.88
362.749	87.88
362.976	87.88
363.203	81.88
363.429	89.88
363.656	92.88
363.882	83.88
364.109	89.88
364.335	86.88
364.562	69.88
364.788	67.88
365.015	92.88
365.241	82.88
365.468	89.88
365.694	81.88
365.92	87.88
366.147	93.88
366.373	96.88
366.599	82.88
366.826	90.88
367.052	96.88
367.278	100.88
367.505	71.88
367.731	93.88
367.957	90.88
368.184	85.88
368.41	88.88
368.636	88.88
368.862	98.88
369.089	96.88
369.315	80.88
369.541	97.88
369.767	95.88
369.993	98.88
370.219	86.88
370.445	78.88
370.672	85.88
370.898	61.88
371.124	86.88
371.35	86.88
371.576	96.88
371.802	86.88
372.028	88.88
372.254	83.88
372.48	97.88
372.706	87.88
372.932	95.88
373.158	95.88
373.384	85.88
373.61	92.88
373.835	93.88
374.061	84.88
374.287	90.88
374.513	68.88
374.739	96.88
374.965	84.88
375.191	84.88
375.416	86.88
375.642	84.88
375.868	87.88
376.094	94.88
376.319	93.88
376.545	70.88
376.771	98.88
376.997	78.88
377.222	88.88
377.448	82.88
377.674	94.88
377.899	100.88
378.125	89.88
378.35	74.88
378.576	85.88
378.802	98.88
379.027	97.88
379.253	80.88
379.478	92.88
379.704	77.88
379.929	92.88
380.155	79.88
380.38	81.88
380.606	93.88
380.831	94.88
381.057	97.88
381.282	94.88
381.507	98.88
381.733	84.88
381.958	76.88
382.184	106.88
382.409	95.88
382.634	100.88
382.86	95.88
383.085	89.88
383.31	98.88
383.535	83.88
383.761	94.88
383.986	90.88
384.211	94.88
384.436	85.88
384.662	106.88
384.887	92.88
385.112	88.88
385.337	97.88
385.562	107.88
385.787	108.88
386.013	103.88
386.238	110.88
386.463	93.88
386.688	101.88
386.913	109.88
387.138	94.88
387.363	105.88
387.588	97.88
387.813	106.88
388.038	87.88
388.263	93.88
388.488	103.88
388.713	102.88
388.938	84.88
389.163	89.88
389.387	88.88
389.612	79.88
389.837	93.88
390.062	93.88
390.287	84.88
390.512	96.88
390.736	85.88
390.961	87.88
391.186	87.88
391.411	79.88
391.636	97.88
391.86	81.88
392.085	78.88
392.31	78.88
392.534	84.88
392.759	83.88
392.984	88.88
393.208	83.88
393.433	71.88
393.658	72.88
393.882	89.88
394.107	81.88
394.331	93.88
394.556	89.88
394.78	87.88
395.005	92.88
395.229	84.88
395.454	80.88
395.678	80.88
395.903	78.88
396.127	86.88
396.352	75.88
396.576	95.88
396.801	89.88
397.025	85.88
397.249	81.88
397.474	87.88
397.698	84.88
397.922	91.88
398.147	82.88
398.371	75.88
398.595	78.88
398.82	94.88
399.044	76.88
399.268	100.88
399.492	87.88
399.717	100.88
399.941	80.88
400.165	89.88
400.389	75.88
400.613	80.88
400.837	82.88
401.062	80.88
401.286	84.88
401.51	86.88
401.734	85.88
401.958	92.88
402.182	98.88
402.406	138.88
402.63	102.88
402.854	82.88
403.078	81.88
403.302	99.88
403.526	90.88
403.75	90.88
403.974	82.88
404.198	92.88
404.422	95.88
404.645	81.88
404.869	99.88
405.093	88.88
405.317	85.88
405.541	88.88
405.765	81.88
405.988	96.88
406.212	125.88
406.436	160.88
406.66	130.88
406.883	90.88
407.107	79.88
407.331	98.88
407.555	89.88
407.778	100.88
408.002	97.88
408.226	101.88
408.449	65.88
408.673	86.88
408.896	104.88
409.12	89.88
409.344	90.88
409.567	95.88
409.791	93.88
410.014	90.88
410.238	84.88
410.461	80.88
410.685	73.88
410.908	96.88
411.132	97.88
411.355	87.88
411.578	94.88
411.802	85.88
412.025	95.88
412.249	93.88
412.472	63.88
412.695	86.88
412.919	93.88
413.142	82.88
413.365	90.88
413.589	79.88
413.812	95.88
414.035	85.88
414.258	84.88
414.482	92.88
414.705	81.88
414.928	98.88
415.151	95.88
415.374	88.88
415.597	83.88
415.821	97.88
416.044	84.88
416.267	78.88
416.49	86.88
416.713	74.88
416.936	86.88
417.159	87.88
417.382	90.88
417.605	88.88
417.828	90.88
418.051	83.88
418.274	93.88
418.497	86.88
418.72	95.88
418.943	94.88
419.166	91.88
419.389	79.88
419.611	77.88
419.834	78.88
420.057	90.88
420.28	80.88
420.503	89.88
420.726	94.88
420.948	78.88
421.171	84.88
421.394	80.88
421.617	94.88
421.839	84.88
422.062	73.88
422.285	82.88
422.507	76.88
422.73	87.88
422.953	92.88
423.175	95.88
423.398	88.88
423.621	84.88
423.843	85.88
424.066	75.88
424.288	82.88
424.511	73.88
424.733	93.88
424.956	84.88
425.178	87.88
425.401	84.88
425.623	89.88
425.846	89.88
426.068	90.88
426.291	74.88
426.513	81.88
426.735	84.88
426.958	90.88
427.18	93.88
427.402	121.88
427.625	141.88
427.847	113.88
428.069	101.88
428.292	100.88
428.514	92.88
428.736	83.88
428.958	68.88
429.181	79.88
429.403	96.88
429.625	86.88
429.847	88.88
430.069	90.88
430.292	87.88
430.514	86.88
430.736	92.88
430.958	95.88
431.18	73.88
431.402	95.88
431.624	86.88
431.846	79.88
432.068	88.88
432.29	86.88
432.512	87.88
432.734	89.88
432.956	95.88
433.178	90.88
433.4	83.88
433.622	73.88
433.844	76.88
434.066	74.88
434.287	80.88
434.509	78.88
434.731	88.88
434.953	86.88
435.175	77.88
435.397	60.88
435.618	96.88
435.84	93.88
436.062	117.88
436.284	103.88
436.505	106.88
436.727	90.88
436.949	103.88
437.17	93.88
437.392	83.88
437.614	89.88
437.835	94.88
438.057	93.88
438.278	84.88
438.5	104.88
438.721	113.88
438.943	94.88
439.165	85.88
439.386	94.88
439.608	72.88
439.829	92.88
440.05	106.88
440.272	120.88
440.493	93.88
440.715	87.88
440.936	73.88
441.158	81.88
441.379	78.88
441.6	80.88
441.822	95.88
442.043	89.88
442.264	84.88
442.486	82.88
442.707	79.88
442.928	108.88
443.149	109.88
443.371	111.88
443.592	86.88
443.813	102.88
444.034	85.88
444.255	74.88
444.476	82.88
444.698	86.88
444.919	80.88
445.14	121.88
445.361	116.88
445.582	94.88
445.803	113.88
446.024	102.88
446.245	113.88
446.466	96.88
446.687	86.88
446.908	93.88
447.129	78.88
447.35	66.88
447.571	82.88
447.792	86.88
448.013	71.88
448.234	82.88
448.455	80.88
448.675	87.88
448.896	99.88
449.117	90.88
449.338	102.88
449.559	110.88
449.779	112.88
450	96.88
450.221	85.88
450.442	77.88
450.662	100.88
450.883	93.88
451.104	110.88
451.324	90.88
451.545	92.88
451.766	78.88
451.986	92.88
452.207	91.88
452.428	79.88
452.648	95.88
452.869	97.88
453.089	102.88
453.31	88.88
453.53	89.88
453.751	79.88
453.971	91.88
454.192	89.88
454.412	86.88
454.633	66.88
454.853	89.88
455.073	89.88
455.294	71.88
455.514	94.88
455.734	84.88
455.955	92.88
456.175	79.88
456.395	82.88
456.616	90.88
456.836	74.88
457.056	86.88
457.276	76.88
457.497	77.88
457.717	80.88
457.937	76.88
458.157	87.88
458.377	82.88
458.598	99.88
458.818	124.88
459.038	140.88
459.258	96.88
459.478	94.88
459.698	83.88
459.918	88.88
460.138	72.88
460.358	85.88
460.578	70.88
460.798	88.88
461.018	92.88
461.238	81.88
461.458	74.88
461.678	83.88
461.898	80.88
462.118	89.88
462.338	85.88
462.558	85.88
462.777	73.88
462.997	80.88
463.217	88.88
463.437	72.88
463.657	79.88
463.876	78.88
464.096	87.88
464.316	81.88
464.536	84.88
464.755	92.88
464.975	100.88
465.195	145.88
465.414	123.88
465.634	83.88
465.854	67.88
466.073	88.88
466.293	77.88
466.512	82.88
466.732	83.88
466.951	74.88
467.171	90.88
467.391	88.88
467.61	93.88
467.829	84.88
468.049	98.88
468.268	96.88
468.488	78.88
468.707	73.88
468.927	84.88
469.146	61.88
469.365	80.88
469.585	73.88
469.804	79.88
470.023	91.88
470.243	93.88
470.462	84.88
470.681	95.88
470.901	96.88
471.12	81.88
471.339	61.88
471.558	88.88
471.777	73.88
471.997	91.88
472.216	100.88
472.435	125.88
472.654	95.88
472.873	79.88
473.092	95.88
473.311	97.88
473.53	83.88
473.749	90.88
473.968	95.88
474.187	87.88
474.406	79.88
474.625	89.88
474.844	98.88
475.063	81.88
475.282	73.88
475.501	84.88
475.72	91.88
475.939	86.88
476.158	97.88
476.377	82.88
476.596	88.88
476.814	93.88
477.033	88.88
477.252	82.88
477.471	91.88
477.69	90.88
477.908	96.88
478.127	98.88
478.346	93.88
478.564	98.88
478.783	92.88
479.002	88.88
479.22	78.88
479.439	92.88
479.658	104.88
479.876	82.88
480.095	73.88
480.313	74.88
480.532	101.88
480.751	96.88
480.969	113.88
481.188	172.88
481.406	118.88
481.624	93.88
481.843	89.88
482.061	86.88
482.28	72.88
482.498	84.88
482.717	86.88
482.935	98.88
483.153	86.88
483.372	77.88
483.59	84.88
483.808	86.88
484.027	87.88
484.245	97.88
484.463	86.88
484.681	86.88
484.9	102.88
485.118	88.88
485.336	89.88
485.554	102.88
485.772	106.88
485.99	105.88
486.209	90.88
486.427	103.88
486.645	97.88
486.863	111.88
487.081	105.88
487.299	89.88
487.517	96.88
487.735	84.88
487.953	95.88
488.171	89.88
488.389	96.88
488.607	67.88
488.825	90.88
489.043	67.88
489.261	83.88
489.479	82.88
489.696	84.88
489.914	85.88
490.132	91.88
490.35	94.88
490.568	90.88
490.786	95.88
491.003	89.88
491.221	89.88
491.439	104.88
491.657	93.88
491.874	92.88
492.092	85.88
492.31	81.88
492.527	84.88
492.745	93.88
492.963	83.88
493.18	88.88
493.398	92.88
493.615	96.88
493.833	90.88
494.05	77.88
494.268	88.88
494.485	69.88
494.703	89.88
494.92	88.88
495.138	63.88
495.355	67.88
495.573	98.88
495.79	84.88
496.008	76.88
496.225	95.88
496.442	71.88
496.66	85.88
496.877	104.88
497.094	98.88
497.312	96.88
497.529	93.88
497.746	86.88
497.963	82.88
498.181	77.88
498.398	90.88
498.615	105.88
498.832	96.88
499.049	103.88
499.267	79.88
499.484	94.88
499.701	89.88
499.918	88.88
500.135	84.88
500.352	81.88
500.569	86.88
500.786	78.88
501.003	96.88
501.22	95.88
501.437	95.88
501.654	93.88
501.871	90.88
502.088	94.88
502.305	88.88
502.522	76.88
502.739	91.88
502.956	78.88
503.172	92.88
503.389	96.88
503.606	96.88
503.823	92.88
504.04	92.88
504.256	96.88
504.473	77.88
504.69	93.88
504.907	98.88
505.123	86.88
505.34	83.88
505.557	93.88
505.773	84.88
505.99	82.88
506.207	86.88
506.423	88.88
506.64	83.88
506.856	88.88
507.073	81.88
507.289	76.88
507.506	94.88
507.722	110.88
507.939	112.88
508.155	74.88
508.372	83.88
508.588	101.88
508.805	103.88
509.021	92.88
509.238	84.88
509.454	92.88
509.67	98.88
509.887	95.88
510.103	113.88
510.319	185.88
510.536	613.88
510.752	1851.88
510.968	501.88
511.184	145.88
511.401	103.88
511.617	80.88
511.833	97.88
512.049	91.88
512.265	93.88
512.481	77.88
512.698	82.88
512.914	102.88
513.13	78.88
513.346	82.88
513.562	92.88
513.778	101.88
513.994	88.88
514.21	105.88
514.426	110.88
514.642	125.88
514.858	105.88
515.074	124.88
515.29	354.88
515.506	1063.88
515.721	390.88
515.937	142.88
516.153	87.88
516.369	101.88
516.585	95.88
516.801	93.88
517.016	100.88
517.232	85.88
517.448	86.88
517.664	88.88
517.879	93.88
