Data from Circ_1982_H10_HRD10591_00040.txt Node
Date: Wed Jan 03 12:30:49 EST 2024
User: Yrep
Spectrometer: HR+D1059
Trigger mode: 1
Integration Time (sec): 1.000000E-1
Scans to average: 1
Electric dark correction enabled: true
Nonlinearity correction enabled: false
Boxcar width: 0
XAxis mode: Wavelengths
Number of Pixels in Spectrum: 2048
>>>>>Begin Spectral Data<<<<<
223.165	-28.75
223.4	-28.75
223.635	-28.75
223.869	-20.75
224.104	-23.75
224.338	-19.75
224.573	-16.75
224.808	-23.75
225.042	-12.75
225.277	-6.75
225.511	1.25
225.746	-4.75
225.98	19.25
226.215	23.25
226.449	19.25
226.683	27.25
226.918	37.25
227.152	30.25
227.387	26.25
227.621	36.25
227.856	38.25
228.09	44.25
228.324	42.25
228.559	39.25
228.793	48.25
229.027	62.25
229.262	65.25
229.496	62.25
229.73	73.25
229.964	77.25
230.199	63.25
230.433	63.25
230.667	72.25
230.901	86.25
231.136	85.25
231.37	68.25
231.604	82.25
231.838	86.25
232.072	66.25
232.306	84.25
232.541	74.25
232.775	79.25
233.009	78.25
233.243	72.25
233.477	70.25
233.711	72.25
233.945	80.25
234.179	65.25
234.413	82.25
234.647	69.25
234.881	72.25
235.115	68.25
235.349	68.25
235.583	73.25
235.817	81.25
236.051	74.25
236.285	79.25
236.519	83.25
236.753	77.25
236.987	86.25
237.221	70.25
237.455	71.25
237.689	67.25
237.922	65.25
238.156	83.25
238.39	64.25
238.624	71.25
238.858	73.25
239.091	67.25
239.325	82.25
239.559	64.25
239.793	63.25
240.027	85.25
240.26	75.25
240.494	82.25
240.728	73.25
240.961	68.25
241.195	70.25
241.429	80.25
241.662	69.25
241.896	77.25
242.13	75.25
242.363	61.25
242.597	70.25
242.83	67.25
243.064	67.25
243.298	81.25
243.531	81.25
243.765	83.25
243.998	69.25
244.232	76.25
244.465	75.25
244.699	73.25
244.932	81.25
245.166	77.25
245.399	84.25
245.633	78.25
245.866	65.25
246.099	78.25
246.333	78.25
246.566	73.25
246.8	80.25
247.033	65.25
247.266	75.25
247.5	93.25
247.733	76.25
247.966	73.25
248.2	69.25
248.433	87.25
248.666	79.25
248.899	78.25
249.133	77.25
249.366	61.25
249.599	61.25
249.832	72.25
250.066	86.25
250.299	77.25
250.532	85.25
250.765	72.25
250.998	79.25
251.231	86.25
251.465	66.25
251.698	75.25
251.931	73.25
252.164	77.25
252.397	77.25
252.63	81.25
252.863	91.25
253.096	85.25
253.329	70.25
253.562	79.25
253.795	82.25
254.028	91.25
254.261	76.25
254.494	78.25
254.727	94.25
254.96	76.25
255.193	67.25
255.426	75.25
255.659	69.25
255.892	62.25
256.124	60.25
256.357	79.25
256.59	76.25
256.823	84.25
257.056	76.25
257.289	80.25
257.521	81.25
257.754	62.25
257.987	84.25
258.22	96.25
258.452	89.25
258.685	79.25
258.918	88.25
259.151	81.25
259.383	78.25
259.616	84.25
259.849	84.25
260.081	72.25
260.314	75.25
260.547	71.25
260.779	78.25
261.012	98.25
261.244	72.25
261.477	85.25
261.71	79.25
261.942	80.25
262.175	92.25
262.407	80.25
262.64	85.25
262.872	67.25
263.105	65.25
263.337	83.25
263.57	70.25
263.802	81.25
264.035	87.25
264.267	63.25
264.499	84.25
264.732	80.25
264.964	67.25
265.197	83.25
265.429	83.25
265.661	79.25
265.894	83.25
266.126	75.25
266.358	86.25
266.591	70.25
266.823	81.25
267.055	69.25
267.287	68.25
267.52	75.25
267.752	96.25
267.984	76.25
268.216	92.25
268.448	70.25
268.681	84.25
268.913	80.25
269.145	75.25
269.377	77.25
269.609	88.25
269.841	73.25
270.073	84.25
270.306	72.25
270.538	69.25
270.77	85.25
271.002	75.25
271.234	80.25
271.466	80.25
271.698	83.25
271.93	83.25
272.162	66.25
272.394	77.25
272.626	87.25
272.858	77.25
273.09	75.25
273.322	83.25
273.553	69.25
273.785	84.25
274.017	85.25
274.249	89.25
274.481	86.25
274.713	81.25
274.945	84.25
275.176	57.25
275.408	73.25
275.64	82.25
275.872	75.25
276.104	63.25
276.335	84.25
276.567	78.25
276.799	93.25
277.031	84.25
277.262	56.25
277.494	91.25
277.726	75.25
277.957	87.25
278.189	85.25
278.421	81.25
278.652	96.25
278.884	77.25
279.115	79.25
279.347	71.25
279.579	87.25
279.81	77.25
280.042	84.25
280.273	83.25
280.505	85.25
280.736	70.25
280.968	72.25
281.199	84.25
281.431	60.25
281.662	85.25
281.894	70.25
282.125	79.25
282.356	97.25
282.588	108.25
282.819	86.25
283.051	83.25
283.282	72.25
283.513	81.25
283.745	93.25
283.976	72.25
284.207	75.25
284.439	87.25
284.67	80.25
284.901	92.25
285.132	87.25
285.364	84.25
285.595	88.25
285.826	84.25
286.057	82.25
286.288	68.25
286.52	69.25
286.751	91.25
286.982	79.25
287.213	81.25
287.444	91.25
287.675	85.25
287.906	85.25
288.138	78.25
288.369	72.25
288.6	75.25
288.831	84.25
289.062	79.25
289.293	79.25
289.524	80.25
289.755	88.25
289.986	71.25
290.217	93.25
290.448	79.25
290.679	68.25
290.91	73.25
291.141	72.25
291.371	76.25
291.602	83.25
291.833	83.25
292.064	95.25
292.295	92.25
292.526	76.25
292.757	77.25
292.987	81.25
293.218	76.25
293.449	93.25
293.68	81.25
293.91	79.25
294.141	94.25
294.372	80.25
294.603	79.25
294.833	79.25
295.064	64.25
295.295	76.25
295.525	71.25
295.756	98.25
295.987	96.25
296.217	101.25
296.448	95.25
296.679	82.25
296.909	80.25
297.14	76.25
297.37	80.25
297.601	81.25
297.831	80.25
298.062	88.25
298.292	83.25
298.523	91.25
298.753	91.25
298.984	88.25
299.214	84.25
299.445	98.25
299.675	88.25
299.905	95.25
300.136	84.25
300.366	69.25
300.597	71.25
300.827	79.25
301.057	81.25
301.288	80.25
301.518	86.25
301.748	84.25
301.979	87.25
302.209	78.25
302.439	89.25
302.669	88.25
302.9	96.25
303.13	86.25
303.36	84.25
303.59	92.25
303.82	68.25
304.051	94.25
304.281	70.25
304.511	89.25
304.741	91.25
304.971	84.25
305.201	89.25
305.431	79.25
305.661	81.25
305.891	112.25
306.121	103.25
306.352	84.25
306.582	89.25
306.812	85.25
307.042	71.25
307.272	68.25
307.502	92.25
307.731	91.25
307.961	82.25
308.191	82.25
308.421	85.25
308.651	90.25
308.881	81.25
309.111	77.25
309.341	90.25
309.571	75.25
309.8	89.25
310.03	93.25
310.26	88.25
310.49	84.25
310.72	87.25
310.949	99.25
311.179	96.25
311.409	72.25
311.639	97.25
311.868	83.25
312.098	85.25
312.328	83.25
312.557	85.25
312.787	94.25
313.017	89.25
313.246	80.25
313.476	82.25
313.706	87.25
313.935	81.25
314.165	93.25
314.394	93.25
314.624	88.25
314.853	82.25
315.083	89.25
315.312	81.25
315.542	74.25
315.771	79.25
316.001	77.25
316.23	84.25
316.46	77.25
316.689	82.25
316.919	91.25
317.148	91.25
317.377	90.25
317.607	77.25
317.836	92.25
318.065	96.25
318.295	87.25
318.524	79.25
318.753	74.25
318.983	87.25
319.212	82.25
319.441	107.25
319.67	86.25
319.9	82.25
320.129	92.25
320.358	87.25
320.587	93.25
320.816	81.25
321.046	84.25
321.275	89.25
321.504	91.25
321.733	88.25
321.962	84.25
322.191	79.25
322.42	93.25
322.649	92.25
322.878	93.25
323.108	84.25
323.337	101.25
323.566	108.25
323.795	107.25
324.024	149.25
324.253	253.25
324.482	509.25
324.71	1040.25
324.939	1303.25
325.168	505.25
325.397	176.25
325.626	116.25
325.855	106.25
326.084	101.25
326.313	106.25
326.542	115.25
326.77	171.25
326.999	306.25
327.228	598.25
327.457	1055.25
327.686	840.25
327.914	243.25
328.143	138.25
328.372	113.25
328.6	100.25
328.829	87.25
329.058	108.25
329.287	100.25
329.515	107.25
329.744	102.25
329.972	86.25
330.201	99.25
330.43	104.25
330.658	109.25
330.887	107.25
331.115	97.25
331.344	87.25
331.572	85.25
331.801	94.25
332.03	89.25
332.258	91.25
332.486	95.25
332.715	95.25
332.943	84.25
333.172	87.25
333.4	93.25
333.629	91.25
333.857	98.25
334.085	93.25
334.314	102.25
334.542	111.25
334.771	110.25
334.999	91.25
335.227	89.25
335.455	84.25
335.684	79.25
335.912	96.25
336.14	96.25
336.369	84.25
336.597	70.25
336.825	68.25
337.053	88.25
337.281	96.25
337.51	91.25
337.738	87.25
337.966	82.25
338.194	75.25
338.422	84.25
338.65	81.25
338.878	85.25
339.106	79.25
339.334	92.25
339.562	87.25
339.79	69.25
340.018	81.25
340.246	88.25
340.474	77.25
340.702	91.25
340.93	71.25
341.158	88.25
341.386	99.25
341.614	91.25
341.842	86.25
342.07	64.25
342.298	70.25
342.526	91.25
342.754	88.25
342.981	83.25
343.209	76.25
343.437	85.25
343.665	84.25
343.893	88.25
344.12	85.25
344.348	82.25
344.576	86.25
344.804	90.25
345.031	87.25
345.259	88.25
345.487	90.25
345.714	80.25
345.942	85.25
346.17	90.25
346.397	93.25
346.625	82.25
346.853	77.25
347.08	90.25
347.308	87.25
347.535	81.25
347.763	95.25
347.99	83.25
348.218	90.25
348.445	102.25
348.673	88.25
348.9	89.25
349.128	82.25
349.355	73.25
349.583	75.25
349.81	77.25
350.037	83.25
350.265	89.25
350.492	87.25
350.72	77.25
350.947	91.25
351.174	96.25
351.402	97.25
351.629	94.25
351.856	97.25
352.083	97.25
352.311	99.25
352.538	100.25
352.765	91.25
352.992	101.25
353.22	94.25
353.447	83.25
353.674	86.25
353.901	95.25
354.128	99.25
354.355	93.25
354.583	90.25
354.81	81.25
355.037	76.25
355.264	85.25
355.491	85.25
355.718	83.25
355.945	85.25
356.172	85.25
356.399	89.25
356.626	91.25
356.853	73.25
357.08	65.25
357.307	98.25
357.534	79.25
357.761	98.25
357.988	100.25
358.215	96.25
358.441	89.25
358.668	84.25
358.895	79.25
359.122	84.25
359.349	87.25
359.576	85.25
359.802	80.25
360.029	95.25
360.256	92.25
360.483	80.25
360.709	79.25
360.936	94.25
361.163	83.25
361.39	85.25
361.616	62.25
361.843	79.25
362.07	71.25
362.296	89.25
362.523	83.25
362.749	79.25
362.976	84.25
363.203	84.25
363.429	78.25
363.656	85.25
363.882	73.25
364.109	85.25
364.335	84.25
364.562	70.25
364.788	88.25
365.015	93.25
365.241	92.25
365.468	92.25
365.694	85.25
365.92	89.25
366.147	83.25
366.373	87.25
366.599	83.25
366.826	100.25
367.052	79.25
367.278	84.25
367.505	71.25
367.731	83.25
367.957	78.25
368.184	81.25
368.41	78.25
368.636	90.25
368.862	95.25
369.089	84.25
369.315	70.25
369.541	85.25
369.767	83.25
369.993	78.25
370.219	73.25
370.445	66.25
370.672	72.25
370.898	89.25
371.124	72.25
371.35	87.25
371.576	87.25
371.802	71.25
372.028	69.25
372.254	78.25
372.48	72.25
372.706	83.25
372.932	91.25
373.158	83.25
373.384	69.25
373.61	70.25
373.835	87.25
374.061	78.25
374.287	77.25
374.513	86.25
374.739	92.25
374.965	91.25
375.191	70.25
375.416	77.25
375.642	75.25
375.868	85.25
376.094	75.25
376.319	71.25
376.545	75.25
376.771	86.25
376.997	91.25
377.222	98.25
377.448	87.25
377.674	84.25
377.899	79.25
378.125	88.25
378.35	98.25
378.576	90.25
378.802	91.25
379.027	83.25
379.253	93.25
379.478	89.25
379.704	93.25
379.929	90.25
380.155	88.25
380.38	98.25
380.606	91.25
380.831	94.25
381.057	105.25
381.282	90.25
381.507	86.25
381.733	97.25
381.958	89.25
382.184	90.25
382.409	79.25
382.634	88.25
382.86	92.25
383.085	89.25
383.31	82.25
383.535	90.25
383.761	94.25
383.986	85.25
384.211	96.25
384.436	97.25
384.662	93.25
384.887	99.25
385.112	97.25
385.337	97.25
385.562	96.25
385.787	89.25
386.013	96.25
386.238	86.25
386.463	85.25
386.688	109.25
386.913	102.25
387.138	104.25
387.363	87.25
387.588	84.25
387.813	107.25
388.038	102.25
388.263	101.25
388.488	107.25
388.713	87.25
388.938	92.25
389.163	81.25
389.387	87.25
389.612	79.25
389.837	82.25
390.062	95.25
390.287	87.25
390.512	96.25
390.736	94.25
390.961	97.25
391.186	87.25
391.411	84.25
391.636	71.25
391.86	77.25
392.085	72.25
392.31	87.25
392.534	72.25
392.759	82.25
392.984	84.25
393.208	68.25
393.433	80.25
393.658	85.25
393.882	66.25
394.107	88.25
394.331	81.25
394.556	78.25
394.78	98.25
395.005	91.25
395.229	78.25
395.454	84.25
395.678	81.25
395.903	80.25
396.127	81.25
396.352	78.25
396.576	86.25
396.801	85.25
397.025	75.25
397.249	91.25
397.474	75.25
397.698	76.25
397.922	93.25
398.147	89.25
398.371	84.25
398.595	85.25
398.82	80.25
399.044	86.25
399.268	75.25
399.492	82.25
399.717	94.25
399.941	79.25
400.165	76.25
400.389	83.25
400.613	79.25
400.837	84.25
401.062	92.25
401.286	82.25
401.51	79.25
401.734	87.25
401.958	80.25
402.182	100.25
402.406	90.25
402.63	88.25
402.854	66.25
403.078	87.25
403.302	70.25
403.526	78.25
403.75	77.25
403.974	83.25
404.198	85.25
404.422	89.25
404.645	71.25
404.869	93.25
405.093	96.25
405.317	77.25
405.541	86.25
405.765	82.25
405.988	80.25
406.212	106.25
406.436	158.25
406.66	99.25
406.883	76.25
407.107	76.25
407.331	80.25
407.555	79.25
407.778	82.25
408.002	79.25
408.226	69.25
408.449	90.25
408.673	87.25
408.896	75.25
409.12	96.25
409.344	88.25
409.567	85.25
409.791	77.25
410.014	87.25
410.238	91.25
410.461	87.25
410.685	86.25
410.908	84.25
411.132	93.25
411.355	79.25
411.578	82.25
411.802	96.25
412.025	83.25
412.249	76.25
412.472	81.25
412.695	94.25
412.919	82.25
413.142	93.25
413.365	79.25
413.589	71.25
413.812	81.25
414.035	83.25
414.258	70.25
414.482	84.25
414.705	86.25
414.928	88.25
415.151	80.25
415.374	85.25
415.597	92.25
415.821	90.25
416.044	75.25
416.267	82.25
416.49	101.25
416.713	86.25
416.936	90.25
417.159	87.25
417.382	72.25
417.605	88.25
417.828	82.25
418.051	87.25
418.274	89.25
418.497	83.25
418.72	90.25
418.943	94.25
419.166	71.25
419.389	87.25
419.611	67.25
419.834	77.25
420.057	76.25
420.28	81.25
420.503	68.25
420.726	88.25
420.948	87.25
421.171	99.25
421.394	86.25
421.617	80.25
421.839	91.25
422.062	84.25
422.285	98.25
422.507	87.25
422.73	95.25
422.953	75.25
423.175	76.25
423.398	94.25
423.621	81.25
423.843	79.25
424.066	72.25
424.288	79.25
424.511	93.25
424.733	101.25
424.956	107.25
425.178	86.25
425.401	86.25
425.623	88.25
425.846	64.25
426.068	84.25
426.291	73.25
426.513	85.25
426.735	87.25
426.958	67.25
427.18	82.25
427.402	102.25
427.625	119.25
427.847	98.25
428.069	101.25
428.292	85.25
428.514	85.25
428.736	85.25
428.958	79.25
429.181	75.25
429.403	84.25
429.625	79.25
429.847	81.25
430.069	94.25
430.292	81.25
430.514	81.25
430.736	76.25
430.958	72.25
431.18	72.25
431.402	88.25
431.624	74.25
431.846	70.25
432.068	76.25
432.29	84.25
432.512	95.25
432.734	74.25
432.956	84.25
433.178	105.25
433.4	90.25
433.622	77.25
433.844	83.25
434.066	88.25
434.287	88.25
434.509	88.25
434.731	84.25
434.953	71.25
435.175	97.25
435.397	85.25
435.618	89.25
435.84	93.25
436.062	97.25
436.284	98.25
436.505	91.25
436.727	96.25
436.949	89.25
437.17	91.25
437.392	87.25
437.614	72.25
437.835	83.25
438.057	88.25
438.278	83.25
438.5	83.25
438.721	94.25
438.943	82.25
439.165	71.25
439.386	72.25
439.608	77.25
439.829	99.25
440.05	99.25
440.272	99.25
440.493	88.25
440.715	92.25
440.936	73.25
441.158	96.25
441.379	92.25
441.6	76.25
441.822	80.25
442.043	76.25
442.264	95.25
442.486	84.25
442.707	77.25
442.928	78.25
443.149	102.25
443.371	103.25
443.592	98.25
443.813	109.25
444.034	95.25
444.255	78.25
444.476	75.25
444.698	83.25
444.919	73.25
445.14	125.25
445.361	100.25
445.582	97.25
445.803	112.25
446.024	98.25
446.245	109.25
446.466	96.25
446.687	83.25
446.908	83.25
447.129	80.25
447.35	82.25
447.571	84.25
447.792	86.25
448.013	85.25
448.234	81.25
448.455	85.25
448.675	85.25
448.896	102.25
449.117	79.25
449.338	91.25
449.559	111.25
449.779	110.25
450	95.25
450.221	93.25
450.442	75.25
450.662	79.25
450.883	82.25
451.104	85.25
451.324	82.25
451.545	76.25
451.766	65.25
451.986	91.25
452.207	86.25
452.428	72.25
452.648	69.25
452.869	97.25
453.089	104.25
453.31	83.25
453.53	83.25
453.751	88.25
453.971	75.25
454.192	75.25
454.412	78.25
454.633	89.25
454.853	80.25
455.073	99.25
455.294	87.25
455.514	92.25
455.734	71.25
455.955	75.25
456.175	84.25
456.395	80.25
456.616	83.25
456.836	84.25
457.056	96.25
457.276	72.25
457.497	89.25
457.717	75.25
457.937	61.25
458.157	71.25
458.377	88.25
458.598	91.25
458.818	112.25
459.038	119.25
459.258	86.25
459.478	73.25
459.698	87.25
459.918	71.25
460.138	83.25
460.358	90.25
460.578	98.25
460.798	64.25
461.018	84.25
461.238	63.25
461.458	73.25
461.678	75.25
461.898	64.25
462.118	81.25
462.338	75.25
462.558	84.25
462.777	89.25
462.997	87.25
463.217	81.25
463.437	83.25
463.657	80.25
463.876	84.25
464.096	69.25
464.316	72.25
464.536	83.25
464.755	97.25
464.975	97.25
465.195	110.25
465.414	108.25
465.634	86.25
465.854	70.25
466.073	80.25
466.293	83.25
466.512	86.25
466.732	83.25
466.951	85.25
467.171	76.25
467.391	84.25
467.61	81.25
467.829	81.25
468.049	94.25
468.268	91.25
468.488	68.25
468.707	75.25
468.927	83.25
469.146	70.25
469.365	82.25
469.585	85.25
469.804	86.25
470.023	93.25
470.243	75.25
470.462	79.25
470.681	89.25
470.901	83.25
471.12	80.25
471.339	86.25
471.558	90.25
471.777	87.25
471.997	77.25
472.216	85.25
472.435	111.25
472.654	72.25
472.873	82.25
473.092	79.25
473.311	92.25
473.53	93.25
473.749	82.25
473.968	92.25
474.187	87.25
474.406	76.25
474.625	83.25
474.844	90.25
475.063	71.25
475.282	87.25
475.501	84.25
475.72	88.25
475.939	75.25
476.158	62.25
476.377	86.25
476.596	76.25
476.814	90.25
477.033	82.25
477.252	85.25
477.471	83.25
477.69	76.25
477.908	90.25
478.127	80.25
478.346	78.25
478.564	76.25
478.783	80.25
479.002	86.25
479.22	75.25
479.439	79.25
479.658	84.25
479.876	81.25
480.095	79.25
480.313	99.25
480.532	96.25
480.751	95.25
480.969	104.25
481.188	147.25
481.406	116.25
481.624	97.25
481.843	81.25
482.061	69.25
482.28	96.25
482.498	79.25
482.717	88.25
482.935	86.25
483.153	71.25
483.372	96.25
483.59	79.25
483.808	75.25
484.027	92.25
484.245	79.25
484.463	70.25
484.681	90.25
484.9	88.25
485.118	96.25
485.336	82.25
485.554	102.25
485.772	98.25
485.99	96.25
486.209	110.25
486.427	101.25
486.645	91.25
486.863	102.25
487.081	94.25
487.299	85.25
487.517	87.25
487.735	85.25
487.953	96.25
488.171	93.25
488.389	91.25
488.607	103.25
488.825	79.25
489.043	96.25
489.261	74.25
489.479	98.25
489.696	91.25
489.914	88.25
490.132	84.25
490.35	86.25
490.568	80.25
490.786	82.25
491.003	77.25
491.221	88.25
491.439	86.25
491.657	86.25
491.874	75.25
492.092	74.25
492.31	78.25
492.527	80.25
492.745	73.25
492.963	82.25
493.18	93.25
493.398	82.25
493.615	87.25
493.833	87.25
494.05	85.25
494.268	92.25
494.485	77.25
494.703	79.25
494.92	77.25
495.138	92.25
495.355	65.25
495.573	84.25
495.79	79.25
496.008	94.25
496.225	79.25
496.442	86.25
496.66	82.25
496.877	88.25
497.094	88.25
497.312	73.25
497.529	87.25
497.746	91.25
497.963	92.25
498.181	80.25
498.398	90.25
498.615	95.25
498.832	79.25
499.049	80.25
499.267	73.25
499.484	87.25
499.701	94.25
499.918	93.25
500.135	77.25
500.352	86.25
500.569	81.25
500.786	98.25
501.003	87.25
501.22	94.25
501.437	82.25
501.654	91.25
501.871	88.25
502.088	81.25
502.305	81.25
502.522	82.25
502.739	79.25
502.956	85.25
503.172	98.25
503.389	81.25
503.606	87.25
503.823	100.25
504.04	109.25
504.256	85.25
504.473	85.25
504.69	76.25
504.907	96.25
505.123	85.25
505.34	92.25
505.557	89.25
505.773	103.25
505.99	88.25
506.207	84.25
506.423	94.25
506.64	97.25
506.856	84.25
507.073	97.25
507.289	91.25
507.506	99.25
507.722	93.25
507.939	76.25
508.155	79.25
508.372	88.25
508.588	85.25
508.805	89.25
509.021	98.25
509.238	73.25
509.454	88.25
509.67	108.25
509.887	102.25
510.103	100.25
510.319	161.25
510.536	489.25
510.752	1375.25
510.968	418.25
511.184	126.25
511.401	99.25
511.617	95.25
511.833	75.25
512.049	91.25
512.265	83.25
512.481	72.25
512.698	83.25
512.914	103.25
513.13	87.25
513.346	79.25
513.562	93.25
513.778	93.25
513.994	78.25
514.21	89.25
514.426	89.25
514.642	98.25
514.858	90.25
515.074	128.25
515.29	287.25
515.506	789.25
515.721	309.25
515.937	102.25
516.153	102.25
516.369	88.25
516.585	75.25
516.801	100.25
517.016	88.25
517.232	92.25
517.448	73.25
517.664	78.25
517.879	92.25
518.095	84.25
518.311	83.25
518.527	95.25
