Data from Circ_1982_H10_HRD10591_00059.txt Node
Date: Wed Jan 03 12:30:53 EST 2024
User: Yrep
Spectrometer: HR+D1059
Trigger mode: 1
Integration Time (sec): 1.000000E-1
Scans to average: 1
Electric dark correction enabled: true
Nonlinearity correction enabled: false
Boxcar width: 0
XAxis mode: Wavelengths
Number of Pixels in Spectrum: 2048
>>>>>Begin Spectral Data<<<<<
223.165	-11.38
223.4	-11.38
223.635	-11.38
223.869	-24.38
224.104	-18.38
224.338	-18.38
224.573	-17.38
224.808	-23.38
225.042	-12.38
225.277	-5.38
225.511	1.62
225.746	1.62
225.98	6.62
226.215	9.62
226.449	4.62
226.683	17.62
226.918	45.62
227.152	43.62
227.387	40.62
227.621	53.62
227.856	39.62
228.09	46.62
228.324	57.62
228.559	59.62
228.793	68.62
229.027	70.62
229.262	53.62
229.496	66.62
229.73	65.62
229.964	68.62
230.199	67.62
230.433	77.62
230.667	82.62
230.901	74.62
231.136	76.62
231.37	75.62
231.604	92.62
231.838	69.62
232.072	81.62
232.306	86.62
232.541	89.62
232.775	84.62
233.009	80.62
233.243	86.62
233.477	75.62
233.711	83.62
233.945	87.62
234.179	92.62
234.413	77.62
234.647	83.62
234.881	85.62
235.115	78.62
235.349	73.62
235.583	74.62
235.817	95.62
236.051	87.62
236.285	77.62
236.519	77.62
236.753	87.62
236.987	79.62
237.221	71.62
237.455	97.62
237.689	75.62
237.922	83.62
238.156	90.62
238.39	78.62
238.624	82.62
238.858	68.62
239.091	71.62
239.325	70.62
239.559	79.62
239.793	84.62
240.027	90.62
240.26	67.62
240.494	80.62
240.728	84.62
240.961	65.62
241.195	72.62
241.429	78.62
241.662	60.62
241.896	78.62
242.13	84.62
242.363	87.62
242.597	71.62
242.83	74.62
243.064	82.62
243.298	71.62
243.531	67.62
243.765	77.62
243.998	77.62
244.232	92.62
244.465	85.62
244.699	71.62
244.932	78.62
245.166	79.62
245.399	76.62
245.633	77.62
245.866	84.62
246.099	85.62
246.333	73.62
246.566	71.62
246.8	88.62
247.033	87.62
247.266	69.62
247.5	69.62
247.733	80.62
247.966	85.62
248.2	78.62
248.433	69.62
248.666	74.62
248.899	83.62
249.133	78.62
249.366	93.62
249.599	89.62
249.832	83.62
250.066	81.62
250.299	81.62
250.532	98.62
250.765	87.62
250.998	93.62
251.231	72.62
251.465	77.62
251.698	84.62
251.931	78.62
252.164	92.62
252.397	83.62
252.63	83.62
252.863	86.62
253.096	74.62
253.329	91.62
253.562	86.62
253.795	90.62
254.028	71.62
254.261	73.62
254.494	72.62
254.727	89.62
254.96	84.62
255.193	83.62
255.426	71.62
255.659	79.62
255.892	85.62
256.124	69.62
256.357	89.62
256.59	86.62
256.823	78.62
257.056	75.62
257.289	83.62
257.521	91.62
257.754	76.62
257.987	79.62
258.22	81.62
258.452	90.62
258.685	86.62
258.918	75.62
259.151	90.62
259.383	80.62
259.616	75.62
259.849	88.62
260.081	85.62
260.314	100.62
260.547	84.62
260.779	82.62
261.012	90.62
261.244	90.62
261.477	99.62
261.71	98.62
261.942	88.62
262.175	106.62
262.407	95.62
262.64	92.62
262.872	89.62
263.105	82.62
263.337	84.62
263.57	86.62
263.802	90.62
264.035	80.62
264.267	74.62
264.499	86.62
264.732	76.62
264.964	76.62
265.197	90.62
265.429	87.62
265.661	93.62
265.894	92.62
266.126	83.62
266.358	81.62
266.591	92.62
266.823	78.62
267.055	83.62
267.287	100.62
267.52	85.62
267.752	85.62
267.984	82.62
268.216	76.62
268.448	90.62
268.681	86.62
268.913	92.62
269.145	93.62
269.377	81.62
269.609	90.62
269.841	78.62
270.073	74.62
270.306	76.62
270.538	93.62
270.77	89.62
271.002	82.62
271.234	72.62
271.466	88.62
271.698	92.62
271.93	79.62
272.162	85.62
272.394	86.62
272.626	81.62
272.858	78.62
273.09	73.62
273.322	88.62
273.553	86.62
273.785	100.62
274.017	79.62
274.249	89.62
274.481	82.62
274.713	85.62
274.945	89.62
275.176	81.62
275.408	95.62
275.64	81.62
275.872	92.62
276.104	82.62
276.335	94.62
276.567	102.62
276.799	101.62
277.031	78.62
277.262	85.62
277.494	95.62
277.726	89.62
277.957	82.62
278.189	78.62
278.421	92.62
278.652	83.62
278.884	68.62
279.115	89.62
279.347	97.62
279.579	92.62
279.81	99.62
280.042	68.62
280.273	89.62
280.505	91.62
280.736	74.62
280.968	92.62
281.199	94.62
281.431	90.62
281.662	94.62
281.894	98.62
282.125	94.62
282.356	109.62
282.588	120.62
282.819	95.62
283.051	88.62
283.282	96.62
283.513	96.62
283.745	93.62
283.976	79.62
284.207	87.62
284.439	76.62
284.67	85.62
284.901	91.62
285.132	78.62
285.364	84.62
285.595	85.62
285.826	83.62
286.057	90.62
286.288	81.62
286.52	85.62
286.751	86.62
286.982	99.62
287.213	78.62
287.444	92.62
287.675	97.62
287.906	92.62
288.138	82.62
288.369	85.62
288.6	86.62
288.831	88.62
289.062	95.62
289.293	73.62
289.524	84.62
289.755	81.62
289.986	79.62
290.217	86.62
290.448	80.62
290.679	87.62
290.91	89.62
291.141	79.62
291.371	95.62
291.602	99.62
291.833	83.62
292.064	101.62
292.295	84.62
292.526	81.62
292.757	85.62
292.987	96.62
293.218	93.62
293.449	73.62
293.68	87.62
293.91	83.62
294.141	84.62
294.372	81.62
294.603	81.62
294.833	97.62
295.064	82.62
295.295	106.62
295.525	94.62
295.756	91.62
295.987	114.62
296.217	117.62
296.448	105.62
296.679	92.62
296.909	77.62
297.14	79.62
297.37	85.62
297.601	92.62
297.831	93.62
298.062	102.62
298.292	93.62
298.523	72.62
298.753	92.62
298.984	77.62
299.214	98.62
299.445	87.62
299.675	78.62
299.905	78.62
300.136	93.62
300.366	85.62
300.597	90.62
300.827	84.62
301.057	88.62
301.288	84.62
301.518	101.62
301.748	99.62
301.979	99.62
302.209	94.62
302.439	78.62
302.669	79.62
302.9	86.62
303.13	105.62
303.36	104.62
303.59	85.62
303.82	103.62
304.051	91.62
304.281	99.62
304.511	100.62
304.741	82.62
304.971	66.62
305.201	95.62
305.431	83.62
305.661	93.62
305.891	108.62
306.121	88.62
306.352	87.62
306.582	107.62
306.812	100.62
307.042	87.62
307.272	85.62
307.502	82.62
307.731	85.62
307.961	75.62
308.191	97.62
308.421	103.62
308.651	95.62
308.881	94.62
309.111	73.62
309.341	90.62
309.571	105.62
309.8	89.62
310.03	86.62
310.26	110.62
310.49	105.62
310.72	98.62
310.949	94.62
311.179	120.62
311.409	91.62
311.639	94.62
311.868	86.62
312.098	93.62
312.328	89.62
312.557	83.62
312.787	91.62
313.017	105.62
313.246	92.62
313.476	96.62
313.706	95.62
313.935	96.62
314.165	91.62
314.394	91.62
314.624	94.62
314.853	90.62
315.083	84.62
315.312	83.62
315.542	89.62
315.771	75.62
316.001	69.62
316.23	101.62
316.46	79.62
316.689	87.62
316.919	87.62
317.148	85.62
317.377	93.62
317.607	85.62
317.836	87.62
318.065	75.62
318.295	98.62
318.524	105.62
318.753	85.62
318.983	91.62
319.212	71.62
319.441	100.62
319.67	113.62
319.9	87.62
320.129	87.62
320.358	84.62
320.587	91.62
320.816	108.62
321.046	94.62
321.275	95.62
321.504	94.62
321.733	90.62
321.962	86.62
322.191	87.62
322.42	104.62
322.649	102.62
322.878	99.62
323.108	108.62
323.337	106.62
323.566	121.62
323.795	133.62
324.024	192.62
324.253	297.62
324.482	564.62
324.71	1147.62
324.939	1486.62
325.168	553.62
325.397	172.62
325.626	133.62
325.855	127.62
326.084	120.62
326.313	120.62
326.542	135.62
326.77	192.62
326.999	320.62
327.228	641.62
327.457	1168.62
327.686	958.62
327.914	287.62
328.143	158.62
328.372	109.62
328.6	107.62
328.829	102.62
329.058	100.62
329.287	106.62
329.515	106.62
329.744	93.62
329.972	98.62
330.201	117.62
330.43	119.62
330.658	108.62
330.887	121.62
331.115	118.62
331.344	86.62
331.572	96.62
331.801	93.62
332.03	73.62
332.258	108.62
332.486	93.62
332.715	75.62
332.943	94.62
333.172	82.62
333.4	99.62
333.629	109.62
333.857	109.62
334.085	100.62
334.314	110.62
334.542	119.62
334.771	119.62
334.999	89.62
335.227	94.62
335.455	85.62
335.684	93.62
335.912	93.62
336.14	99.62
336.369	103.62
336.597	95.62
336.825	103.62
337.053	92.62
337.281	95.62
337.51	80.62
337.738	100.62
337.966	96.62
338.194	91.62
338.422	87.62
338.65	85.62
338.878	94.62
339.106	84.62
339.334	82.62
339.562	95.62
339.79	89.62
340.018	99.62
340.246	101.62
340.474	88.62
340.702	99.62
340.93	84.62
341.158	92.62
341.386	109.62
341.614	86.62
341.842	102.62
342.07	103.62
342.298	90.62
342.526	94.62
342.754	91.62
342.981	83.62
343.209	82.62
343.437	102.62
343.665	102.62
343.893	90.62
344.12	89.62
344.348	100.62
344.576	91.62
344.804	93.62
345.031	95.62
345.259	91.62
345.487	92.62
345.714	76.62
345.942	90.62
346.17	79.62
346.397	94.62
346.625	92.62
346.853	94.62
347.08	87.62
347.308	119.62
347.535	96.62
347.763	91.62
347.99	97.62
348.218	77.62
348.445	102.62
348.673	91.62
348.9	100.62
349.128	97.62
349.355	88.62
349.583	96.62
349.81	83.62
350.037	86.62
350.265	92.62
350.492	83.62
350.72	95.62
350.947	97.62
351.174	105.62
351.402	82.62
351.629	99.62
351.856	103.62
352.083	108.62
352.311	92.62
352.538	99.62
352.765	96.62
352.992	113.62
353.22	109.62
353.447	102.62
353.674	107.62
353.901	92.62
354.128	97.62
354.355	92.62
354.583	105.62
354.81	89.62
355.037	92.62
355.264	96.62
355.491	93.62
355.718	84.62
355.945	98.62
356.172	100.62
356.399	83.62
356.626	92.62
356.853	97.62
357.08	90.62
357.307	89.62
357.534	89.62
357.761	88.62
357.988	89.62
358.215	74.62
358.441	85.62
358.668	85.62
358.895	90.62
359.122	89.62
359.349	90.62
359.576	85.62
359.802	93.62
360.029	100.62
360.256	100.62
360.483	97.62
360.709	77.62
360.936	87.62
361.163	105.62
361.39	94.62
361.616	99.62
361.843	95.62
362.07	108.62
362.296	76.62
362.523	83.62
362.749	94.62
362.976	89.62
363.203	96.62
363.429	84.62
363.656	75.62
363.882	87.62
364.109	86.62
364.335	105.62
364.562	95.62
364.788	91.62
365.015	99.62
365.241	86.62
365.468	94.62
365.694	98.62
365.92	96.62
366.147	90.62
366.373	85.62
366.599	86.62
366.826	96.62
367.052	82.62
367.278	81.62
367.505	91.62
367.731	79.62
367.957	94.62
368.184	93.62
368.41	101.62
368.636	101.62
368.862	103.62
369.089	95.62
369.315	84.62
369.541	93.62
369.767	95.62
369.993	84.62
370.219	88.62
370.445	80.62
370.672	99.62
370.898	78.62
371.124	88.62
371.35	109.62
371.576	81.62
371.802	87.62
372.028	94.62
372.254	74.62
372.48	87.62
372.706	83.62
372.932	93.62
373.158	84.62
373.384	92.62
373.61	94.62
373.835	86.62
374.061	74.62
374.287	109.62
374.513	101.62
374.739	95.62
374.965	79.62
375.191	85.62
375.416	87.62
375.642	92.62
375.868	89.62
376.094	101.62
376.319	90.62
376.545	87.62
376.771	91.62
376.997	88.62
377.222	82.62
377.448	78.62
377.674	81.62
377.899	97.62
378.125	95.62
378.35	98.62
378.576	85.62
378.802	84.62
379.027	96.62
379.253	93.62
379.478	107.62
379.704	81.62
379.929	84.62
380.155	110.62
380.38	91.62
380.606	102.62
380.831	88.62
381.057	97.62
381.282	87.62
381.507	97.62
381.733	97.62
381.958	94.62
382.184	95.62
382.409	90.62
382.634	121.62
382.86	101.62
383.085	102.62
383.31	113.62
383.535	99.62
383.761	105.62
383.986	110.62
384.211	80.62
384.436	95.62
384.662	107.62
384.887	94.62
385.112	105.62
385.337	94.62
385.562	79.62
385.787	105.62
386.013	93.62
386.238	110.62
386.463	104.62
386.688	124.62
386.913	107.62
387.138	117.62
387.363	103.62
387.588	109.62
387.813	108.62
388.038	101.62
388.263	109.62
388.488	106.62
388.713	94.62
388.938	109.62
389.163	85.62
389.387	93.62
389.612	96.62
389.837	87.62
390.062	98.62
390.287	86.62
390.512	94.62
390.736	74.62
390.961	103.62
391.186	85.62
391.411	95.62
391.636	88.62
391.86	93.62
392.085	89.62
392.31	82.62
392.534	89.62
392.759	78.62
392.984	85.62
393.208	91.62
393.433	88.62
393.658	73.62
393.882	81.62
394.107	87.62
394.331	76.62
394.556	93.62
394.78	89.62
395.005	94.62
395.229	79.62
395.454	79.62
395.678	79.62
395.903	86.62
396.127	87.62
396.352	74.62
396.576	79.62
396.801	90.62
397.025	87.62
397.249	100.62
397.474	97.62
397.698	79.62
397.922	94.62
398.147	85.62
398.371	78.62
398.595	97.62
398.82	87.62
399.044	78.62
399.268	95.62
399.492	92.62
399.717	79.62
399.941	103.62
400.165	97.62
400.389	99.62
400.613	95.62
400.837	95.62
401.062	82.62
401.286	86.62
401.51	82.62
401.734	103.62
401.958	97.62
402.182	114.62
402.406	130.62
402.63	95.62
402.854	69.62
403.078	72.62
403.302	77.62
403.526	85.62
403.75	97.62
403.974	90.62
404.198	88.62
404.422	66.62
404.645	80.62
404.869	85.62
405.093	91.62
405.317	80.62
405.541	88.62
405.765	99.62
405.988	109.62
406.212	139.62
406.436	166.62
406.66	112.62
406.883	87.62
407.107	94.62
407.331	103.62
407.555	93.62
407.778	95.62
408.002	86.62
408.226	94.62
408.449	78.62
408.673	91.62
408.896	95.62
409.12	90.62
409.344	105.62
409.567	93.62
409.791	83.62
410.014	73.62
410.238	87.62
410.461	85.62
410.685	91.62
410.908	87.62
411.132	116.62
411.355	90.62
411.578	101.62
411.802	92.62
412.025	89.62
412.249	103.62
412.472	98.62
412.695	86.62
412.919	90.62
413.142	101.62
413.365	87.62
413.589	93.62
413.812	91.62
414.035	95.62
414.258	87.62
414.482	84.62
414.705	82.62
414.928	108.62
415.151	102.62
415.374	96.62
415.597	94.62
415.821	81.62
416.044	92.62
416.267	93.62
416.49	90.62
416.713	85.62
416.936	101.62
417.159	94.62
417.382	66.62
417.605	82.62
417.828	87.62
418.051	81.62
418.274	84.62
418.497	88.62
418.72	102.62
418.943	79.62
419.166	84.62
419.389	90.62
419.611	92.62
419.834	77.62
420.057	96.62
420.28	91.62
420.503	81.62
420.726	84.62
420.948	91.62
421.171	81.62
421.394	88.62
421.617	94.62
421.839	100.62
422.062	106.62
422.285	99.62
422.507	77.62
422.73	103.62
422.953	90.62
423.175	83.62
423.398	83.62
423.621	101.62
423.843	88.62
424.066	90.62
424.288	90.62
424.511	88.62
424.733	99.62
424.956	103.62
425.178	84.62
425.401	94.62
425.623	108.62
425.846	92.62
426.068	79.62
426.291	93.62
426.513	97.62
426.735	92.62
426.958	103.62
427.18	99.62
427.402	116.62
427.625	133.62
427.847	119.62
428.069	110.62
428.292	99.62
428.514	76.62
428.736	76.62
428.958	87.62
429.181	79.62
429.403	85.62
429.625	83.62
429.847	87.62
430.069	98.62
430.292	93.62
430.514	96.62
430.736	92.62
430.958	90.62
431.18	88.62
431.402	78.62
431.624	85.62
431.846	90.62
432.068	89.62
432.29	95.62
432.512	101.62
432.734	88.62
432.956	89.62
433.178	91.62
433.4	100.62
433.622	88.62
433.844	81.62
434.066	76.62
434.287	84.62
434.509	95.62
434.731	89.62
434.953	92.62
435.175	70.62
435.397	86.62
435.618	85.62
435.84	107.62
436.062	110.62
436.284	91.62
436.505	98.62
436.727	95.62
436.949	84.62
437.17	83.62
437.392	85.62
437.614	89.62
437.835	90.62
438.057	104.62
438.278	89.62
438.5	102.62
438.721	108.62
438.943	89.62
439.165	74.62
439.386	92.62
439.608	82.62
439.829	89.62
440.05	113.62
440.272	131.62
440.493	93.62
440.715	75.62
440.936	81.62
441.158	92.62
441.379	86.62
441.6	81.62
441.822	89.62
442.043	94.62
442.264	84.62
442.486	108.62
442.707	89.62
442.928	111.62
443.149	111.62
443.371	119.62
443.592	108.62
443.813	110.62
444.034	98.62
444.255	99.62
444.476	100.62
444.698	73.62
444.919	81.62
445.14	117.62
445.361	119.62
445.582	107.62
445.803	124.62
446.024	104.62
446.245	111.62
446.466	100.62
446.687	85.62
446.908	86.62
447.129	87.62
447.35	90.62
447.571	90.62
447.792	90.62
448.013	90.62
448.234	103.62
448.455	100.62
448.675	127.62
448.896	101.62
449.117	93.62
449.338	98.62
449.559	127.62
449.779	109.62
450	95.62
450.221	62.62
450.442	90.62
450.662	100.62
450.883	95.62
451.104	100.62
451.324	91.62
451.545	90.62
451.766	90.62
451.986	98.62
452.207	82.62
452.428	85.62
452.648	100.62
452.869	105.62
453.089	102.62
453.31	93.62
453.53	93.62
453.751	84.62
453.971	85.62
454.192	83.62
454.412	88.62
454.633	76.62
454.853	87.62
455.073	81.62
455.294	88.62
455.514	87.62
455.734	93.62
455.955	97.62
456.175	82.62
456.395	91.62
456.616	86.62
456.836	87.62
457.056	85.62
457.276	89.62
457.497	85.62
457.717	82.62
457.937	81.62
458.157	79.62
458.377	89.62
458.598	97.62
458.818	123.62
459.038	137.62
459.258	114.62
459.478	82.62
459.698	88.62
459.918	84.62
460.138	67.62
460.358	99.62
460.578	98.62
460.798	88.62
461.018	77.62
461.238	79.62
461.458	85.62
461.678	67.62
461.898	85.62
462.118	85.62
462.338	79.62
462.558	94.62
462.777	100.62
462.997	88.62
463.217	85.62
463.437	89.62
463.657	96.62
463.876	68.62
464.096	89.62
464.316	96.62
464.536	107.62
464.755	97.62
464.975	106.62
465.195	132.62
465.414	138.62
465.634	99.62
465.854	78.62
466.073	82.62
466.293	89.62
466.512	94.62
466.732	74.62
466.951	89.62
467.171	95.62
467.391	78.62
467.61	92.62
467.829	93.62
468.049	96.62
468.268	105.62
468.488	100.62
468.707	83.62
468.927	87.62
469.146	83.62
469.365	83.62
469.585	93.62
469.804	93.62
470.023	88.62
470.243	87.62
470.462	91.62
470.681	103.62
470.901	86.62
471.12	78.62
471.339	95.62
471.558	65.62
471.777	67.62
471.997	94.62
472.216	103.62
472.435	124.62
472.654	103.62
472.873	89.62
473.092	94.62
473.311	84.62
473.53	84.62
473.749	88.62
473.968	105.62
474.187	104.62
474.406	91.62
474.625	97.62
474.844	102.62
475.063	88.62
475.282	93.62
475.501	88.62
475.72	102.62
475.939	91.62
476.158	95.62
476.377	94.62
476.596	86.62
476.814	87.62
477.033	85.62
477.252	77.62
477.471	87.62
477.69	91.62
477.908	94.62
478.127	84.62
478.346	75.62
478.564	89.62
478.783	88.62
479.002	83.62
479.22	111.62
479.439	111.62
479.658	102.62
479.876	94.62
480.095	84.62
480.313	95.62
480.532	88.62
480.751	82.62
480.969	102.62
481.188	171.62
481.406	137.62
481.624	101.62
481.843	93.62
482.061	88.62
482.28	78.62
482.498	96.62
482.717	84.62
482.935	94.62
483.153	85.62
483.372	90.62
483.59	85.62
483.808	94.62
484.027	102.62
484.245	89.62
484.463	86.62
484.681	73.62
484.9	71.62
485.118	106.62
485.336	103.62
485.554	95.62
485.772	115.62
485.99	93.62
486.209	100.62
486.427	97.62
486.645	119.62
486.863	105.62
487.081	91.62
487.299	108.62
487.517	84.62
487.735	85.62
487.953	87.62
488.171	100.62
488.389	103.62
488.607	93.62
488.825	97.62
489.043	96.62
489.261	87.62
489.479	95.62
489.696	98.62
489.914	94.62
490.132	97.62
490.35	97.62
490.568	99.62
490.786	87.62
491.003	98.62
491.221	100.62
491.439	89.62
491.657	83.62
491.874	99.62
492.092	88.62
492.31	81.62
492.527	77.62
492.745	87.62
492.963	94.62
493.18	94.62
493.398	100.62
493.615	94.62
493.833	87.62
494.05	84.62
494.268	105.62
494.485	88.62
494.703	96.62
494.92	84.62
495.138	91.62
495.355	102.62
495.573	99.62
495.79	109.62
496.008	91.62
496.225	74.62
496.442	93.62
496.66	89.62
496.877	100.62
497.094	105.62
497.312	84.62
497.529	91.62
497.746	105.62
497.963	76.62
498.181	99.62
498.398	89.62
498.615	90.62
498.832	97.62
499.049	101.62
499.267	89.62
499.484	91.62
499.701	84.62
499.918	86.62
500.135	89.62
500.352	90.62
500.569	103.62
500.786	76.62
501.003	87.62
501.22	93.62
501.437	99.62
501.654	100.62
501.871	91.62
502.088	87.62
502.305	106.62
502.522	94.62
502.739	85.62
502.956	97.62
503.172	79.62
503.389	95.62
503.606	100.62
503.823	97.62
504.04	85.62
504.256	79.62
504.473	76.62
504.69	75.62
504.907	84.62
505.123	98.62
505.34	102.62
505.557	98.62
505.773	83.62
505.99	76.62
506.207	95.62
506.423	73.62
506.64	90.62
506.856	89.62
507.073	96.62
507.289	90.62
507.506	97.62
507.722	93.62
507.939	88.62
508.155	104.62
508.372	98.62
508.588	105.62
508.805	112.62
509.021	107.62
509.238	100.62
509.454	89.62
509.67	98.62
509.887	97.62
510.103	121.62
510.319	167.62
510.536	527.62
510.752	1582.62
510.968	447.62
511.184	135.62
511.401	99.62
511.617	98.62
511.833	97.62
512.049	107.62
512.265	97.62
512.481	75.62
512.698	97.62
512.914	89.62
513.13	106.62
513.346	106.62
513.562	87.62
513.778	90.62
513.994	97.62
514.21	103.62
514.426	100.62
514.642	109.62
514.858	101.62
515.074	140.62
515.29	308.62
515.506	897.62
515.721	350.62
515.937	123.62
516.153	115.62
516.369	98.62
