Data from Circ_1982_H10_HRD10591_00030.txt Node
Date: Wed Jan 03 12:30:47 EST 2024
User: Yrep
Spectrometer: HR+D1059
Trigger mode: 1
Integration Time (sec): 1.000000E-1
Scans to average: 1
Electric dark correction enabled: true
Nonlinearity correction enabled: false
Boxcar width: 0
XAxis mode: Wavelengths
Number of Pixels in Spectrum: 2048
>>>>>Begin Spectral Data<<<<<
223.165	-19.31
223.4	-19.31
223.635	-19.31
223.869	-24.31
224.104	-32.31
224.338	-13.31
224.573	-23.31
224.808	-26.31
225.042	1.69
225.277	-3.31
225.511	-4.31
225.746	18.69
225.98	7.69
226.215	12.69
226.449	13.69
226.683	20.69
226.918	36.69
227.152	34.69
227.387	31.69
227.621	47.69
227.856	52.69
228.09	46.69
228.324	53.69
228.559	70.69
228.793	65.69
229.027	61.69
229.262	55.69
229.496	65.69
229.73	81.69
229.964	71.69
230.199	80.69
230.433	80.69
230.667	89.69
230.901	69.69
231.136	80.69
231.37	88.69
231.604	81.69
231.838	70.69
232.072	82.69
232.306	85.69
232.541	81.69
232.775	90.69
233.009	85.69
233.243	93.69
233.477	77.69
233.711	83.69
233.945	66.69
234.179	80.69
234.413	73.69
234.647	71.69
234.881	79.69
235.115	90.69
235.349	84.69
235.583	82.69
235.817	86.69
236.051	68.69
236.285	67.69
236.519	79.69
236.753	69.69
236.987	67.69
237.221	83.69
237.455	76.69
237.689	85.69
237.922	74.69
238.156	66.69
238.39	81.69
238.624	70.69
238.858	74.69
239.091	66.69
239.325	78.69
239.559	88.69
239.793	73.69
240.027	74.69
240.26	80.69
240.494	52.69
240.728	84.69
240.961	61.69
241.195	76.69
241.429	81.69
241.662	77.69
241.896	65.69
242.13	81.69
242.363	70.69
242.597	85.69
242.83	75.69
243.064	82.69
243.298	73.69
243.531	77.69
243.765	87.69
243.998	87.69
244.232	88.69
244.465	86.69
244.699	77.69
244.932	85.69
245.166	87.69
245.399	80.69
245.633	69.69
245.866	79.69
246.099	72.69
246.333	72.69
246.566	86.69
246.8	88.69
247.033	72.69
247.266	71.69
247.5	82.69
247.733	76.69
247.966	80.69
248.2	82.69
248.433	89.69
248.666	62.69
248.899	84.69
249.133	79.69
249.366	96.69
249.599	98.69
249.832	98.69
250.066	81.69
250.299	91.69
250.532	99.69
250.765	107.69
250.998	79.69
251.231	76.69
251.465	78.69
251.698	81.69
251.931	77.69
252.164	84.69
252.397	83.69
252.63	81.69
252.863	81.69
253.096	73.69
253.329	88.69
253.562	92.69
253.795	98.69
254.028	75.69
254.261	84.69
254.494	54.69
254.727	70.69
254.96	85.69
255.193	75.69
255.426	65.69
255.659	56.69
255.892	72.69
256.124	86.69
256.357	100.69
256.59	91.69
256.823	82.69
257.056	65.69
257.289	92.69
257.521	84.69
257.754	89.69
257.987	96.69
258.22	83.69
258.452	74.69
258.685	91.69
258.918	76.69
259.151	90.69
259.383	69.69
259.616	76.69
259.849	80.69
260.081	86.69
260.314	89.69
260.547	88.69
260.779	75.69
261.012	84.69
261.244	72.69
261.477	71.69
261.71	80.69
261.942	104.69
262.175	108.69
262.407	85.69
262.64	82.69
262.872	86.69
263.105	89.69
263.337	86.69
263.57	75.69
263.802	100.69
264.035	82.69
264.267	86.69
264.499	70.69
264.732	86.69
264.964	76.69
265.197	85.69
265.429	78.69
265.661	90.69
265.894	75.69
266.126	85.69
266.358	84.69
266.591	96.69
266.823	86.69
267.055	82.69
267.287	78.69
267.52	76.69
267.752	86.69
267.984	77.69
268.216	101.69
268.448	102.69
268.681	88.69
268.913	87.69
269.145	76.69
269.377	78.69
269.609	83.69
269.841	84.69
270.073	90.69
270.306	76.69
270.538	93.69
270.77	92.69
271.002	85.69
271.234	77.69
271.466	88.69
271.698	83.69
271.93	88.69
272.162	95.69
272.394	90.69
272.626	92.69
272.858	77.69
273.09	94.69
273.322	86.69
273.553	83.69
273.785	90.69
274.017	89.69
274.249	90.69
274.481	93.69
274.713	91.69
274.945	87.69
275.176	80.69
275.408	83.69
275.64	90.69
275.872	73.69
276.104	90.69
276.335	100.69
276.567	92.69
276.799	98.69
277.031	86.69
277.262	91.69
277.494	98.69
277.726	90.69
277.957	83.69
278.189	88.69
278.421	92.69
278.652	80.69
278.884	86.69
279.115	93.69
279.347	90.69
279.579	77.69
279.81	94.69
280.042	98.69
280.273	82.69
280.505	95.69
280.736	96.69
280.968	98.69
281.199	70.69
281.431	85.69
281.662	88.69
281.894	84.69
282.125	104.69
282.356	110.69
282.588	121.69
282.819	100.69
283.051	89.69
283.282	84.69
283.513	89.69
283.745	102.69
283.976	84.69
284.207	85.69
284.439	99.69
284.67	89.69
284.901	92.69
285.132	80.69
285.364	80.69
285.595	85.69
285.826	93.69
286.057	87.69
286.288	70.69
286.52	83.69
286.751	94.69
286.982	106.69
287.213	85.69
287.444	104.69
287.675	86.69
287.906	82.69
288.138	68.69
288.369	88.69
288.6	99.69
288.831	90.69
289.062	81.69
289.293	101.69
289.524	97.69
289.755	77.69
289.986	94.69
290.217	76.69
290.448	89.69
290.679	87.69
290.91	107.69
291.141	80.69
291.371	78.69
291.602	93.69
291.833	83.69
292.064	89.69
292.295	104.69
292.526	69.69
292.757	96.69
292.987	88.69
293.218	92.69
293.449	83.69
293.68	100.69
293.91	65.69
294.141	82.69
294.372	94.69
294.603	90.69
294.833	84.69
295.064	91.69
295.295	78.69
295.525	91.69
295.756	100.69
295.987	108.69
296.217	131.69
296.448	118.69
296.679	82.69
296.909	74.69
297.14	94.69
297.37	93.69
297.601	81.69
297.831	82.69
298.062	93.69
298.292	85.69
298.523	82.69
298.753	95.69
298.984	88.69
299.214	98.69
299.445	88.69
299.675	77.69
299.905	96.69
300.136	82.69
300.366	85.69
300.597	82.69
300.827	92.69
301.057	105.69
301.288	107.69
301.518	84.69
301.748	84.69
301.979	89.69
302.209	90.69
302.439	91.69
302.669	86.69
302.9	81.69
303.13	104.69
303.36	96.69
303.59	86.69
303.82	102.69
304.051	80.69
304.281	87.69
304.511	81.69
304.741	93.69
304.971	83.69
305.201	84.69
305.431	74.69
305.661	90.69
305.891	86.69
306.121	98.69
306.352	101.69
306.582	116.69
306.812	89.69
307.042	93.69
307.272	93.69
307.502	88.69
307.731	89.69
307.961	89.69
308.191	75.69
308.421	92.69
308.651	88.69
308.881	90.69
309.111	107.69
309.341	88.69
309.571	107.69
309.8	90.69
310.03	88.69
310.26	90.69
310.49	95.69
310.72	104.69
310.949	103.69
311.179	102.69
311.409	89.69
311.639	102.69
311.868	99.69
312.098	89.69
312.328	92.69
312.557	96.69
312.787	96.69
313.017	89.69
313.246	92.69
313.476	105.69
313.706	80.69
313.935	92.69
314.165	96.69
314.394	100.69
314.624	93.69
314.853	88.69
315.083	98.69
315.312	97.69
315.542	90.69
315.771	91.69
316.001	93.69
316.23	80.69
316.46	104.69
316.689	86.69
316.919	87.69
317.148	96.69
317.377	100.69
317.607	100.69
317.836	90.69
318.065	79.69
318.295	66.69
318.524	93.69
318.753	112.69
318.983	83.69
319.212	89.69
319.441	95.69
319.67	101.69
319.9	92.69
320.129	82.69
320.358	89.69
320.587	82.69
320.816	94.69
321.046	91.69
321.275	90.69
321.504	95.69
321.733	85.69
321.962	103.69
322.191	75.69
322.42	101.69
322.649	106.69
322.878	91.69
323.108	108.69
323.337	116.69
323.566	117.69
323.795	128.69
324.024	158.69
324.253	291.69
324.482	588.69
324.71	1157.69
324.939	1501.69
325.168	580.69
325.397	192.69
325.626	122.69
325.855	107.69
326.084	111.69
326.313	122.69
326.542	124.69
326.77	200.69
326.999	328.69
327.228	675.69
327.457	1217.69
327.686	973.69
327.914	289.69
328.143	158.69
328.372	141.69
328.6	114.69
328.829	101.69
329.058	125.69
329.287	102.69
329.515	97.69
329.744	94.69
329.972	101.69
330.201	90.69
330.43	114.69
330.658	117.69
330.887	118.69
331.115	100.69
331.344	86.69
331.572	88.69
331.801	96.69
332.03	97.69
332.258	95.69
332.486	110.69
332.715	84.69
332.943	105.69
333.172	90.69
333.4	88.69
333.629	93.69
333.857	122.69
334.085	103.69
334.314	101.69
334.542	112.69
334.771	118.69
334.999	90.69
335.227	94.69
335.455	98.69
335.684	101.69
335.912	97.69
336.14	101.69
336.369	95.69
336.597	94.69
336.825	109.69
337.053	86.69
337.281	76.69
337.51	85.69
337.738	93.69
337.966	85.69
338.194	82.69
338.422	86.69
338.65	97.69
338.878	96.69
339.106	89.69
339.334	99.69
339.562	91.69
339.79	83.69
340.018	93.69
340.246	94.69
340.474	84.69
340.702	92.69
340.93	78.69
341.158	96.69
341.386	80.69
341.614	88.69
341.842	109.69
342.07	89.69
342.298	104.69
342.526	91.69
342.754	79.69
342.981	103.69
343.209	93.69
343.437	100.69
343.665	85.69
343.893	73.69
344.12	89.69
344.348	88.69
344.576	87.69
344.804	81.69
345.031	84.69
345.259	107.69
345.487	100.69
345.714	84.69
345.942	96.69
346.17	92.69
346.397	85.69
346.625	86.69
346.853	99.69
347.08	87.69
347.308	86.69
347.535	107.69
347.763	90.69
347.99	90.69
348.218	89.69
348.445	100.69
348.673	73.69
348.9	92.69
349.128	105.69
349.355	86.69
349.583	87.69
349.81	83.69
350.037	87.69
350.265	97.69
350.492	98.69
350.72	91.69
350.947	87.69
351.174	113.69
351.402	97.69
351.629	104.69
351.856	99.69
352.083	103.69
352.311	102.69
352.538	109.69
352.765	97.69
352.992	101.69
353.22	104.69
353.447	110.69
353.674	106.69
353.901	101.69
354.128	93.69
354.355	97.69
354.583	112.69
354.81	84.69
355.037	97.69
355.264	101.69
355.491	86.69
355.718	94.69
355.945	91.69
356.172	86.69
356.399	77.69
356.626	85.69
356.853	84.69
357.08	96.69
357.307	102.69
357.534	77.69
357.761	86.69
357.988	101.69
358.215	98.69
358.441	97.69
358.668	93.69
358.895	84.69
359.122	90.69
359.349	99.69
359.576	98.69
359.802	88.69
360.029	97.69
360.256	100.69
360.483	94.69
360.709	100.69
360.936	83.69
361.163	93.69
361.39	94.69
361.616	84.69
361.843	87.69
362.07	84.69
362.296	102.69
362.523	91.69
362.749	92.69
362.976	83.69
363.203	87.69
363.429	86.69
363.656	90.69
363.882	79.69
364.109	92.69
364.335	91.69
364.562	93.69
364.788	92.69
365.015	89.69
365.241	99.69
365.468	88.69
365.694	108.69
365.92	86.69
366.147	80.69
366.373	101.69
366.599	80.69
366.826	93.69
367.052	98.69
367.278	92.69
367.505	99.69
367.731	93.69
367.957	92.69
368.184	87.69
368.41	102.69
368.636	114.69
368.862	96.69
369.089	89.69
369.315	105.69
369.541	82.69
369.767	84.69
369.993	82.69
370.219	94.69
370.445	77.69
370.672	89.69
370.898	92.69
371.124	82.69
371.35	94.69
371.576	94.69
371.802	84.69
372.028	77.69
372.254	92.69
372.48	84.69
372.706	93.69
372.932	87.69
373.158	78.69
373.384	92.69
373.61	96.69
373.835	82.69
374.061	87.69
374.287	103.69
374.513	88.69
374.739	97.69
374.965	85.69
375.191	91.69
375.416	87.69
375.642	92.69
375.868	92.69
376.094	90.69
376.319	91.69
376.545	75.69
376.771	99.69
376.997	90.69
377.222	96.69
377.448	96.69
377.674	97.69
377.899	98.69
378.125	97.69
378.35	93.69
378.576	100.69
378.802	94.69
379.027	95.69
379.253	92.69
379.478	97.69
379.704	88.69
379.929	92.69
380.155	85.69
380.38	96.69
380.606	87.69
380.831	92.69
381.057	94.69
381.282	93.69
381.507	82.69
381.733	88.69
381.958	85.69
382.184	100.69
382.409	97.69
382.634	104.69
382.86	101.69
383.085	107.69
383.31	105.69
383.535	108.69
383.761	96.69
383.986	99.69
384.211	104.69
384.436	91.69
384.662	100.69
384.887	100.69
385.112	85.69
385.337	104.69
385.562	106.69
385.787	108.69
386.013	106.69
386.238	109.69
386.463	108.69
386.688	108.69
386.913	88.69
387.138	102.69
387.363	97.69
387.588	113.69
387.813	120.69
388.038	108.69
388.263	109.69
388.488	110.69
388.713	98.69
388.938	101.69
389.163	93.69
389.387	90.69
389.612	102.69
389.837	96.69
390.062	94.69
390.287	75.69
390.512	88.69
390.736	100.69
390.961	94.69
391.186	94.69
391.411	99.69
391.636	94.69
391.86	93.69
392.085	86.69
392.31	86.69
392.534	88.69
392.759	89.69
392.984	96.69
393.208	81.69
393.433	92.69
393.658	101.69
393.882	82.69
394.107	91.69
394.331	89.69
394.556	95.69
394.78	99.69
395.005	93.69
395.229	83.69
395.454	80.69
395.678	85.69
395.903	102.69
396.127	93.69
396.352	79.69
396.576	82.69
396.801	88.69
397.025	78.69
397.249	95.69
397.474	92.69
397.698	88.69
397.922	107.69
398.147	96.69
398.371	99.69
398.595	78.69
398.82	90.69
399.044	92.69
399.268	82.69
399.492	96.69
399.717	90.69
399.941	89.69
400.165	79.69
400.389	77.69
400.613	74.69
400.837	76.69
401.062	84.69
401.286	97.69
401.51	103.69
401.734	97.69
401.958	87.69
402.182	117.69
402.406	140.69
402.63	112.69
402.854	88.69
403.078	85.69
403.302	78.69
403.526	80.69
403.75	82.69
403.974	97.69
404.198	72.69
404.422	87.69
404.645	89.69
404.869	94.69
405.093	87.69
405.317	101.69
405.541	97.69
405.765	106.69
405.988	104.69
406.212	124.69
406.436	175.69
406.66	131.69
406.883	98.69
407.107	91.69
407.331	111.69
407.555	106.69
407.778	94.69
408.002	83.69
408.226	91.69
408.449	92.69
408.673	84.69
408.896	95.69
409.12	80.69
409.344	97.69
409.567	102.69
409.791	92.69
410.014	88.69
410.238	97.69
410.461	95.69
410.685	90.69
410.908	94.69
411.132	99.69
411.355	96.69
411.578	92.69
411.802	98.69
412.025	95.69
412.249	82.69
412.472	96.69
412.695	96.69
412.919	105.69
413.142	84.69
413.365	93.69
413.589	100.69
413.812	96.69
414.035	80.69
414.258	92.69
414.482	99.69
414.705	98.69
414.928	81.69
415.151	72.69
415.374	93.69
415.597	94.69
415.821	88.69
416.044	92.69
416.267	78.69
416.49	75.69
416.713	77.69
416.936	94.69
417.159	78.69
417.382	91.69
417.605	82.69
417.828	97.69
418.051	106.69
418.274	80.69
418.497	101.69
418.72	93.69
418.943	112.69
419.166	90.69
419.389	86.69
419.611	87.69
419.834	83.69
420.057	91.69
420.28	92.69
420.503	89.69
420.726	84.69
420.948	92.69
421.171	98.69
421.394	91.69
421.617	98.69
421.839	77.69
422.062	92.69
422.285	105.69
422.507	105.69
422.73	101.69
422.953	96.69
423.175	89.69
423.398	96.69
423.621	85.69
423.843	87.69
424.066	86.69
424.288	84.69
424.511	92.69
424.733	91.69
424.956	114.69
425.178	98.69
425.401	96.69
425.623	88.69
425.846	80.69
426.068	97.69
426.291	98.69
426.513	82.69
426.735	86.69
426.958	82.69
427.18	94.69
427.402	101.69
427.625	144.69
427.847	108.69
428.069	92.69
428.292	84.69
428.514	88.69
428.736	82.69
428.958	90.69
429.181	84.69
429.403	85.69
429.625	86.69
429.847	81.69
430.069	89.69
430.292	100.69
430.514	87.69
430.736	88.69
430.958	95.69
431.18	90.69
431.402	82.69
431.624	83.69
431.846	93.69
432.068	100.69
432.29	101.69
432.512	76.69
432.734	78.69
432.956	80.69
433.178	101.69
433.4	86.69
433.622	90.69
433.844	87.69
434.066	93.69
434.287	83.69
434.509	87.69
434.731	84.69
434.953	81.69
435.175	91.69
435.397	85.69
435.618	92.69
435.84	92.69
436.062	99.69
436.284	106.69
436.505	108.69
436.727	84.69
436.949	96.69
437.17	85.69
437.392	85.69
437.614	87.69
437.835	93.69
438.057	106.69
438.278	103.69
438.5	92.69
438.721	106.69
438.943	101.69
439.165	85.69
439.386	92.69
439.608	90.69
439.829	103.69
440.05	101.69
440.272	96.69
440.493	84.69
440.715	97.69
440.936	107.69
441.158	92.69
441.379	98.69
441.6	99.69
441.822	75.69
442.043	95.69
442.264	102.69
442.486	109.69
442.707	104.69
442.928	100.69
443.149	108.69
443.371	105.69
443.592	104.69
443.813	90.69
444.034	96.69
444.255	97.69
444.476	108.69
444.698	96.69
444.919	92.69
445.14	133.69
445.361	130.69
445.582	107.69
445.803	126.69
446.024	119.69
446.245	133.69
446.466	108.69
446.687	97.69
446.908	89.69
447.129	92.69
447.35	83.69
447.571	99.69
447.792	81.69
448.013	92.69
448.234	99.69
448.455	89.69
448.675	105.69
448.896	116.69
449.117	85.69
449.338	89.69
449.559	109.69
449.779	114.69
450	94.69
450.221	81.69
450.442	105.69
450.662	98.69
450.883	78.69
451.104	93.69
451.324	85.69
451.545	91.69
451.766	88.69
451.986	91.69
452.207	80.69
452.428	93.69
452.648	97.69
452.869	107.69
453.089	103.69
453.31	102.69
453.53	86.69
453.751	94.69
453.971	102.69
454.192	94.69
454.412	86.69
454.633	87.69
454.853	88.69
455.073	85.69
455.294	83.69
455.514	97.69
455.734	93.69
455.955	84.69
456.175	66.69
456.395	94.69
456.616	93.69
456.836	90.69
457.056	82.69
457.276	74.69
457.497	86.69
457.717	86.69
457.937	98.69
458.157	78.69
458.377	83.69
458.598	91.69
458.818	120.69
459.038	127.69
459.258	101.69
459.478	87.69
459.698	89.69
459.918	75.69
460.138	92.69
460.358	95.69
460.578	96.69
460.798	92.69
461.018	74.69
461.238	84.69
461.458	93.69
461.678	80.69
461.898	99.69
462.118	92.69
462.338	91.69
462.558	93.69
462.777	93.69
462.997	104.69
463.217	87.69
463.437	93.69
463.657	91.69
463.876	89.69
464.096	105.69
464.316	104.69
464.536	76.69
464.755	80.69
464.975	115.69
465.195	131.69
465.414	118.69
465.634	92.69
465.854	88.69
466.073	94.69
466.293	86.69
466.512	89.69
466.732	99.69
466.951	76.69
467.171	79.69
467.391	95.69
467.61	102.69
467.829	101.69
468.049	97.69
468.268	102.69
468.488	82.69
468.707	89.69
468.927	95.69
469.146	82.69
469.365	85.69
469.585	92.69
469.804	89.69
470.023	81.69
470.243	93.69
470.462	96.69
470.681	96.69
470.901	101.69
471.12	96.69
471.339	93.69
471.558	101.69
471.777	91.69
471.997	101.69
472.216	93.69
472.435	109.69
472.654	69.69
472.873	93.69
473.092	84.69
473.311	94.69
473.53	88.69
473.749	97.69
473.968	85.69
474.187	86.69
474.406	91.69
474.625	87.69
474.844	95.69
475.063	75.69
475.282	84.69
475.501	87.69
475.72	91.69
475.939	87.69
476.158	81.69
476.377	82.69
476.596	75.69
476.814	86.69
477.033	76.69
477.252	85.69
477.471	97.69
477.69	94.69
477.908	94.69
478.127	93.69
478.346	86.69
478.564	85.69
478.783	86.69
479.002	95.69
479.22	92.69
479.439	89.69
479.658	100.69
479.876	101.69
480.095	83.69
480.313	84.69
480.532	86.69
480.751	100.69
480.969	101.69
481.188	157.69
481.406	127.69
481.624	105.69
481.843	70.69
482.061	85.69
482.28	83.69
482.498	84.69
482.717	77.69
482.935	88.69
483.153	77.69
483.372	78.69
483.59	89.69
483.808	85.69
484.027	82.69
484.245	83.69
484.463	78.69
484.681	84.69
484.9	81.69
485.118	93.69
485.336	102.69
485.554	100.69
485.772	115.69
485.99	97.69
486.209	97.69
486.427	89.69
486.645	98.69
486.863	115.69
487.081	104.69
487.299	98.69
487.517	91.69
487.735	102.69
487.953	98.69
488.171	77.69
488.389	85.69
488.607	92.69
488.825	80.69
489.043	86.69
489.261	93.69
489.479	89.69
489.696	83.69
489.914	91.69
490.132	90.69
490.35	88.69
490.568	83.69
490.786	87.69
491.003	88.69
491.221	84.69
491.439	96.69
491.657	99.69
491.874	97.69
492.092	76.69
492.31	93.69
492.527	87.69
492.745	84.69
492.963	84.69
493.18	78.69
493.398	99.69
493.615	104.69
493.833	80.69
494.05	83.69
494.268	91.69
494.485	83.69
494.703	81.69
494.92	70.69
495.138	85.69
495.355	98.69
495.573	89.69
495.79	76.69
496.008	100.69
496.225	89.69
496.442	90.69
496.66	93.69
496.877	91.69
497.094	97.69
497.312	85.69
497.529	86.69
497.746	56.69
497.963	96.69
498.181	81.69
498.398	95.69
498.615	114.69
498.832	105.69
499.049	79.69
499.267	90.69
499.484	92.69
499.701	93.69
499.918	93.69
500.135	90.69
500.352	87.69
500.569	88.69
500.786	103.69
501.003	82.69
501.22	92.69
501.437	85.69
501.654	87.69
501.871	81.69
502.088	77.69
502.305	88.69
502.522	102.69
502.739	99.69
502.956	80.69
503.172	90.69
503.389	94.69
503.606	102.69
503.823	100.69
504.04	88.69
504.256	92.69
504.473	97.69
504.69	92.69
504.907	97.69
505.123	98.69
505.34	94.69
505.557	88.69
505.773	94.69
505.99	82.69
506.207	89.69
506.423	81.69
506.64	75.69
506.856	83.69
507.073	101.69
507.289	93.69
507.506	90.69
507.722	104.69
507.939	104.69
508.155	92.69
508.372	87.69
508.588	96.69
508.805	102.69
509.021	94.69
509.238	87.69
509.454	78.69
509.67	86.69
509.887	98.69
510.103	120.69
510.319	186.69
510.536	597.69
510.752	1705.69
510.968	492.69
511.184	133.69
511.401	105.69
511.617	85.69
511.833	86.69
512.049	82.69
512.265	104.69
512.481	86.69
512.698	96.69
512.914	87.69
513.13	107.69
513.346	80.69
513.562	89.69
513.778	84.69
513.994	88.69
514.21	91.69
514.426	115.69
514.642	116.69
514.858	93.69
515.074	132.69
515.29	350.69
515.506	1039.69
515.721	418.69
515.937	123.69
516.153	100.69
