Data from Circ_1982_H10_HRD10591_00063.txt Node
Date: Wed Jan 03 12:30:53 EST 2024
User: Yrep
Spectrometer: HR+D1059
Trigger mode: 1
Integration Time (sec): 1.000000E-1
Scans to average: 1
Electric dark correction enabled: true
Nonlinearity correction enabled: false
Boxcar width: 0
XAxis mode: Wavelengths
Number of Pixels in Spectrum: 2048
>>>>>Begin Spectral Data<<<<<
223.165	-17.62
223.4	-17.62
223.635	-17.62
223.869	-9.62
224.104	-20.62
224.338	-9.62
224.573	-15.62
224.808	-18.62
225.042	-16.62
225.277	-7.62
225.511	-10.62
225.746	-1.62
225.98	18.38
226.215	15.38
226.449	4.38
226.683	17.38
226.918	32.38
227.152	40.38
227.387	33.38
227.621	37.38
227.856	48.38
228.09	50.38
228.324	42.38
228.559	66.38
228.793	60.38
229.027	64.38
229.262	63.38
229.496	63.38
229.73	66.38
229.964	66.38
230.199	90.38
230.433	66.38
230.667	62.38
230.901	70.38
231.136	74.38
231.37	71.38
231.604	78.38
231.838	65.38
232.072	84.38
232.306	82.38
232.541	76.38
232.775	76.38
233.009	80.38
233.243	59.38
233.477	76.38
233.711	71.38
233.945	89.38
234.179	82.38
234.413	77.38
234.647	76.38
234.881	88.38
235.115	74.38
235.349	72.38
235.583	87.38
235.817	68.38
236.051	64.38
236.285	75.38
236.519	82.38
236.753	90.38
236.987	90.38
237.221	71.38
237.455	72.38
237.689	62.38
237.922	71.38
238.156	69.38
238.39	68.38
238.624	79.38
238.858	72.38
239.091	71.38
239.325	67.38
239.559	73.38
239.793	62.38
240.027	71.38
240.26	61.38
240.494	90.38
240.728	78.38
240.961	84.38
241.195	85.38
241.429	75.38
241.662	60.38
241.896	72.38
242.13	78.38
242.363	75.38
242.597	62.38
242.83	68.38
243.064	72.38
243.298	83.38
243.531	82.38
243.765	66.38
243.998	79.38
244.232	76.38
244.465	80.38
244.699	70.38
244.932	84.38
245.166	82.38
245.399	93.38
245.633	86.38
245.866	73.38
246.099	85.38
246.333	76.38
246.566	76.38
246.8	86.38
247.033	84.38
247.266	81.38
247.5	80.38
247.733	93.38
247.966	78.38
248.2	101.38
248.433	78.38
248.666	71.38
248.899	70.38
249.133	86.38
249.366	100.38
249.599	85.38
249.832	77.38
250.066	70.38
250.299	66.38
250.532	78.38
250.765	72.38
250.998	83.38
251.231	80.38
251.465	83.38
251.698	88.38
251.931	75.38
252.164	78.38
252.397	75.38
252.63	83.38
252.863	86.38
253.096	78.38
253.329	73.38
253.562	80.38
253.795	73.38
254.028	78.38
254.261	81.38
254.494	73.38
254.727	80.38
254.96	79.38
255.193	63.38
255.426	86.38
255.659	73.38
255.892	72.38
256.124	73.38
256.357	86.38
256.59	74.38
256.823	69.38
257.056	79.38
257.289	77.38
257.521	80.38
257.754	74.38
257.987	78.38
258.22	96.38
258.452	79.38
258.685	75.38
258.918	79.38
259.151	82.38
259.383	69.38
259.616	65.38
259.849	96.38
260.081	80.38
260.314	91.38
260.547	81.38
260.779	88.38
261.012	90.38
261.244	93.38
261.477	80.38
261.71	90.38
261.942	95.38
262.175	102.38
262.407	91.38
262.64	87.38
262.872	71.38
263.105	88.38
263.337	79.38
263.57	73.38
263.802	82.38
264.035	71.38
264.267	68.38
264.499	71.38
264.732	81.38
264.964	84.38
265.197	84.38
265.429	86.38
265.661	73.38
265.894	93.38
266.126	80.38
266.358	78.38
266.591	83.38
266.823	86.38
267.055	79.38
267.287	86.38
267.52	92.38
267.752	90.38
267.984	85.38
268.216	90.38
268.448	88.38
268.681	90.38
268.913	99.38
269.145	91.38
269.377	94.38
269.609	85.38
269.841	75.38
270.073	94.38
270.306	92.38
270.538	80.38
270.77	83.38
271.002	78.38
271.234	80.38
271.466	90.38
271.698	91.38
271.93	107.38
272.162	78.38
272.394	84.38
272.626	81.38
272.858	85.38
273.09	85.38
273.322	96.38
273.553	100.38
273.785	73.38
274.017	80.38
274.249	87.38
274.481	88.38
274.713	78.38
274.945	84.38
275.176	68.38
275.408	82.38
275.64	87.38
275.872	102.38
276.104	75.38
276.335	91.38
276.567	90.38
276.799	88.38
277.031	83.38
277.262	93.38
277.494	84.38
277.726	86.38
277.957	92.38
278.189	84.38
278.421	90.38
278.652	101.38
278.884	78.38
279.115	82.38
279.347	75.38
279.579	92.38
279.81	94.38
280.042	90.38
280.273	94.38
280.505	78.38
280.736	76.38
280.968	96.38
281.199	80.38
281.431	79.38
281.662	89.38
281.894	76.38
282.125	99.38
282.356	102.38
282.588	113.38
282.819	98.38
283.051	81.38
283.282	83.38
283.513	82.38
283.745	75.38
283.976	84.38
284.207	88.38
284.439	95.38
284.67	85.38
284.901	72.38
285.132	88.38
285.364	71.38
285.595	72.38
285.826	93.38
286.057	96.38
286.288	86.38
286.52	89.38
286.751	66.38
286.982	84.38
287.213	79.38
287.444	99.38
287.675	86.38
287.906	87.38
288.138	84.38
288.369	97.38
288.6	99.38
288.831	89.38
289.062	101.38
289.293	82.38
289.524	65.38
289.755	91.38
289.986	80.38
290.217	83.38
290.448	86.38
290.679	84.38
290.91	71.38
291.141	73.38
291.371	82.38
291.602	83.38
291.833	82.38
292.064	83.38
292.295	86.38
292.526	90.38
292.757	98.38
292.987	96.38
293.218	88.38
293.449	83.38
293.68	73.38
293.91	80.38
294.141	99.38
294.372	95.38
294.603	75.38
294.833	81.38
295.064	86.38
295.295	94.38
295.525	82.38
295.756	94.38
295.987	114.38
296.217	103.38
296.448	100.38
296.679	91.38
296.909	88.38
297.14	90.38
297.37	91.38
297.601	84.38
297.831	71.38
298.062	93.38
298.292	80.38
298.523	84.38
298.753	87.38
298.984	88.38
299.214	91.38
299.445	93.38
299.675	94.38
299.905	81.38
300.136	90.38
300.366	84.38
300.597	98.38
300.827	103.38
301.057	107.38
301.288	82.38
301.518	92.38
301.748	107.38
301.979	88.38
302.209	88.38
302.439	91.38
302.669	85.38
302.9	98.38
303.13	89.38
303.36	92.38
303.59	107.38
303.82	103.38
304.051	101.38
304.281	90.38
304.511	90.38
304.741	89.38
304.971	97.38
305.201	91.38
305.431	88.38
305.661	88.38
305.891	90.38
306.121	75.38
306.352	103.38
306.582	100.38
306.812	89.38
307.042	98.38
307.272	92.38
307.502	91.38
307.731	101.38
307.961	94.38
308.191	97.38
308.421	87.38
308.651	86.38
308.881	95.38
309.111	70.38
309.341	85.38
309.571	86.38
309.8	75.38
310.03	90.38
310.26	95.38
310.49	86.38
310.72	86.38
310.949	97.38
311.179	88.38
311.409	94.38
311.639	97.38
311.868	82.38
312.098	89.38
312.328	84.38
312.557	101.38
312.787	108.38
313.017	90.38
313.246	85.38
313.476	95.38
313.706	104.38
313.935	97.38
314.165	100.38
314.394	105.38
314.624	87.38
314.853	109.38
315.083	88.38
315.312	86.38
315.542	82.38
315.771	87.38
316.001	85.38
316.23	83.38
316.46	96.38
316.689	89.38
316.919	82.38
317.148	81.38
317.377	85.38
317.607	97.38
317.836	87.38
318.065	84.38
318.295	80.38
318.524	84.38
318.753	88.38
318.983	90.38
319.212	105.38
319.441	93.38
319.67	104.38
319.9	87.38
320.129	83.38
320.358	98.38
320.587	89.38
320.816	82.38
321.046	105.38
321.275	92.38
321.504	84.38
321.733	95.38
321.962	98.38
322.191	83.38
322.42	105.38
322.649	99.38
322.878	89.38
323.108	105.38
323.337	104.38
323.566	119.38
323.795	137.38
324.024	165.38
324.253	282.38
324.482	575.38
324.71	1134.38
324.939	1521.38
325.168	566.38
325.397	193.38
325.626	121.38
325.855	109.38
326.084	121.38
326.313	112.38
326.542	130.38
326.77	185.38
326.999	338.38
327.228	674.38
327.457	1164.38
327.686	946.38
327.914	283.38
328.143	167.38
328.372	126.38
328.6	104.38
328.829	84.38
329.058	110.38
329.287	106.38
329.515	111.38
329.744	104.38
329.972	97.38
330.201	103.38
330.43	120.38
330.658	114.38
330.887	117.38
331.115	108.38
331.344	87.38
331.572	96.38
331.801	87.38
332.03	101.38
332.258	106.38
332.486	92.38
332.715	94.38
332.943	91.38
333.172	91.38
333.4	84.38
333.629	100.38
333.857	101.38
334.085	97.38
334.314	113.38
334.542	114.38
334.771	123.38
334.999	108.38
335.227	81.38
335.455	93.38
335.684	88.38
335.912	98.38
336.14	89.38
336.369	101.38
336.597	95.38
336.825	86.38
337.053	99.38
337.281	87.38
337.51	92.38
337.738	87.38
337.966	91.38
338.194	91.38
338.422	100.38
338.65	96.38
338.878	105.38
339.106	77.38
339.334	87.38
339.562	79.38
339.79	95.38
340.018	82.38
340.246	88.38
340.474	86.38
340.702	86.38
340.93	70.38
341.158	85.38
341.386	80.38
341.614	87.38
341.842	86.38
342.07	93.38
342.298	91.38
342.526	91.38
342.754	97.38
342.981	89.38
343.209	96.38
343.437	96.38
343.665	93.38
343.893	93.38
344.12	96.38
344.348	88.38
344.576	86.38
344.804	103.38
345.031	80.38
345.259	99.38
345.487	94.38
345.714	88.38
345.942	105.38
346.17	90.38
346.397	103.38
346.625	98.38
346.853	98.38
347.08	88.38
347.308	85.38
347.535	102.38
347.763	95.38
347.99	98.38
348.218	98.38
348.445	99.38
348.673	95.38
348.9	107.38
349.128	85.38
349.355	79.38
349.583	80.38
349.81	95.38
350.037	99.38
350.265	100.38
350.492	97.38
350.72	95.38
350.947	78.38
351.174	103.38
351.402	98.38
351.629	90.38
351.856	83.38
352.083	100.38
352.311	98.38
352.538	99.38
352.765	114.38
352.992	104.38
353.22	95.38
353.447	91.38
353.674	96.38
353.901	96.38
354.128	106.38
354.355	87.38
354.583	96.38
354.81	80.38
355.037	101.38
355.264	108.38
355.491	93.38
355.718	86.38
355.945	108.38
356.172	83.38
356.399	100.38
356.626	91.38
356.853	92.38
357.08	100.38
357.307	80.38
357.534	94.38
357.761	90.38
357.988	82.38
358.215	90.38
358.441	82.38
358.668	100.38
358.895	91.38
359.122	82.38
359.349	89.38
359.576	89.38
359.802	101.38
360.029	93.38
360.256	97.38
360.483	80.38
360.709	81.38
360.936	84.38
361.163	88.38
361.39	91.38
361.616	74.38
361.843	100.38
362.07	89.38
362.296	94.38
362.523	86.38
362.749	90.38
362.976	83.38
363.203	95.38
363.429	101.38
363.656	86.38
363.882	96.38
364.109	73.38
364.335	83.38
364.562	83.38
364.788	93.38
365.015	102.38
365.241	92.38
365.468	88.38
365.694	87.38
365.92	86.38
366.147	86.38
366.373	85.38
366.599	83.38
366.826	96.38
367.052	88.38
367.278	84.38
367.505	89.38
367.731	73.38
367.957	90.38
368.184	83.38
368.41	97.38
368.636	102.38
368.862	96.38
369.089	98.38
369.315	92.38
369.541	93.38
369.767	80.38
369.993	94.38
370.219	100.38
370.445	94.38
370.672	88.38
370.898	94.38
371.124	79.38
371.35	90.38
371.576	93.38
371.802	83.38
372.028	80.38
372.254	71.38
372.48	85.38
372.706	68.38
372.932	99.38
373.158	87.38
373.384	88.38
373.61	89.38
373.835	96.38
374.061	89.38
374.287	93.38
374.513	80.38
374.739	97.38
374.965	90.38
375.191	80.38
375.416	76.38
375.642	86.38
375.868	94.38
376.094	86.38
376.319	99.38
376.545	85.38
376.771	81.38
376.997	74.38
377.222	89.38
377.448	95.38
377.674	87.38
377.899	98.38
378.125	101.38
378.35	102.38
378.576	87.38
378.802	86.38
379.027	94.38
379.253	97.38
379.478	91.38
379.704	86.38
379.929	96.38
380.155	92.38
380.38	94.38
380.606	101.38
380.831	110.38
381.057	94.38
381.282	87.38
381.507	86.38
381.733	102.38
381.958	91.38
382.184	101.38
382.409	100.38
382.634	99.38
382.86	90.38
383.085	107.38
383.31	108.38
383.535	95.38
383.761	105.38
383.986	98.38
384.211	92.38
384.436	87.38
384.662	90.38
384.887	91.38
385.112	105.38
385.337	108.38
385.562	95.38
385.787	99.38
386.013	98.38
386.238	106.38
386.463	94.38
386.688	104.38
386.913	91.38
387.138	104.38
387.363	88.38
387.588	89.38
387.813	103.38
388.038	106.38
388.263	118.38
388.488	103.38
388.713	99.38
388.938	99.38
389.163	83.38
389.387	103.38
389.612	83.38
389.837	90.38
390.062	106.38
390.287	86.38
390.512	92.38
390.736	99.38
390.961	93.38
391.186	89.38
391.411	108.38
391.636	87.38
391.86	73.38
392.085	80.38
392.31	77.38
392.534	84.38
392.759	82.38
392.984	90.38
393.208	86.38
393.433	90.38
393.658	71.38
393.882	93.38
394.107	86.38
394.331	79.38
394.556	85.38
394.78	96.38
395.005	84.38
395.229	93.38
395.454	80.38
395.678	92.38
395.903	86.38
396.127	78.38
396.352	79.38
396.576	81.38
396.801	96.38
397.025	82.38
397.249	88.38
397.474	82.38
397.698	90.38
397.922	82.38
398.147	95.38
398.371	80.38
398.595	85.38
398.82	87.38
399.044	96.38
399.268	86.38
399.492	81.38
399.717	64.38
399.941	74.38
400.165	81.38
400.389	94.38
400.613	71.38
400.837	80.38
401.062	80.38
401.286	83.38
401.51	74.38
401.734	95.38
401.958	99.38
402.182	124.38
402.406	116.38
402.63	110.38
402.854	97.38
403.078	80.38
403.302	74.38
403.526	92.38
403.75	89.38
403.974	80.38
404.198	87.38
404.422	86.38
404.645	83.38
404.869	92.38
405.093	92.38
405.317	100.38
405.541	88.38
405.765	94.38
405.988	93.38
406.212	135.38
406.436	164.38
406.66	114.38
406.883	91.38
407.107	97.38
407.331	87.38
407.555	98.38
407.778	88.38
408.002	83.38
408.226	90.38
408.449	84.38
408.673	84.38
408.896	93.38
409.12	85.38
409.344	83.38
409.567	86.38
409.791	103.38
410.014	101.38
410.238	92.38
410.461	89.38
410.685	93.38
410.908	87.38
411.132	87.38
411.355	86.38
411.578	87.38
411.802	90.38
412.025	75.38
412.249	81.38
412.472	84.38
412.695	84.38
412.919	71.38
413.142	94.38
413.365	72.38
413.589	80.38
413.812	87.38
414.035	91.38
414.258	88.38
414.482	73.38
414.705	73.38
414.928	87.38
415.151	95.38
415.374	100.38
415.597	71.38
415.821	78.38
416.044	89.38
416.267	83.38
416.49	90.38
416.713	83.38
416.936	93.38
417.159	80.38
417.382	76.38
417.605	93.38
417.828	82.38
418.051	85.38
418.274	77.38
418.497	105.38
418.72	80.38
418.943	89.38
419.166	81.38
419.389	89.38
419.611	90.38
419.834	88.38
420.057	84.38
420.28	80.38
420.503	88.38
420.726	79.38
420.948	79.38
421.171	104.38
421.394	97.38
421.617	91.38
421.839	84.38
422.062	71.38
422.285	99.38
422.507	90.38
422.73	92.38
422.953	71.38
423.175	88.38
423.398	83.38
423.621	78.38
423.843	84.38
424.066	90.38
424.288	75.38
424.511	97.38
424.733	87.38
424.956	106.38
425.178	97.38
425.401	83.38
425.623	85.38
425.846	78.38
426.068	94.38
426.291	87.38
426.513	96.38
426.735	75.38
426.958	90.38
427.18	101.38
427.402	104.38
427.625	136.38
427.847	113.38
428.069	107.38
428.292	88.38
428.514	78.38
428.736	83.38
428.958	82.38
429.181	86.38
429.403	77.38
429.625	107.38
429.847	83.38
430.069	88.38
430.292	94.38
430.514	103.38
430.736	80.38
430.958	67.38
431.18	84.38
431.402	92.38
431.624	83.38
431.846	75.38
432.068	72.38
432.29	86.38
432.512	79.38
432.734	87.38
432.956	93.38
433.178	89.38
433.4	85.38
433.622	82.38
433.844	80.38
434.066	84.38
434.287	79.38
434.509	88.38
434.731	80.38
434.953	89.38
435.175	84.38
435.397	74.38
435.618	87.38
435.84	99.38
436.062	97.38
436.284	98.38
436.505	91.38
436.727	100.38
436.949	87.38
437.17	82.38
437.392	75.38
437.614	90.38
437.835	97.38
438.057	92.38
438.278	95.38
438.5	96.38
438.721	106.38
438.943	88.38
439.165	80.38
439.386	88.38
439.608	79.38
439.829	94.38
440.05	100.38
440.272	107.38
440.493	103.38
440.715	95.38
440.936	75.38
441.158	88.38
441.379	75.38
441.6	86.38
441.822	92.38
442.043	76.38
442.264	97.38
442.486	81.38
442.707	84.38
442.928	96.38
443.149	111.38
443.371	88.38
443.592	97.38
443.813	90.38
444.034	92.38
444.255	82.38
444.476	82.38
444.698	83.38
444.919	88.38
445.14	115.38
445.361	116.38
445.582	76.38
445.803	118.38
446.024	115.38
446.245	107.38
446.466	105.38
446.687	95.38
446.908	99.38
447.129	83.38
447.35	84.38
447.571	78.38
447.792	87.38
448.013	98.38
448.234	95.38
448.455	99.38
448.675	86.38
448.896	81.38
449.117	91.38
449.338	97.38
449.559	125.38
449.779	100.38
450	85.38
450.221	78.38
450.442	78.38
450.662	96.38
450.883	97.38
451.104	91.38
451.324	90.38
451.545	88.38
451.766	79.38
451.986	90.38
452.207	77.38
452.428	85.38
452.648	80.38
452.869	81.38
453.089	104.38
453.31	96.38
453.53	78.38
453.751	70.38
453.971	84.38
454.192	95.38
454.412	69.38
454.633	105.38
454.853	88.38
455.073	73.38
455.294	88.38
455.514	90.38
455.734	95.38
455.955	88.38
456.175	91.38
456.395	82.38
456.616	79.38
456.836	74.38
457.056	84.38
457.276	84.38
457.497	92.38
457.717	83.38
457.937	86.38
458.157	91.38
458.377	81.38
458.598	94.38
458.818	111.38
459.038	121.38
459.258	108.38
459.478	87.38
459.698	90.38
459.918	84.38
460.138	61.38
460.358	71.38
460.578	80.38
460.798	84.38
461.018	86.38
461.238	84.38
461.458	87.38
461.678	87.38
461.898	98.38
462.118	77.38
462.338	90.38
462.558	78.38
462.777	74.38
462.997	82.38
463.217	76.38
463.437	86.38
463.657	66.38
463.876	82.38
464.096	98.38
464.316	84.38
464.536	91.38
464.755	83.38
464.975	89.38
465.195	139.38
465.414	119.38
465.634	92.38
465.854	99.38
466.073	80.38
466.293	102.38
466.512	80.38
466.732	75.38
466.951	78.38
467.171	80.38
467.391	83.38
467.61	97.38
467.829	80.38
468.049	99.38
468.268	101.38
468.488	97.38
468.707	88.38
468.927	84.38
469.146	95.38
469.365	90.38
469.585	91.38
469.804	80.38
470.023	83.38
470.243	82.38
470.462	82.38
470.681	85.38
470.901	94.38
471.12	69.38
471.339	92.38
471.558	88.38
471.777	84.38
471.997	85.38
472.216	86.38
472.435	129.38
472.654	107.38
472.873	75.38
473.092	88.38
473.311	72.38
473.53	82.38
473.749	86.38
473.968	86.38
474.187	83.38
474.406	82.38
474.625	87.38
474.844	89.38
475.063	81.38
475.282	67.38
475.501	72.38
475.72	74.38
475.939	87.38
476.158	78.38
476.377	78.38
476.596	82.38
476.814	78.38
477.033	83.38
477.252	87.38
477.471	82.38
477.69	76.38
477.908	86.38
478.127	77.38
478.346	78.38
478.564	78.38
478.783	85.38
479.002	75.38
479.22	83.38
479.439	91.38
479.658	98.38
479.876	94.38
480.095	76.38
480.313	79.38
480.532	89.38
480.751	96.38
480.969	105.38
481.188	154.38
481.406	116.38
481.624	80.38
481.843	78.38
482.061	80.38
482.28	80.38
482.498	83.38
482.717	81.38
482.935	89.38
483.153	82.38
483.372	99.38
483.59	83.38
483.808	70.38
484.027	82.38
484.245	69.38
484.463	88.38
484.681	72.38
484.9	97.38
485.118	88.38
485.336	87.38
485.554	102.38
485.772	83.38
485.99	105.38
486.209	108.38
486.427	103.38
486.645	106.38
486.863	102.38
487.081	78.38
487.299	98.38
487.517	83.38
487.735	94.38
487.953	86.38
488.171	78.38
488.389	102.38
488.607	95.38
488.825	84.38
489.043	82.38
489.261	85.38
489.479	84.38
489.696	88.38
489.914	78.38
490.132	99.38
490.35	98.38
490.568	76.38
490.786	66.38
491.003	75.38
491.221	85.38
491.439	94.38
491.657	94.38
491.874	95.38
492.092	93.38
492.31	74.38
492.527	90.38
492.745	80.38
492.963	83.38
493.18	87.38
493.398	89.38
493.615	95.38
493.833	83.38
494.05	80.38
494.268	71.38
494.485	89.38
494.703	79.38
494.92	90.38
495.138	94.38
495.355	105.38
495.573	91.38
495.79	75.38
496.008	89.38
496.225	88.38
496.442	83.38
496.66	85.38
496.877	80.38
497.094	84.38
497.312	84.38
497.529	88.38
497.746	88.38
497.963	87.38
498.181	88.38
498.398	69.38
498.615	80.38
498.832	86.38
499.049	85.38
499.267	83.38
499.484	78.38
499.701	90.38
499.918	86.38
500.135	82.38
500.352	81.38
500.569	95.38
500.786	96.38
501.003	92.38
501.22	93.38
501.437	84.38
501.654	89.38
501.871	89.38
502.088	86.38
502.305	88.38
502.522	88.38
502.739	81.38
502.956	91.38
503.172	97.38
503.389	83.38
503.606	91.38
503.823	85.38
504.04	87.38
504.256	95.38
504.473	79.38
504.69	71.38
504.907	85.38
505.123	80.38
505.34	81.38
505.557	86.38
505.773	92.38
505.99	78.38
506.207	80.38
506.423	90.38
506.64	81.38
506.856	90.38
507.073	92.38
507.289	104.38
507.506	99.38
507.722	114.38
507.939	92.38
508.155	84.38
508.372	83.38
508.588	90.38
508.805	75.38
509.021	86.38
509.238	83.38
509.454	73.38
509.67	105.38
509.887	116.38
510.103	119.38
510.319	158.38
510.536	527.38
510.752	1552.38
510.968	447.38
511.184	139.38
511.401	110.38
511.617	101.38
511.833	72.38
512.049	84.38
512.265	96.38
512.481	96.38
512.698	89.38
512.914	92.38
513.13	85.38
513.346	86.38
513.562	90.38
513.778	87.38
513.994	83.38
514.21	80.38
514.426	101.38
514.642	93.38
514.858	98.38
515.074	125.38
515.29	323.38
515.506	881.38
515.721	342.38
515.937	115.38
516.153	101.38
516.369	91.38
516.585	86.38
516.801	100.38
517.016	91.38
517.232	84.38
