Data from Circ_1982_H10_HRD10591_00039.txt Node
Date: Wed Jan 03 12:30:49 EST 2024
User: Yrep
Spectrometer: HR+D1059
Trigger mode: 1
Integration Time (sec): 1.000000E-1
Scans to average: 1
Electric dark correction enabled: true
Nonlinearity correction enabled: false
Boxcar width: 0
XAxis mode: Wavelengths
Number of Pixels in Spectrum: 2048
>>>>>Begin Spectral Data<<<<<
223.165	-16.25
223.4	-16.25
223.635	-16.25
223.869	-17.25
224.104	-12.25
224.338	-15.25
224.573	-7.25
224.808	-21.25
225.042	-11.25
225.277	-6.25
225.511	7.75
225.746	-10.25
225.98	2.75
226.215	5.75
226.449	17.75
226.683	20.75
226.918	31.75
227.152	30.75
227.387	24.75
227.621	29.75
227.856	40.75
228.09	45.75
228.324	53.75
228.559	55.75
228.793	53.75
229.027	53.75
229.262	74.75
229.496	72.75
229.73	77.75
229.964	77.75
230.199	73.75
230.433	75.75
230.667	95.75
230.901	77.75
231.136	67.75
231.37	80.75
231.604	88.75
231.838	87.75
232.072	80.75
232.306	86.75
232.541	80.75
232.775	93.75
233.009	89.75
233.243	91.75
233.477	74.75
233.711	62.75
233.945	96.75
234.179	76.75
234.413	72.75
234.647	84.75
234.881	90.75
235.115	83.75
235.349	82.75
235.583	80.75
235.817	65.75
236.051	78.75
236.285	81.75
236.519	73.75
236.753	86.75
236.987	83.75
237.221	98.75
237.455	77.75
237.689	81.75
237.922	87.75
238.156	76.75
238.39	87.75
238.624	66.75
238.858	70.75
239.091	71.75
239.325	72.75
239.559	90.75
239.793	90.75
240.027	85.75
240.26	76.75
240.494	78.75
240.728	70.75
240.961	64.75
241.195	69.75
241.429	83.75
241.662	83.75
241.896	80.75
242.13	72.75
242.363	72.75
242.597	82.75
242.83	86.75
243.064	70.75
243.298	89.75
243.531	89.75
243.765	72.75
243.998	92.75
244.232	73.75
244.465	79.75
244.699	85.75
244.932	73.75
245.166	83.75
245.399	73.75
245.633	72.75
245.866	65.75
246.099	83.75
246.333	78.75
246.566	71.75
246.8	79.75
247.033	89.75
247.266	74.75
247.5	64.75
247.733	80.75
247.966	79.75
248.2	85.75
248.433	102.75
248.666	73.75
248.899	78.75
249.133	72.75
249.366	86.75
249.599	89.75
249.832	83.75
250.066	93.75
250.299	88.75
250.532	90.75
250.765	100.75
250.998	79.75
251.231	78.75
251.465	87.75
251.698	78.75
251.931	81.75
252.164	77.75
252.397	86.75
252.63	101.75
252.863	88.75
253.096	81.75
253.329	81.75
253.562	79.75
253.795	77.75
254.028	70.75
254.261	91.75
254.494	101.75
254.727	78.75
254.96	74.75
255.193	95.75
255.426	81.75
255.659	74.75
255.892	82.75
256.124	85.75
256.357	98.75
256.59	74.75
256.823	89.75
257.056	89.75
257.289	99.75
257.521	76.75
257.754	97.75
257.987	95.75
258.22	95.75
258.452	89.75
258.685	83.75
258.918	89.75
259.151	87.75
259.383	87.75
259.616	80.75
259.849	86.75
260.081	80.75
260.314	89.75
260.547	80.75
260.779	70.75
261.012	93.75
261.244	79.75
261.477	98.75
261.71	90.75
261.942	99.75
262.175	109.75
262.407	97.75
262.64	76.75
262.872	82.75
263.105	70.75
263.337	86.75
263.57	83.75
263.802	87.75
264.035	87.75
264.267	102.75
264.499	74.75
264.732	86.75
264.964	75.75
265.197	79.75
265.429	74.75
265.661	87.75
265.894	94.75
266.126	84.75
266.358	71.75
266.591	86.75
266.823	82.75
267.055	86.75
267.287	89.75
267.52	85.75
267.752	98.75
267.984	87.75
268.216	90.75
268.448	87.75
268.681	90.75
268.913	89.75
269.145	86.75
269.377	87.75
269.609	93.75
269.841	92.75
270.073	91.75
270.306	87.75
270.538	70.75
270.77	76.75
271.002	86.75
271.234	77.75
271.466	78.75
271.698	87.75
271.93	93.75
272.162	76.75
272.394	103.75
272.626	87.75
272.858	89.75
273.09	79.75
273.322	84.75
273.553	79.75
273.785	92.75
274.017	101.75
274.249	92.75
274.481	83.75
274.713	73.75
274.945	84.75
275.176	93.75
275.408	95.75
275.64	81.75
275.872	86.75
276.104	87.75
276.335	74.75
276.567	123.75
276.799	91.75
277.031	87.75
277.262	108.75
277.494	95.75
277.726	97.75
277.957	99.75
278.189	85.75
278.421	81.75
278.652	87.75
278.884	81.75
279.115	99.75
279.347	94.75
279.579	83.75
279.81	92.75
280.042	98.75
280.273	90.75
280.505	80.75
280.736	90.75
280.968	83.75
281.199	80.75
281.431	100.75
281.662	68.75
281.894	100.75
282.125	95.75
282.356	108.75
282.588	112.75
282.819	102.75
283.051	99.75
283.282	61.75
283.513	85.75
283.745	92.75
283.976	80.75
284.207	77.75
284.439	91.75
284.67	85.75
284.901	77.75
285.132	92.75
285.364	100.75
285.595	88.75
285.826	83.75
286.057	94.75
286.288	78.75
286.52	102.75
286.751	99.75
286.982	96.75
287.213	89.75
287.444	80.75
287.675	93.75
287.906	85.75
288.138	87.75
288.369	95.75
288.6	88.75
288.831	88.75
289.062	88.75
289.293	84.75
289.524	90.75
289.755	86.75
289.986	74.75
290.217	91.75
290.448	83.75
290.679	95.75
290.91	86.75
291.141	99.75
291.371	92.75
291.602	87.75
291.833	101.75
292.064	81.75
292.295	89.75
292.526	87.75
292.757	86.75
292.987	89.75
293.218	80.75
293.449	93.75
293.68	84.75
293.91	97.75
294.141	76.75
294.372	79.75
294.603	96.75
294.833	99.75
295.064	86.75
295.295	83.75
295.525	99.75
295.756	104.75
295.987	113.75
296.217	111.75
296.448	112.75
296.679	103.75
296.909	88.75
297.14	87.75
297.37	99.75
297.601	96.75
297.831	79.75
298.062	100.75
298.292	94.75
298.523	112.75
298.753	98.75
298.984	89.75
299.214	88.75
299.445	88.75
299.675	103.75
299.905	88.75
300.136	91.75
300.366	79.75
300.597	102.75
300.827	89.75
301.057	91.75
301.288	105.75
301.518	100.75
301.748	89.75
301.979	105.75
302.209	95.75
302.439	91.75
302.669	94.75
302.9	92.75
303.13	95.75
303.36	105.75
303.59	103.75
303.82	118.75
304.051	106.75
304.281	98.75
304.511	97.75
304.741	69.75
304.971	92.75
305.201	85.75
305.431	97.75
305.661	62.75
305.891	71.75
306.121	99.75
306.352	101.75
306.582	93.75
306.812	103.75
307.042	97.75
307.272	101.75
307.502	93.75
307.731	87.75
307.961	87.75
308.191	98.75
308.421	92.75
308.651	91.75
308.881	93.75
309.111	95.75
309.341	87.75
309.571	92.75
309.8	95.75
310.03	85.75
310.26	102.75
310.49	97.75
310.72	95.75
310.949	89.75
311.179	96.75
311.409	103.75
311.639	87.75
311.868	95.75
312.098	104.75
312.328	97.75
312.557	103.75
312.787	115.75
313.017	102.75
313.246	104.75
313.476	102.75
313.706	100.75
313.935	106.75
314.165	102.75
314.394	96.75
314.624	107.75
314.853	89.75
315.083	76.75
315.312	103.75
315.542	93.75
315.771	84.75
316.001	94.75
316.23	99.75
316.46	103.75
316.689	103.75
316.919	88.75
317.148	83.75
317.377	92.75
317.607	95.75
317.836	99.75
318.065	105.75
318.295	106.75
318.524	106.75
318.753	93.75
318.983	97.75
319.212	101.75
319.441	111.75
319.67	95.75
319.9	103.75
320.129	85.75
320.358	105.75
320.587	89.75
320.816	98.75
321.046	101.75
321.275	81.75
321.504	79.75
321.733	95.75
321.962	90.75
322.191	98.75
322.42	104.75
322.649	98.75
322.878	110.75
323.108	103.75
323.337	101.75
323.566	119.75
323.795	128.75
324.024	151.75
324.253	286.75
324.482	567.75
324.71	1078.75
324.939	1433.75
325.168	545.75
325.397	193.75
325.626	127.75
325.855	107.75
326.084	126.75
326.313	108.75
326.542	130.75
326.77	185.75
326.999	340.75
327.228	643.75
327.457	1132.75
327.686	927.75
327.914	281.75
328.143	174.75
328.372	129.75
328.6	102.75
328.829	104.75
329.058	112.75
329.287	102.75
329.515	106.75
329.744	91.75
329.972	108.75
330.201	113.75
330.43	120.75
330.658	131.75
330.887	119.75
331.115	110.75
331.344	94.75
331.572	93.75
331.801	93.75
332.03	98.75
332.258	94.75
332.486	97.75
332.715	93.75
332.943	96.75
333.172	105.75
333.4	96.75
333.629	115.75
333.857	93.75
334.085	113.75
334.314	106.75
334.542	119.75
334.771	125.75
334.999	112.75
335.227	92.75
335.455	120.75
335.684	111.75
335.912	85.75
336.14	105.75
336.369	89.75
336.597	98.75
336.825	96.75
337.053	101.75
337.281	96.75
337.51	94.75
337.738	88.75
337.966	88.75
338.194	97.75
338.422	96.75
338.65	102.75
338.878	104.75
339.106	93.75
339.334	101.75
339.562	96.75
339.79	95.75
340.018	87.75
340.246	91.75
340.474	100.75
340.702	77.75
340.93	98.75
341.158	103.75
341.386	94.75
341.614	94.75
341.842	100.75
342.07	89.75
342.298	89.75
342.526	92.75
342.754	91.75
342.981	84.75
343.209	87.75
343.437	98.75
343.665	87.75
343.893	88.75
344.12	94.75
344.348	93.75
344.576	99.75
344.804	89.75
345.031	95.75
345.259	101.75
345.487	111.75
345.714	97.75
345.942	97.75
346.17	95.75
346.397	99.75
346.625	87.75
346.853	91.75
347.08	103.75
347.308	92.75
347.535	93.75
347.763	96.75
347.99	101.75
348.218	108.75
348.445	99.75
348.673	96.75
348.9	81.75
349.128	110.75
349.355	96.75
349.583	95.75
349.81	100.75
350.037	97.75
350.265	91.75
350.492	86.75
350.72	93.75
350.947	98.75
351.174	100.75
351.402	120.75
351.629	100.75
351.856	95.75
352.083	105.75
352.311	107.75
352.538	101.75
352.765	102.75
352.992	130.75
353.22	112.75
353.447	106.75
353.674	99.75
353.901	101.75
354.128	111.75
354.355	107.75
354.583	99.75
354.81	104.75
355.037	96.75
355.264	97.75
355.491	109.75
355.718	92.75
355.945	105.75
356.172	93.75
356.399	101.75
356.626	83.75
356.853	108.75
357.08	97.75
357.307	101.75
357.534	98.75
357.761	100.75
357.988	103.75
358.215	109.75
358.441	97.75
358.668	99.75
358.895	93.75
359.122	99.75
359.349	87.75
359.576	88.75
359.802	86.75
360.029	88.75
360.256	101.75
360.483	102.75
360.709	93.75
360.936	95.75
361.163	104.75
361.39	85.75
361.616	95.75
361.843	88.75
362.07	100.75
362.296	90.75
362.523	118.75
362.749	89.75
362.976	100.75
363.203	93.75
363.429	97.75
363.656	100.75
363.882	87.75
364.109	92.75
364.335	96.75
364.562	106.75
364.788	90.75
365.015	100.75
365.241	95.75
365.468	89.75
365.694	99.75
365.92	96.75
366.147	100.75
366.373	100.75
366.599	93.75
366.826	91.75
367.052	88.75
367.278	95.75
367.505	95.75
367.731	92.75
367.957	111.75
368.184	79.75
368.41	87.75
368.636	95.75
368.862	104.75
369.089	108.75
369.315	101.75
369.541	93.75
369.767	98.75
369.993	92.75
370.219	95.75
370.445	88.75
370.672	93.75
370.898	85.75
371.124	103.75
371.35	97.75
371.576	90.75
371.802	96.75
372.028	94.75
372.254	89.75
372.48	81.75
372.706	94.75
372.932	103.75
373.158	87.75
373.384	101.75
373.61	83.75
373.835	86.75
374.061	93.75
374.287	96.75
374.513	89.75
374.739	89.75
374.965	79.75
375.191	96.75
375.416	101.75
375.642	102.75
375.868	104.75
376.094	90.75
376.319	94.75
376.545	72.75
376.771	103.75
376.997	92.75
377.222	107.75
377.448	85.75
377.674	71.75
377.899	106.75
378.125	90.75
378.35	106.75
378.576	107.75
378.802	91.75
379.027	85.75
379.253	89.75
379.478	92.75
379.704	102.75
379.929	79.75
380.155	112.75
380.38	91.75
380.606	95.75
380.831	103.75
381.057	94.75
381.282	99.75
381.507	84.75
381.733	99.75
381.958	85.75
382.184	112.75
382.409	94.75
382.634	103.75
382.86	94.75
383.085	118.75
383.31	95.75
383.535	117.75
383.761	101.75
383.986	111.75
384.211	94.75
384.436	109.75
384.662	91.75
384.887	107.75
385.112	110.75
385.337	107.75
385.562	111.75
385.787	106.75
386.013	121.75
386.238	113.75
386.463	108.75
386.688	110.75
386.913	99.75
387.138	114.75
387.363	115.75
387.588	98.75
387.813	90.75
388.038	108.75
388.263	116.75
388.488	116.75
388.713	90.75
388.938	103.75
389.163	98.75
389.387	102.75
389.612	106.75
389.837	91.75
390.062	97.75
390.287	104.75
390.512	113.75
390.736	85.75
390.961	93.75
391.186	94.75
391.411	115.75
391.636	103.75
391.86	101.75
392.085	95.75
392.31	97.75
392.534	83.75
392.759	78.75
392.984	97.75
393.208	89.75
393.433	95.75
393.658	99.75
393.882	103.75
394.107	75.75
394.331	102.75
394.556	75.75
394.78	103.75
395.005	94.75
395.229	91.75
395.454	89.75
395.678	95.75
395.903	99.75
396.127	101.75
396.352	107.75
396.576	85.75
396.801	79.75
397.025	83.75
397.249	91.75
397.474	100.75
397.698	85.75
397.922	87.75
398.147	88.75
398.371	91.75
398.595	88.75
398.82	85.75
399.044	100.75
399.268	86.75
399.492	92.75
399.717	87.75
399.941	114.75
400.165	106.75
400.389	83.75
400.613	87.75
400.837	95.75
401.062	84.75
401.286	99.75
401.51	95.75
401.734	91.75
401.958	103.75
402.182	112.75
402.406	131.75
402.63	109.75
402.854	94.75
403.078	70.75
403.302	85.75
403.526	87.75
403.75	98.75
403.974	94.75
404.198	97.75
404.422	89.75
404.645	92.75
404.869	89.75
405.093	102.75
405.317	116.75
405.541	103.75
405.765	80.75
405.988	111.75
406.212	149.75
406.436	178.75
406.66	123.75
406.883	101.75
407.107	95.75
407.331	118.75
407.555	89.75
407.778	101.75
408.002	107.75
408.226	94.75
408.449	99.75
408.673	97.75
408.896	90.75
409.12	85.75
409.344	91.75
409.567	89.75
409.791	109.75
410.014	101.75
410.238	86.75
410.461	79.75
410.685	90.75
410.908	108.75
411.132	99.75
411.355	95.75
411.578	88.75
411.802	78.75
412.025	95.75
412.249	108.75
412.472	102.75
412.695	83.75
412.919	103.75
413.142	96.75
413.365	84.75
413.589	105.75
413.812	93.75
414.035	101.75
414.258	86.75
414.482	96.75
414.705	71.75
414.928	89.75
415.151	93.75
415.374	91.75
415.597	80.75
415.821	108.75
416.044	104.75
416.267	79.75
416.49	97.75
416.713	95.75
416.936	94.75
417.159	105.75
417.382	96.75
417.605	88.75
417.828	96.75
418.051	86.75
418.274	107.75
418.497	91.75
418.72	97.75
418.943	90.75
419.166	79.75
419.389	99.75
419.611	105.75
419.834	91.75
420.057	85.75
420.28	83.75
420.503	78.75
420.726	87.75
420.948	108.75
421.171	96.75
421.394	76.75
421.617	86.75
421.839	102.75
422.062	89.75
422.285	92.75
422.507	91.75
422.73	85.75
422.953	92.75
423.175	100.75
423.398	91.75
423.621	88.75
423.843	95.75
424.066	88.75
424.288	97.75
424.511	95.75
424.733	100.75
424.956	109.75
425.178	109.75
425.401	110.75
425.623	92.75
425.846	98.75
426.068	102.75
426.291	99.75
426.513	92.75
426.735	103.75
426.958	102.75
427.18	101.75
427.402	127.75
427.625	115.75
427.847	110.75
428.069	99.75
428.292	82.75
428.514	86.75
428.736	80.75
428.958	89.75
429.181	102.75
429.403	82.75
429.625	87.75
429.847	97.75
430.069	95.75
430.292	96.75
430.514	94.75
430.736	93.75
430.958	104.75
431.18	82.75
431.402	93.75
431.624	92.75
431.846	88.75
432.068	74.75
432.29	91.75
432.512	88.75
432.734	90.75
432.956	100.75
433.178	88.75
433.4	94.75
433.622	101.75
433.844	87.75
434.066	85.75
434.287	95.75
434.509	91.75
434.731	91.75
434.953	100.75
435.175	91.75
435.397	101.75
435.618	90.75
435.84	99.75
436.062	95.75
436.284	100.75
436.505	84.75
436.727	87.75
436.949	72.75
437.17	93.75
437.392	91.75
437.614	89.75
437.835	96.75
438.057	92.75
438.278	102.75
438.5	102.75
438.721	116.75
438.943	95.75
439.165	85.75
439.386	99.75
439.608	103.75
439.829	108.75
440.05	115.75
440.272	107.75
440.493	92.75
440.715	98.75
440.936	86.75
441.158	105.75
441.379	81.75
441.6	107.75
441.822	93.75
442.043	85.75
442.264	89.75
442.486	99.75
442.707	85.75
442.928	101.75
443.149	118.75
443.371	121.75
443.592	93.75
443.813	102.75
444.034	107.75
444.255	83.75
444.476	92.75
444.698	91.75
444.919	87.75
445.14	128.75
445.361	112.75
445.582	107.75
445.803	111.75
446.024	118.75
446.245	109.75
446.466	93.75
446.687	107.75
446.908	85.75
447.129	98.75
447.35	78.75
447.571	84.75
447.792	89.75
448.013	111.75
448.234	108.75
448.455	102.75
448.675	101.75
448.896	108.75
449.117	90.75
449.338	108.75
449.559	107.75
449.779	112.75
450	87.75
450.221	83.75
450.442	89.75
450.662	102.75
450.883	99.75
451.104	99.75
451.324	78.75
451.545	93.75
451.766	86.75
451.986	100.75
452.207	94.75
452.428	98.75
452.648	100.75
452.869	104.75
453.089	116.75
453.31	112.75
453.53	104.75
453.751	94.75
453.971	102.75
454.192	90.75
454.412	84.75
454.633	88.75
454.853	76.75
455.073	80.75
455.294	86.75
455.514	103.75
455.734	92.75
455.955	94.75
456.175	101.75
456.395	103.75
456.616	83.75
456.836	85.75
457.056	79.75
457.276	88.75
457.497	78.75
457.717	95.75
457.937	87.75
458.157	77.75
458.377	95.75
458.598	99.75
458.818	133.75
459.038	129.75
459.258	93.75
459.478	89.75
459.698	76.75
459.918	92.75
460.138	79.75
460.358	74.75
460.578	81.75
460.798	85.75
461.018	93.75
461.238	91.75
461.458	88.75
461.678	91.75
461.898	83.75
462.118	90.75
462.338	85.75
462.558	95.75
462.777	92.75
462.997	77.75
463.217	85.75
463.437	90.75
463.657	85.75
463.876	97.75
464.096	89.75
464.316	89.75
464.536	81.75
464.755	94.75
464.975	93.75
465.195	118.75
465.414	116.75
465.634	103.75
465.854	96.75
466.073	86.75
466.293	86.75
466.512	96.75
466.732	77.75
466.951	94.75
467.171	93.75
467.391	104.75
467.61	85.75
467.829	90.75
468.049	93.75
468.268	99.75
468.488	94.75
468.707	96.75
468.927	96.75
469.146	97.75
469.365	85.75
469.585	77.75
469.804	99.75
470.023	88.75
470.243	102.75
470.462	113.75
470.681	98.75
470.901	84.75
471.12	83.75
471.339	93.75
471.558	100.75
471.777	86.75
471.997	101.75
472.216	103.75
472.435	140.75
472.654	90.75
472.873	96.75
473.092	87.75
473.311	103.75
473.53	83.75
473.749	94.75
473.968	87.75
474.187	105.75
474.406	91.75
474.625	91.75
474.844	86.75
475.063	90.75
475.282	83.75
475.501	88.75
475.72	102.75
475.939	98.75
476.158	80.75
476.377	93.75
476.596	95.75
476.814	94.75
477.033	89.75
477.252	72.75
477.471	94.75
477.69	104.75
477.908	91.75
478.127	92.75
478.346	91.75
478.564	79.75
478.783	83.75
479.002	92.75
479.22	78.75
479.439	103.75
479.658	86.75
479.876	98.75
480.095	99.75
480.313	93.75
480.532	94.75
480.751	88.75
480.969	116.75
481.188	180.75
481.406	125.75
481.624	105.75
481.843	99.75
482.061	110.75
482.28	96.75
482.498	73.75
482.717	76.75
482.935	89.75
483.153	87.75
483.372	106.75
483.59	94.75
483.808	79.75
484.027	87.75
484.245	93.75
484.463	98.75
484.681	88.75
484.9	91.75
485.118	109.75
485.336	106.75
485.554	102.75
485.772	111.75
485.99	111.75
486.209	108.75
486.427	103.75
486.645	102.75
486.863	103.75
487.081	118.75
487.299	96.75
487.517	94.75
487.735	106.75
487.953	103.75
488.171	104.75
488.389	112.75
488.607	93.75
488.825	81.75
489.043	97.75
489.261	100.75
489.479	83.75
489.696	85.75
489.914	92.75
490.132	86.75
490.35	107.75
490.568	91.75
490.786	89.75
491.003	91.75
491.221	99.75
491.439	92.75
491.657	90.75
491.874	94.75
492.092	84.75
492.31	101.75
492.527	87.75
492.745	91.75
492.963	97.75
493.18	92.75
493.398	106.75
493.615	115.75
493.833	94.75
494.05	100.75
494.268	111.75
494.485	93.75
494.703	102.75
494.92	87.75
495.138	92.75
495.355	97.75
495.573	103.75
495.79	101.75
496.008	101.75
496.225	85.75
496.442	95.75
496.66	99.75
496.877	93.75
497.094	102.75
497.312	90.75
497.529	89.75
497.746	105.75
497.963	86.75
498.181	84.75
498.398	95.75
498.615	111.75
498.832	99.75
499.049	90.75
499.267	100.75
499.484	96.75
499.701	107.75
499.918	94.75
500.135	112.75
500.352	94.75
500.569	99.75
500.786	88.75
501.003	74.75
501.22	78.75
501.437	93.75
501.654	95.75
501.871	87.75
502.088	102.75
502.305	98.75
502.522	99.75
502.739	80.75
502.956	102.75
503.172	102.75
503.389	96.75
503.606	96.75
503.823	91.75
504.04	96.75
504.256	98.75
504.473	93.75
504.69	83.75
504.907	90.75
505.123	91.75
505.34	80.75
505.557	105.75
505.773	94.75
505.99	88.75
506.207	91.75
506.423	90.75
506.64	82.75
506.856	96.75
507.073	110.75
507.289	103.75
507.506	90.75
507.722	99.75
507.939	118.75
508.155	84.75
508.372	105.75
508.588	90.75
508.805	90.75
509.021	98.75
509.238	102.75
509.454	88.75
509.67	108.75
509.887	95.75
510.103	126.75
510.319	170.75
510.536	567.75
510.752	1669.75
510.968	464.75
511.184	135.75
511.401	102.75
511.617	92.75
511.833	87.75
512.049	84.75
512.265	89.75
512.481	103.75
512.698	103.75
512.914	78.75
513.13	107.75
513.346	99.75
513.562	102.75
513.778	97.75
513.994	107.75
514.21	103.75
514.426	120.75
514.642	116.75
