Data from Circ_1982_H10_HRD10591_00095.txt Node
Date: Wed Jan 03 12:31:00 EST 2024
User: Yrep
Spectrometer: HR+D1059
Trigger mode: 1
Integration Time (sec): 1.000000E-1
Scans to average: 1
Electric dark correction enabled: true
Nonlinearity correction enabled: false
Boxcar width: 0
XAxis mode: Wavelengths
Number of Pixels in Spectrum: 2048
>>>>>Begin Spectral Data<<<<<
223.165	-11.5
223.4	-11.5
223.635	-11.5
223.869	-18.5
224.104	-30.5
224.338	-38.5
224.573	-6.5
224.808	-17.5
225.042	-5.5
225.277	2.5
225.511	5.5
225.746	4.5
225.98	4.5
226.215	3.5
226.449	25.5
226.683	30.5
226.918	19.5
227.152	32.5
227.387	36.5
227.621	27.5
227.856	36.5
228.09	40.5
228.324	44.5
228.559	48.5
228.793	60.5
229.027	60.5
229.262	64.5
229.496	74.5
229.73	92.5
229.964	91.5
230.199	83.5
230.433	83.5
230.667	74.5
230.901	68.5
231.136	83.5
231.37	72.5
231.604	91.5
231.838	81.5
232.072	69.5
232.306	85.5
232.541	88.5
232.775	91.5
233.009	90.5
233.243	72.5
233.477	68.5
233.711	77.5
233.945	82.5
234.179	73.5
234.413	67.5
234.647	74.5
234.881	72.5
235.115	68.5
235.349	72.5
235.583	83.5
235.817	81.5
236.051	70.5
236.285	81.5
236.519	85.5
236.753	76.5
236.987	76.5
237.221	81.5
237.455	83.5
237.689	80.5
237.922	74.5
238.156	75.5
238.39	61.5
238.624	66.5
238.858	74.5
239.091	84.5
239.325	71.5
239.559	60.5
239.793	81.5
240.027	92.5
240.26	82.5
240.494	93.5
240.728	76.5
240.961	78.5
241.195	82.5
241.429	81.5
241.662	73.5
241.896	68.5
242.13	69.5
242.363	87.5
242.597	86.5
242.83	71.5
243.064	74.5
243.298	73.5
243.531	81.5
243.765	72.5
243.998	65.5
244.232	72.5
244.465	84.5
244.699	84.5
244.932	75.5
245.166	79.5
245.399	83.5
245.633	83.5
245.866	84.5
246.099	75.5
246.333	69.5
246.566	73.5
246.8	89.5
247.033	73.5
247.266	58.5
247.5	68.5
247.733	78.5
247.966	85.5
248.2	90.5
248.433	73.5
248.666	83.5
248.899	69.5
249.133	73.5
249.366	83.5
249.599	101.5
249.832	63.5
250.066	69.5
250.299	84.5
250.532	75.5
250.765	65.5
250.998	76.5
251.231	83.5
251.465	76.5
251.698	79.5
251.931	84.5
252.164	79.5
252.397	83.5
252.63	82.5
252.863	82.5
253.096	88.5
253.329	70.5
253.562	75.5
253.795	80.5
254.028	73.5
254.261	79.5
254.494	76.5
254.727	81.5
254.96	81.5
255.193	76.5
255.426	67.5
255.659	82.5
255.892	71.5
256.124	83.5
256.357	66.5
256.59	83.5
256.823	79.5
257.056	89.5
257.289	84.5
257.521	79.5
257.754	92.5
257.987	86.5
258.22	66.5
258.452	69.5
258.685	89.5
258.918	90.5
259.151	83.5
259.383	84.5
259.616	79.5
259.849	71.5
260.081	74.5
260.314	83.5
260.547	88.5
260.779	81.5
261.012	81.5
261.244	70.5
261.477	75.5
261.71	97.5
261.942	96.5
262.175	110.5
262.407	80.5
262.64	91.5
262.872	83.5
263.105	80.5
263.337	77.5
263.57	85.5
263.802	79.5
264.035	81.5
264.267	90.5
264.499	79.5
264.732	72.5
264.964	83.5
265.197	79.5
265.429	68.5
265.661	55.5
265.894	63.5
266.126	89.5
266.358	89.5
266.591	89.5
266.823	80.5
267.055	84.5
267.287	88.5
267.52	83.5
267.752	86.5
267.984	84.5
268.216	76.5
268.448	95.5
268.681	94.5
268.913	82.5
269.145	92.5
269.377	88.5
269.609	72.5
269.841	74.5
270.073	82.5
270.306	94.5
270.538	87.5
270.77	88.5
271.002	74.5
271.234	83.5
271.466	74.5
271.698	95.5
271.93	92.5
272.162	87.5
272.394	93.5
272.626	80.5
272.858	94.5
273.09	85.5
273.322	84.5
273.553	70.5
273.785	88.5
274.017	79.5
274.249	85.5
274.481	83.5
274.713	100.5
274.945	72.5
275.176	81.5
275.408	82.5
275.64	84.5
275.872	87.5
276.104	95.5
276.335	83.5
276.567	96.5
276.799	89.5
277.031	93.5
277.262	92.5
277.494	91.5
277.726	85.5
277.957	100.5
278.189	71.5
278.421	83.5
278.652	96.5
278.884	83.5
279.115	93.5
279.347	98.5
279.579	84.5
279.81	82.5
280.042	74.5
280.273	72.5
280.505	82.5
280.736	87.5
280.968	81.5
281.199	85.5
281.431	90.5
281.662	86.5
281.894	89.5
282.125	88.5
282.356	93.5
282.588	120.5
282.819	97.5
283.051	102.5
283.282	74.5
283.513	102.5
283.745	74.5
283.976	71.5
284.207	81.5
284.439	77.5
284.67	75.5
284.901	79.5
285.132	83.5
285.364	67.5
285.595	97.5
285.826	88.5
286.057	90.5
286.288	85.5
286.52	84.5
286.751	84.5
286.982	88.5
287.213	87.5
287.444	81.5
287.675	85.5
287.906	79.5
288.138	92.5
288.369	91.5
288.6	88.5
288.831	91.5
289.062	76.5
289.293	89.5
289.524	85.5
289.755	73.5
289.986	79.5
290.217	85.5
290.448	81.5
290.679	93.5
290.91	99.5
291.141	90.5
291.371	93.5
291.602	88.5
291.833	77.5
292.064	89.5
292.295	83.5
292.526	86.5
292.757	86.5
292.987	86.5
293.218	85.5
293.449	66.5
293.68	90.5
293.91	90.5
294.141	97.5
294.372	81.5
294.603	89.5
294.833	96.5
295.064	86.5
295.295	91.5
295.525	100.5
295.756	100.5
295.987	109.5
296.217	118.5
296.448	92.5
296.679	104.5
296.909	87.5
297.14	87.5
297.37	93.5
297.601	67.5
297.831	68.5
298.062	76.5
298.292	88.5
298.523	89.5
298.753	85.5
298.984	81.5
299.214	81.5
299.445	82.5
299.675	93.5
299.905	87.5
300.136	83.5
300.366	77.5
300.597	96.5
300.827	97.5
301.057	92.5
301.288	99.5
301.518	80.5
301.748	95.5
301.979	105.5
302.209	83.5
302.439	93.5
302.669	91.5
302.9	85.5
303.13	84.5
303.36	92.5
303.59	98.5
303.82	97.5
304.051	87.5
304.281	91.5
304.511	88.5
304.741	75.5
304.971	86.5
305.201	91.5
305.431	83.5
305.661	93.5
305.891	85.5
306.121	80.5
306.352	92.5
306.582	98.5
306.812	88.5
307.042	102.5
307.272	90.5
307.502	96.5
307.731	87.5
307.961	101.5
308.191	72.5
308.421	92.5
308.651	80.5
308.881	93.5
309.111	97.5
309.341	95.5
309.571	96.5
309.8	82.5
310.03	101.5
310.26	96.5
310.49	88.5
310.72	96.5
310.949	107.5
311.179	81.5
311.409	95.5
311.639	83.5
311.868	93.5
312.098	95.5
312.328	89.5
312.557	103.5
312.787	97.5
313.017	103.5
313.246	90.5
313.476	79.5
313.706	86.5
313.935	94.5
314.165	90.5
314.394	89.5
314.624	64.5
314.853	84.5
315.083	91.5
315.312	80.5
315.542	85.5
315.771	83.5
316.001	94.5
316.23	91.5
316.46	81.5
316.689	88.5
316.919	85.5
317.148	89.5
317.377	88.5
317.607	101.5
317.836	88.5
318.065	89.5
318.295	93.5
318.524	84.5
318.753	76.5
318.983	72.5
319.212	88.5
319.441	100.5
319.67	98.5
319.9	86.5
320.129	109.5
320.358	87.5
320.587	90.5
320.816	103.5
321.046	101.5
321.275	91.5
321.504	93.5
321.733	84.5
321.962	96.5
322.191	87.5
322.42	95.5
322.649	93.5
322.878	102.5
323.108	107.5
323.337	117.5
323.566	109.5
323.795	131.5
324.024	171.5
324.253	298.5
324.482	606.5
324.71	1228.5
324.939	1603.5
325.168	612.5
325.397	193.5
325.626	137.5
325.855	129.5
326.084	111.5
326.313	131.5
326.542	127.5
326.77	196.5
326.999	373.5
327.228	710.5
327.457	1239.5
327.686	1012.5
327.914	285.5
328.143	153.5
328.372	127.5
328.6	112.5
328.829	106.5
329.058	108.5
329.287	112.5
329.515	107.5
329.744	97.5
329.972	106.5
330.201	114.5
330.43	104.5
330.658	97.5
330.887	130.5
331.115	104.5
331.344	96.5
331.572	87.5
331.801	90.5
332.03	95.5
332.258	92.5
332.486	83.5
332.715	94.5
332.943	93.5
333.172	85.5
333.4	100.5
333.629	104.5
333.857	105.5
334.085	128.5
334.314	113.5
334.542	111.5
334.771	121.5
334.999	94.5
335.227	86.5
335.455	81.5
335.684	90.5
335.912	92.5
336.14	95.5
336.369	104.5
336.597	88.5
336.825	89.5
337.053	94.5
337.281	93.5
337.51	81.5
337.738	114.5
337.966	91.5
338.194	100.5
338.422	85.5
338.65	93.5
338.878	85.5
339.106	82.5
339.334	89.5
339.562	86.5
339.79	87.5
340.018	83.5
340.246	102.5
340.474	89.5
340.702	68.5
340.93	89.5
341.158	75.5
341.386	87.5
341.614	99.5
341.842	84.5
342.07	85.5
342.298	97.5
342.526	96.5
342.754	75.5
342.981	83.5
343.209	86.5
343.437	95.5
343.665	81.5
343.893	106.5
344.12	85.5
344.348	74.5
344.576	86.5
344.804	98.5
345.031	95.5
345.259	87.5
345.487	97.5
345.714	100.5
345.942	83.5
346.17	88.5
346.397	99.5
346.625	68.5
346.853	68.5
347.08	84.5
347.308	96.5
347.535	81.5
347.763	102.5
347.99	102.5
348.218	82.5
348.445	101.5
348.673	79.5
348.9	85.5
349.128	97.5
349.355	81.5
349.583	87.5
349.81	95.5
350.037	89.5
350.265	77.5
350.492	83.5
350.72	91.5
350.947	92.5
351.174	113.5
351.402	101.5
351.629	103.5
351.856	93.5
352.083	91.5
352.311	87.5
352.538	106.5
352.765	104.5
352.992	108.5
353.22	95.5
353.447	105.5
353.674	104.5
353.901	92.5
354.128	97.5
354.355	80.5
354.583	87.5
354.81	120.5
355.037	92.5
355.264	98.5
355.491	100.5
355.718	83.5
355.945	92.5
356.172	93.5
356.399	90.5
356.626	97.5
356.853	89.5
357.08	84.5
357.307	97.5
357.534	74.5
357.761	95.5
357.988	94.5
358.215	96.5
358.441	95.5
358.668	77.5
358.895	87.5
359.122	91.5
359.349	96.5
359.576	100.5
359.802	91.5
360.029	99.5
360.256	97.5
360.483	101.5
360.709	88.5
360.936	104.5
361.163	105.5
361.39	83.5
361.616	89.5
361.843	97.5
362.07	87.5
362.296	91.5
362.523	79.5
362.749	93.5
362.976	88.5
363.203	90.5
363.429	84.5
363.656	95.5
363.882	91.5
364.109	85.5
364.335	93.5
364.562	89.5
364.788	75.5
365.015	105.5
365.241	94.5
365.468	99.5
365.694	103.5
365.92	87.5
366.147	90.5
366.373	81.5
366.599	97.5
366.826	91.5
367.052	79.5
367.278	91.5
367.505	82.5
367.731	103.5
367.957	85.5
368.184	85.5
368.41	80.5
368.636	94.5
368.862	113.5
369.089	94.5
369.315	85.5
369.541	82.5
369.767	92.5
369.993	90.5
370.219	88.5
370.445	81.5
370.672	84.5
370.898	92.5
371.124	94.5
371.35	78.5
371.576	77.5
371.802	86.5
372.028	83.5
372.254	85.5
372.48	87.5
372.706	81.5
372.932	89.5
373.158	79.5
373.384	86.5
373.61	88.5
373.835	90.5
374.061	82.5
374.287	84.5
374.513	94.5
374.739	88.5
374.965	93.5
375.191	97.5
375.416	97.5
375.642	83.5
375.868	95.5
376.094	91.5
376.319	82.5
376.545	80.5
376.771	73.5
376.997	88.5
377.222	93.5
377.448	94.5
377.674	90.5
377.899	90.5
378.125	87.5
378.35	89.5
378.576	83.5
378.802	83.5
379.027	81.5
379.253	85.5
379.478	77.5
379.704	90.5
379.929	100.5
380.155	95.5
380.38	98.5
380.606	73.5
380.831	99.5
381.057	87.5
381.282	90.5
381.507	83.5
381.733	94.5
381.958	92.5
382.184	95.5
382.409	99.5
382.634	93.5
382.86	103.5
383.085	87.5
383.31	98.5
383.535	99.5
383.761	85.5
383.986	80.5
384.211	83.5
384.436	94.5
384.662	83.5
384.887	94.5
385.112	100.5
385.337	95.5
385.562	101.5
385.787	92.5
386.013	108.5
386.238	104.5
386.463	105.5
386.688	108.5
386.913	84.5
387.138	103.5
387.363	90.5
387.588	95.5
387.813	85.5
388.038	86.5
388.263	113.5
388.488	99.5
388.713	82.5
388.938	83.5
389.163	88.5
389.387	91.5
389.612	94.5
389.837	102.5
390.062	89.5
390.287	80.5
390.512	85.5
390.736	82.5
390.961	95.5
391.186	87.5
391.411	100.5
391.636	79.5
391.86	103.5
392.085	89.5
392.31	92.5
392.534	85.5
392.759	70.5
392.984	73.5
393.208	81.5
393.433	84.5
393.658	83.5
393.882	74.5
394.107	96.5
394.331	76.5
394.556	89.5
394.78	89.5
395.005	93.5
395.229	98.5
395.454	90.5
395.678	97.5
395.903	104.5
396.127	82.5
396.352	89.5
396.576	83.5
396.801	68.5
397.025	90.5
397.249	100.5
397.474	81.5
397.698	87.5
397.922	83.5
398.147	81.5
398.371	93.5
398.595	85.5
398.82	87.5
399.044	88.5
399.268	90.5
399.492	82.5
399.717	92.5
399.941	89.5
400.165	94.5
400.389	89.5
400.613	84.5
400.837	88.5
401.062	85.5
401.286	76.5
401.51	75.5
401.734	93.5
401.958	81.5
402.182	120.5
402.406	116.5
402.63	112.5
402.854	75.5
403.078	83.5
403.302	68.5
403.526	89.5
403.75	83.5
403.974	95.5
404.198	89.5
404.422	91.5
404.645	100.5
404.869	95.5
405.093	97.5
405.317	91.5
405.541	108.5
405.765	112.5
405.988	105.5
406.212	159.5
406.436	182.5
406.66	134.5
406.883	91.5
407.107	103.5
407.331	83.5
407.555	95.5
407.778	93.5
408.002	81.5
408.226	89.5
408.449	96.5
408.673	85.5
408.896	95.5
409.12	93.5
409.344	79.5
409.567	97.5
409.791	87.5
410.014	88.5
410.238	81.5
410.461	104.5
410.685	99.5
410.908	99.5
411.132	103.5
411.355	103.5
411.578	83.5
411.802	83.5
412.025	95.5
412.249	72.5
412.472	83.5
412.695	97.5
412.919	85.5
413.142	98.5
413.365	96.5
413.589	86.5
413.812	89.5
414.035	89.5
414.258	84.5
414.482	91.5
414.705	83.5
414.928	80.5
415.151	96.5
415.374	102.5
415.597	81.5
415.821	84.5
416.044	90.5
416.267	85.5
416.49	102.5
416.713	95.5
416.936	100.5
417.159	103.5
417.382	74.5
417.605	88.5
417.828	85.5
418.051	83.5
418.274	95.5
418.497	91.5
418.72	87.5
418.943	93.5
419.166	87.5
419.389	90.5
419.611	90.5
419.834	72.5
420.057	102.5
420.28	85.5
420.503	93.5
420.726	80.5
420.948	79.5
421.171	101.5
421.394	84.5
421.617	101.5
421.839	84.5
422.062	84.5
422.285	93.5
422.507	100.5
422.73	99.5
422.953	108.5
423.175	80.5
423.398	83.5
423.621	93.5
423.843	85.5
424.066	59.5
424.288	75.5
424.511	83.5
424.733	97.5
424.956	96.5
425.178	97.5
425.401	102.5
425.623	96.5
425.846	83.5
426.068	85.5
426.291	87.5
426.513	81.5
426.735	91.5
426.958	91.5
427.18	88.5
427.402	117.5
427.625	139.5
427.847	112.5
428.069	95.5
428.292	94.5
428.514	88.5
428.736	99.5
428.958	82.5
429.181	83.5
429.403	75.5
429.625	81.5
429.847	90.5
430.069	83.5
430.292	91.5
430.514	86.5
430.736	95.5
430.958	99.5
431.18	82.5
431.402	89.5
431.624	79.5
431.846	86.5
432.068	76.5
432.29	80.5
432.512	83.5
432.734	87.5
432.956	82.5
433.178	88.5
433.4	100.5
433.622	92.5
433.844	94.5
434.066	85.5
434.287	95.5
434.509	98.5
434.731	94.5
434.953	75.5
435.175	88.5
435.397	94.5
435.618	93.5
435.84	102.5
436.062	101.5
436.284	110.5
436.505	98.5
436.727	105.5
436.949	73.5
437.17	92.5
437.392	94.5
437.614	91.5
437.835	112.5
438.057	116.5
438.278	106.5
438.5	87.5
438.721	111.5
438.943	87.5
439.165	82.5
439.386	86.5
439.608	85.5
439.829	100.5
440.05	108.5
440.272	113.5
440.493	107.5
440.715	78.5
440.936	86.5
441.158	74.5
441.379	92.5
441.6	86.5
441.822	87.5
442.043	88.5
442.264	104.5
442.486	85.5
442.707	76.5
442.928	98.5
443.149	123.5
443.371	99.5
443.592	93.5
443.813	99.5
444.034	101.5
444.255	88.5
444.476	91.5
444.698	88.5
444.919	90.5
445.14	119.5
445.361	107.5
445.582	86.5
445.803	127.5
446.024	112.5
446.245	129.5
446.466	89.5
446.687	85.5
446.908	87.5
447.129	81.5
447.35	86.5
447.571	79.5
447.792	87.5
448.013	81.5
448.234	93.5
448.455	93.5
448.675	99.5
448.896	109.5
449.117	111.5
449.338	100.5
449.559	109.5
449.779	122.5
450	86.5
450.221	85.5
450.442	82.5
450.662	90.5
450.883	108.5
451.104	113.5
451.324	72.5
451.545	76.5
451.766	103.5
451.986	81.5
452.207	85.5
452.428	84.5
452.648	112.5
452.869	112.5
453.089	109.5
453.31	111.5
453.53	81.5
453.751	89.5
453.971	101.5
454.192	80.5
454.412	90.5
454.633	84.5
454.853	83.5
455.073	91.5
455.294	85.5
455.514	84.5
455.734	96.5
455.955	81.5
456.175	85.5
456.395	72.5
456.616	91.5
456.836	80.5
457.056	86.5
457.276	91.5
457.497	79.5
457.717	89.5
457.937	96.5
458.157	95.5
458.377	90.5
458.598	105.5
458.818	125.5
459.038	133.5
459.258	103.5
459.478	103.5
459.698	89.5
459.918	84.5
460.138	86.5
460.358	81.5
460.578	90.5
460.798	84.5
461.018	101.5
461.238	92.5
461.458	81.5
461.678	73.5
461.898	91.5
462.118	86.5
462.338	86.5
462.558	77.5
462.777	89.5
462.997	81.5
463.217	88.5
463.437	58.5
463.657	73.5
463.876	78.5
464.096	91.5
464.316	85.5
464.536	85.5
464.755	90.5
464.975	101.5
465.195	138.5
465.414	137.5
465.634	80.5
465.854	98.5
466.073	81.5
466.293	86.5
466.512	93.5
466.732	75.5
466.951	88.5
467.171	89.5
467.391	98.5
467.61	85.5
467.829	100.5
468.049	103.5
468.268	87.5
468.488	83.5
468.707	88.5
468.927	82.5
469.146	93.5
469.365	83.5
469.585	87.5
469.804	89.5
470.023	90.5
470.243	87.5
470.462	103.5
470.681	95.5
470.901	75.5
471.12	75.5
471.339	79.5
471.558	94.5
471.777	91.5
471.997	98.5
472.216	113.5
472.435	130.5
472.654	93.5
472.873	77.5
473.092	87.5
473.311	96.5
473.53	96.5
473.749	86.5
473.968	88.5
474.187	95.5
474.406	102.5
474.625	95.5
474.844	77.5
475.063	71.5
475.282	71.5
475.501	79.5
475.72	92.5
475.939	96.5
476.158	91.5
476.377	89.5
476.596	81.5
476.814	74.5
477.033	84.5
477.252	88.5
477.471	82.5
477.69	85.5
477.908	88.5
478.127	91.5
478.346	93.5
478.564	95.5
478.783	77.5
479.002	89.5
479.22	92.5
479.439	85.5
479.658	92.5
479.876	83.5
480.095	84.5
480.313	85.5
480.532	76.5
480.751	87.5
480.969	101.5
481.188	168.5
481.406	132.5
481.624	100.5
481.843	90.5
482.061	96.5
482.28	90.5
482.498	90.5
482.717	83.5
482.935	86.5
483.153	85.5
483.372	85.5
483.59	93.5
483.808	92.5
484.027	91.5
484.245	75.5
484.463	85.5
484.681	95.5
484.9	89.5
485.118	98.5
485.336	98.5
485.554	91.5
485.772	106.5
485.99	95.5
486.209	89.5
486.427	102.5
486.645	103.5
486.863	98.5
487.081	104.5
487.299	91.5
487.517	92.5
487.735	101.5
487.953	92.5
488.171	91.5
488.389	87.5
488.607	88.5
488.825	92.5
489.043	96.5
489.261	97.5
489.479	92.5
489.696	96.5
489.914	84.5
490.132	79.5
490.35	90.5
490.568	98.5
490.786	92.5
491.003	104.5
491.221	94.5
491.439	90.5
491.657	96.5
491.874	89.5
492.092	85.5
492.31	90.5
492.527	80.5
492.745	85.5
492.963	98.5
493.18	91.5
493.398	84.5
493.615	92.5
493.833	91.5
494.05	76.5
494.268	77.5
494.485	96.5
494.703	89.5
494.92	76.5
495.138	97.5
495.355	89.5
495.573	89.5
495.79	87.5
496.008	97.5
496.225	91.5
496.442	97.5
496.66	92.5
496.877	89.5
497.094	99.5
497.312	89.5
497.529	73.5
497.746	63.5
497.963	92.5
498.181	87.5
498.398	91.5
498.615	90.5
498.832	76.5
499.049	93.5
499.267	88.5
499.484	97.5
499.701	83.5
499.918	79.5
500.135	88.5
500.352	75.5
500.569	83.5
500.786	85.5
501.003	93.5
501.22	86.5
501.437	80.5
501.654	96.5
501.871	104.5
502.088	80.5
502.305	96.5
502.522	86.5
502.739	99.5
502.956	82.5
503.172	87.5
503.389	83.5
503.606	94.5
503.823	95.5
504.04	94.5
504.256	86.5
504.473	86.5
504.69	95.5
504.907	82.5
505.123	66.5
505.34	82.5
505.557	85.5
505.773	94.5
505.99	79.5
506.207	90.5
506.423	83.5
506.64	91.5
506.856	99.5
507.073	77.5
507.289	97.5
507.506	93.5
507.722	104.5
507.939	87.5
508.155	97.5
508.372	107.5
508.588	98.5
508.805	91.5
509.021	93.5
509.238	102.5
509.454	87.5
509.67	91.5
509.887	101.5
510.103	123.5
510.319	179.5
510.536	563.5
510.752	1761.5
510.968	499.5
511.184	133.5
511.401	107.5
511.617	98.5
511.833	87.5
512.049	74.5
512.265	89.5
512.481	88.5
512.698	71.5
512.914	83.5
513.13	74.5
513.346	79.5
513.562	85.5
513.778	83.5
513.994	91.5
514.21	92.5
514.426	104.5
514.642	110.5
514.858	106.5
515.074	131.5
515.29	348.5
515.506	1053.5
515.721	401.5
515.937	125.5
516.153	103.5
516.369	85.5
516.585	91.5
516.801	88.5
517.016	89.5
517.232	84.5
517.448	96.5
517.664	89.5
517.879	97.5
518.095	91.5
518.311	88.5
518.527	84.5
518.742	96.5
518.958	99.5
519.173	86.5
519.389	76.5
519.605	87.5
519.82	98.5
520.036	103.5
520.251	94.5
520.467	92.5
520.682	95.5
520.898	82.5
521.113	108.5
521.329	127.5
521.544	168.5
521.76	426.5
521.975	1719.5
522.19	1034.5
522.406	235.5
522.621	107.5
522.836	105.5
523.052	96.5
523.267	88.5
523.482	89.5
523.698	100.5
523.913	114.5
524.128	87.5
524.343	104.5
524.559	92.5
524.774	100.5
524.989	105.5
525.204	88.5
525.419	88.5
525.634	94.5
525.849	92.5
526.064	73.5
526.28	88.5
526.495	84.5
526.71	90.5
526.925	80.5
527.14	89.5
527.355	93.5
527.57	88.5
527.785	81.5
527.999	84.5
528.214	87.5
528.429	99.5
528.644	96.5
528.859	89.5
529.074	98.5
529.289	124.5
529.503	135.5
529.718	107.5
529.933	83.5
530.148	72.5
530.363	85.5
530.577	88.5
530.792	101.5
531.007	91.5
531.221	87.5
531.436	96.5
531.651	88.5
531.865	95.5
532.08	87.5
532.295	95.5
532.509	90.5
532.724	89.5
532.938	82.5
533.153	89.5
533.367	93.5
533.582	88.5
533.796	96.5
534.011	87.5
534.225	70.5
534.44	91.5
534.654	91.5
534.868	97.5
535.083	89.5
535.297	85.5
535.511	80.5
535.726	89.5
535.94	86.5
536.154	96.5
536.369	91.5
536.583	71.5
536.797	91.5
537.011	94.5
