Data from Circ_1982_H10_HRD10591_00049.txt Node
Date: Wed Jan 03 12:30:51 EST 2024
User: Yrep
Spectrometer: HR+D1059
Trigger mode: 1
Integration Time (sec): 1.000000E-1
Scans to average: 1
Electric dark correction enabled: true
Nonlinearity correction enabled: false
Boxcar width: 0
XAxis mode: Wavelengths
Number of Pixels in Spectrum: 2048
>>>>>Begin Spectral Data<<<<<
223.165	-7.06
223.4	-7.06
223.635	-7.06
223.869	-21.06
224.104	-29.06
224.338	-33.06
224.573	-5.06
224.808	-9.06
225.042	4.94
225.277	2.94
225.511	-6.06
225.746	3.94
225.98	0.94
226.215	-1.06
226.449	16.94
226.683	26.94
226.918	19.94
227.152	34.94
227.387	19.94
227.621	50.94
227.856	41.94
228.09	47.94
228.324	56.94
228.559	38.94
228.793	44.94
229.027	48.94
229.262	59.94
229.496	62.94
229.73	75.94
229.964	86.94
230.199	72.94
230.433	59.94
230.667	65.94
230.901	80.94
231.136	66.94
231.37	73.94
231.604	79.94
231.838	84.94
232.072	81.94
232.306	94.94
232.541	74.94
232.775	83.94
233.009	72.94
233.243	65.94
233.477	82.94
233.711	73.94
233.945	80.94
234.179	80.94
234.413	94.94
234.647	76.94
234.881	71.94
235.115	76.94
235.349	79.94
235.583	86.94
235.817	84.94
236.051	81.94
236.285	96.94
236.519	78.94
236.753	68.94
236.987	60.94
237.221	71.94
237.455	85.94
237.689	66.94
237.922	64.94
238.156	75.94
238.39	82.94
238.624	66.94
238.858	70.94
239.091	82.94
239.325	76.94
239.559	58.94
239.793	79.94
240.027	84.94
240.26	75.94
240.494	85.94
240.728	73.94
240.961	70.94
241.195	67.94
241.429	70.94
241.662	76.94
241.896	62.94
242.13	78.94
242.363	83.94
242.597	83.94
242.83	76.94
243.064	62.94
243.298	84.94
243.531	71.94
243.765	68.94
243.998	82.94
244.232	86.94
244.465	66.94
244.699	93.94
244.932	76.94
245.166	72.94
245.399	62.94
245.633	76.94
245.866	90.94
246.099	79.94
246.333	68.94
246.566	68.94
246.8	71.94
247.033	74.94
247.266	83.94
247.5	76.94
247.733	76.94
247.966	88.94
248.2	95.94
248.433	74.94
248.666	77.94
248.899	78.94
249.133	84.94
249.366	91.94
249.599	81.94
249.832	82.94
250.066	80.94
250.299	94.94
250.532	83.94
250.765	83.94
250.998	68.94
251.231	70.94
251.465	72.94
251.698	57.94
251.931	73.94
252.164	81.94
252.397	93.94
252.63	84.94
252.863	81.94
253.096	71.94
253.329	78.94
253.562	72.94
253.795	88.94
254.028	72.94
254.261	69.94
254.494	75.94
254.727	87.94
254.96	83.94
255.193	92.94
255.426	67.94
255.659	63.94
255.892	85.94
256.124	80.94
256.357	92.94
256.59	95.94
256.823	75.94
257.056	74.94
257.289	79.94
257.521	84.94
257.754	93.94
257.987	80.94
258.22	80.94
258.452	76.94
258.685	76.94
258.918	76.94
259.151	89.94
259.383	71.94
259.616	87.94
259.849	82.94
260.081	88.94
260.314	78.94
260.547	83.94
260.779	90.94
261.012	75.94
261.244	79.94
261.477	88.94
261.71	78.94
261.942	99.94
262.175	108.94
262.407	76.94
262.64	87.94
262.872	87.94
263.105	94.94
263.337	79.94
263.57	84.94
263.802	84.94
264.035	79.94
264.267	76.94
264.499	82.94
264.732	76.94
264.964	88.94
265.197	78.94
265.429	82.94
265.661	69.94
265.894	72.94
266.126	88.94
266.358	72.94
266.591	89.94
266.823	69.94
267.055	71.94
267.287	96.94
267.52	75.94
267.752	82.94
267.984	82.94
268.216	84.94
268.448	67.94
268.681	88.94
268.913	84.94
269.145	97.94
269.377	89.94
269.609	87.94
269.841	74.94
270.073	78.94
270.306	73.94
270.538	87.94
270.77	89.94
271.002	80.94
271.234	84.94
271.466	78.94
271.698	82.94
271.93	105.94
272.162	100.94
272.394	85.94
272.626	82.94
272.858	86.94
273.09	88.94
273.322	96.94
273.553	92.94
273.785	96.94
274.017	80.94
274.249	83.94
274.481	88.94
274.713	84.94
274.945	71.94
275.176	81.94
275.408	82.94
275.64	90.94
275.872	95.94
276.104	89.94
276.335	81.94
276.567	108.94
276.799	101.94
277.031	88.94
277.262	99.94
277.494	84.94
277.726	80.94
277.957	79.94
278.189	88.94
278.421	72.94
278.652	91.94
278.884	90.94
279.115	72.94
279.347	94.94
279.579	84.94
279.81	81.94
280.042	94.94
280.273	71.94
280.505	80.94
280.736	90.94
280.968	90.94
281.199	78.94
281.431	94.94
281.662	99.94
281.894	69.94
282.125	91.94
282.356	100.94
282.588	115.94
282.819	98.94
283.051	91.94
283.282	80.94
283.513	73.94
283.745	94.94
283.976	72.94
284.207	88.94
284.439	86.94
284.67	84.94
284.901	96.94
285.132	91.94
285.364	90.94
285.595	82.94
285.826	86.94
286.057	76.94
286.288	89.94
286.52	86.94
286.751	94.94
286.982	88.94
287.213	78.94
287.444	82.94
287.675	97.94
287.906	95.94
288.138	90.94
288.369	80.94
288.6	82.94
288.831	94.94
289.062	96.94
289.293	99.94
289.524	84.94
289.755	80.94
289.986	86.94
290.217	74.94
290.448	91.94
290.679	88.94
290.91	98.94
291.141	87.94
291.371	94.94
291.602	102.94
291.833	91.94
292.064	98.94
292.295	92.94
292.526	85.94
292.757	93.94
292.987	82.94
293.218	83.94
293.449	77.94
293.68	88.94
293.91	86.94
294.141	78.94
294.372	75.94
294.603	95.94
294.833	92.94
295.064	80.94
295.295	90.94
295.525	88.94
295.756	100.94
295.987	110.94
296.217	116.94
296.448	98.94
296.679	85.94
296.909	84.94
297.14	96.94
297.37	88.94
297.601	82.94
297.831	96.94
298.062	89.94
298.292	86.94
298.523	76.94
298.753	96.94
298.984	82.94
299.214	83.94
299.445	91.94
299.675	109.94
299.905	82.94
300.136	90.94
300.366	84.94
300.597	89.94
300.827	79.94
301.057	94.94
301.288	92.94
301.518	87.94
301.748	75.94
301.979	84.94
302.209	78.94
302.439	86.94
302.669	90.94
302.9	92.94
303.13	84.94
303.36	89.94
303.59	65.94
303.82	94.94
304.051	78.94
304.281	93.94
304.511	81.94
304.741	79.94
304.971	73.94
305.201	81.94
305.431	92.94
305.661	85.94
305.891	83.94
306.121	86.94
306.352	95.94
306.582	92.94
306.812	87.94
307.042	91.94
307.272	77.94
307.502	96.94
307.731	76.94
307.961	102.94
308.191	82.94
308.421	98.94
308.651	85.94
308.881	79.94
309.111	95.94
309.341	98.94
309.571	99.94
309.8	87.94
310.03	92.94
310.26	104.94
310.49	89.94
310.72	81.94
310.949	86.94
311.179	105.94
311.409	82.94
311.639	103.94
311.868	85.94
312.098	94.94
312.328	85.94
312.557	107.94
312.787	89.94
313.017	94.94
313.246	86.94
313.476	84.94
313.706	81.94
313.935	89.94
314.165	92.94
314.394	102.94
314.624	89.94
314.853	88.94
315.083	88.94
315.312	92.94
315.542	82.94
315.771	96.94
316.001	97.94
316.23	90.94
316.46	88.94
316.689	83.94
316.919	86.94
317.148	93.94
317.377	90.94
317.607	91.94
317.836	88.94
318.065	92.94
318.295	87.94
318.524	88.94
318.753	64.94
318.983	82.94
319.212	98.94
319.441	90.94
319.67	98.94
319.9	71.94
320.129	74.94
320.358	81.94
320.587	85.94
320.816	96.94
321.046	81.94
321.275	90.94
321.504	91.94
321.733	97.94
321.962	90.94
322.191	95.94
322.42	101.94
322.649	115.94
322.878	116.94
323.108	99.94
323.337	93.94
323.566	101.94
323.795	126.94
324.024	158.94
324.253	274.94
324.482	555.94
324.71	1080.94
324.939	1438.94
325.168	537.94
325.397	178.94
325.626	130.94
325.855	113.94
326.084	105.94
326.313	114.94
326.542	123.94
326.77	171.94
326.999	329.94
327.228	639.94
327.457	1116.94
327.686	875.94
327.914	275.94
328.143	156.94
328.372	130.94
328.6	117.94
328.829	112.94
329.058	111.94
329.287	105.94
329.515	97.94
329.744	98.94
329.972	94.94
330.201	105.94
330.43	110.94
330.658	110.94
330.887	107.94
331.115	101.94
331.344	71.94
331.572	103.94
331.801	96.94
332.03	88.94
332.258	86.94
332.486	95.94
332.715	89.94
332.943	85.94
333.172	95.94
333.4	87.94
333.629	96.94
333.857	105.94
334.085	110.94
334.314	107.94
334.542	105.94
334.771	117.94
334.999	103.94
335.227	105.94
335.455	83.94
335.684	86.94
335.912	90.94
336.14	104.94
336.369	104.94
336.597	95.94
336.825	95.94
337.053	109.94
337.281	91.94
337.51	95.94
337.738	86.94
337.966	82.94
338.194	87.94
338.422	107.94
338.65	97.94
338.878	89.94
339.106	90.94
339.334	91.94
339.562	71.94
339.79	86.94
340.018	91.94
340.246	99.94
340.474	92.94
340.702	90.94
340.93	86.94
341.158	83.94
341.386	94.94
341.614	82.94
341.842	98.94
342.07	75.94
342.298	103.94
342.526	100.94
342.754	92.94
342.981	78.94
343.209	83.94
343.437	90.94
343.665	84.94
343.893	92.94
344.12	93.94
344.348	93.94
344.576	94.94
344.804	86.94
345.031	94.94
345.259	73.94
345.487	96.94
345.714	86.94
345.942	98.94
346.17	99.94
346.397	74.94
346.625	92.94
346.853	74.94
347.08	75.94
347.308	95.94
347.535	90.94
347.763	96.94
347.99	90.94
348.218	100.94
348.445	78.94
348.673	84.94
348.9	84.94
349.128	84.94
349.355	83.94
349.583	87.94
349.81	95.94
350.037	99.94
350.265	99.94
350.492	85.94
350.72	93.94
350.947	87.94
351.174	83.94
351.402	96.94
351.629	84.94
351.856	95.94
352.083	88.94
352.311	117.94
352.538	110.94
352.765	98.94
352.992	106.94
353.22	84.94
353.447	98.94
353.674	96.94
353.901	98.94
354.128	100.94
354.355	90.94
354.583	91.94
354.81	93.94
355.037	81.94
355.264	91.94
355.491	88.94
355.718	87.94
355.945	84.94
356.172	79.94
356.399	95.94
356.626	87.94
356.853	96.94
357.08	89.94
357.307	91.94
357.534	83.94
357.761	86.94
357.988	101.94
358.215	100.94
358.441	89.94
358.668	95.94
358.895	84.94
359.122	78.94
359.349	85.94
359.576	96.94
359.802	94.94
360.029	89.94
360.256	97.94
360.483	90.94
360.709	84.94
360.936	101.94
361.163	101.94
361.39	89.94
361.616	84.94
361.843	79.94
362.07	100.94
362.296	98.94
362.523	88.94
362.749	83.94
362.976	96.94
363.203	84.94
363.429	84.94
363.656	85.94
363.882	90.94
364.109	96.94
364.335	88.94
364.562	88.94
364.788	82.94
365.015	83.94
365.241	93.94
365.468	100.94
365.694	94.94
365.92	81.94
366.147	92.94
366.373	76.94
366.599	90.94
366.826	90.94
367.052	75.94
367.278	84.94
367.505	87.94
367.731	95.94
367.957	92.94
368.184	104.94
368.41	90.94
368.636	91.94
368.862	99.94
369.089	100.94
369.315	84.94
369.541	86.94
369.767	85.94
369.993	97.94
370.219	101.94
370.445	74.94
370.672	84.94
370.898	96.94
371.124	83.94
371.35	92.94
371.576	78.94
371.802	103.94
372.028	90.94
372.254	86.94
372.48	79.94
372.706	80.94
372.932	96.94
373.158	79.94
373.384	89.94
373.61	85.94
373.835	74.94
374.061	78.94
374.287	85.94
374.513	93.94
374.739	73.94
374.965	93.94
375.191	73.94
375.416	91.94
375.642	68.94
375.868	96.94
376.094	94.94
376.319	80.94
376.545	84.94
376.771	94.94
376.997	87.94
377.222	76.94
377.448	89.94
377.674	97.94
377.899	89.94
378.125	91.94
378.35	89.94
378.576	88.94
378.802	79.94
379.027	84.94
379.253	83.94
379.478	88.94
379.704	87.94
379.929	88.94
380.155	89.94
380.38	92.94
380.606	79.94
380.831	79.94
381.057	94.94
381.282	80.94
381.507	91.94
381.733	85.94
381.958	92.94
382.184	94.94
382.409	106.94
382.634	114.94
382.86	108.94
383.085	97.94
383.31	114.94
383.535	90.94
383.761	100.94
383.986	107.94
384.211	95.94
384.436	91.94
384.662	94.94
384.887	87.94
385.112	99.94
385.337	106.94
385.562	101.94
385.787	105.94
386.013	103.94
386.238	107.94
386.463	102.94
386.688	107.94
386.913	89.94
387.138	92.94
387.363	83.94
387.588	101.94
387.813	102.94
388.038	108.94
388.263	102.94
388.488	117.94
388.713	93.94
388.938	90.94
389.163	89.94
389.387	90.94
389.612	91.94
389.837	91.94
390.062	98.94
390.287	90.94
390.512	91.94
390.736	94.94
390.961	89.94
391.186	87.94
391.411	113.94
391.636	71.94
391.86	88.94
392.085	79.94
392.31	93.94
392.534	92.94
392.759	86.94
392.984	93.94
393.208	88.94
393.433	94.94
393.658	88.94
393.882	83.94
394.107	80.94
394.331	83.94
394.556	89.94
394.78	101.94
395.005	89.94
395.229	89.94
395.454	81.94
395.678	89.94
395.903	80.94
396.127	87.94
396.352	78.94
396.576	91.94
396.801	93.94
397.025	88.94
397.249	82.94
397.474	82.94
397.698	83.94
397.922	83.94
398.147	79.94
398.371	102.94
398.595	88.94
398.82	74.94
399.044	86.94
399.268	91.94
399.492	86.94
399.717	83.94
399.941	98.94
400.165	103.94
400.389	80.94
400.613	79.94
400.837	82.94
401.062	74.94
401.286	88.94
401.51	90.94
401.734	87.94
401.958	87.94
402.182	101.94
402.406	100.94
402.63	106.94
402.854	84.94
403.078	79.94
403.302	82.94
403.526	88.94
403.75	81.94
403.974	80.94
404.198	79.94
404.422	82.94
404.645	81.94
404.869	89.94
405.093	107.94
405.317	82.94
405.541	82.94
405.765	110.94
405.988	99.94
406.212	125.94
406.436	172.94
406.66	110.94
406.883	90.94
407.107	99.94
407.331	79.94
407.555	90.94
407.778	88.94
408.002	87.94
408.226	93.94
408.449	87.94
408.673	88.94
408.896	90.94
409.12	94.94
409.344	79.94
409.567	100.94
409.791	94.94
410.014	100.94
410.238	95.94
410.461	74.94
410.685	82.94
410.908	90.94
411.132	98.94
411.355	81.94
411.578	94.94
411.802	73.94
412.025	89.94
412.249	86.94
412.472	91.94
412.695	96.94
412.919	82.94
413.142	88.94
413.365	92.94
413.589	89.94
413.812	82.94
414.035	95.94
414.258	85.94
414.482	85.94
414.705	79.94
414.928	87.94
415.151	73.94
415.374	85.94
415.597	78.94
415.821	78.94
416.044	84.94
416.267	90.94
416.49	93.94
416.713	92.94
416.936	88.94
417.159	80.94
417.382	87.94
417.605	91.94
417.828	105.94
418.051	83.94
418.274	75.94
418.497	69.94
418.72	89.94
418.943	94.94
419.166	90.94
419.389	82.94
419.611	77.94
419.834	92.94
420.057	76.94
420.28	88.94
420.503	85.94
420.726	101.94
420.948	98.94
421.171	99.94
421.394	96.94
421.617	102.94
421.839	75.94
422.062	70.94
422.285	88.94
422.507	85.94
422.73	98.94
422.953	86.94
423.175	82.94
423.398	87.94
423.621	87.94
423.843	72.94
424.066	73.94
424.288	84.94
424.511	83.94
424.733	85.94
424.956	103.94
425.178	102.94
425.401	89.94
425.623	92.94
425.846	90.94
426.068	79.94
426.291	84.94
426.513	98.94
426.735	82.94
426.958	85.94
427.18	104.94
427.402	114.94
427.625	130.94
427.847	112.94
428.069	102.94
428.292	99.94
428.514	82.94
428.736	79.94
428.958	91.94
429.181	78.94
429.403	82.94
429.625	88.94
429.847	88.94
430.069	84.94
430.292	91.94
430.514	88.94
430.736	94.94
430.958	82.94
431.18	90.94
431.402	85.94
431.624	85.94
431.846	93.94
432.068	83.94
432.29	70.94
432.512	92.94
432.734	85.94
432.956	82.94
433.178	86.94
433.4	90.94
433.622	82.94
433.844	96.94
434.066	88.94
434.287	94.94
434.509	90.94
434.731	97.94
434.953	83.94
435.175	81.94
435.397	76.94
435.618	86.94
435.84	96.94
436.062	99.94
436.284	98.94
436.505	94.94
436.727	89.94
436.949	95.94
437.17	87.94
437.392	84.94
437.614	97.94
437.835	96.94
438.057	90.94
438.278	91.94
438.5	99.94
438.721	104.94
438.943	99.94
439.165	80.94
439.386	84.94
439.608	87.94
439.829	92.94
440.05	100.94
440.272	107.94
440.493	80.94
440.715	80.94
440.936	96.94
441.158	91.94
441.379	90.94
441.6	82.94
441.822	85.94
442.043	98.94
442.264	94.94
442.486	89.94
442.707	96.94
442.928	95.94
443.149	118.94
443.371	105.94
443.592	94.94
443.813	107.94
444.034	96.94
444.255	70.94
444.476	73.94
444.698	88.94
444.919	92.94
445.14	123.94
445.361	108.94
445.582	93.94
445.803	108.94
446.024	108.94
446.245	100.94
446.466	94.94
446.687	89.94
446.908	70.94
447.129	78.94
447.35	89.94
447.571	75.94
447.792	81.94
448.013	93.94
448.234	82.94
448.455	81.94
448.675	104.94
448.896	91.94
449.117	82.94
449.338	84.94
449.559	110.94
449.779	107.94
450	95.94
450.221	82.94
450.442	81.94
450.662	92.94
450.883	91.94
451.104	87.94
451.324	89.94
451.545	91.94
451.766	84.94
451.986	85.94
452.207	76.94
452.428	97.94
452.648	85.94
452.869	97.94
453.089	97.94
453.31	88.94
453.53	74.94
453.751	75.94
453.971	89.94
454.192	102.94
454.412	89.94
454.633	86.94
454.853	87.94
455.073	95.94
455.294	79.94
455.514	87.94
455.734	73.94
455.955	82.94
456.175	71.94
456.395	79.94
456.616	86.94
456.836	72.94
457.056	82.94
457.276	76.94
457.497	82.94
457.717	80.94
457.937	71.94
458.157	84.94
458.377	90.94
458.598	80.94
458.818	103.94
459.038	133.94
459.258	99.94
459.478	83.94
459.698	91.94
459.918	67.94
460.138	75.94
460.358	88.94
460.578	78.94
460.798	75.94
461.018	68.94
461.238	78.94
461.458	90.94
461.678	82.94
461.898	96.94
462.118	89.94
462.338	90.94
462.558	85.94
462.777	88.94
462.997	78.94
463.217	67.94
463.437	79.94
463.657	82.94
463.876	93.94
464.096	80.94
464.316	94.94
464.536	92.94
464.755	96.94
464.975	101.94
465.195	113.94
465.414	115.94
465.634	90.94
465.854	80.94
466.073	84.94
466.293	106.94
466.512	87.94
466.732	70.94
466.951	91.94
467.171	90.94
467.391	82.94
467.61	80.94
467.829	99.94
468.049	90.94
468.268	70.94
468.488	89.94
468.707	84.94
468.927	94.94
469.146	74.94
469.365	75.94
469.585	97.94
469.804	88.94
470.023	93.94
470.243	80.94
470.462	94.94
470.681	99.94
470.901	80.94
471.12	81.94
471.339	85.94
471.558	72.94
471.777	116.94
471.997	99.94
472.216	101.94
472.435	122.94
472.654	79.94
472.873	85.94
473.092	78.94
473.311	83.94
473.53	71.94
473.749	78.94
473.968	95.94
474.187	86.94
474.406	75.94
474.625	86.94
474.844	75.94
475.063	76.94
475.282	81.94
475.501	91.94
475.72	90.94
475.939	104.94
476.158	88.94
476.377	90.94
476.596	82.94
476.814	91.94
477.033	88.94
477.252	92.94
477.471	65.94
477.69	83.94
477.908	86.94
478.127	91.94
478.346	91.94
478.564	91.94
478.783	89.94
479.002	85.94
479.22	84.94
479.439	87.94
479.658	94.94
479.876	79.94
480.095	90.94
480.313	91.94
480.532	87.94
480.751	84.94
480.969	97.94
481.188	139.94
481.406	118.94
481.624	94.94
481.843	91.94
482.061	86.94
482.28	93.94
482.498	80.94
482.717	79.94
482.935	74.94
483.153	80.94
483.372	71.94
483.59	101.94
483.808	88.94
484.027	87.94
484.245	92.94
484.463	89.94
484.681	91.94
484.9	70.94
485.118	91.94
485.336	78.94
485.554	84.94
485.772	90.94
485.99	92.94
486.209	99.94
486.427	94.94
486.645	93.94
486.863	96.94
487.081	106.94
487.299	103.94
487.517	92.94
487.735	98.94
487.953	87.94
488.171	84.94
488.389	86.94
488.607	97.94
488.825	87.94
489.043	92.94
489.261	95.94
489.479	89.94
489.696	75.94
489.914	87.94
490.132	81.94
490.35	92.94
490.568	94.94
490.786	82.94
491.003	76.94
491.221	80.94
491.439	95.94
491.657	91.94
491.874	91.94
492.092	74.94
492.31	91.94
492.527	91.94
492.745	85.94
492.963	84.94
493.18	91.94
493.398	80.94
493.615	83.94
493.833	102.94
494.05	95.94
494.268	92.94
494.485	86.94
494.703	71.94
494.92	98.94
495.138	92.94
495.355	79.94
495.573	111.94
495.79	98.94
496.008	96.94
496.225	87.94
496.442	88.94
496.66	97.94
496.877	82.94
497.094	97.94
497.312	93.94
497.529	86.94
497.746	100.94
497.963	86.94
498.181	89.94
498.398	84.94
498.615	85.94
498.832	89.94
499.049	87.94
499.267	86.94
499.484	91.94
499.701	96.94
499.918	89.94
500.135	69.94
500.352	82.94
500.569	79.94
500.786	98.94
501.003	88.94
501.22	74.94
501.437	78.94
501.654	99.94
501.871	96.94
502.088	85.94
502.305	92.94
502.522	76.94
502.739	94.94
502.956	77.94
503.172	90.94
503.389	87.94
503.606	99.94
503.823	88.94
504.04	88.94
504.256	103.94
504.473	95.94
504.69	95.94
504.907	81.94
505.123	91.94
505.34	90.94
505.557	91.94
505.773	72.94
505.99	78.94
506.207	100.94
506.423	80.94
506.64	94.94
506.856	78.94
507.073	89.94
507.289	104.94
507.506	114.94
507.722	94.94
507.939	91.94
508.155	82.94
508.372	82.94
508.588	99.94
508.805	104.94
509.021	86.94
509.238	90.94
509.454	98.94
509.67	90.94
509.887	101.94
510.103	116.94
510.319	179.94
510.536	543.94
510.752	1564.94
510.968	438.94
511.184	142.94
511.401	103.94
511.617	100.94
511.833	88.94
512.049	94.94
512.265	96.94
512.481	91.94
512.698	96.94
512.914	98.94
513.13	83.94
513.346	89.94
513.562	100.94
513.778	102.94
513.994	97.94
514.21	89.94
514.426	96.94
514.642	106.94
514.858	121.94
515.074	146.94
515.29	303.94
515.506	875.94
515.721	337.94
515.937	108.94
516.153	100.94
516.369	97.94
516.585	88.94
516.801	83.94
517.016	92.94
517.232	89.94
517.448	98.94
517.664	97.94
