Data from Circ_1982_H10_HRD10591_00009.txt Node
Date: Wed Jan 03 12:30:43 EST 2024
User: Yrep
Spectrometer: HR+D1059
Trigger mode: 1
Integration Time (sec): 1.000000E-1
Scans to average: 1
Electric dark correction enabled: true
Nonlinearity correction enabled: false
Boxcar width: 0
XAxis mode: Wavelengths
Number of Pixels in Spectrum: 2048
>>>>>Begin Spectral Data<<<<<
223.165	-12.75
223.4	-12.75
223.635	-12.75
223.869	-19.75
224.104	-34.75
224.338	-12.75
224.573	-25.75
224.808	-8.75
225.042	-2.75
225.277	3.25
225.511	5.25
225.746	15.25
225.98	11.25
226.215	9.25
226.449	9.25
226.683	14.25
226.918	18.25
227.152	31.25
227.387	34.25
227.621	50.25
227.856	58.25
228.09	46.25
228.324	47.25
228.559	49.25
228.793	57.25
229.027	61.25
229.262	66.25
229.496	79.25
229.73	79.25
229.964	70.25
230.199	51.25
230.433	61.25
230.667	75.25
230.901	74.25
231.136	58.25
231.37	65.25
231.604	73.25
231.838	69.25
232.072	66.25
232.306	77.25
232.541	86.25
232.775	65.25
233.009	89.25
233.243	77.25
233.477	74.25
233.711	74.25
233.945	71.25
234.179	75.25
234.413	79.25
234.647	57.25
234.881	76.25
235.115	82.25
235.349	78.25
235.583	73.25
235.817	90.25
236.051	88.25
236.285	66.25
236.519	71.25
236.753	74.25
236.987	77.25
237.221	68.25
237.455	66.25
237.689	79.25
237.922	95.25
238.156	61.25
238.39	65.25
238.624	80.25
238.858	70.25
239.091	73.25
239.325	87.25
239.559	83.25
239.793	75.25
240.027	64.25
240.26	69.25
240.494	81.25
240.728	87.25
240.961	84.25
241.195	77.25
241.429	79.25
241.662	65.25
241.896	67.25
242.13	63.25
242.363	83.25
242.597	69.25
242.83	89.25
243.064	83.25
243.298	70.25
243.531	70.25
243.765	73.25
243.998	75.25
244.232	72.25
244.465	72.25
244.699	87.25
244.932	62.25
245.166	75.25
245.399	57.25
245.633	65.25
245.866	74.25
246.099	74.25
246.333	78.25
246.566	69.25
246.8	65.25
247.033	67.25
247.266	90.25
247.5	85.25
247.733	72.25
247.966	73.25
248.2	82.25
248.433	84.25
248.666	66.25
248.899	77.25
249.133	77.25
249.366	88.25
249.599	86.25
249.832	67.25
250.066	69.25
250.299	85.25
250.532	82.25
250.765	74.25
250.998	75.25
251.231	79.25
251.465	73.25
251.698	73.25
251.931	74.25
252.164	73.25
252.397	56.25
252.63	67.25
252.863	81.25
253.096	83.25
253.329	79.25
253.562	71.25
253.795	73.25
254.028	85.25
254.261	81.25
254.494	85.25
254.727	82.25
254.96	83.25
255.193	75.25
255.426	61.25
255.659	79.25
255.892	84.25
256.124	93.25
256.357	85.25
256.59	81.25
256.823	82.25
257.056	74.25
257.289	66.25
257.521	68.25
257.754	77.25
257.987	81.25
258.22	90.25
258.452	79.25
258.685	81.25
258.918	77.25
259.151	72.25
259.383	79.25
259.616	93.25
259.849	74.25
260.081	77.25
260.314	85.25
260.547	71.25
260.779	77.25
261.012	90.25
261.244	73.25
261.477	89.25
261.71	96.25
261.942	105.25
262.175	106.25
262.407	78.25
262.64	85.25
262.872	80.25
263.105	72.25
263.337	88.25
263.57	77.25
263.802	77.25
264.035	75.25
264.267	82.25
264.499	71.25
264.732	82.25
264.964	77.25
265.197	79.25
265.429	74.25
265.661	87.25
265.894	90.25
266.126	79.25
266.358	82.25
266.591	94.25
266.823	79.25
267.055	65.25
267.287	69.25
267.52	91.25
267.752	81.25
267.984	82.25
268.216	82.25
268.448	77.25
268.681	87.25
268.913	85.25
269.145	89.25
269.377	85.25
269.609	77.25
269.841	85.25
270.073	85.25
270.306	75.25
270.538	87.25
270.77	85.25
271.002	89.25
271.234	94.25
271.466	80.25
271.698	89.25
271.93	89.25
272.162	95.25
272.394	86.25
272.626	74.25
272.858	74.25
273.09	86.25
273.322	70.25
273.553	80.25
273.785	76.25
274.017	82.25
274.249	86.25
274.481	85.25
274.713	98.25
274.945	81.25
275.176	89.25
275.408	83.25
275.64	66.25
275.872	82.25
276.104	86.25
276.335	77.25
276.567	92.25
276.799	90.25
277.031	104.25
277.262	82.25
277.494	90.25
277.726	91.25
277.957	82.25
278.189	75.25
278.421	93.25
278.652	89.25
278.884	77.25
279.115	89.25
279.347	94.25
279.579	77.25
279.81	82.25
280.042	69.25
280.273	87.25
280.505	80.25
280.736	95.25
280.968	67.25
281.199	78.25
281.431	79.25
281.662	79.25
281.894	77.25
282.125	82.25
282.356	100.25
282.588	107.25
282.819	96.25
283.051	83.25
283.282	81.25
283.513	86.25
283.745	68.25
283.976	89.25
284.207	83.25
284.439	81.25
284.67	73.25
284.901	81.25
285.132	82.25
285.364	81.25
285.595	86.25
285.826	84.25
286.057	77.25
286.288	91.25
286.52	81.25
286.751	80.25
286.982	91.25
287.213	77.25
287.444	74.25
287.675	93.25
287.906	101.25
288.138	81.25
288.369	89.25
288.6	80.25
288.831	74.25
289.062	85.25
289.293	71.25
289.524	75.25
289.755	79.25
289.986	75.25
290.217	76.25
290.448	85.25
290.679	87.25
290.91	73.25
291.141	93.25
291.371	83.25
291.602	70.25
291.833	61.25
292.064	79.25
292.295	82.25
292.526	78.25
292.757	88.25
292.987	88.25
293.218	84.25
293.449	78.25
293.68	89.25
293.91	86.25
294.141	79.25
294.372	74.25
294.603	76.25
294.833	88.25
295.064	85.25
295.295	89.25
295.525	89.25
295.756	111.25
295.987	90.25
296.217	108.25
296.448	97.25
296.679	87.25
296.909	85.25
297.14	83.25
297.37	89.25
297.601	86.25
297.831	83.25
298.062	93.25
298.292	82.25
298.523	84.25
298.753	74.25
298.984	93.25
299.214	85.25
299.445	78.25
299.675	90.25
299.905	85.25
300.136	99.25
300.366	95.25
300.597	71.25
300.827	88.25
301.057	87.25
301.288	98.25
301.518	101.25
301.748	93.25
301.979	101.25
302.209	91.25
302.439	87.25
302.669	85.25
302.9	97.25
303.13	86.25
303.36	86.25
303.59	89.25
303.82	80.25
304.051	85.25
304.281	86.25
304.511	81.25
304.741	79.25
304.971	79.25
305.201	93.25
305.431	97.25
305.661	78.25
305.891	82.25
306.121	85.25
306.352	90.25
306.582	94.25
306.812	77.25
307.042	85.25
307.272	81.25
307.502	87.25
307.731	85.25
307.961	86.25
308.191	80.25
308.421	84.25
308.651	80.25
308.881	86.25
309.111	84.25
309.341	84.25
309.571	83.25
309.8	83.25
310.03	99.25
310.26	89.25
310.49	94.25
310.72	93.25
310.949	103.25
311.179	105.25
311.409	94.25
311.639	97.25
311.868	88.25
312.098	91.25
312.328	99.25
312.557	104.25
312.787	97.25
313.017	103.25
313.246	83.25
313.476	85.25
313.706	97.25
313.935	90.25
314.165	96.25
314.394	90.25
314.624	80.25
314.853	90.25
315.083	91.25
315.312	95.25
315.542	91.25
315.771	81.25
316.001	82.25
316.23	100.25
316.46	76.25
316.689	85.25
316.919	93.25
317.148	96.25
317.377	87.25
317.607	94.25
317.836	93.25
318.065	86.25
318.295	77.25
318.524	82.25
318.753	89.25
318.983	86.25
319.212	99.25
319.441	97.25
319.67	86.25
319.9	101.25
320.129	82.25
320.358	81.25
320.587	83.25
320.816	67.25
321.046	85.25
321.275	91.25
321.504	82.25
321.733	96.25
321.962	98.25
322.191	89.25
322.42	88.25
322.649	99.25
322.878	94.25
323.108	109.25
323.337	97.25
323.566	118.25
323.795	125.25
324.024	164.25
324.253	276.25
324.482	557.25
324.71	1081.25
324.939	1466.25
325.168	563.25
325.397	202.25
325.626	113.25
325.855	117.25
326.084	116.25
326.313	113.25
326.542	107.25
326.77	167.25
326.999	328.25
327.228	644.25
327.457	1206.25
327.686	935.25
327.914	279.25
328.143	153.25
328.372	122.25
328.6	116.25
328.829	98.25
329.058	109.25
329.287	119.25
329.515	94.25
329.744	94.25
329.972	107.25
330.201	98.25
330.43	123.25
330.658	110.25
330.887	114.25
331.115	110.25
331.344	102.25
331.572	101.25
331.801	93.25
332.03	101.25
332.258	95.25
332.486	84.25
332.715	84.25
332.943	75.25
333.172	100.25
333.4	99.25
333.629	104.25
333.857	89.25
334.085	88.25
334.314	104.25
334.542	113.25
334.771	97.25
334.999	99.25
335.227	93.25
335.455	81.25
335.684	91.25
335.912	89.25
336.14	100.25
336.369	98.25
336.597	92.25
336.825	99.25
337.053	98.25
337.281	99.25
337.51	91.25
337.738	81.25
337.966	87.25
338.194	97.25
338.422	97.25
338.65	98.25
338.878	90.25
339.106	86.25
339.334	90.25
339.562	73.25
339.79	98.25
340.018	100.25
340.246	97.25
340.474	94.25
340.702	92.25
340.93	91.25
341.158	83.25
341.386	81.25
341.614	98.25
341.842	89.25
342.07	85.25
342.298	88.25
342.526	82.25
342.754	80.25
342.981	80.25
343.209	105.25
343.437	112.25
343.665	89.25
343.893	88.25
344.12	73.25
344.348	93.25
344.576	91.25
344.804	100.25
345.031	86.25
345.259	82.25
345.487	88.25
345.714	99.25
345.942	86.25
346.17	94.25
346.397	81.25
346.625	89.25
346.853	82.25
347.08	88.25
347.308	74.25
347.535	92.25
347.763	95.25
347.99	103.25
348.218	91.25
348.445	91.25
348.673	87.25
348.9	80.25
349.128	91.25
349.355	91.25
349.583	108.25
349.81	90.25
350.037	89.25
350.265	71.25
350.492	83.25
350.72	104.25
350.947	105.25
351.174	78.25
351.402	101.25
351.629	90.25
351.856	85.25
352.083	88.25
352.311	107.25
352.538	103.25
352.765	98.25
352.992	105.25
353.22	102.25
353.447	116.25
353.674	93.25
353.901	74.25
354.128	93.25
354.355	106.25
354.583	90.25
354.81	90.25
355.037	97.25
355.264	97.25
355.491	88.25
355.718	88.25
355.945	93.25
356.172	90.25
356.399	88.25
356.626	93.25
356.853	88.25
357.08	88.25
357.307	94.25
357.534	90.25
357.761	100.25
357.988	90.25
358.215	104.25
358.441	107.25
358.668	97.25
358.895	81.25
359.122	79.25
359.349	93.25
359.576	79.25
359.802	98.25
360.029	93.25
360.256	111.25
360.483	79.25
360.709	93.25
360.936	102.25
361.163	87.25
361.39	88.25
361.616	95.25
361.843	81.25
362.07	80.25
362.296	88.25
362.523	82.25
362.749	86.25
362.976	83.25
363.203	90.25
363.429	88.25
363.656	87.25
363.882	80.25
364.109	93.25
364.335	90.25
364.562	77.25
364.788	100.25
365.015	83.25
365.241	97.25
365.468	99.25
365.694	85.25
365.92	90.25
366.147	75.25
366.373	79.25
366.599	89.25
366.826	87.25
367.052	89.25
367.278	85.25
367.505	77.25
367.731	86.25
367.957	90.25
368.184	87.25
368.41	80.25
368.636	86.25
368.862	97.25
369.089	91.25
369.315	83.25
369.541	95.25
369.767	91.25
369.993	85.25
370.219	81.25
370.445	71.25
370.672	93.25
370.898	87.25
371.124	63.25
371.35	85.25
371.576	80.25
371.802	71.25
372.028	100.25
372.254	98.25
372.48	82.25
372.706	70.25
372.932	73.25
373.158	79.25
373.384	87.25
373.61	85.25
373.835	80.25
374.061	75.25
374.287	78.25
374.513	86.25
374.739	87.25
374.965	97.25
375.191	83.25
375.416	79.25
375.642	101.25
375.868	97.25
376.094	98.25
376.319	79.25
376.545	82.25
376.771	83.25
376.997	82.25
377.222	87.25
377.448	85.25
377.674	90.25
377.899	94.25
378.125	91.25
378.35	85.25
378.576	98.25
378.802	95.25
379.027	81.25
379.253	97.25
379.478	97.25
379.704	87.25
379.929	97.25
380.155	81.25
380.38	88.25
380.606	83.25
380.831	85.25
381.057	82.25
381.282	86.25
381.507	108.25
381.733	87.25
381.958	90.25
382.184	98.25
382.409	100.25
382.634	103.25
382.86	88.25
383.085	102.25
383.31	105.25
383.535	103.25
383.761	101.25
383.986	83.25
384.211	89.25
384.436	94.25
384.662	100.25
384.887	99.25
385.112	94.25
385.337	93.25
385.562	113.25
385.787	117.25
386.013	117.25
386.238	123.25
386.463	106.25
386.688	117.25
386.913	111.25
387.138	118.25
387.363	101.25
387.588	104.25
387.813	110.25
388.038	110.25
388.263	107.25
388.488	125.25
388.713	86.25
388.938	97.25
389.163	92.25
389.387	103.25
389.612	103.25
389.837	95.25
390.062	98.25
390.287	86.25
390.512	80.25
390.736	79.25
390.961	93.25
391.186	89.25
391.411	93.25
391.636	78.25
391.86	87.25
392.085	96.25
392.31	81.25
392.534	68.25
392.759	77.25
392.984	84.25
393.208	91.25
393.433	94.25
393.658	66.25
393.882	86.25
394.107	67.25
394.331	91.25
394.556	94.25
394.78	93.25
395.005	87.25
395.229	81.25
395.454	79.25
395.678	89.25
395.903	91.25
396.127	75.25
396.352	86.25
396.576	68.25
396.801	97.25
397.025	74.25
397.249	91.25
397.474	96.25
397.698	83.25
397.922	84.25
398.147	68.25
398.371	94.25
398.595	78.25
398.82	83.25
399.044	93.25
399.268	87.25
399.492	93.25
399.717	97.25
399.941	84.25
400.165	81.25
400.389	92.25
400.613	81.25
400.837	80.25
401.062	98.25
401.286	83.25
401.51	73.25
401.734	88.25
401.958	86.25
402.182	117.25
402.406	120.25
402.63	113.25
402.854	94.25
403.078	77.25
403.302	74.25
403.526	90.25
403.75	85.25
403.974	93.25
404.198	85.25
404.422	69.25
404.645	86.25
404.869	93.25
405.093	77.25
405.317	103.25
405.541	83.25
405.765	90.25
405.988	88.25
406.212	134.25
406.436	168.25
406.66	98.25
406.883	89.25
407.107	97.25
407.331	89.25
407.555	98.25
407.778	83.25
408.002	96.25
408.226	103.25
408.449	86.25
408.673	82.25
408.896	88.25
409.12	81.25
409.344	89.25
409.567	76.25
409.791	78.25
410.014	90.25
410.238	95.25
410.461	80.25
410.685	94.25
410.908	99.25
411.132	93.25
411.355	98.25
411.578	96.25
411.802	86.25
412.025	85.25
412.249	83.25
412.472	85.25
412.695	97.25
412.919	88.25
413.142	94.25
413.365	83.25
413.589	81.25
413.812	94.25
414.035	87.25
414.258	97.25
414.482	87.25
414.705	67.25
414.928	84.25
415.151	89.25
415.374	92.25
415.597	80.25
415.821	81.25
416.044	97.25
416.267	86.25
416.49	87.25
416.713	84.25
416.936	95.25
417.159	78.25
417.382	82.25
417.605	86.25
417.828	99.25
418.051	92.25
418.274	81.25
418.497	79.25
418.72	88.25
418.943	86.25
419.166	82.25
419.389	99.25
419.611	80.25
419.834	95.25
420.057	89.25
420.28	86.25
420.503	80.25
420.726	88.25
420.948	90.25
421.171	92.25
421.394	81.25
421.617	98.25
421.839	85.25
422.062	87.25
422.285	90.25
422.507	99.25
422.73	100.25
422.953	85.25
423.175	87.25
423.398	90.25
423.621	97.25
423.843	79.25
424.066	84.25
424.288	94.25
424.511	99.25
424.733	93.25
424.956	94.25
425.178	71.25
425.401	102.25
425.623	92.25
425.846	93.25
426.068	77.25
426.291	83.25
426.513	91.25
426.735	92.25
426.958	86.25
427.18	86.25
427.402	121.25
427.625	125.25
427.847	117.25
428.069	80.25
428.292	84.25
428.514	77.25
428.736	74.25
428.958	82.25
429.181	83.25
429.403	78.25
429.625	86.25
429.847	83.25
430.069	93.25
430.292	89.25
430.514	87.25
430.736	98.25
430.958	101.25
431.18	85.25
431.402	79.25
431.624	73.25
431.846	91.25
432.068	78.25
432.29	98.25
432.512	96.25
432.734	96.25
432.956	88.25
433.178	84.25
433.4	85.25
433.622	90.25
433.844	81.25
434.066	90.25
434.287	94.25
434.509	68.25
434.731	73.25
434.953	86.25
435.175	85.25
435.397	93.25
435.618	90.25
435.84	88.25
436.062	99.25
436.284	99.25
436.505	103.25
436.727	80.25
436.949	93.25
437.17	74.25
437.392	75.25
437.614	91.25
437.835	104.25
438.057	92.25
438.278	101.25
438.5	103.25
438.721	112.25
438.943	90.25
439.165	88.25
439.386	81.25
439.608	71.25
439.829	91.25
440.05	114.25
440.272	107.25
440.493	92.25
440.715	81.25
440.936	86.25
441.158	76.25
441.379	81.25
441.6	83.25
441.822	86.25
442.043	68.25
442.264	73.25
442.486	83.25
442.707	80.25
442.928	104.25
443.149	99.25
443.371	110.25
443.592	87.25
443.813	85.25
444.034	86.25
444.255	97.25
444.476	90.25
444.698	92.25
444.919	79.25
445.14	123.25
445.361	113.25
445.582	95.25
445.803	101.25
446.024	125.25
446.245	117.25
446.466	105.25
446.687	68.25
446.908	71.25
447.129	92.25
447.35	93.25
447.571	99.25
447.792	85.25
448.013	99.25
448.234	96.25
448.455	102.25
448.675	113.25
448.896	101.25
449.117	89.25
449.338	98.25
449.559	89.25
449.779	125.25
450	97.25
450.221	87.25
450.442	89.25
450.662	89.25
450.883	78.25
451.104	110.25
451.324	91.25
451.545	79.25
451.766	81.25
451.986	81.25
452.207	84.25
452.428	87.25
452.648	101.25
452.869	95.25
453.089	97.25
453.31	101.25
453.53	69.25
453.751	85.25
453.971	88.25
454.192	97.25
454.412	100.25
454.633	85.25
454.853	65.25
455.073	85.25
455.294	85.25
455.514	89.25
455.734	87.25
455.955	73.25
456.175	91.25
456.395	81.25
456.616	94.25
456.836	77.25
457.056	77.25
457.276	70.25
457.497	79.25
457.717	86.25
457.937	85.25
458.157	93.25
458.377	74.25
458.598	93.25
458.818	111.25
459.038	123.25
459.258	88.25
459.478	87.25
459.698	86.25
459.918	85.25
460.138	74.25
460.358	80.25
460.578	83.25
460.798	79.25
461.018	88.25
461.238	91.25
461.458	86.25
461.678	99.25
461.898	66.25
462.118	81.25
462.338	88.25
462.558	82.25
462.777	77.25
462.997	80.25
463.217	78.25
463.437	75.25
463.657	72.25
463.876	95.25
464.096	87.25
464.316	90.25
464.536	98.25
464.755	96.25
464.975	84.25
465.195	134.25
465.414	111.25
465.634	93.25
465.854	89.25
466.073	75.25
466.293	88.25
466.512	81.25
466.732	86.25
466.951	74.25
467.171	99.25
467.391	74.25
467.61	101.25
467.829	95.25
468.049	90.25
468.268	99.25
468.488	80.25
468.707	82.25
468.927	80.25
469.146	89.25
469.365	99.25
469.585	95.25
469.804	88.25
470.023	91.25
470.243	93.25
470.462	86.25
470.681	99.25
470.901	67.25
471.12	78.25
471.339	83.25
471.558	88.25
471.777	94.25
471.997	81.25
472.216	95.25
472.435	108.25
472.654	78.25
472.873	90.25
473.092	77.25
473.311	85.25
473.53	77.25
473.749	73.25
473.968	102.25
474.187	111.25
474.406	82.25
474.625	82.25
474.844	74.25
475.063	81.25
475.282	73.25
475.501	83.25
475.72	95.25
475.939	85.25
476.158	87.25
476.377	91.25
476.596	78.25
476.814	87.25
477.033	82.25
477.252	85.25
477.471	87.25
477.69	82.25
477.908	88.25
478.127	82.25
478.346	89.25
478.564	94.25
478.783	89.25
479.002	79.25
479.22	88.25
479.439	92.25
479.658	97.25
479.876	86.25
480.095	80.25
480.313	90.25
480.532	76.25
480.751	80.25
480.969	113.25
481.188	153.25
481.406	117.25
481.624	95.25
481.843	85.25
482.061	82.25
482.28	77.25
482.498	75.25
482.717	83.25
482.935	83.25
483.153	98.25
483.372	80.25
483.59	86.25
483.808	86.25
484.027	84.25
484.245	82.25
484.463	93.25
484.681	87.25
484.9	91.25
485.118	87.25
485.336	98.25
485.554	96.25
485.772	102.25
485.99	103.25
486.209	102.25
486.427	104.25
486.645	117.25
486.863	106.25
487.081	91.25
487.299	98.25
487.517	87.25
487.735	97.25
487.953	75.25
488.171	91.25
488.389	99.25
488.607	85.25
488.825	99.25
489.043	91.25
489.261	91.25
489.479	88.25
489.696	87.25
489.914	86.25
490.132	82.25
490.35	89.25
490.568	85.25
490.786	90.25
491.003	104.25
491.221	106.25
491.439	90.25
491.657	107.25
491.874	81.25
492.092	85.25
492.31	84.25
492.527	82.25
492.745	89.25
492.963	72.25
493.18	85.25
493.398	91.25
493.615	97.25
493.833	79.25
494.05	74.25
494.268	101.25
494.485	87.25
494.703	88.25
494.92	89.25
495.138	88.25
495.355	104.25
495.573	87.25
495.79	91.25
496.008	84.25
496.225	88.25
496.442	77.25
496.66	88.25
496.877	91.25
497.094	93.25
497.312	112.25
497.529	87.25
497.746	93.25
497.963	87.25
498.181	91.25
498.398	93.25
498.615	92.25
498.832	90.25
499.049	82.25
499.267	86.25
499.484	77.25
499.701	83.25
499.918	84.25
500.135	82.25
500.352	77.25
500.569	79.25
500.786	90.25
501.003	104.25
501.22	71.25
501.437	81.25
501.654	96.25
501.871	84.25
502.088	89.25
502.305	87.25
502.522	87.25
502.739	92.25
502.956	79.25
503.172	99.25
503.389	83.25
503.606	94.25
503.823	83.25
504.04	89.25
504.256	78.25
504.473	90.25
504.69	98.25
504.907	90.25
505.123	89.25
505.34	93.25
505.557	87.25
505.773	82.25
505.99	97.25
506.207	94.25
506.423	72.25
506.64	85.25
506.856	84.25
507.073	91.25
507.289	90.25
507.506	110.25
507.722	93.25
507.939	116.25
508.155	81.25
508.372	91.25
508.588	101.25
508.805	91.25
509.021	71.25
509.238	109.25
509.454	97.25
509.67	105.25
509.887	102.25
510.103	115.25
510.319	166.25
510.536	534.25
510.752	1511.25
510.968	445.25
511.184	125.25
511.401	86.25
511.617	98.25
511.833	91.25
512.049	91.25
512.265	75.25
512.481	80.25
512.698	84.25
512.914	77.25
513.13	89.25
513.346	90.25
513.562	86.25
513.778	109.25
513.994	100.25
514.21	100.25
514.426	102.25
514.642	99.25
514.858	102.25
515.074	125.25
515.29	306.25
515.506	888.25
515.721	355.25
515.937	133.25
516.153	98.25
516.369	97.25
516.585	90.25
516.801	89.25
517.016	87.25
517.232	90.25
517.448	98.25
