Data from Circ_1982_H10_HRD10591_00042.txt Node
Date: Wed Jan 03 12:30:49 EST 2024
User: Yrep
Spectrometer: HR+D1059
Trigger mode: 1
Integration Time (sec): 1.000000E-1
Scans to average: 1
Electric dark correction enabled: true
Nonlinearity correction enabled: false
Boxcar width: 0
XAxis mode: Wavelengths
Number of Pixels in Spectrum: 2048
>>>>>Begin Spectral Data<<<<<
223.165	-20.38
223.4	-20.38
223.635	-20.38
223.869	-10.38
224.104	-16.38
224.338	-8.38
224.573	-10.38
224.808	-12.38
225.042	-18.38
225.277	-11.38
225.511	0.62
225.746	8.62
225.98	6.62
226.215	9.62
226.449	21.62
226.683	12.62
226.918	20.62
227.152	27.62
227.387	55.62
227.621	49.62
227.856	53.62
228.09	45.62
228.324	37.62
228.559	51.62
228.793	70.62
229.027	73.62
229.262	68.62
229.496	85.62
229.73	73.62
229.964	67.62
230.199	82.62
230.433	81.62
230.667	84.62
230.901	69.62
231.136	77.62
231.37	88.62
231.604	69.62
231.838	93.62
232.072	69.62
232.306	86.62
232.541	86.62
232.775	67.62
233.009	74.62
233.243	90.62
233.477	77.62
233.711	90.62
233.945	79.62
234.179	87.62
234.413	100.62
234.647	73.62
234.881	73.62
235.115	87.62
235.349	93.62
235.583	88.62
235.817	85.62
236.051	83.62
236.285	66.62
236.519	73.62
236.753	87.62
236.987	85.62
237.221	93.62
237.455	86.62
237.689	86.62
237.922	86.62
238.156	84.62
238.39	92.62
238.624	78.62
238.858	82.62
239.091	76.62
239.325	85.62
239.559	83.62
239.793	70.62
240.027	70.62
240.26	90.62
240.494	81.62
240.728	67.62
240.961	81.62
241.195	76.62
241.429	81.62
241.662	89.62
241.896	72.62
242.13	69.62
242.363	86.62
242.597	81.62
242.83	87.62
243.064	73.62
243.298	77.62
243.531	63.62
243.765	79.62
243.998	87.62
244.232	71.62
244.465	76.62
244.699	70.62
244.932	81.62
245.166	84.62
245.399	76.62
245.633	77.62
245.866	79.62
246.099	82.62
246.333	72.62
246.566	87.62
246.8	84.62
247.033	85.62
247.266	73.62
247.5	73.62
247.733	85.62
247.966	87.62
248.2	89.62
248.433	73.62
248.666	85.62
248.899	81.62
249.133	73.62
249.366	89.62
249.599	94.62
249.832	91.62
250.066	85.62
250.299	71.62
250.532	89.62
250.765	70.62
250.998	71.62
251.231	78.62
251.465	84.62
251.698	78.62
251.931	80.62
252.164	82.62
252.397	90.62
252.63	76.62
252.863	83.62
253.096	71.62
253.329	89.62
253.562	77.62
253.795	77.62
254.028	87.62
254.261	73.62
254.494	94.62
254.727	77.62
254.96	93.62
255.193	87.62
255.426	84.62
255.659	81.62
255.892	83.62
256.124	83.62
256.357	84.62
256.59	86.62
256.823	99.62
257.056	93.62
257.289	81.62
257.521	80.62
257.754	66.62
257.987	77.62
258.22	82.62
258.452	73.62
258.685	81.62
258.918	72.62
259.151	81.62
259.383	78.62
259.616	81.62
259.849	90.62
260.081	73.62
260.314	76.62
260.547	75.62
260.779	83.62
261.012	97.62
261.244	75.62
261.477	97.62
261.71	86.62
261.942	99.62
262.175	106.62
262.407	100.62
262.64	86.62
262.872	100.62
263.105	81.62
263.337	74.62
263.57	76.62
263.802	85.62
264.035	85.62
264.267	82.62
264.499	95.62
264.732	87.62
264.964	92.62
265.197	78.62
265.429	89.62
265.661	74.62
265.894	82.62
266.126	83.62
266.358	76.62
266.591	88.62
266.823	89.62
267.055	86.62
267.287	88.62
267.52	74.62
267.752	82.62
267.984	81.62
268.216	91.62
268.448	97.62
268.681	83.62
268.913	73.62
269.145	97.62
269.377	91.62
269.609	84.62
269.841	89.62
270.073	82.62
270.306	89.62
270.538	73.62
270.77	98.62
271.002	74.62
271.234	63.62
271.466	75.62
271.698	76.62
271.93	82.62
272.162	81.62
272.394	93.62
272.626	89.62
272.858	97.62
273.09	85.62
273.322	90.62
273.553	87.62
273.785	102.62
274.017	84.62
274.249	74.62
274.481	84.62
274.713	81.62
274.945	88.62
275.176	90.62
275.408	101.62
275.64	74.62
275.872	75.62
276.104	84.62
276.335	78.62
276.567	97.62
276.799	117.62
277.031	102.62
277.262	94.62
277.494	104.62
277.726	77.62
277.957	99.62
278.189	91.62
278.421	86.62
278.652	90.62
278.884	85.62
279.115	78.62
279.347	85.62
279.579	79.62
279.81	89.62
280.042	84.62
280.273	87.62
280.505	83.62
280.736	83.62
280.968	76.62
281.199	94.62
281.431	86.62
281.662	88.62
281.894	77.62
282.125	114.62
282.356	107.62
282.588	116.62
282.819	103.62
283.051	102.62
283.282	89.62
283.513	71.62
283.745	92.62
283.976	97.62
284.207	83.62
284.439	96.62
284.67	69.62
284.901	95.62
285.132	95.62
285.364	85.62
285.595	98.62
285.826	99.62
286.057	92.62
286.288	73.62
286.52	84.62
286.751	91.62
286.982	75.62
287.213	86.62
287.444	75.62
287.675	80.62
287.906	64.62
288.138	93.62
288.369	79.62
288.6	87.62
288.831	97.62
289.062	97.62
289.293	94.62
289.524	89.62
289.755	82.62
289.986	82.62
290.217	88.62
290.448	70.62
290.679	86.62
290.91	91.62
291.141	94.62
291.371	93.62
291.602	86.62
291.833	87.62
292.064	84.62
292.295	90.62
292.526	100.62
292.757	81.62
292.987	93.62
293.218	94.62
293.449	90.62
293.68	96.62
293.91	86.62
294.141	96.62
294.372	85.62
294.603	73.62
294.833	91.62
295.064	89.62
295.295	83.62
295.525	92.62
295.756	86.62
295.987	99.62
296.217	118.62
296.448	121.62
296.679	97.62
296.909	77.62
297.14	97.62
297.37	93.62
297.601	99.62
297.831	95.62
298.062	92.62
298.292	98.62
298.523	90.62
298.753	71.62
298.984	97.62
299.214	91.62
299.445	81.62
299.675	96.62
299.905	89.62
300.136	88.62
300.366	80.62
300.597	89.62
300.827	104.62
301.057	94.62
301.288	91.62
301.518	98.62
301.748	90.62
301.979	93.62
302.209	85.62
302.439	84.62
302.669	95.62
302.9	108.62
303.13	100.62
303.36	97.62
303.59	100.62
303.82	108.62
304.051	96.62
304.281	94.62
304.511	83.62
304.741	81.62
304.971	81.62
305.201	84.62
305.431	100.62
305.661	99.62
305.891	86.62
306.121	97.62
306.352	99.62
306.582	86.62
306.812	87.62
307.042	88.62
307.272	79.62
307.502	97.62
307.731	107.62
307.961	87.62
308.191	80.62
308.421	84.62
308.651	87.62
308.881	92.62
309.111	106.62
309.341	98.62
309.571	92.62
309.8	98.62
310.03	93.62
310.26	95.62
310.49	107.62
310.72	91.62
310.949	93.62
311.179	89.62
311.409	88.62
311.639	98.62
311.868	92.62
312.098	84.62
312.328	99.62
312.557	99.62
312.787	106.62
313.017	105.62
313.246	103.62
313.476	94.62
313.706	97.62
313.935	83.62
314.165	99.62
314.394	96.62
314.624	101.62
314.853	108.62
315.083	76.62
315.312	76.62
315.542	82.62
315.771	85.62
316.001	87.62
316.23	86.62
316.46	92.62
316.689	93.62
316.919	87.62
317.148	97.62
317.377	91.62
317.607	84.62
317.836	89.62
318.065	84.62
318.295	93.62
318.524	94.62
318.753	83.62
318.983	100.62
319.212	93.62
319.441	98.62
319.67	95.62
319.9	99.62
320.129	106.62
320.358	103.62
320.587	92.62
320.816	105.62
321.046	93.62
321.275	99.62
321.504	79.62
321.733	102.62
321.962	87.62
322.191	94.62
322.42	97.62
322.649	121.62
322.878	102.62
323.108	101.62
323.337	111.62
323.566	131.62
323.795	134.62
324.024	178.62
324.253	316.62
324.482	574.62
324.71	1177.62
324.939	1508.62
325.168	557.62
325.397	185.62
325.626	140.62
325.855	123.62
326.084	104.62
326.313	127.62
326.542	130.62
326.77	176.62
326.999	330.62
327.228	670.62
327.457	1193.62
327.686	953.62
327.914	282.62
328.143	182.62
328.372	127.62
328.6	101.62
328.829	106.62
329.058	108.62
329.287	99.62
329.515	102.62
329.744	101.62
329.972	108.62
330.201	102.62
330.43	114.62
330.658	110.62
330.887	127.62
331.115	123.62
331.344	103.62
331.572	100.62
331.801	78.62
332.03	93.62
332.258	94.62
332.486	78.62
332.715	98.62
332.943	87.62
333.172	83.62
333.4	93.62
333.629	99.62
333.857	105.62
334.085	106.62
334.314	107.62
334.542	109.62
334.771	109.62
334.999	93.62
335.227	100.62
335.455	84.62
335.684	93.62
335.912	95.62
336.14	113.62
336.369	106.62
336.597	109.62
336.825	103.62
337.053	103.62
337.281	88.62
337.51	94.62
337.738	92.62
337.966	80.62
338.194	90.62
338.422	89.62
338.65	101.62
338.878	103.62
339.106	93.62
339.334	99.62
339.562	88.62
339.79	97.62
340.018	85.62
340.246	96.62
340.474	114.62
340.702	92.62
340.93	97.62
341.158	91.62
341.386	92.62
341.614	114.62
341.842	91.62
342.07	91.62
342.298	91.62
342.526	86.62
342.754	91.62
342.981	86.62
343.209	97.62
343.437	112.62
343.665	91.62
343.893	89.62
344.12	85.62
344.348	101.62
344.576	86.62
344.804	85.62
345.031	106.62
345.259	95.62
345.487	97.62
345.714	82.62
345.942	90.62
346.17	84.62
346.397	97.62
346.625	72.62
346.853	83.62
347.08	90.62
347.308	94.62
347.535	96.62
347.763	106.62
347.99	97.62
348.218	111.62
348.445	110.62
348.673	102.62
348.9	91.62
349.128	106.62
349.355	102.62
349.583	104.62
349.81	87.62
350.037	95.62
350.265	108.62
350.492	99.62
350.72	94.62
350.947	83.62
351.174	99.62
351.402	96.62
351.629	96.62
351.856	95.62
352.083	113.62
352.311	98.62
352.538	102.62
352.765	112.62
352.992	117.62
353.22	102.62
353.447	100.62
353.674	107.62
353.901	108.62
354.128	106.62
354.355	99.62
354.583	100.62
354.81	91.62
355.037	90.62
355.264	94.62
355.491	95.62
355.718	93.62
355.945	88.62
356.172	106.62
356.399	95.62
356.626	111.62
356.853	101.62
357.08	72.62
357.307	78.62
357.534	83.62
357.761	85.62
357.988	95.62
358.215	97.62
358.441	94.62
358.668	108.62
358.895	91.62
359.122	95.62
359.349	84.62
359.576	105.62
359.802	98.62
360.029	89.62
360.256	91.62
360.483	96.62
360.709	97.62
360.936	80.62
361.163	106.62
361.39	99.62
361.616	87.62
361.843	90.62
362.07	89.62
362.296	101.62
362.523	93.62
362.749	82.62
362.976	85.62
363.203	98.62
363.429	83.62
363.656	94.62
363.882	91.62
364.109	92.62
364.335	102.62
364.562	76.62
364.788	93.62
365.015	95.62
365.241	101.62
365.468	103.62
365.694	105.62
365.92	89.62
366.147	96.62
366.373	94.62
366.599	100.62
366.826	87.62
367.052	90.62
367.278	84.62
367.505	89.62
367.731	93.62
367.957	92.62
368.184	93.62
368.41	106.62
368.636	96.62
368.862	126.62
369.089	94.62
369.315	78.62
369.541	88.62
369.767	94.62
369.993	91.62
370.219	90.62
370.445	105.62
370.672	86.62
370.898	93.62
371.124	96.62
371.35	86.62
371.576	87.62
371.802	106.62
372.028	93.62
372.254	85.62
372.48	82.62
372.706	89.62
372.932	96.62
373.158	93.62
373.384	93.62
373.61	78.62
373.835	105.62
374.061	90.62
374.287	92.62
374.513	96.62
374.739	95.62
374.965	92.62
375.191	94.62
375.416	97.62
375.642	97.62
375.868	87.62
376.094	87.62
376.319	85.62
376.545	109.62
376.771	93.62
376.997	89.62
377.222	89.62
377.448	93.62
377.674	83.62
377.899	81.62
378.125	92.62
378.35	85.62
378.576	94.62
378.802	85.62
379.027	86.62
379.253	87.62
379.478	88.62
379.704	99.62
379.929	97.62
380.155	90.62
380.38	93.62
380.606	99.62
380.831	90.62
381.057	91.62
381.282	88.62
381.507	99.62
381.733	105.62
381.958	81.62
382.184	107.62
382.409	97.62
382.634	99.62
382.86	111.62
383.085	109.62
383.31	105.62
383.535	96.62
383.761	106.62
383.986	98.62
384.211	102.62
384.436	105.62
384.662	103.62
384.887	92.62
385.112	102.62
385.337	112.62
385.562	120.62
385.787	110.62
386.013	109.62
386.238	113.62
386.463	98.62
386.688	110.62
386.913	110.62
387.138	120.62
387.363	87.62
387.588	109.62
387.813	105.62
388.038	103.62
388.263	118.62
388.488	93.62
388.713	106.62
388.938	88.62
389.163	95.62
389.387	95.62
389.612	90.62
389.837	97.62
390.062	78.62
390.287	97.62
390.512	76.62
390.736	99.62
390.961	92.62
391.186	79.62
391.411	93.62
391.636	89.62
391.86	90.62
392.085	87.62
392.31	109.62
392.534	95.62
392.759	89.62
392.984	91.62
393.208	97.62
393.433	76.62
393.658	106.62
393.882	109.62
394.107	98.62
394.331	89.62
394.556	94.62
394.78	90.62
395.005	86.62
395.229	89.62
395.454	81.62
395.678	99.62
395.903	95.62
396.127	73.62
396.352	100.62
396.576	91.62
396.801	79.62
397.025	85.62
397.249	100.62
397.474	86.62
397.698	85.62
397.922	96.62
398.147	78.62
398.371	85.62
398.595	76.62
398.82	81.62
399.044	79.62
399.268	97.62
399.492	77.62
399.717	82.62
399.941	81.62
400.165	93.62
400.389	96.62
400.613	86.62
400.837	97.62
401.062	78.62
401.286	101.62
401.51	91.62
401.734	89.62
401.958	113.62
402.182	116.62
402.406	130.62
402.63	102.62
402.854	92.62
403.078	80.62
403.302	106.62
403.526	92.62
403.75	78.62
403.974	83.62
404.198	88.62
404.422	91.62
404.645	92.62
404.869	91.62
405.093	99.62
405.317	90.62
405.541	93.62
405.765	103.62
405.988	96.62
406.212	147.62
406.436	180.62
406.66	114.62
406.883	94.62
407.107	90.62
407.331	85.62
407.555	93.62
407.778	102.62
408.002	95.62
408.226	91.62
408.449	91.62
408.673	84.62
408.896	78.62
409.12	91.62
409.344	97.62
409.567	88.62
409.791	104.62
410.014	106.62
410.238	98.62
410.461	85.62
410.685	89.62
410.908	97.62
411.132	102.62
411.355	91.62
411.578	81.62
411.802	75.62
412.025	95.62
412.249	85.62
412.472	81.62
412.695	91.62
412.919	93.62
413.142	84.62
413.365	104.62
413.589	84.62
413.812	95.62
414.035	95.62
414.258	93.62
414.482	88.62
414.705	103.62
414.928	85.62
415.151	91.62
415.374	102.62
415.597	87.62
415.821	77.62
416.044	98.62
416.267	89.62
416.49	72.62
416.713	101.62
416.936	89.62
417.159	89.62
417.382	81.62
417.605	86.62
417.828	76.62
418.051	92.62
418.274	86.62
418.497	87.62
418.72	96.62
418.943	87.62
419.166	90.62
419.389	59.62
419.611	85.62
419.834	99.62
420.057	87.62
420.28	78.62
420.503	84.62
420.726	101.62
420.948	91.62
421.171	87.62
421.394	98.62
421.617	82.62
421.839	88.62
422.062	75.62
422.285	94.62
422.507	102.62
422.73	100.62
422.953	107.62
423.175	92.62
423.398	78.62
423.621	96.62
423.843	107.62
424.066	92.62
424.288	81.62
424.511	90.62
424.733	89.62
424.956	101.62
425.178	94.62
425.401	106.62
425.623	111.62
425.846	81.62
426.068	89.62
426.291	92.62
426.513	101.62
426.735	90.62
426.958	81.62
427.18	91.62
427.402	113.62
427.625	130.62
427.847	110.62
428.069	97.62
428.292	85.62
428.514	111.62
428.736	87.62
428.958	85.62
429.181	89.62
429.403	83.62
429.625	96.62
429.847	102.62
430.069	95.62
430.292	95.62
430.514	89.62
430.736	95.62
430.958	83.62
431.18	79.62
431.402	94.62
431.624	83.62
431.846	98.62
432.068	89.62
432.29	78.62
432.512	99.62
432.734	84.62
432.956	92.62
433.178	92.62
433.4	88.62
433.622	75.62
433.844	83.62
434.066	91.62
434.287	90.62
434.509	84.62
434.731	81.62
434.953	95.62
435.175	82.62
435.397	82.62
435.618	101.62
435.84	114.62
436.062	118.62
436.284	105.62
436.505	107.62
436.727	97.62
436.949	103.62
437.17	85.62
437.392	82.62
437.614	93.62
437.835	91.62
438.057	99.62
438.278	101.62
438.5	93.62
438.721	116.62
438.943	94.62
439.165	91.62
439.386	90.62
439.608	99.62
439.829	83.62
440.05	111.62
440.272	129.62
440.493	88.62
440.715	106.62
440.936	92.62
441.158	91.62
441.379	95.62
441.6	82.62
441.822	86.62
442.043	72.62
442.264	87.62
442.486	93.62
442.707	73.62
442.928	86.62
443.149	109.62
443.371	113.62
443.592	90.62
443.813	102.62
444.034	96.62
444.255	93.62
444.476	88.62
444.698	94.62
444.919	93.62
445.14	125.62
445.361	115.62
445.582	107.62
445.803	118.62
446.024	103.62
446.245	111.62
446.466	106.62
446.687	86.62
446.908	76.62
447.129	87.62
447.35	94.62
447.571	107.62
447.792	102.62
448.013	99.62
448.234	95.62
448.455	88.62
448.675	101.62
448.896	95.62
449.117	81.62
449.338	110.62
449.559	108.62
449.779	113.62
450	83.62
450.221	94.62
450.442	85.62
450.662	90.62
450.883	101.62
451.104	102.62
451.324	93.62
451.545	93.62
451.766	100.62
451.986	83.62
452.207	81.62
452.428	101.62
452.648	99.62
452.869	85.62
453.089	99.62
453.31	86.62
453.53	78.62
453.751	67.62
453.971	97.62
454.192	100.62
454.412	82.62
454.633	77.62
454.853	85.62
455.073	86.62
455.294	97.62
455.514	87.62
455.734	106.62
455.955	85.62
456.175	93.62
456.395	93.62
456.616	85.62
456.836	101.62
457.056	88.62
457.276	85.62
457.497	91.62
457.717	88.62
457.937	100.62
458.157	86.62
458.377	88.62
458.598	93.62
458.818	129.62
459.038	138.62
459.258	96.62
459.478	75.62
459.698	74.62
459.918	87.62
460.138	88.62
460.358	92.62
460.578	88.62
460.798	89.62
461.018	90.62
461.238	98.62
461.458	71.62
461.678	84.62
461.898	77.62
462.118	76.62
462.338	85.62
462.558	101.62
462.777	101.62
462.997	100.62
463.217	95.62
463.437	83.62
463.657	89.62
463.876	99.62
464.096	77.62
464.316	97.62
464.536	92.62
464.755	87.62
464.975	101.62
465.195	147.62
465.414	132.62
465.634	83.62
465.854	92.62
466.073	81.62
466.293	83.62
466.512	85.62
466.732	89.62
466.951	106.62
467.171	94.62
467.391	78.62
467.61	100.62
467.829	89.62
468.049	97.62
468.268	106.62
468.488	85.62
468.707	89.62
468.927	75.62
469.146	89.62
469.365	89.62
469.585	94.62
469.804	74.62
470.023	81.62
470.243	81.62
470.462	104.62
470.681	107.62
470.901	92.62
471.12	98.62
471.339	82.62
471.558	88.62
471.777	92.62
471.997	96.62
472.216	96.62
472.435	143.62
472.654	111.62
472.873	87.62
473.092	86.62
473.311	84.62
473.53	82.62
473.749	89.62
473.968	93.62
474.187	91.62
474.406	86.62
474.625	87.62
474.844	91.62
475.063	84.62
475.282	83.62
475.501	81.62
475.72	82.62
475.939	74.62
476.158	76.62
476.377	79.62
476.596	81.62
476.814	77.62
477.033	90.62
477.252	76.62
477.471	79.62
477.69	90.62
477.908	86.62
478.127	91.62
478.346	88.62
478.564	94.62
478.783	81.62
479.002	91.62
479.22	88.62
479.439	105.62
479.658	97.62
479.876	101.62
480.095	99.62
480.313	102.62
480.532	101.62
480.751	96.62
480.969	109.62
481.188	156.62
481.406	133.62
481.624	92.62
481.843	96.62
482.061	96.62
482.28	84.62
482.498	76.62
482.717	76.62
482.935	90.62
483.153	91.62
483.372	102.62
483.59	96.62
483.808	93.62
484.027	103.62
484.245	91.62
484.463	76.62
484.681	85.62
484.9	105.62
485.118	94.62
485.336	97.62
485.554	105.62
485.772	99.62
485.99	109.62
486.209	103.62
486.427	115.62
486.645	110.62
486.863	105.62
487.081	89.62
487.299	83.62
487.517	93.62
487.735	88.62
487.953	87.62
488.171	106.62
488.389	91.62
488.607	107.62
488.825	103.62
489.043	102.62
489.261	97.62
489.479	89.62
489.696	105.62
489.914	91.62
490.132	99.62
490.35	83.62
490.568	90.62
490.786	93.62
491.003	91.62
491.221	92.62
491.439	89.62
491.657	95.62
491.874	96.62
492.092	93.62
492.31	101.62
492.527	78.62
492.745	83.62
492.963	85.62
493.18	83.62
493.398	90.62
493.615	107.62
493.833	94.62
494.05	95.62
494.268	95.62
494.485	92.62
494.703	92.62
494.92	85.62
495.138	90.62
495.355	101.62
495.573	95.62
495.79	73.62
496.008	93.62
496.225	96.62
496.442	94.62
496.66	94.62
496.877	84.62
497.094	91.62
497.312	96.62
497.529	94.62
497.746	89.62
497.963	89.62
498.181	99.62
498.398	82.62
498.615	103.62
498.832	100.62
499.049	89.62
499.267	91.62
499.484	99.62
499.701	99.62
499.918	95.62
500.135	101.62
500.352	85.62
500.569	78.62
500.786	94.62
501.003	79.62
501.22	97.62
501.437	103.62
501.654	98.62
501.871	90.62
502.088	88.62
502.305	79.62
502.522	90.62
502.739	100.62
502.956	74.62
503.172	93.62
503.389	91.62
503.606	94.62
503.823	95.62
504.04	82.62
504.256	86.62
504.473	84.62
504.69	74.62
504.907	94.62
505.123	84.62
505.34	88.62
505.557	96.62
505.773	84.62
505.99	81.62
506.207	95.62
506.423	96.62
506.64	101.62
506.856	99.62
507.073	90.62
507.289	115.62
507.506	100.62
507.722	100.62
507.939	107.62
508.155	105.62
508.372	84.62
508.588	99.62
508.805	97.62
509.021	99.62
509.238	102.62
509.454	93.62
509.67	93.62
509.887	99.62
510.103	119.62
510.319	193.62
510.536	615.62
510.752	1771.62
510.968	487.62
511.184	137.62
511.401	102.62
511.617	86.62
511.833	99.62
512.049	101.62
512.265	84.62
512.481	103.62
512.698	87.62
512.914	86.62
513.13	104.62
513.346	96.62
513.562	81.62
513.778	81.62
513.994	108.62
514.21	101.62
514.426	98.62
514.642	114.62
514.858	109.62
515.074	135.62
515.29	353.62
515.506	1039.62
515.721	393.62
515.937	128.62
