Data from Circ_1982_H10_HRD10591_00033.txt Node
Date: Wed Jan 03 12:30:47 EST 2024
User: Yrep
Spectrometer: HR+D1059
Trigger mode: 1
Integration Time (sec): 1.000000E-1
Scans to average: 1
Electric dark correction enabled: true
Nonlinearity correction enabled: false
Boxcar width: 0
XAxis mode: Wavelengths
Number of Pixels in Spectrum: 2048
>>>>>Begin Spectral Data<<<<<
223.165	-18.75
223.4	-18.75
223.635	-18.75
223.869	-26.75
224.104	-7.75
224.338	-8.75
224.573	-24.75
224.808	-10.75
225.042	3.25
225.277	4.25
225.511	8.25
225.746	-9.75
225.98	5.25
226.215	9.25
226.449	11.25
226.683	14.25
226.918	19.25
227.152	32.25
227.387	28.25
227.621	37.25
227.856	50.25
228.09	45.25
228.324	43.25
228.559	42.25
228.793	61.25
229.027	55.25
229.262	69.25
229.496	71.25
229.73	70.25
229.964	77.25
230.199	63.25
230.433	83.25
230.667	72.25
230.901	71.25
231.136	83.25
231.37	98.25
231.604	82.25
231.838	90.25
232.072	78.25
232.306	88.25
232.541	88.25
232.775	79.25
233.009	82.25
233.243	68.25
233.477	82.25
233.711	85.25
233.945	76.25
234.179	71.25
234.413	88.25
234.647	85.25
234.881	79.25
235.115	86.25
235.349	80.25
235.583	86.25
235.817	76.25
236.051	76.25
236.285	74.25
236.519	83.25
236.753	93.25
236.987	94.25
237.221	83.25
237.455	84.25
237.689	75.25
237.922	84.25
238.156	81.25
238.39	86.25
238.624	74.25
238.858	78.25
239.091	77.25
239.325	78.25
239.559	78.25
239.793	70.25
240.027	79.25
240.26	72.25
240.494	92.25
240.728	71.25
240.961	72.25
241.195	85.25
241.429	66.25
241.662	83.25
241.896	98.25
242.13	93.25
242.363	67.25
242.597	82.25
242.83	86.25
243.064	79.25
243.298	91.25
243.531	76.25
243.765	87.25
243.998	87.25
244.232	84.25
244.465	69.25
244.699	84.25
244.932	82.25
245.166	72.25
245.399	86.25
245.633	82.25
245.866	91.25
246.099	88.25
246.333	91.25
246.566	91.25
246.8	72.25
247.033	94.25
247.266	71.25
247.5	67.25
247.733	87.25
247.966	76.25
248.2	60.25
248.433	80.25
248.666	70.25
248.899	85.25
249.133	87.25
249.366	88.25
249.599	91.25
249.832	87.25
250.066	84.25
250.299	85.25
250.532	69.25
250.765	70.25
250.998	68.25
251.231	78.25
251.465	74.25
251.698	80.25
251.931	89.25
252.164	74.25
252.397	77.25
252.63	67.25
252.863	78.25
253.096	60.25
253.329	71.25
253.562	87.25
253.795	79.25
254.028	92.25
254.261	96.25
254.494	63.25
254.727	89.25
254.96	76.25
255.193	76.25
255.426	94.25
255.659	77.25
255.892	71.25
256.124	80.25
256.357	79.25
256.59	74.25
256.823	93.25
257.056	82.25
257.289	90.25
257.521	80.25
257.754	94.25
257.987	85.25
258.22	86.25
258.452	68.25
258.685	79.25
258.918	82.25
259.151	82.25
259.383	96.25
259.616	84.25
259.849	89.25
260.081	96.25
260.314	86.25
260.547	81.25
260.779	96.25
261.012	84.25
261.244	89.25
261.477	86.25
261.71	105.25
261.942	106.25
262.175	122.25
262.407	83.25
262.64	91.25
262.872	72.25
263.105	79.25
263.337	92.25
263.57	86.25
263.802	86.25
264.035	91.25
264.267	83.25
264.499	85.25
264.732	91.25
264.964	85.25
265.197	108.25
265.429	85.25
265.661	94.25
265.894	91.25
266.126	72.25
266.358	95.25
266.591	89.25
266.823	68.25
267.055	88.25
267.287	86.25
267.52	95.25
267.752	67.25
267.984	84.25
268.216	78.25
268.448	100.25
268.681	83.25
268.913	92.25
269.145	88.25
269.377	98.25
269.609	76.25
269.841	78.25
270.073	89.25
270.306	98.25
270.538	85.25
270.77	87.25
271.002	92.25
271.234	92.25
271.466	84.25
271.698	78.25
271.93	81.25
272.162	88.25
272.394	93.25
272.626	94.25
272.858	82.25
273.09	95.25
273.322	91.25
273.553	65.25
273.785	92.25
274.017	94.25
274.249	85.25
274.481	86.25
274.713	92.25
274.945	76.25
275.176	77.25
275.408	81.25
275.64	90.25
275.872	94.25
276.104	77.25
276.335	83.25
276.567	100.25
276.799	103.25
277.031	97.25
277.262	88.25
277.494	84.25
277.726	93.25
277.957	72.25
278.189	76.25
278.421	85.25
278.652	92.25
278.884	90.25
279.115	96.25
279.347	100.25
279.579	80.25
279.81	74.25
280.042	83.25
280.273	82.25
280.505	74.25
280.736	102.25
280.968	94.25
281.199	87.25
281.431	86.25
281.662	84.25
281.894	85.25
282.125	80.25
282.356	107.25
282.588	115.25
282.819	92.25
283.051	91.25
283.282	88.25
283.513	95.25
283.745	79.25
283.976	94.25
284.207	94.25
284.439	86.25
284.67	78.25
284.901	99.25
285.132	82.25
285.364	89.25
285.595	96.25
285.826	87.25
286.057	89.25
286.288	76.25
286.52	86.25
286.751	82.25
286.982	82.25
287.213	68.25
287.444	103.25
287.675	94.25
287.906	84.25
288.138	86.25
288.369	77.25
288.6	104.25
288.831	74.25
289.062	90.25
289.293	86.25
289.524	87.25
289.755	97.25
289.986	99.25
290.217	90.25
290.448	74.25
290.679	93.25
290.91	99.25
291.141	86.25
291.371	95.25
291.602	82.25
291.833	96.25
292.064	90.25
292.295	93.25
292.526	113.25
292.757	88.25
292.987	107.25
293.218	86.25
293.449	84.25
293.68	95.25
293.91	99.25
294.141	85.25
294.372	78.25
294.603	95.25
294.833	80.25
295.064	77.25
295.295	95.25
295.525	102.25
295.756	102.25
295.987	99.25
296.217	116.25
296.448	103.25
296.679	94.25
296.909	92.25
297.14	96.25
297.37	96.25
297.601	90.25
297.831	74.25
298.062	77.25
298.292	82.25
298.523	78.25
298.753	93.25
298.984	88.25
299.214	87.25
299.445	88.25
299.675	85.25
299.905	88.25
300.136	76.25
300.366	92.25
300.597	86.25
300.827	97.25
301.057	100.25
301.288	103.25
301.518	90.25
301.748	87.25
301.979	100.25
302.209	96.25
302.439	83.25
302.669	95.25
302.9	83.25
303.13	100.25
303.36	80.25
303.59	94.25
303.82	90.25
304.051	94.25
304.281	100.25
304.511	90.25
304.741	83.25
304.971	90.25
305.201	95.25
305.431	78.25
305.661	106.25
305.891	90.25
306.121	86.25
306.352	100.25
306.582	102.25
306.812	93.25
307.042	85.25
307.272	95.25
307.502	86.25
307.731	97.25
307.961	93.25
308.191	91.25
308.421	74.25
308.651	95.25
308.881	102.25
309.111	87.25
309.341	106.25
309.571	98.25
309.8	86.25
310.03	104.25
310.26	102.25
310.49	95.25
310.72	90.25
310.949	97.25
311.179	103.25
311.409	91.25
311.639	95.25
311.868	94.25
312.098	91.25
312.328	88.25
312.557	99.25
312.787	100.25
313.017	103.25
313.246	100.25
313.476	91.25
313.706	91.25
313.935	100.25
314.165	87.25
314.394	86.25
314.624	91.25
314.853	87.25
315.083	95.25
315.312	99.25
315.542	83.25
315.771	91.25
316.001	95.25
316.23	79.25
316.46	80.25
316.689	101.25
316.919	96.25
317.148	87.25
317.377	96.25
317.607	98.25
317.836	94.25
318.065	85.25
318.295	110.25
318.524	82.25
318.753	97.25
318.983	90.25
319.212	96.25
319.441	91.25
319.67	102.25
319.9	77.25
320.129	89.25
320.358	96.25
320.587	85.25
320.816	82.25
321.046	92.25
321.275	102.25
321.504	96.25
321.733	95.25
321.962	94.25
322.191	104.25
322.42	111.25
322.649	106.25
322.878	105.25
323.108	104.25
323.337	108.25
323.566	103.25
323.795	129.25
324.024	165.25
324.253	275.25
324.482	549.25
324.71	1100.25
324.939	1409.25
325.168	573.25
325.397	205.25
325.626	130.25
325.855	134.25
326.084	111.25
326.313	124.25
326.542	126.25
326.77	193.25
326.999	343.25
327.228	646.25
327.457	1157.25
327.686	898.25
327.914	246.25
328.143	153.25
328.372	122.25
328.6	100.25
328.829	116.25
329.058	116.25
329.287	108.25
329.515	116.25
329.744	99.25
329.972	106.25
330.201	119.25
330.43	116.25
330.658	116.25
330.887	103.25
331.115	105.25
331.344	94.25
331.572	91.25
331.801	79.25
332.03	99.25
332.258	85.25
332.486	85.25
332.715	83.25
332.943	107.25
333.172	98.25
333.4	86.25
333.629	92.25
333.857	97.25
334.085	103.25
334.314	106.25
334.542	121.25
334.771	107.25
334.999	90.25
335.227	94.25
335.455	95.25
335.684	107.25
335.912	96.25
336.14	95.25
336.369	77.25
336.597	110.25
336.825	85.25
337.053	85.25
337.281	96.25
337.51	103.25
337.738	101.25
337.966	92.25
338.194	102.25
338.422	99.25
338.65	95.25
338.878	106.25
339.106	95.25
339.334	84.25
339.562	101.25
339.79	109.25
340.018	86.25
340.246	89.25
340.474	100.25
340.702	99.25
340.93	91.25
341.158	101.25
341.386	93.25
341.614	77.25
341.842	95.25
342.07	92.25
342.298	88.25
342.526	87.25
342.754	101.25
342.981	96.25
343.209	82.25
343.437	88.25
343.665	83.25
343.893	87.25
344.12	83.25
344.348	92.25
344.576	86.25
344.804	98.25
345.031	94.25
345.259	94.25
345.487	95.25
345.714	99.25
345.942	95.25
346.17	98.25
346.397	75.25
346.625	85.25
346.853	97.25
347.08	90.25
347.308	103.25
347.535	104.25
347.763	91.25
347.99	101.25
348.218	90.25
348.445	96.25
348.673	97.25
348.9	86.25
349.128	92.25
349.355	89.25
349.583	99.25
349.81	110.25
350.037	88.25
350.265	86.25
350.492	86.25
350.72	102.25
350.947	92.25
351.174	105.25
351.402	99.25
351.629	94.25
351.856	103.25
352.083	101.25
352.311	101.25
352.538	84.25
352.765	104.25
352.992	106.25
353.22	109.25
353.447	104.25
353.674	107.25
353.901	87.25
354.128	98.25
354.355	87.25
354.583	95.25
354.81	80.25
355.037	107.25
355.264	102.25
355.491	103.25
355.718	89.25
355.945	98.25
356.172	94.25
356.399	94.25
356.626	91.25
356.853	76.25
357.08	99.25
357.307	99.25
357.534	100.25
357.761	98.25
357.988	94.25
358.215	99.25
358.441	108.25
358.668	98.25
358.895	87.25
359.122	100.25
359.349	79.25
359.576	100.25
359.802	105.25
360.029	104.25
360.256	99.25
360.483	99.25
360.709	94.25
360.936	94.25
361.163	99.25
361.39	82.25
361.616	104.25
361.843	90.25
362.07	86.25
362.296	86.25
362.523	90.25
362.749	93.25
362.976	85.25
363.203	79.25
363.429	100.25
363.656	101.25
363.882	94.25
364.109	101.25
364.335	86.25
364.562	100.25
364.788	93.25
365.015	92.25
365.241	95.25
365.468	104.25
365.694	97.25
365.92	88.25
366.147	100.25
366.373	82.25
366.599	79.25
366.826	73.25
367.052	82.25
367.278	102.25
367.505	96.25
367.731	98.25
367.957	91.25
368.184	97.25
368.41	102.25
368.636	111.25
368.862	112.25
369.089	102.25
369.315	101.25
369.541	103.25
369.767	103.25
369.993	96.25
370.219	93.25
370.445	103.25
370.672	90.25
370.898	95.25
371.124	84.25
371.35	88.25
371.576	90.25
371.802	96.25
372.028	92.25
372.254	91.25
372.48	77.25
372.706	83.25
372.932	94.25
373.158	84.25
373.384	87.25
373.61	94.25
373.835	101.25
374.061	84.25
374.287	95.25
374.513	84.25
374.739	90.25
374.965	103.25
375.191	82.25
375.416	79.25
375.642	82.25
375.868	106.25
376.094	85.25
376.319	92.25
376.545	77.25
376.771	80.25
376.997	81.25
377.222	86.25
377.448	99.25
377.674	93.25
377.899	89.25
378.125	96.25
378.35	91.25
378.576	90.25
378.802	99.25
379.027	84.25
379.253	99.25
379.478	99.25
379.704	101.25
379.929	84.25
380.155	95.25
380.38	90.25
380.606	90.25
380.831	89.25
381.057	93.25
381.282	95.25
381.507	102.25
381.733	106.25
381.958	107.25
382.184	104.25
382.409	109.25
382.634	100.25
382.86	104.25
383.085	108.25
383.31	100.25
383.535	106.25
383.761	99.25
383.986	111.25
384.211	83.25
384.436	111.25
384.662	108.25
384.887	100.25
385.112	107.25
385.337	112.25
385.562	112.25
385.787	111.25
386.013	94.25
386.238	113.25
386.463	101.25
386.688	134.25
386.913	112.25
387.138	94.25
387.363	104.25
387.588	99.25
387.813	102.25
388.038	108.25
388.263	126.25
388.488	102.25
388.713	103.25
388.938	106.25
389.163	95.25
389.387	96.25
389.612	105.25
389.837	90.25
390.062	92.25
390.287	100.25
390.512	92.25
390.736	80.25
390.961	84.25
391.186	108.25
391.411	98.25
391.636	81.25
391.86	84.25
392.085	86.25
392.31	77.25
392.534	74.25
392.759	107.25
392.984	86.25
393.208	103.25
393.433	104.25
393.658	87.25
393.882	95.25
394.107	98.25
394.331	74.25
394.556	77.25
394.78	89.25
395.005	97.25
395.229	88.25
395.454	106.25
395.678	89.25
395.903	82.25
396.127	87.25
396.352	77.25
396.576	76.25
396.801	100.25
397.025	95.25
397.249	92.25
397.474	92.25
397.698	96.25
397.922	111.25
398.147	88.25
398.371	82.25
398.595	78.25
398.82	95.25
399.044	99.25
399.268	75.25
399.492	88.25
399.717	86.25
399.941	97.25
400.165	90.25
400.389	102.25
400.613	79.25
400.837	79.25
401.062	105.25
401.286	89.25
401.51	85.25
401.734	94.25
401.958	115.25
402.182	108.25
402.406	127.25
402.63	98.25
402.854	93.25
403.078	92.25
403.302	83.25
403.526	99.25
403.75	94.25
403.974	91.25
404.198	83.25
404.422	86.25
404.645	87.25
404.869	90.25
405.093	98.25
405.317	87.25
405.541	101.25
405.765	99.25
405.988	116.25
406.212	140.25
406.436	171.25
406.66	116.25
406.883	93.25
407.107	86.25
407.331	98.25
407.555	106.25
407.778	104.25
408.002	88.25
408.226	91.25
408.449	91.25
408.673	98.25
408.896	104.25
409.12	102.25
409.344	85.25
409.567	94.25
409.791	96.25
410.014	97.25
410.238	84.25
410.461	97.25
410.685	115.25
410.908	84.25
411.132	87.25
411.355	95.25
411.578	99.25
411.802	100.25
412.025	87.25
412.249	102.25
412.472	85.25
412.695	99.25
412.919	115.25
413.142	73.25
413.365	92.25
413.589	85.25
413.812	112.25
414.035	97.25
414.258	105.25
414.482	92.25
414.705	92.25
414.928	92.25
415.151	98.25
415.374	88.25
415.597	96.25
415.821	87.25
416.044	101.25
416.267	96.25
416.49	105.25
416.713	99.25
416.936	88.25
417.159	102.25
417.382	86.25
417.605	94.25
417.828	92.25
418.051	74.25
418.274	83.25
418.497	86.25
418.72	94.25
418.943	84.25
419.166	83.25
419.389	90.25
419.611	108.25
419.834	84.25
420.057	86.25
420.28	109.25
420.503	87.25
420.726	85.25
420.948	88.25
421.171	91.25
421.394	84.25
421.617	90.25
421.839	84.25
422.062	98.25
422.285	85.25
422.507	105.25
422.73	94.25
422.953	77.25
423.175	97.25
423.398	91.25
423.621	77.25
423.843	100.25
424.066	97.25
424.288	77.25
424.511	86.25
424.733	95.25
424.956	103.25
425.178	97.25
425.401	91.25
425.623	93.25
425.846	76.25
426.068	95.25
426.291	92.25
426.513	101.25
426.735	93.25
426.958	102.25
427.18	103.25
427.402	95.25
427.625	146.25
427.847	124.25
428.069	100.25
428.292	82.25
428.514	78.25
428.736	99.25
428.958	94.25
429.181	93.25
429.403	84.25
429.625	79.25
429.847	101.25
430.069	96.25
430.292	91.25
430.514	101.25
430.736	96.25
430.958	84.25
431.18	102.25
431.402	91.25
431.624	88.25
431.846	93.25
432.068	86.25
432.29	83.25
432.512	104.25
432.734	89.25
432.956	100.25
433.178	97.25
433.4	100.25
433.622	93.25
433.844	86.25
434.066	93.25
434.287	91.25
434.509	94.25
434.731	84.25
434.953	86.25
435.175	88.25
435.397	101.25
435.618	90.25
435.84	93.25
436.062	123.25
436.284	103.25
436.505	95.25
436.727	97.25
436.949	95.25
437.17	78.25
437.392	106.25
437.614	95.25
437.835	104.25
438.057	112.25
438.278	93.25
438.5	104.25
438.721	108.25
438.943	99.25
439.165	83.25
439.386	76.25
439.608	94.25
439.829	90.25
440.05	114.25
440.272	111.25
440.493	101.25
440.715	99.25
440.936	85.25
441.158	88.25
441.379	77.25
441.6	76.25
441.822	87.25
442.043	76.25
442.264	88.25
442.486	77.25
442.707	95.25
442.928	103.25
443.149	109.25
443.371	99.25
443.592	107.25
443.813	96.25
444.034	92.25
444.255	92.25
444.476	94.25
444.698	96.25
444.919	91.25
445.14	121.25
445.361	106.25
445.582	92.25
445.803	132.25
446.024	104.25
446.245	125.25
446.466	108.25
446.687	84.25
446.908	108.25
447.129	82.25
447.35	95.25
447.571	94.25
447.792	75.25
448.013	106.25
448.234	101.25
448.455	101.25
448.675	106.25
448.896	100.25
449.117	89.25
449.338	100.25
449.559	108.25
449.779	98.25
450	101.25
450.221	93.25
450.442	88.25
450.662	103.25
450.883	86.25
451.104	99.25
451.324	89.25
451.545	77.25
451.766	78.25
451.986	87.25
452.207	86.25
452.428	95.25
452.648	105.25
452.869	101.25
453.089	109.25
453.31	105.25
453.53	93.25
453.751	100.25
453.971	95.25
454.192	93.25
454.412	67.25
454.633	90.25
454.853	68.25
455.073	88.25
455.294	90.25
455.514	93.25
455.734	90.25
455.955	91.25
456.175	89.25
456.395	85.25
456.616	90.25
456.836	92.25
457.056	69.25
457.276	86.25
457.497	91.25
457.717	82.25
457.937	93.25
458.157	87.25
458.377	99.25
458.598	101.25
458.818	112.25
459.038	111.25
459.258	109.25
459.478	78.25
459.698	80.25
459.918	80.25
460.138	78.25
460.358	83.25
460.578	94.25
460.798	88.25
461.018	91.25
461.238	101.25
461.458	95.25
461.678	75.25
461.898	87.25
462.118	96.25
462.338	81.25
462.558	84.25
462.777	93.25
462.997	83.25
463.217	86.25
463.437	94.25
463.657	83.25
463.876	81.25
464.096	90.25
464.316	87.25
464.536	86.25
464.755	92.25
464.975	101.25
465.195	142.25
465.414	127.25
465.634	84.25
465.854	93.25
466.073	105.25
466.293	85.25
466.512	95.25
466.732	84.25
466.951	69.25
467.171	92.25
467.391	102.25
467.61	93.25
467.829	100.25
468.049	111.25
468.268	86.25
468.488	89.25
468.707	95.25
468.927	96.25
469.146	102.25
469.365	82.25
469.585	85.25
469.804	109.25
470.023	109.25
470.243	87.25
470.462	95.25
470.681	102.25
470.901	85.25
471.12	82.25
471.339	92.25
471.558	95.25
471.777	83.25
471.997	97.25
472.216	112.25
472.435	110.25
472.654	85.25
472.873	102.25
473.092	87.25
473.311	94.25
473.53	95.25
473.749	92.25
473.968	90.25
474.187	94.25
474.406	88.25
474.625	91.25
474.844	90.25
475.063	94.25
475.282	93.25
475.501	115.25
475.72	100.25
475.939	99.25
476.158	89.25
476.377	95.25
476.596	101.25
476.814	88.25
477.033	101.25
477.252	83.25
477.471	84.25
477.69	93.25
477.908	76.25
478.127	92.25
478.346	102.25
478.564	84.25
478.783	104.25
479.002	92.25
479.22	80.25
479.439	102.25
479.658	99.25
479.876	99.25
480.095	90.25
480.313	88.25
480.532	92.25
480.751	93.25
480.969	114.25
481.188	166.25
481.406	115.25
481.624	102.25
481.843	78.25
482.061	96.25
482.28	91.25
482.498	106.25
482.717	90.25
482.935	78.25
483.153	88.25
483.372	75.25
483.59	103.25
483.808	77.25
484.027	91.25
484.245	80.25
484.463	93.25
484.681	88.25
484.9	89.25
485.118	90.25
485.336	95.25
485.554	101.25
485.772	111.25
485.99	105.25
486.209	94.25
486.427	102.25
486.645	100.25
486.863	96.25
487.081	101.25
487.299	102.25
487.517	117.25
487.735	93.25
487.953	95.25
488.171	90.25
488.389	75.25
488.607	90.25
488.825	108.25
489.043	92.25
489.261	95.25
489.479	92.25
489.696	95.25
489.914	100.25
490.132	79.25
490.35	79.25
490.568	115.25
490.786	74.25
491.003	82.25
491.221	97.25
491.439	91.25
491.657	96.25
491.874	101.25
492.092	82.25
492.31	86.25
492.527	90.25
492.745	90.25
492.963	91.25
493.18	95.25
493.398	89.25
493.615	103.25
493.833	90.25
494.05	92.25
494.268	104.25
494.485	91.25
494.703	84.25
494.92	94.25
495.138	99.25
495.355	84.25
495.573	92.25
495.79	72.25
496.008	63.25
496.225	94.25
496.442	93.25
496.66	96.25
496.877	85.25
497.094	111.25
497.312	73.25
497.529	92.25
497.746	90.25
497.963	77.25
498.181	97.25
498.398	88.25
498.615	108.25
498.832	106.25
499.049	92.25
499.267	87.25
499.484	91.25
499.701	99.25
499.918	101.25
500.135	95.25
500.352	86.25
500.569	85.25
500.786	100.25
501.003	98.25
501.22	96.25
501.437	93.25
501.654	92.25
501.871	94.25
502.088	90.25
502.305	92.25
502.522	90.25
502.739	91.25
502.956	96.25
503.172	91.25
503.389	99.25
503.606	94.25
503.823	103.25
504.04	97.25
504.256	98.25
504.473	84.25
504.69	91.25
504.907	85.25
505.123	104.25
505.34	84.25
505.557	93.25
505.773	98.25
505.99	84.25
506.207	96.25
506.423	88.25
506.64	82.25
506.856	101.25
507.073	87.25
507.289	107.25
507.506	90.25
507.722	102.25
507.939	109.25
508.155	94.25
508.372	84.25
508.588	81.25
508.805	103.25
509.021	85.25
509.238	100.25
509.454	103.25
509.67	94.25
509.887	102.25
510.103	123.25
510.319	171.25
510.536	532.25
510.752	1503.25
510.968	445.25
511.184	126.25
511.401	102.25
511.617	103.25
511.833	89.25
512.049	103.25
512.265	85.25
512.481	88.25
512.698	112.25
512.914	92.25
513.13	71.25
513.346	91.25
513.562	86.25
513.778	78.25
513.994	98.25
514.21	89.25
514.426	117.25
514.642	111.25
514.858	106.25
515.074	133.25
515.29	308.25
515.506	874.25
