Data from Circ_1982_H10_HRD10591_00100.txt Node
Date: Wed Jan 03 12:31:01 EST 2024
User: Yrep
Spectrometer: HR+D1059
Trigger mode: 1
Integration Time (sec): 1.000000E-1
Scans to average: 1
Electric dark correction enabled: true
Nonlinearity correction enabled: false
Boxcar width: 0
XAxis mode: Wavelengths
Number of Pixels in Spectrum: 2048
>>>>>Begin Spectral Data<<<<<
223.165	-31.81
223.4	-31.81
223.635	-31.81
223.869	-16.81
224.104	-16.81
224.338	-8.81
224.573	-22.81
224.808	-18.81
225.042	-4.81
225.277	-7.81
225.511	9.19
225.746	5.19
225.98	9.19
226.215	17.19
226.449	15.19
226.683	11.19
226.918	29.19
227.152	32.19
227.387	30.19
227.621	20.19
227.856	41.19
228.09	39.19
228.324	54.19
228.559	50.19
228.793	50.19
229.027	67.19
229.262	66.19
229.496	73.19
229.73	73.19
229.964	68.19
230.199	73.19
230.433	68.19
230.667	70.19
230.901	65.19
231.136	77.19
231.37	90.19
231.604	88.19
231.838	85.19
232.072	84.19
232.306	83.19
232.541	102.19
232.775	72.19
233.009	70.19
233.243	87.19
233.477	81.19
233.711	80.19
233.945	80.19
234.179	76.19
234.413	84.19
234.647	90.19
234.881	74.19
235.115	75.19
235.349	68.19
235.583	78.19
235.817	75.19
236.051	72.19
236.285	76.19
236.519	82.19
236.753	83.19
236.987	84.19
237.221	76.19
237.455	68.19
237.689	65.19
237.922	77.19
238.156	77.19
238.39	62.19
238.624	84.19
238.858	69.19
239.091	80.19
239.325	77.19
239.559	84.19
239.793	76.19
240.027	64.19
240.26	76.19
240.494	74.19
240.728	69.19
240.961	73.19
241.195	70.19
241.429	74.19
241.662	87.19
241.896	82.19
242.13	77.19
242.363	87.19
242.597	89.19
242.83	75.19
243.064	71.19
243.298	74.19
243.531	90.19
243.765	83.19
243.998	85.19
244.232	60.19
244.465	68.19
244.699	92.19
244.932	59.19
245.166	68.19
245.399	77.19
245.633	80.19
245.866	83.19
246.099	85.19
246.333	76.19
246.566	81.19
246.8	59.19
247.033	73.19
247.266	74.19
247.5	70.19
247.733	85.19
247.966	68.19
248.2	89.19
248.433	78.19
248.666	80.19
248.899	91.19
249.133	106.19
249.366	107.19
249.599	98.19
249.832	70.19
250.066	76.19
250.299	70.19
250.532	76.19
250.765	82.19
250.998	80.19
251.231	59.19
251.465	85.19
251.698	78.19
251.931	67.19
252.164	91.19
252.397	88.19
252.63	87.19
252.863	77.19
253.096	76.19
253.329	71.19
253.562	88.19
253.795	84.19
254.028	61.19
254.261	80.19
254.494	84.19
254.727	97.19
254.96	75.19
255.193	81.19
255.426	81.19
255.659	77.19
255.892	94.19
256.124	69.19
256.357	78.19
256.59	78.19
256.823	75.19
257.056	81.19
257.289	84.19
257.521	80.19
257.754	98.19
257.987	72.19
258.22	90.19
258.452	77.19
258.685	80.19
258.918	80.19
259.151	75.19
259.383	90.19
259.616	88.19
259.849	78.19
260.081	75.19
260.314	71.19
260.547	83.19
260.779	93.19
261.012	87.19
261.244	72.19
261.477	90.19
261.71	90.19
261.942	86.19
262.175	103.19
262.407	89.19
262.64	78.19
262.872	79.19
263.105	77.19
263.337	80.19
263.57	76.19
263.802	79.19
264.035	80.19
264.267	94.19
264.499	82.19
264.732	80.19
264.964	70.19
265.197	89.19
265.429	79.19
265.661	102.19
265.894	88.19
266.126	84.19
266.358	81.19
266.591	93.19
266.823	76.19
267.055	73.19
267.287	95.19
267.52	91.19
267.752	75.19
267.984	93.19
268.216	77.19
268.448	76.19
268.681	83.19
268.913	84.19
269.145	98.19
269.377	84.19
269.609	98.19
269.841	81.19
270.073	95.19
270.306	82.19
270.538	100.19
270.77	90.19
271.002	88.19
271.234	69.19
271.466	88.19
271.698	61.19
271.93	84.19
272.162	84.19
272.394	98.19
272.626	97.19
272.858	77.19
273.09	80.19
273.322	89.19
273.553	105.19
273.785	91.19
274.017	85.19
274.249	87.19
274.481	87.19
274.713	82.19
274.945	94.19
275.176	75.19
275.408	83.19
275.64	96.19
275.872	88.19
276.104	76.19
276.335	94.19
276.567	98.19
276.799	101.19
277.031	85.19
277.262	72.19
277.494	88.19
277.726	93.19
277.957	96.19
278.189	84.19
278.421	92.19
278.652	77.19
278.884	90.19
279.115	78.19
279.347	90.19
279.579	90.19
279.81	93.19
280.042	83.19
280.273	87.19
280.505	98.19
280.736	87.19
280.968	77.19
281.199	86.19
281.431	97.19
281.662	91.19
281.894	77.19
282.125	89.19
282.356	104.19
282.588	134.19
282.819	97.19
283.051	86.19
283.282	83.19
283.513	100.19
283.745	83.19
283.976	88.19
284.207	80.19
284.439	95.19
284.67	85.19
284.901	87.19
285.132	82.19
285.364	88.19
285.595	82.19
285.826	82.19
286.057	89.19
286.288	86.19
286.52	88.19
286.751	90.19
286.982	78.19
287.213	89.19
287.444	84.19
287.675	91.19
287.906	89.19
288.138	97.19
288.369	95.19
288.6	95.19
288.831	72.19
289.062	82.19
289.293	92.19
289.524	74.19
289.755	89.19
289.986	87.19
290.217	90.19
290.448	99.19
290.679	108.19
290.91	87.19
291.141	84.19
291.371	77.19
291.602	90.19
291.833	70.19
292.064	99.19
292.295	70.19
292.526	72.19
292.757	84.19
292.987	87.19
293.218	92.19
293.449	91.19
293.68	85.19
293.91	82.19
294.141	77.19
294.372	77.19
294.603	88.19
294.833	98.19
295.064	74.19
295.295	94.19
295.525	89.19
295.756	98.19
295.987	113.19
296.217	117.19
296.448	110.19
296.679	94.19
296.909	103.19
297.14	85.19
297.37	81.19
297.601	91.19
297.831	99.19
298.062	92.19
298.292	83.19
298.523	93.19
298.753	93.19
298.984	77.19
299.214	84.19
299.445	96.19
299.675	88.19
299.905	100.19
300.136	89.19
300.366	101.19
300.597	102.19
300.827	80.19
301.057	100.19
301.288	90.19
301.518	85.19
301.748	104.19
301.979	97.19
302.209	93.19
302.439	99.19
302.669	75.19
302.9	80.19
303.13	107.19
303.36	95.19
303.59	103.19
303.82	108.19
304.051	90.19
304.281	84.19
304.511	99.19
304.741	99.19
304.971	85.19
305.201	89.19
305.431	93.19
305.661	104.19
305.891	94.19
306.121	100.19
306.352	88.19
306.582	114.19
306.812	82.19
307.042	94.19
307.272	93.19
307.502	92.19
307.731	93.19
307.961	92.19
308.191	92.19
308.421	103.19
308.651	108.19
308.881	91.19
309.111	89.19
309.341	99.19
309.571	88.19
309.8	104.19
310.03	87.19
310.26	96.19
310.49	83.19
310.72	108.19
310.949	93.19
311.179	98.19
311.409	97.19
311.639	85.19
311.868	87.19
312.098	87.19
312.328	110.19
312.557	98.19
312.787	97.19
313.017	96.19
313.246	84.19
313.476	88.19
313.706	98.19
313.935	109.19
314.165	92.19
314.394	92.19
314.624	81.19
314.853	112.19
315.083	93.19
315.312	100.19
315.542	101.19
315.771	99.19
316.001	71.19
316.23	88.19
316.46	97.19
316.689	88.19
316.919	92.19
317.148	86.19
317.377	104.19
317.607	91.19
317.836	92.19
318.065	94.19
318.295	95.19
318.524	96.19
318.753	97.19
318.983	106.19
319.212	94.19
319.441	109.19
319.67	102.19
319.9	96.19
320.129	96.19
320.358	93.19
320.587	94.19
320.816	101.19
321.046	94.19
321.275	104.19
321.504	87.19
321.733	97.19
321.962	100.19
322.191	97.19
322.42	107.19
322.649	110.19
322.878	108.19
323.108	101.19
323.337	118.19
323.566	132.19
323.795	135.19
324.024	174.19
324.253	332.19
324.482	701.19
324.71	1417.19
324.939	1809.19
325.168	674.19
325.397	229.19
325.626	126.19
325.855	115.19
326.084	115.19
326.313	129.19
326.542	146.19
326.77	222.19
326.999	370.19
327.228	831.19
327.457	1412.19
327.686	1146.19
327.914	306.19
328.143	181.19
328.372	148.19
328.6	123.19
328.829	111.19
329.058	110.19
329.287	113.19
329.515	104.19
329.744	98.19
329.972	103.19
330.201	111.19
330.43	128.19
330.658	121.19
330.887	124.19
331.115	103.19
331.344	85.19
331.572	94.19
331.801	91.19
332.03	101.19
332.258	88.19
332.486	82.19
332.715	102.19
332.943	95.19
333.172	99.19
333.4	89.19
333.629	101.19
333.857	97.19
334.085	93.19
334.314	113.19
334.542	128.19
334.771	114.19
334.999	102.19
335.227	97.19
335.455	93.19
335.684	84.19
335.912	96.19
336.14	86.19
336.369	90.19
336.597	95.19
336.825	100.19
337.053	82.19
337.281	105.19
337.51	88.19
337.738	88.19
337.966	89.19
338.194	96.19
338.422	93.19
338.65	102.19
338.878	91.19
339.106	102.19
339.334	97.19
339.562	92.19
339.79	100.19
340.018	92.19
340.246	93.19
340.474	82.19
340.702	85.19
340.93	81.19
341.158	90.19
341.386	84.19
341.614	97.19
341.842	92.19
342.07	88.19
342.298	89.19
342.526	95.19
342.754	70.19
342.981	97.19
343.209	90.19
343.437	85.19
343.665	80.19
343.893	105.19
344.12	101.19
344.348	102.19
344.576	98.19
344.804	82.19
345.031	81.19
345.259	91.19
345.487	94.19
345.714	90.19
345.942	84.19
346.17	96.19
346.397	91.19
346.625	102.19
346.853	106.19
347.08	104.19
347.308	90.19
347.535	93.19
347.763	95.19
347.99	109.19
348.218	86.19
348.445	108.19
348.673	114.19
348.9	91.19
349.128	92.19
349.355	98.19
349.583	96.19
349.81	90.19
350.037	99.19
350.265	87.19
350.492	89.19
350.72	106.19
350.947	103.19
351.174	98.19
351.402	103.19
351.629	94.19
351.856	92.19
352.083	101.19
352.311	101.19
352.538	92.19
352.765	92.19
352.992	103.19
353.22	102.19
353.447	93.19
353.674	97.19
353.901	97.19
354.128	91.19
354.355	103.19
354.583	104.19
354.81	91.19
355.037	88.19
355.264	94.19
355.491	102.19
355.718	92.19
355.945	104.19
356.172	80.19
356.399	92.19
356.626	97.19
356.853	93.19
357.08	92.19
357.307	100.19
357.534	81.19
357.761	100.19
357.988	110.19
358.215	105.19
358.441	87.19
358.668	89.19
358.895	82.19
359.122	97.19
359.349	75.19
359.576	96.19
359.802	109.19
360.029	102.19
360.256	94.19
360.483	90.19
360.709	85.19
360.936	92.19
361.163	103.19
361.39	98.19
361.616	92.19
361.843	98.19
362.07	80.19
362.296	100.19
362.523	92.19
362.749	78.19
362.976	100.19
363.203	94.19
363.429	86.19
363.656	92.19
363.882	76.19
364.109	90.19
364.335	83.19
364.562	97.19
364.788	86.19
365.015	83.19
365.241	103.19
365.468	102.19
365.694	86.19
365.92	84.19
366.147	93.19
366.373	77.19
366.599	76.19
366.826	91.19
367.052	82.19
367.278	81.19
367.505	97.19
367.731	88.19
367.957	91.19
368.184	82.19
368.41	99.19
368.636	121.19
368.862	102.19
369.089	102.19
369.315	90.19
369.541	89.19
369.767	81.19
369.993	99.19
370.219	85.19
370.445	88.19
370.672	89.19
370.898	89.19
371.124	75.19
371.35	87.19
371.576	92.19
371.802	82.19
372.028	92.19
372.254	88.19
372.48	83.19
372.706	87.19
372.932	96.19
373.158	91.19
373.384	102.19
373.61	95.19
373.835	80.19
374.061	77.19
374.287	104.19
374.513	96.19
374.739	82.19
374.965	90.19
375.191	95.19
375.416	89.19
375.642	88.19
375.868	104.19
376.094	92.19
376.319	88.19
376.545	80.19
376.771	83.19
376.997	94.19
377.222	94.19
377.448	92.19
377.674	88.19
377.899	89.19
378.125	77.19
378.35	84.19
378.576	80.19
378.802	81.19
379.027	88.19
379.253	94.19
379.478	88.19
379.704	94.19
379.929	93.19
380.155	88.19
380.38	107.19
380.606	92.19
380.831	82.19
381.057	99.19
381.282	105.19
381.507	93.19
381.733	106.19
381.958	92.19
382.184	88.19
382.409	100.19
382.634	90.19
382.86	99.19
383.085	98.19
383.31	100.19
383.535	99.19
383.761	90.19
383.986	79.19
384.211	87.19
384.436	97.19
384.662	103.19
384.887	111.19
385.112	110.19
385.337	114.19
385.562	89.19
385.787	94.19
386.013	98.19
386.238	109.19
386.463	97.19
386.688	107.19
386.913	85.19
387.138	101.19
387.363	94.19
387.588	111.19
387.813	98.19
388.038	96.19
388.263	86.19
388.488	88.19
388.713	96.19
388.938	85.19
389.163	84.19
389.387	94.19
389.612	100.19
389.837	87.19
390.062	86.19
390.287	103.19
390.512	104.19
390.736	89.19
390.961	86.19
391.186	94.19
391.411	87.19
391.636	97.19
391.86	99.19
392.085	73.19
392.31	93.19
392.534	101.19
392.759	107.19
392.984	86.19
393.208	94.19
393.433	84.19
393.658	93.19
393.882	92.19
394.107	87.19
394.331	92.19
394.556	78.19
394.78	84.19
395.005	83.19
395.229	87.19
395.454	78.19
395.678	71.19
395.903	83.19
396.127	88.19
396.352	91.19
396.576	79.19
396.801	86.19
397.025	94.19
397.249	80.19
397.474	86.19
397.698	76.19
397.922	97.19
398.147	84.19
398.371	83.19
398.595	85.19
398.82	82.19
399.044	81.19
399.268	90.19
399.492	92.19
399.717	92.19
399.941	87.19
400.165	86.19
400.389	100.19
400.613	94.19
400.837	90.19
401.062	72.19
401.286	83.19
401.51	88.19
401.734	80.19
401.958	99.19
402.182	122.19
402.406	140.19
402.63	109.19
402.854	97.19
403.078	84.19
403.302	91.19
403.526	87.19
403.75	85.19
403.974	82.19
404.198	82.19
404.422	91.19
404.645	80.19
404.869	88.19
405.093	93.19
405.317	98.19
405.541	86.19
405.765	90.19
405.988	105.19
406.212	173.19
406.436	193.19
406.66	127.19
406.883	94.19
407.107	90.19
407.331	94.19
407.555	100.19
407.778	108.19
408.002	78.19
408.226	80.19
408.449	90.19
408.673	85.19
408.896	110.19
409.12	84.19
409.344	85.19
409.567	93.19
409.791	72.19
410.014	95.19
410.238	82.19
410.461	81.19
410.685	93.19
410.908	98.19
411.132	100.19
411.355	90.19
411.578	82.19
411.802	93.19
412.025	88.19
412.249	102.19
412.472	90.19
412.695	93.19
412.919	89.19
413.142	75.19
413.365	93.19
413.589	84.19
413.812	84.19
414.035	85.19
414.258	93.19
414.482	83.19
414.705	97.19
414.928	95.19
415.151	89.19
415.374	77.19
415.597	88.19
415.821	88.19
416.044	82.19
416.267	107.19
416.49	93.19
416.713	86.19
416.936	95.19
417.159	83.19
417.382	69.19
417.605	90.19
417.828	74.19
418.051	93.19
418.274	93.19
418.497	76.19
418.72	94.19
418.943	104.19
419.166	83.19
419.389	93.19
419.611	99.19
419.834	98.19
420.057	78.19
420.28	108.19
420.503	98.19
420.726	90.19
420.948	84.19
421.171	89.19
421.394	71.19
421.617	82.19
421.839	85.19
422.062	93.19
422.285	90.19
422.507	94.19
422.73	105.19
422.953	86.19
423.175	93.19
423.398	77.19
423.621	96.19
423.843	77.19
424.066	84.19
424.288	66.19
424.511	84.19
424.733	72.19
424.956	92.19
425.178	92.19
425.401	94.19
425.623	110.19
425.846	89.19
426.068	100.19
426.291	58.19
426.513	98.19
426.735	96.19
426.958	95.19
427.18	102.19
427.402	126.19
427.625	165.19
427.847	131.19
428.069	121.19
428.292	88.19
428.514	88.19
428.736	101.19
428.958	72.19
429.181	96.19
429.403	84.19
429.625	69.19
429.847	85.19
430.069	99.19
430.292	94.19
430.514	101.19
430.736	102.19
430.958	96.19
431.18	76.19
431.402	79.19
431.624	75.19
431.846	84.19
432.068	89.19
432.29	91.19
432.512	86.19
432.734	70.19
432.956	97.19
433.178	101.19
433.4	101.19
433.622	100.19
433.844	72.19
434.066	95.19
434.287	82.19
434.509	77.19
434.731	89.19
434.953	78.19
435.175	88.19
435.397	84.19
435.618	94.19
435.84	97.19
436.062	117.19
436.284	118.19
436.505	105.19
436.727	99.19
436.949	97.19
437.17	100.19
437.392	104.19
437.614	87.19
437.835	105.19
438.057	115.19
438.278	105.19
438.5	101.19
438.721	108.19
438.943	96.19
439.165	86.19
439.386	86.19
439.608	76.19
439.829	108.19
440.05	115.19
440.272	135.19
440.493	104.19
440.715	115.19
440.936	90.19
441.158	82.19
441.379	88.19
441.6	83.19
441.822	92.19
442.043	100.19
442.264	95.19
442.486	98.19
442.707	108.19
442.928	88.19
443.149	116.19
443.371	116.19
443.592	110.19
443.813	112.19
444.034	114.19
444.255	81.19
444.476	94.19
444.698	82.19
444.919	86.19
445.14	124.19
445.361	128.19
445.582	111.19
445.803	121.19
446.024	130.19
446.245	150.19
446.466	102.19
446.687	90.19
446.908	81.19
447.129	82.19
447.35	80.19
447.571	89.19
447.792	89.19
448.013	93.19
448.234	93.19
448.455	105.19
448.675	110.19
448.896	124.19
449.117	103.19
449.338	97.19
449.559	124.19
449.779	127.19
450	90.19
450.221	73.19
450.442	82.19
450.662	104.19
450.883	93.19
451.104	101.19
451.324	98.19
451.545	90.19
451.766	82.19
451.986	95.19
452.207	77.19
452.428	89.19
452.648	87.19
452.869	121.19
453.089	104.19
453.31	117.19
453.53	96.19
453.751	90.19
453.971	103.19
454.192	96.19
454.412	85.19
454.633	85.19
454.853	90.19
455.073	77.19
455.294	89.19
455.514	102.19
455.734	92.19
455.955	89.19
456.175	76.19
456.395	84.19
456.616	96.19
456.836	92.19
457.056	84.19
457.276	81.19
457.497	80.19
457.717	76.19
457.937	79.19
458.157	67.19
458.377	80.19
458.598	110.19
458.818	139.19
459.038	146.19
459.258	102.19
459.478	100.19
459.698	87.19
459.918	77.19
460.138	73.19
460.358	83.19
460.578	87.19
460.798	97.19
461.018	73.19
461.238	84.19
461.458	95.19
461.678	92.19
461.898	84.19
462.118	92.19
462.338	63.19
462.558	90.19
462.777	85.19
462.997	86.19
463.217	80.19
463.437	81.19
463.657	83.19
463.876	100.19
464.096	98.19
464.316	84.19
464.536	93.19
464.755	92.19
464.975	98.19
465.195	145.19
465.414	138.19
465.634	88.19
465.854	73.19
466.073	74.19
466.293	83.19
466.512	82.19
466.732	98.19
466.951	73.19
467.171	86.19
467.391	109.19
467.61	92.19
467.829	74.19
468.049	89.19
468.268	87.19
468.488	97.19
468.707	83.19
468.927	85.19
469.146	95.19
469.365	89.19
469.585	106.19
469.804	97.19
470.023	108.19
470.243	90.19
470.462	106.19
470.681	100.19
470.901	93.19
471.12	88.19
471.339	88.19
471.558	100.19
471.777	85.19
471.997	97.19
472.216	105.19
472.435	126.19
472.654	98.19
472.873	94.19
473.092	90.19
473.311	81.19
473.53	82.19
473.749	77.19
473.968	91.19
474.187	98.19
474.406	105.19
474.625	88.19
474.844	76.19
475.063	94.19
475.282	78.19
475.501	84.19
475.72	98.19
475.939	98.19
476.158	74.19
476.377	93.19
476.596	84.19
476.814	95.19
477.033	97.19
477.252	90.19
477.471	98.19
477.69	79.19
477.908	100.19
478.127	82.19
478.346	98.19
478.564	81.19
478.783	88.19
479.002	106.19
479.22	100.19
479.439	85.19
479.658	105.19
479.876	94.19
480.095	88.19
480.313	97.19
480.532	89.19
480.751	96.19
480.969	107.19
481.188	193.19
481.406	148.19
481.624	94.19
481.843	96.19
482.061	88.19
482.28	73.19
482.498	90.19
482.717	87.19
482.935	83.19
483.153	84.19
483.372	91.19
483.59	89.19
483.808	93.19
484.027	101.19
484.245	92.19
484.463	90.19
484.681	101.19
484.9	96.19
485.118	100.19
485.336	86.19
485.554	95.19
485.772	98.19
485.99	95.19
486.209	105.19
486.427	106.19
486.645	110.19
486.863	113.19
487.081	101.19
487.299	99.19
487.517	91.19
487.735	90.19
487.953	99.19
488.171	93.19
488.389	96.19
488.607	108.19
488.825	93.19
489.043	77.19
489.261	75.19
489.479	90.19
489.696	86.19
489.914	86.19
490.132	84.19
490.35	86.19
490.568	97.19
490.786	85.19
491.003	79.19
491.221	77.19
491.439	77.19
491.657	73.19
491.874	102.19
492.092	96.19
492.31	92.19
492.527	93.19
492.745	87.19
492.963	92.19
493.18	87.19
493.398	93.19
493.615	99.19
493.833	110.19
494.05	106.19
494.268	98.19
494.485	84.19
494.703	94.19
494.92	87.19
495.138	97.19
495.355	101.19
495.573	91.19
495.79	86.19
496.008	90.19
496.225	86.19
496.442	95.19
496.66	73.19
496.877	83.19
497.094	95.19
497.312	86.19
497.529	102.19
497.746	73.19
497.963	94.19
498.181	93.19
498.398	91.19
498.615	119.19
498.832	100.19
499.049	94.19
499.267	89.19
499.484	93.19
499.701	98.19
499.918	92.19
500.135	85.19
500.352	86.19
500.569	92.19
500.786	96.19
501.003	102.19
501.22	92.19
501.437	100.19
501.654	93.19
501.871	101.19
502.088	92.19
502.305	92.19
502.522	86.19
502.739	82.19
502.956	82.19
503.172	91.19
503.389	91.19
503.606	94.19
503.823	93.19
504.04	86.19
504.256	90.19
504.473	95.19
504.69	88.19
504.907	97.19
505.123	99.19
505.34	90.19
505.557	90.19
505.773	90.19
505.99	93.19
506.207	90.19
506.423	91.19
506.64	90.19
506.856	89.19
507.073	93.19
507.289	98.19
507.506	108.19
507.722	106.19
507.939	98.19
508.155	96.19
508.372	109.19
508.588	76.19
508.805	89.19
509.021	101.19
509.238	93.19
509.454	100.19
509.67	101.19
509.887	96.19
510.103	118.19
510.319	190.19
510.536	664.19
510.752	1980.19
510.968	554.19
511.184	138.19
511.401	91.19
511.617	96.19
511.833	92.19
512.049	82.19
512.265	92.19
512.481	91.19
512.698	99.19
512.914	89.19
513.13	88.19
513.346	87.19
513.562	98.19
513.778	101.19
513.994	100.19
514.21	92.19
514.426	123.19
514.642	118.19
514.858	119.19
515.074	149.19
515.29	383.19
515.506	1196.19
515.721	461.19
515.937	141.19
516.153	93.19
