Data from Circ_1982_H10_HRD10591_00011.txt Node
Date: Wed Jan 03 12:30:43 EST 2024
User: Yrep
Spectrometer: HR+D1059
Trigger mode: 1
Integration Time (sec): 1.000000E-1
Scans to average: 1
Electric dark correction enabled: true
Nonlinearity correction enabled: false
Boxcar width: 0
XAxis mode: Wavelengths
Number of Pixels in Spectrum: 2048
>>>>>Begin Spectral Data<<<<<
223.165	-16.56
223.4	-16.56
223.635	-16.56
223.869	-13.56
224.104	-10.56
224.338	-2.56
224.573	-17.56
224.808	-23.56
225.042	-24.56
225.277	-12.56
225.511	-13.56
225.746	5.44
225.98	22.44
226.215	13.44
226.449	34.44
226.683	22.44
226.918	2.44
227.152	34.44
227.387	29.44
227.621	36.44
227.856	52.44
228.09	44.44
228.324	58.44
228.559	67.44
228.793	49.44
229.027	55.44
229.262	62.44
229.496	62.44
229.73	76.44
229.964	94.44
230.199	58.44
230.433	71.44
230.667	85.44
230.901	86.44
231.136	85.44
231.37	80.44
231.604	88.44
231.838	88.44
232.072	77.44
232.306	93.44
232.541	79.44
232.775	83.44
233.009	79.44
233.243	90.44
233.477	79.44
233.711	85.44
233.945	82.44
234.179	83.44
234.413	80.44
234.647	77.44
234.881	80.44
235.115	85.44
235.349	71.44
235.583	70.44
235.817	87.44
236.051	75.44
236.285	80.44
236.519	76.44
236.753	83.44
236.987	78.44
237.221	95.44
237.455	79.44
237.689	81.44
237.922	71.44
238.156	82.44
238.39	75.44
238.624	81.44
238.858	81.44
239.091	74.44
239.325	83.44
239.559	77.44
239.793	71.44
240.027	82.44
240.26	83.44
240.494	84.44
240.728	77.44
240.961	84.44
241.195	74.44
241.429	80.44
241.662	90.44
241.896	88.44
242.13	85.44
242.363	76.44
242.597	80.44
242.83	79.44
243.064	78.44
243.298	68.44
243.531	90.44
243.765	89.44
243.998	71.44
244.232	95.44
244.465	94.44
244.699	77.44
244.932	64.44
245.166	93.44
245.399	78.44
245.633	70.44
245.866	94.44
246.099	70.44
246.333	69.44
246.566	94.44
246.8	82.44
247.033	72.44
247.266	80.44
247.5	67.44
247.733	90.44
247.966	74.44
248.2	88.44
248.433	90.44
248.666	95.44
248.899	66.44
249.133	98.44
249.366	92.44
249.599	87.44
249.832	84.44
250.066	91.44
250.299	65.44
250.532	72.44
250.765	94.44
250.998	88.44
251.231	90.44
251.465	88.44
251.698	87.44
251.931	89.44
252.164	86.44
252.397	91.44
252.63	70.44
252.863	61.44
253.096	74.44
253.329	72.44
253.562	91.44
253.795	80.44
254.028	84.44
254.261	87.44
254.494	84.44
254.727	86.44
254.96	98.44
255.193	86.44
255.426	75.44
255.659	84.44
255.892	84.44
256.124	77.44
256.357	73.44
256.59	84.44
256.823	91.44
257.056	84.44
257.289	95.44
257.521	86.44
257.754	84.44
257.987	94.44
258.22	84.44
258.452	75.44
258.685	82.44
258.918	90.44
259.151	94.44
259.383	86.44
259.616	77.44
259.849	77.44
260.081	73.44
260.314	79.44
260.547	86.44
260.779	84.44
261.012	85.44
261.244	84.44
261.477	92.44
261.71	77.44
261.942	102.44
262.175	109.44
262.407	79.44
262.64	79.44
262.872	91.44
263.105	78.44
263.337	75.44
263.57	67.44
263.802	70.44
264.035	83.44
264.267	74.44
264.499	80.44
264.732	91.44
264.964	74.44
265.197	80.44
265.429	79.44
265.661	88.44
265.894	83.44
266.126	80.44
266.358	88.44
266.591	83.44
266.823	86.44
267.055	79.44
267.287	94.44
267.52	76.44
267.752	78.44
267.984	74.44
268.216	79.44
268.448	79.44
268.681	83.44
268.913	78.44
269.145	95.44
269.377	79.44
269.609	91.44
269.841	90.44
270.073	77.44
270.306	89.44
270.538	74.44
270.77	87.44
271.002	96.44
271.234	87.44
271.466	85.44
271.698	83.44
271.93	79.44
272.162	94.44
272.394	82.44
272.626	77.44
272.858	76.44
273.09	97.44
273.322	92.44
273.553	77.44
273.785	87.44
274.017	73.44
274.249	84.44
274.481	91.44
274.713	91.44
274.945	82.44
275.176	94.44
275.408	84.44
275.64	77.44
275.872	81.44
276.104	98.44
276.335	98.44
276.567	83.44
276.799	106.44
277.031	100.44
277.262	99.44
277.494	85.44
277.726	88.44
277.957	84.44
278.189	100.44
278.421	93.44
278.652	93.44
278.884	90.44
279.115	96.44
279.347	91.44
279.579	76.44
279.81	90.44
280.042	73.44
280.273	75.44
280.505	85.44
280.736	90.44
280.968	88.44
281.199	82.44
281.431	94.44
281.662	89.44
281.894	84.44
282.125	99.44
282.356	95.44
282.588	112.44
282.819	98.44
283.051	78.44
283.282	87.44
283.513	90.44
283.745	96.44
283.976	82.44
284.207	90.44
284.439	99.44
284.67	80.44
284.901	86.44
285.132	80.44
285.364	94.44
285.595	90.44
285.826	84.44
286.057	88.44
286.288	88.44
286.52	81.44
286.751	86.44
286.982	103.44
287.213	89.44
287.444	86.44
287.675	97.44
287.906	101.44
288.138	93.44
288.369	77.44
288.6	91.44
288.831	94.44
289.062	97.44
289.293	90.44
289.524	99.44
289.755	93.44
289.986	90.44
290.217	93.44
290.448	71.44
290.679	89.44
290.91	92.44
291.141	93.44
291.371	110.44
291.602	86.44
291.833	83.44
292.064	82.44
292.295	74.44
292.526	69.44
292.757	92.44
292.987	84.44
293.218	98.44
293.449	111.44
293.68	91.44
293.91	94.44
294.141	91.44
294.372	82.44
294.603	91.44
294.833	95.44
295.064	96.44
295.295	96.44
295.525	98.44
295.756	90.44
295.987	105.44
296.217	128.44
296.448	110.44
296.679	67.44
296.909	91.44
297.14	84.44
297.37	90.44
297.601	91.44
297.831	92.44
298.062	105.44
298.292	82.44
298.523	86.44
298.753	94.44
298.984	84.44
299.214	91.44
299.445	80.44
299.675	91.44
299.905	94.44
300.136	94.44
300.366	85.44
300.597	104.44
300.827	86.44
301.057	93.44
301.288	74.44
301.518	101.44
301.748	91.44
301.979	114.44
302.209	92.44
302.439	97.44
302.669	82.44
302.9	88.44
303.13	94.44
303.36	87.44
303.59	100.44
303.82	97.44
304.051	111.44
304.281	103.44
304.511	90.44
304.741	98.44
304.971	83.44
305.201	94.44
305.431	93.44
305.661	98.44
305.891	99.44
306.121	86.44
306.352	94.44
306.582	97.44
306.812	89.44
307.042	94.44
307.272	96.44
307.502	88.44
307.731	89.44
307.961	90.44
308.191	95.44
308.421	98.44
308.651	90.44
308.881	80.44
309.111	100.44
309.341	95.44
309.571	103.44
309.8	98.44
310.03	91.44
310.26	86.44
310.49	91.44
310.72	96.44
310.949	98.44
311.179	93.44
311.409	87.44
311.639	100.44
311.868	99.44
312.098	90.44
312.328	104.44
312.557	95.44
312.787	87.44
313.017	103.44
313.246	78.44
313.476	99.44
313.706	102.44
313.935	96.44
314.165	99.44
314.394	90.44
314.624	101.44
314.853	105.44
315.083	96.44
315.312	86.44
315.542	104.44
315.771	86.44
316.001	83.44
316.23	100.44
316.46	91.44
316.689	92.44
316.919	101.44
317.148	96.44
317.377	101.44
317.607	93.44
317.836	94.44
318.065	83.44
318.295	95.44
318.524	93.44
318.753	94.44
318.983	95.44
319.212	104.44
319.441	83.44
319.67	110.44
319.9	98.44
320.129	100.44
320.358	96.44
320.587	98.44
320.816	97.44
321.046	86.44
321.275	99.44
321.504	96.44
321.733	91.44
321.962	93.44
322.191	101.44
322.42	108.44
322.649	86.44
322.878	111.44
323.108	111.44
323.337	109.44
323.566	113.44
323.795	120.44
324.024	162.44
324.253	310.44
324.482	580.44
324.71	1160.44
324.939	1544.44
325.168	556.44
325.397	204.44
325.626	137.44
325.855	118.44
326.084	111.44
326.313	123.44
326.542	124.44
326.77	186.44
326.999	347.44
327.228	692.44
327.457	1192.44
327.686	947.44
327.914	277.44
328.143	163.44
328.372	118.44
328.6	119.44
328.829	106.44
329.058	113.44
329.287	103.44
329.515	84.44
329.744	99.44
329.972	108.44
330.201	111.44
330.43	123.44
330.658	111.44
330.887	113.44
331.115	116.44
331.344	108.44
331.572	101.44
331.801	90.44
332.03	92.44
332.258	89.44
332.486	96.44
332.715	93.44
332.943	93.44
333.172	102.44
333.4	89.44
333.629	92.44
333.857	105.44
334.085	98.44
334.314	100.44
334.542	117.44
334.771	122.44
334.999	107.44
335.227	93.44
335.455	102.44
335.684	110.44
335.912	103.44
336.14	95.44
336.369	101.44
336.597	101.44
336.825	93.44
337.053	91.44
337.281	86.44
337.51	98.44
337.738	102.44
337.966	94.44
338.194	97.44
338.422	88.44
338.65	105.44
338.878	91.44
339.106	93.44
339.334	90.44
339.562	83.44
339.79	85.44
340.018	100.44
340.246	100.44
340.474	85.44
340.702	84.44
340.93	94.44
341.158	86.44
341.386	87.44
341.614	98.44
341.842	83.44
342.07	93.44
342.298	104.44
342.526	92.44
342.754	90.44
342.981	82.44
343.209	76.44
343.437	101.44
343.665	95.44
343.893	95.44
344.12	89.44
344.348	92.44
344.576	96.44
344.804	90.44
345.031	83.44
345.259	75.44
345.487	106.44
345.714	88.44
345.942	94.44
346.17	101.44
346.397	99.44
346.625	92.44
346.853	90.44
347.08	88.44
347.308	93.44
347.535	78.44
347.763	101.44
347.99	93.44
348.218	96.44
348.445	121.44
348.673	101.44
348.9	90.44
349.128	79.44
349.355	83.44
349.583	95.44
349.81	94.44
350.037	97.44
350.265	101.44
350.492	94.44
350.72	107.44
350.947	96.44
351.174	123.44
351.402	112.44
351.629	103.44
351.856	112.44
352.083	106.44
352.311	102.44
352.538	102.44
352.765	110.44
352.992	103.44
353.22	102.44
353.447	117.44
353.674	95.44
353.901	93.44
354.128	101.44
354.355	89.44
354.583	100.44
354.81	110.44
355.037	105.44
355.264	92.44
355.491	100.44
355.718	90.44
355.945	104.44
356.172	99.44
356.399	85.44
356.626	89.44
356.853	99.44
357.08	107.44
357.307	103.44
357.534	104.44
357.761	106.44
357.988	100.44
358.215	105.44
358.441	103.44
358.668	106.44
358.895	99.44
359.122	96.44
359.349	87.44
359.576	100.44
359.802	87.44
360.029	96.44
360.256	93.44
360.483	105.44
360.709	87.44
360.936	95.44
361.163	78.44
361.39	90.44
361.616	100.44
361.843	96.44
362.07	107.44
362.296	98.44
362.523	99.44
362.749	92.44
362.976	88.44
363.203	78.44
363.429	111.44
363.656	87.44
363.882	91.44
364.109	103.44
364.335	93.44
364.562	88.44
364.788	86.44
365.015	89.44
365.241	108.44
365.468	96.44
365.694	105.44
365.92	91.44
366.147	94.44
366.373	82.44
366.599	85.44
366.826	84.44
367.052	86.44
367.278	84.44
367.505	86.44
367.731	91.44
367.957	105.44
368.184	97.44
368.41	102.44
368.636	111.44
368.862	105.44
369.089	106.44
369.315	103.44
369.541	107.44
369.767	97.44
369.993	92.44
370.219	83.44
370.445	90.44
370.672	103.44
370.898	100.44
371.124	107.44
371.35	82.44
371.576	101.44
371.802	94.44
372.028	91.44
372.254	97.44
372.48	98.44
372.706	85.44
372.932	95.44
373.158	89.44
373.384	90.44
373.61	91.44
373.835	87.44
374.061	95.44
374.287	71.44
374.513	101.44
374.739	87.44
374.965	92.44
375.191	82.44
375.416	99.44
375.642	102.44
375.868	93.44
376.094	84.44
376.319	98.44
376.545	77.44
376.771	95.44
376.997	92.44
377.222	88.44
377.448	81.44
377.674	89.44
377.899	105.44
378.125	89.44
378.35	104.44
378.576	90.44
378.802	92.44
379.027	91.44
379.253	110.44
379.478	95.44
379.704	95.44
379.929	107.44
380.155	98.44
380.38	98.44
380.606	104.44
380.831	95.44
381.057	90.44
381.282	92.44
381.507	108.44
381.733	98.44
381.958	95.44
382.184	99.44
382.409	108.44
382.634	111.44
382.86	111.44
383.085	103.44
383.31	113.44
383.535	106.44
383.761	102.44
383.986	119.44
384.211	101.44
384.436	105.44
384.662	94.44
384.887	98.44
385.112	109.44
385.337	122.44
385.562	113.44
385.787	104.44
386.013	111.44
386.238	111.44
386.463	108.44
386.688	118.44
386.913	125.44
387.138	118.44
387.363	110.44
387.588	114.44
387.813	115.44
388.038	110.44
388.263	113.44
388.488	113.44
388.713	98.44
388.938	103.44
389.163	90.44
389.387	110.44
389.612	102.44
389.837	96.44
390.062	78.44
390.287	98.44
390.512	89.44
390.736	94.44
390.961	93.44
391.186	95.44
391.411	99.44
391.636	107.44
391.86	75.44
392.085	90.44
392.31	77.44
392.534	90.44
392.759	82.44
392.984	79.44
393.208	89.44
393.433	101.44
393.658	96.44
393.882	83.44
394.107	89.44
394.331	106.44
394.556	85.44
394.78	106.44
395.005	88.44
395.229	94.44
395.454	99.44
395.678	83.44
395.903	77.44
396.127	86.44
396.352	84.44
396.576	82.44
396.801	86.44
397.025	92.44
397.249	101.44
397.474	100.44
397.698	94.44
397.922	87.44
398.147	91.44
398.371	98.44
398.595	93.44
398.82	73.44
399.044	81.44
399.268	102.44
399.492	74.44
399.717	79.44
399.941	86.44
400.165	99.44
400.389	93.44
400.613	88.44
400.837	73.44
401.062	96.44
401.286	86.44
401.51	95.44
401.734	82.44
401.958	96.44
402.182	119.44
402.406	126.44
402.63	103.44
402.854	89.44
403.078	91.44
403.302	70.44
403.526	86.44
403.75	96.44
403.974	103.44
404.198	86.44
404.422	103.44
404.645	87.44
404.869	87.44
405.093	89.44
405.317	92.44
405.541	88.44
405.765	101.44
405.988	106.44
406.212	135.44
406.436	168.44
406.66	125.44
406.883	98.44
407.107	95.44
407.331	98.44
407.555	102.44
407.778	101.44
408.002	91.44
408.226	90.44
408.449	94.44
408.673	87.44
408.896	89.44
409.12	93.44
409.344	94.44
409.567	89.44
409.791	104.44
410.014	98.44
410.238	102.44
410.461	87.44
410.685	98.44
410.908	95.44
411.132	98.44
411.355	87.44
411.578	101.44
411.802	100.44
412.025	90.44
412.249	96.44
412.472	111.44
412.695	89.44
412.919	87.44
413.142	80.44
413.365	88.44
413.589	88.44
413.812	91.44
414.035	93.44
414.258	86.44
414.482	73.44
414.705	80.44
414.928	80.44
415.151	100.44
415.374	94.44
415.597	88.44
415.821	96.44
416.044	82.44
416.267	102.44
416.49	84.44
416.713	98.44
416.936	83.44
417.159	87.44
417.382	92.44
417.605	97.44
417.828	97.44
418.051	82.44
418.274	86.44
418.497	99.44
418.72	88.44
418.943	68.44
419.166	92.44
419.389	91.44
419.611	97.44
419.834	102.44
420.057	99.44
420.28	89.44
420.503	100.44
420.726	94.44
420.948	87.44
421.171	100.44
421.394	88.44
421.617	90.44
421.839	107.44
422.062	89.44
422.285	85.44
422.507	94.44
422.73	102.44
422.953	104.44
423.175	85.44
423.398	86.44
423.621	92.44
423.843	90.44
424.066	86.44
424.288	76.44
424.511	84.44
424.733	78.44
424.956	97.44
425.178	95.44
425.401	90.44
425.623	103.44
425.846	88.44
426.068	94.44
426.291	91.44
426.513	88.44
426.735	91.44
426.958	109.44
427.18	98.44
427.402	121.44
427.625	149.44
427.847	115.44
428.069	111.44
428.292	89.44
428.514	76.44
428.736	86.44
428.958	84.44
429.181	88.44
429.403	99.44
429.625	95.44
429.847	90.44
430.069	107.44
430.292	83.44
430.514	76.44
430.736	89.44
430.958	83.44
431.18	87.44
431.402	100.44
431.624	96.44
431.846	107.44
432.068	90.44
432.29	85.44
432.512	88.44
432.734	100.44
432.956	98.44
433.178	81.44
433.4	96.44
433.622	85.44
433.844	95.44
434.066	97.44
434.287	91.44
434.509	94.44
434.731	85.44
434.953	79.44
435.175	98.44
435.397	84.44
435.618	85.44
435.84	97.44
436.062	117.44
436.284	115.44
436.505	88.44
436.727	91.44
436.949	95.44
437.17	87.44
437.392	86.44
437.614	93.44
437.835	85.44
438.057	102.44
438.278	108.44
438.5	98.44
438.721	101.44
438.943	97.44
439.165	93.44
439.386	99.44
439.608	95.44
439.829	95.44
440.05	115.44
440.272	129.44
440.493	92.44
440.715	104.44
440.936	91.44
441.158	103.44
441.379	88.44
441.6	94.44
441.822	95.44
442.043	77.44
442.264	79.44
442.486	93.44
442.707	84.44
442.928	98.44
443.149	103.44
443.371	110.44
443.592	104.44
443.813	117.44
444.034	76.44
444.255	82.44
444.476	91.44
444.698	86.44
444.919	85.44
445.14	135.44
445.361	123.44
445.582	106.44
445.803	112.44
446.024	110.44
446.245	119.44
446.466	112.44
446.687	101.44
446.908	93.44
447.129	85.44
447.35	92.44
447.571	95.44
447.792	71.44
448.013	94.44
448.234	94.44
448.455	111.44
448.675	109.44
448.896	95.44
449.117	103.44
449.338	99.44
449.559	121.44
449.779	130.44
450	90.44
450.221	91.44
450.442	89.44
450.662	99.44
450.883	92.44
451.104	98.44
451.324	94.44
451.545	77.44
451.766	99.44
451.986	88.44
452.207	98.44
452.428	81.44
452.648	79.44
452.869	95.44
453.089	103.44
453.31	105.44
453.53	91.44
453.751	96.44
453.971	93.44
454.192	94.44
454.412	98.44
454.633	73.44
454.853	90.44
455.073	79.44
455.294	86.44
455.514	90.44
455.734	97.44
455.955	102.44
456.175	74.44
456.395	80.44
456.616	82.44
456.836	91.44
457.056	96.44
457.276	86.44
457.497	101.44
457.717	100.44
457.937	81.44
458.157	89.44
458.377	91.44
458.598	108.44
458.818	126.44
459.038	136.44
459.258	96.44
459.478	95.44
459.698	84.44
459.918	90.44
460.138	85.44
460.358	96.44
460.578	93.44
460.798	79.44
461.018	87.44
461.238	86.44
461.458	98.44
461.678	77.44
461.898	72.44
462.118	92.44
462.338	85.44
462.558	90.44
462.777	88.44
462.997	86.44
463.217	86.44
463.437	95.44
463.657	86.44
463.876	86.44
464.096	104.44
464.316	89.44
464.536	79.44
464.755	88.44
464.975	110.44
465.195	117.44
465.414	135.44
465.634	94.44
465.854	83.44
466.073	94.44
466.293	93.44
466.512	104.44
466.732	102.44
466.951	87.44
467.171	84.44
467.391	101.44
467.61	86.44
467.829	89.44
468.049	82.44
468.268	92.44
468.488	84.44
468.707	83.44
468.927	105.44
469.146	98.44
469.365	104.44
469.585	91.44
469.804	98.44
470.023	92.44
470.243	79.44
470.462	110.44
470.681	101.44
470.901	90.44
471.12	86.44
471.339	82.44
471.558	84.44
471.777	93.44
471.997	96.44
472.216	99.44
472.435	99.44
472.654	85.44
472.873	89.44
473.092	99.44
473.311	100.44
473.53	79.44
473.749	77.44
473.968	105.44
474.187	87.44
474.406	84.44
474.625	88.44
474.844	90.44
475.063	85.44
475.282	98.44
475.501	93.44
475.72	93.44
475.939	91.44
476.158	90.44
476.377	106.44
476.596	79.44
476.814	95.44
477.033	98.44
477.252	83.44
477.471	90.44
477.69	83.44
477.908	96.44
478.127	101.44
478.346	97.44
478.564	77.44
478.783	91.44
479.002	88.44
479.22	80.44
479.439	102.44
479.658	88.44
479.876	103.44
480.095	93.44
480.313	72.44
480.532	94.44
480.751	114.44
480.969	96.44
481.188	158.44
481.406	135.44
481.624	104.44
481.843	87.44
482.061	79.44
482.28	96.44
482.498	95.44
482.717	99.44
482.935	89.44
483.153	86.44
483.372	84.44
483.59	86.44
483.808	95.44
484.027	86.44
484.245	107.44
484.463	95.44
484.681	84.44
484.9	94.44
485.118	105.44
485.336	91.44
485.554	104.44
485.772	109.44
485.99	111.44
486.209	117.44
486.427	93.44
486.645	99.44
486.863	109.44
487.081	101.44
487.299	102.44
487.517	109.44
487.735	78.44
487.953	79.44
488.171	93.44
488.389	90.44
488.607	88.44
488.825	89.44
489.043	90.44
489.261	86.44
489.479	98.44
489.696	86.44
489.914	84.44
490.132	100.44
490.35	99.44
490.568	82.44
490.786	101.44
491.003	88.44
491.221	93.44
491.439	79.44
491.657	99.44
491.874	96.44
492.092	91.44
492.31	78.44
492.527	87.44
492.745	102.44
492.963	90.44
493.18	87.44
493.398	88.44
493.615	103.44
493.833	103.44
494.05	98.44
494.268	95.44
494.485	89.44
494.703	100.44
494.92	85.44
495.138	85.44
495.355	90.44
495.573	92.44
495.79	101.44
496.008	98.44
496.225	95.44
496.442	90.44
496.66	103.44
496.877	99.44
497.094	88.44
497.312	111.44
497.529	97.44
497.746	77.44
497.963	104.44
498.181	93.44
498.398	92.44
498.615	98.44
498.832	95.44
499.049	94.44
499.267	98.44
499.484	77.44
499.701	96.44
499.918	100.44
500.135	96.44
500.352	92.44
500.569	87.44
500.786	107.44
501.003	101.44
501.22	93.44
501.437	83.44
501.654	90.44
501.871	102.44
502.088	87.44
502.305	78.44
502.522	89.44
502.739	92.44
502.956	86.44
503.172	104.44
503.389	79.44
503.606	104.44
503.823	99.44
504.04	100.44
504.256	92.44
504.473	86.44
504.69	83.44
504.907	82.44
505.123	99.44
505.34	90.44
505.557	93.44
505.773	91.44
505.99	92.44
506.207	86.44
506.423	79.44
506.64	88.44
506.856	94.44
507.073	93.44
507.289	93.44
507.506	86.44
507.722	111.44
507.939	107.44
508.155	94.44
508.372	104.44
508.588	103.44
508.805	94.44
509.021	89.44
509.238	111.44
509.454	114.44
509.67	100.44
509.887	95.44
510.103	109.44
510.319	170.44
510.536	534.44
510.752	1512.44
510.968	425.44
511.184	132.44
511.401	98.44
511.617	114.44
511.833	94.44
512.049	83.44
512.265	90.44
512.481	92.44
512.698	89.44
512.914	85.44
513.13	92.44
513.346	96.44
513.562	96.44
513.778	90.44
513.994	83.44
514.21	104.44
514.426	108.44
514.642	116.44
514.858	103.44
515.074	153.44
515.29	319.44
515.506	920.44
