Data from ZeroMicroDelayPb_HRD10591_00011.txt Node
Date: Mon Nov 24 14:25:58 EST 2025
User: Yrep
Spectrometer: HR+D1059
Trigger mode: 0
Integration Time (sec): 1.000000E-1
Scans to average: 5
Electric dark correction enabled: true
Nonlinearity correction enabled: false
Boxcar width: 0
XAxis mode: Wavelengths
Number of Pixels in Spectrum: 2048
>>>>>Begin Spectral Data<<<<<
223.165	-14.26
223.4	-14.26
223.635	-14.26
223.869	-20.46
224.104	-17.26
224.338	-9.66
224.573	-9.06
224.808	-13.86
225.042	-14.06
225.277	-4.46
225.511	2.74
225.746	5.34
225.98	6.14
226.215	4.54
226.449	13.34
226.683	19.94
226.918	24.74
227.152	26.34
227.387	36.34
227.621	42.14
227.856	43.74
228.09	44.94
228.324	52.74
228.559	49.94
228.793	58.14
229.027	61.74
229.262	66.34
229.496	71.74
229.73	73.14
229.964	71.34
230.199	73.34
230.433	78.34
230.667	73.94
230.901	75.74
231.136	76.74
231.37	79.14
231.604	83.54
231.838	83.54
232.072	79.74
232.306	86.74
232.541	87.94
232.775	87.74
233.009	81.74
233.243	77.34
233.477	80.14
233.711	83.54
233.945	82.34
234.179	80.54
234.413	78.74
234.647	77.54
234.881	75.14
235.115	75.14
235.349	81.74
235.583	86.94
235.817	76.94
236.051	79.94
236.285	85.34
236.519	79.14
236.753	78.54
236.987	79.14
237.221	83.74
237.455	78.14
237.689	78.54
237.922	76.54
238.156	76.34
238.39	81.54
238.624	68.14
238.858	81.94
239.091	71.54
239.325	78.74
239.559	83.14
239.793	82.14
240.027	88.34
240.26	78.54
240.494	81.54
240.728	83.74
240.961	80.94
241.195	73.14
241.429	75.14
241.662	79.54
241.896	69.54
242.13	78.34
242.363	75.14
242.597	84.34
242.83	81.54
243.064	83.54
243.298	81.14
243.531	79.14
243.765	82.14
243.998	80.74
244.232	84.34
244.465	86.54
244.699	81.14
244.932	84.14
245.166	84.34
245.399	78.14
245.633	82.74
245.866	85.14
246.099	79.54
246.333	82.34
246.566	78.54
246.8	79.34
247.033	81.14
247.266	82.54
247.5	83.94
247.733	86.94
247.966	86.14
248.2	86.14
248.433	81.34
248.666	79.94
248.899	85.74
249.133	78.94
249.366	88.94
249.599	82.74
249.832	79.34
250.066	88.74
250.299	86.14
250.532	84.74
250.765	81.94
250.998	82.54
251.231	85.34
251.465	83.74
251.698	86.54
251.931	81.34
252.164	90.94
252.397	85.14
252.63	88.14
252.863	90.94
253.096	93.54
253.329	90.54
253.562	87.14
253.795	92.94
254.028	90.34
254.261	89.34
254.494	86.34
254.727	86.74
254.96	85.54
255.193	88.14
255.426	83.34
255.659	87.74
255.892	90.14
256.124	90.54
256.357	92.34
256.59	87.94
256.823	86.54
257.056	91.34
257.289	92.54
257.521	84.94
257.754	89.74
257.987	96.74
258.22	97.54
258.452	90.14
258.685	89.14
258.918	86.74
259.151	95.94
259.383	87.74
259.616	93.34
259.849	93.14
260.081	91.34
260.314	84.34
260.547	96.94
260.779	83.54
261.012	101.74
261.244	101.74
261.477	115.94
261.71	111.14
261.942	106.14
262.175	103.94
262.407	90.74
262.64	90.74
262.872	96.94
263.105	95.74
263.337	92.54
263.57	100.14
263.802	93.74
264.035	89.94
264.267	86.34
264.499	92.74
264.732	97.94
264.964	94.34
265.197	97.74
265.429	95.34
265.661	96.74
265.894	88.74
266.126	93.54
266.358	98.94
266.591	111.94
266.823	105.54
267.055	95.54
267.287	92.14
267.52	91.14
267.752	99.74
267.984	86.14
268.216	90.54
268.448	91.54
268.681	91.74
268.913	85.34
269.145	92.34
269.377	90.34
269.609	93.34
269.841	100.14
270.073	99.74
270.306	87.54
270.538	90.54
270.77	89.54
271.002	99.94
271.234	97.94
271.466	89.34
271.698	92.14
271.93	84.54
272.162	88.34
272.394	100.54
272.626	93.94
272.858	89.54
273.09	96.54
273.322	92.94
273.553	96.54
273.785	90.34
274.017	94.74
274.249	87.54
274.481	87.34
274.713	88.14
274.945	94.54
275.176	90.54
275.408	85.14
275.64	91.34
275.872	88.14
276.104	92.34
276.335	92.54
276.567	95.34
276.799	92.34
277.031	91.14
277.262	96.14
277.494	90.54
277.726	92.14
277.957	93.14
278.189	97.34
278.421	97.34
278.652	100.14
278.884	90.34
279.115	105.54
279.347	104.74
279.579	111.34
279.81	120.54
280.042	131.94
280.273	138.14
280.505	137.54
280.736	114.74
280.968	101.54
281.199	106.94
281.431	100.14
281.662	101.94
281.894	107.54
282.125	105.14
282.356	115.54
282.588	105.74
282.819	105.34
283.051	110.14
283.282	126.74
283.513	130.34
283.745	120.14
283.976	116.34
284.207	104.34
284.439	101.94
284.67	92.74
284.901	97.54
285.132	99.34
285.364	92.14
285.595	97.54
285.826	97.34
286.057	99.14
286.288	99.34
286.52	102.14
286.751	95.74
286.982	110.74
287.213	113.14
287.444	123.74
287.675	112.34
287.906	107.54
288.138	97.34
288.369	97.14
288.6	96.94
288.831	91.34
289.062	101.94
289.293	87.54
289.524	89.94
289.755	91.14
289.986	98.74
290.217	93.74
290.448	92.94
290.679	92.74
290.91	96.74
291.141	88.94
291.371	95.14
291.602	96.74
291.833	94.94
292.064	90.34
292.295	101.74
292.526	96.14
292.757	95.74
292.987	93.54
293.218	100.74
293.449	93.94
293.68	95.74
293.91	88.54
294.141	98.54
294.372	94.94
294.603	91.94
294.833	101.74
295.064	93.54
295.295	96.74
295.525	105.34
295.756	101.94
295.987	92.54
296.217	95.74
296.448	100.74
296.679	96.34
296.909	99.54
297.14	96.14
297.37	97.74
297.601	95.54
297.831	99.74
298.062	101.14
298.292	103.74
298.523	95.94
298.753	97.94
298.984	98.54
299.214	98.14
299.445	102.14
299.675	101.34
299.905	99.74
300.136	93.74
300.366	100.74
300.597	101.74
300.827	93.54
301.057	95.14
301.288	98.34
301.518	95.34
301.748	100.14
301.979	108.74
302.209	104.74
302.439	100.94
302.669	97.94
302.9	100.14
303.13	96.54
303.36	105.54
303.59	91.94
303.82	95.94
304.051	94.74
304.281	95.94
304.511	97.94
304.741	94.94
304.971	97.94
305.201	98.54
305.431	96.14
305.661	96.14
305.891	100.94
306.121	102.74
306.352	96.14
306.582	96.14
306.812	96.94
307.042	94.14
307.272	92.34
307.502	90.74
307.731	96.94
307.961	98.54
308.191	101.94
308.421	90.54
308.651	91.14
308.881	95.14
309.111	94.54
309.341	94.94
309.571	94.34
309.8	101.34
310.03	101.74
310.26	96.74
310.49	97.14
310.72	97.34
310.949	93.74
311.179	92.14
311.409	92.94
311.639	97.74
311.868	105.74
312.098	101.34
312.328	100.54
312.557	99.54
312.787	100.14
313.017	100.14
313.246	107.94
313.476	95.94
313.706	102.14
313.935	96.54
314.165	100.74
314.394	105.54
314.624	104.34
314.853	106.94
315.083	107.14
315.312	104.14
315.542	101.94
315.771	102.14
316.001	102.74
316.23	102.34
316.46	104.94
316.689	98.54
316.919	104.14
317.148	107.74
317.377	106.54
317.607	104.54
317.836	104.14
318.065	98.94
318.295	104.94
318.524	102.74
318.753	101.74
318.983	100.94
319.212	108.54
319.441	99.54
319.67	99.74
319.9	99.74
320.129	100.14
320.358	104.54
320.587	97.14
320.816	93.74
321.046	96.14
321.275	105.34
321.504	97.74
321.733	100.54
321.962	99.94
322.191	100.74
322.42	100.14
322.649	100.14
322.878	103.74
323.108	100.34
323.337	98.74
323.566	102.54
323.795	96.34
324.024	101.34
324.253	94.14
324.482	99.34
324.71	101.94
324.939	99.54
325.168	96.14
325.397	100.74
325.626	100.54
325.855	94.74
326.084	97.34
326.313	106.74
326.542	104.54
326.77	101.54
326.999	100.54
327.228	100.54
327.457	102.74
327.686	104.74
327.914	100.54
328.143	102.74
328.372	100.14
328.6	97.54
328.829	103.14
329.058	102.74
329.287	97.54
329.515	103.34
329.744	104.14
329.972	101.74
330.201	97.34
330.43	104.54
330.658	102.14
330.887	101.14
331.115	96.74
331.344	101.74
331.572	103.34
331.801	94.94
332.03	99.14
332.258	104.34
332.486	101.54
332.715	95.54
332.943	96.54
333.172	99.14
333.4	103.54
333.629	103.94
333.857	97.54
334.085	100.34
334.314	103.54
334.542	100.14
334.771	101.54
334.999	104.74
335.227	102.54
335.455	98.94
335.684	99.94
335.912	95.74
336.14	102.74
336.369	99.14
336.597	92.94
336.825	100.34
337.053	96.74
337.281	96.94
337.51	94.14
337.738	106.94
337.966	99.74
338.194	95.54
338.422	99.14
338.65	99.94
338.878	102.94
339.106	101.74
339.334	102.34
339.562	93.14
339.79	101.34
340.018	99.74
340.246	105.94
340.474	103.34
340.702	98.74
340.93	101.34
341.158	102.14
341.386	97.14
341.614	98.94
341.842	99.54
342.07	98.34
342.298	97.74
342.526	90.94
342.754	104.54
342.981	99.14
343.209	98.94
343.437	107.74
343.665	99.34
343.893	96.34
344.12	100.34
344.348	103.14
344.576	103.34
344.804	104.14
345.031	103.94
345.259	103.94
345.487	106.14
345.714	100.54
345.942	100.54
346.17	101.34
346.397	102.34
346.625	101.54
346.853	105.94
347.08	102.94
347.308	98.94
347.535	99.34
347.763	100.94
347.99	97.94
348.218	104.34
348.445	100.74
348.673	94.34
348.9	97.34
349.128	98.94
349.355	99.74
349.583	98.94
349.81	97.54
350.037	96.14
350.265	95.54
350.492	95.34
350.72	92.94
350.947	93.34
351.174	98.54
351.402	101.74
351.629	108.34
351.856	96.74
352.083	96.94
352.311	93.54
352.538	92.54
352.765	103.54
352.992	108.94
353.22	97.14
353.447	97.54
353.674	96.74
353.901	100.14
354.128	105.94
354.355	107.94
354.583	102.14
354.81	96.34
355.037	102.54
355.264	102.94
355.491	99.74
355.718	102.34
355.945	109.74
356.172	102.74
356.399	101.94
356.626	111.94
356.853	119.34
357.08	133.14
357.307	148.54
357.534	149.34
357.761	137.14
357.988	116.74
358.215	114.54
358.441	109.54
358.668	111.94
358.895	109.74
359.122	99.54
359.349	103.14
359.576	110.74
359.802	102.34
360.029	105.74
360.256	98.74
360.483	102.94
360.709	100.94
360.936	106.14
361.163	104.94
361.39	109.14
361.616	101.14
361.843	104.34
362.07	98.14
362.296	101.34
362.523	108.14
362.749	97.14
362.976	98.54
363.203	107.34
363.429	113.74
363.656	131.74
363.882	159.54
364.109	181.54
364.335	147.34
364.562	125.74
364.788	116.14
365.015	104.34
365.241	115.14
365.468	110.74
365.694	104.54
365.92	103.14
366.147	101.54
366.373	106.54
366.599	112.54
366.826	107.54
367.052	119.14
367.278	124.74
367.505	121.94
367.731	124.94
367.957	141.54
368.184	169.54
368.41	210.14
368.636	192.74
368.862	139.14
369.089	123.74
369.315	114.34
369.541	117.74
369.767	104.74
369.993	109.94
370.219	108.34
370.445	110.14
370.672	105.74
370.898	105.34
371.124	98.74
371.35	102.94
371.576	97.94
371.802	104.74
372.028	106.74
372.254	105.34
372.48	105.14
372.706	107.74
372.932	102.74
373.158	111.14
373.384	113.74
373.61	117.94
373.835	137.34
374.061	160.14
374.287	158.54
374.513	125.74
374.739	116.34
374.965	107.34
375.191	104.14
375.416	104.34
375.642	102.14
375.868	102.14
376.094	103.54
376.319	107.14
376.545	104.74
376.771	102.34
376.997	103.14
377.222	101.34
377.448	105.94
377.674	100.74
377.899	98.74
378.125	95.34
378.35	106.34
378.576	99.74
378.802	100.14
379.027	107.94
379.253	107.74
379.478	101.54
379.704	104.54
379.929	102.54
380.155	99.34
380.38	100.14
380.606	101.34
380.831	101.54
381.057	97.34
381.282	99.14
381.507	101.34
381.733	101.94
381.958	94.74
382.184	96.74
382.409	101.94
382.634	100.14
382.86	103.34
383.085	111.54
383.31	100.14
383.535	104.74
383.761	107.14
383.986	100.74
384.211	94.94
384.436	96.74
384.662	100.14
384.887	102.74
385.112	109.74
385.337	104.94
385.562	96.94
385.787	100.54
386.013	101.94
386.238	111.74
386.463	100.34
386.688	107.14
386.913	94.54
387.138	103.94
387.363	93.94
387.588	98.34
387.813	106.74
388.038	104.54
388.263	97.34
388.488	95.54
388.713	102.74
388.938	105.54
389.163	104.54
389.387	94.74
389.612	92.54
389.837	99.54
390.062	100.14
390.287	103.34
390.512	106.14
390.736	102.34
390.961	97.14
391.186	95.34
391.411	100.34
391.636	105.34
391.86	101.14
392.085	103.74
392.31	105.94
392.534	102.14
392.759	106.14
392.984	96.54
393.208	105.14
393.433	104.74
393.658	97.74
393.882	104.54
394.107	107.14
394.331	103.14
394.556	102.74
394.78	101.74
395.005	100.54
395.229	99.34
395.454	104.74
395.678	108.14
395.903	103.54
396.127	98.74
396.352	97.74
396.576	105.94
396.801	100.14
397.025	101.14
397.249	105.14
397.474	109.34
397.698	105.74
397.922	103.74
398.147	103.54
398.371	97.14
398.595	108.94
398.82	112.14
399.044	108.34
399.268	108.74
399.492	98.74
399.717	109.54
399.941	102.14
400.165	107.14
400.389	112.14
400.613	107.74
400.837	110.54
401.062	111.34
401.286	111.94
401.51	111.54
401.734	107.54
401.958	116.34
402.182	110.14
402.406	115.94
402.63	111.14
402.854	109.74
403.078	108.74
403.302	107.94
403.526	112.14
403.75	113.94
403.974	104.94
404.198	111.94
404.422	122.54
404.645	110.54
404.869	121.54
405.093	128.74
405.317	147.54
405.541	190.74
405.765	275.34
405.988	300.14
406.212	224.14
406.436	176.34
406.66	146.54
406.883	132.94
407.107	130.34
407.331	124.94
407.555	119.34
407.778	119.74
408.002	116.34
408.226	113.74
408.449	109.34
408.673	114.74
408.896	117.34
409.12	111.14
409.344	107.74
409.567	113.54
409.791	112.14
410.014	103.54
410.238	109.94
410.461	106.14
410.685	111.34
410.908	112.34
411.132	108.74
411.355	110.14
411.578	115.14
411.802	101.94
412.025	105.34
412.249	103.74
412.472	111.74
412.695	101.94
412.919	113.14
413.142	102.34
413.365	107.34
413.589	100.74
413.812	107.34
414.035	110.54
414.258	106.94
414.482	105.54
414.705	100.74
414.928	105.34
415.151	106.54
415.374	100.94
415.597	104.54
415.821	101.94
416.044	106.74
416.267	114.14
416.49	112.54
416.713	113.94
416.936	115.14
417.159	114.94
417.382	114.34
417.605	105.74
417.828	106.54
418.051	107.74
418.274	101.54
418.497	114.14
418.72	104.34
418.943	108.74
419.166	110.34
419.389	108.14
419.611	103.94
419.834	105.94
420.057	113.14
420.28	107.34
420.503	109.54
420.726	100.94
420.948	112.34
421.171	107.34
421.394	107.14
421.617	112.34
421.839	117.74
422.062	118.34
422.285	108.54
422.507	109.34
422.73	112.94
422.953	116.94
423.175	116.54
423.398	117.54
423.621	122.74
423.843	117.94
424.066	134.34
424.288	153.54
424.511	162.94
424.733	182.94
424.956	163.94
425.178	152.34
425.401	140.34
425.623	136.54
425.846	134.34
426.068	132.74
426.291	123.34
426.513	120.94
426.735	113.74
426.958	124.74
427.18	115.14
427.402	117.14
427.625	116.74
427.847	114.94
428.069	112.54
428.292	118.74
428.514	109.74
428.736	111.54
428.958	112.74
429.181	110.34
429.403	106.34
429.625	115.54
429.847	99.54
430.069	108.94
430.292	111.74
430.514	106.54
430.736	110.14
430.958	112.74
431.18	102.74
431.402	112.94
431.624	107.94
431.846	109.74
432.068	107.54
432.29	112.34
432.512	110.34
432.734	113.54
432.956	109.74
433.178	124.14
433.4	111.94
433.622	112.34
433.844	113.14
434.066	111.74
434.287	110.94
434.509	111.34
434.731	109.54
434.953	108.14
435.175	110.94
435.397	111.34
435.618	113.54
435.84	115.14
436.062	116.34
436.284	119.74
436.505	117.54
436.727	116.54
436.949	121.14
437.17	122.74
437.392	120.14
437.614	123.54
437.835	120.54
438.057	121.14
438.278	132.34
438.5	146.94
438.721	162.74
438.943	161.74
439.165	152.14
439.386	147.14
439.608	134.94
439.829	134.94
440.05	136.94
440.272	136.14
440.493	126.74
440.715	134.14
440.936	139.94
441.158	137.74
441.379	129.34
441.6	130.74
441.822	121.94
442.043	122.54
442.264	126.34
442.486	119.94
442.707	120.14
442.928	118.54
443.149	120.34
443.371	120.14
443.592	113.74
443.813	116.14
444.034	115.74
444.255	114.54
444.476	106.94
444.698	113.54
444.919	117.94
445.14	187.74
445.361	151.14
445.582	110.94
445.803	110.54
446.024	108.94
446.245	118.54
446.466	118.94
446.687	113.34
446.908	110.34
447.129	110.34
447.35	108.14
447.571	102.94
447.792	108.34
448.013	106.54
448.234	104.34
448.455	111.74
448.675	117.74
448.896	107.14
449.117	112.14
449.338	108.34
449.559	110.54
449.779	116.14
450	110.34
450.221	107.34
450.442	110.34
450.662	108.74
450.883	110.54
451.104	107.94
451.324	112.74
451.545	106.94
451.766	111.14
451.986	109.74
452.207	110.54
452.428	106.94
452.648	110.54
452.869	107.34
453.089	103.54
453.31	103.14
453.53	103.14
453.751	105.34
453.971	107.54
454.192	105.14
454.412	102.74
454.633	102.34
454.853	109.54
455.073	100.54
455.294	105.14
455.514	109.14
455.734	103.74
455.955	111.74
456.175	107.34
456.395	101.54
456.616	112.14
456.836	103.54
457.056	103.54
457.276	104.14
457.497	101.14
457.717	104.74
457.937	105.34
458.157	103.14
458.377	106.54
458.598	98.94
458.818	101.34
459.038	100.34
459.258	98.94
459.478	103.74
459.698	100.14
459.918	103.14
460.138	108.14
460.358	107.54
460.578	113.14
460.798	106.94
461.018	103.54
461.238	106.34
461.458	103.74
461.678	104.34
461.898	110.34
462.118	115.94
462.338	106.34
462.558	112.74
462.777	102.74
462.997	101.94
463.217	108.54
463.437	119.34
463.657	108.34
463.876	109.54
464.096	107.54
464.316	103.74
464.536	108.74
464.755	106.34
464.975	104.54
465.195	109.94
465.414	110.34
465.634	103.94
465.854	100.94
466.073	103.74
466.293	105.54
466.512	105.94
466.732	102.14
466.951	102.54
467.171	97.14
467.391	108.54
467.61	108.14
467.829	116.74
468.049	110.74
468.268	107.34
468.488	113.74
468.707	99.94
468.927	106.54
469.146	105.74
469.365	108.94
469.585	111.94
469.804	106.34
470.023	105.34
470.243	104.14
470.462	106.54
470.681	107.74
470.901	105.34
471.12	105.94
471.339	110.94
471.558	105.54
471.777	105.54
471.997	107.74
472.216	110.34
472.435	104.14
472.654	104.34
472.873	106.54
473.092	108.34
473.311	102.74
473.53	103.14
473.749	106.94
473.968	108.74
474.187	107.34
474.406	104.74
474.625	112.14
474.844	107.54
475.063	106.54
475.282	104.74
475.501	106.14
475.72	114.14
475.939	117.34
476.158	107.74
476.377	110.14
476.596	103.74
476.814	103.74
477.033	107.94
477.252	111.74
477.471	109.14
477.69	110.54
477.908	110.34
478.127	119.34
478.346	111.94
478.564	107.94
478.783	106.34
479.002	118.94
479.22	110.14
479.439	118.14
479.658	116.94
479.876	116.14
480.095	113.94
480.313	111.74
480.532	116.14
480.751	115.54
480.969	113.54
481.188	110.94
481.406	109.34
481.624	106.74
481.843	107.94
482.061	109.14
482.28	113.74
482.498	101.54
482.717	108.54
482.935	108.74
483.153	109.74
483.372	110.94
483.59	112.94
483.808	109.54
484.027	114.34
484.245	112.74
484.463	112.74
484.681	116.74
484.9	115.14
485.118	112.94
485.336	110.94
485.554	105.74
485.772	109.34
485.99	108.94
486.209	115.74
486.427	110.14
486.645	106.54
486.863	109.34
487.081	110.54
487.299	110.94
487.517	112.74
487.735	116.94
487.953	118.34
488.171	113.14
488.389	113.54
488.607	110.34
488.825	107.14
489.043	114.34
489.261	111.34
489.479	115.14
489.696	114.34
489.914	108.34
490.132	119.34
490.35	117.94
490.568	108.74
490.786	113.54
491.003	116.94
491.221	117.14
491.439	114.74
491.657	118.74
491.874	120.14
492.092	128.54
492.31	112.94
492.527	122.74
492.745	117.74
492.963	118.74
493.18	116.74
493.398	115.94
493.615	123.14
493.833	110.34
494.05	118.94
494.268	123.54
494.485	113.74
494.703	126.14
494.92	121.94
495.138	118.34
495.355	120.54
495.573	124.14
495.79	123.14
496.008	118.74
496.225	125.34
496.442	115.54
496.66	126.54
496.877	118.74
497.094	118.94
497.312	117.94
497.529	125.34
497.746	113.54
497.963	116.94
498.181	117.54
498.398	116.94
498.615	124.34
498.832	122.34
499.049	124.74
499.267	118.94
499.484	132.14
499.701	128.14
499.918	131.54
500.135	132.74
500.352	137.54
500.569	148.54
500.786	161.94
501.003	142.74
501.22	127.74
501.437	130.14
501.654	125.34
501.871	125.74
502.088	133.74
502.305	129.94
502.522	127.94
502.739	128.74
502.956	125.14
503.172	118.14
503.389	125.74
503.606	121.54
503.823	123.34
504.04	125.34
504.256	130.34
504.473	127.74
504.69	127.14
504.907	128.54
505.123	129.74
505.34	123.14
505.557	118.74
505.773	127.14
505.99	119.74
506.207	118.54
506.423	123.74
506.64	114.74
506.856	115.74
507.073	115.74
507.289	113.34
507.506	112.94
507.722	118.74
507.939	115.74
508.155	116.74
