Data from ZeroMicroDelayPb_HRD10591_00007.txt Node
Date: Mon Nov 24 14:25:56 EST 2025
User: Yrep
Spectrometer: HR+D1059
Trigger mode: 0
Integration Time (sec): 1.000000E-1
Scans to average: 5
Electric dark correction enabled: true
Nonlinearity correction enabled: false
Boxcar width: 0
XAxis mode: Wavelengths
Number of Pixels in Spectrum: 2048
>>>>>Begin Spectral Data<<<<<
223.165	-21.29
223.4	-21.29
223.635	-21.29
223.869	-15.29
224.104	-21.89
224.338	-11.89
224.573	-14.09
224.808	-10.09
225.042	-1.89
225.277	-4.29
225.511	-3.29
225.746	1.51
225.98	6.51
226.215	10.51
226.449	15.91
226.683	20.11
226.918	22.71
227.152	26.71
227.387	36.11
227.621	37.31
227.856	46.91
228.09	43.91
228.324	43.91
228.559	53.91
228.793	53.71
229.027	60.91
229.262	66.51
229.496	63.71
229.73	69.71
229.964	71.51
230.199	75.31
230.433	76.71
230.667	75.31
230.901	80.71
231.136	77.91
231.37	74.91
231.604	88.31
231.838	85.71
232.072	82.11
232.306	86.51
232.541	81.31
232.775	80.91
233.009	82.91
233.243	84.11
233.477	85.31
233.711	82.91
233.945	85.31
234.179	74.71
234.413	85.71
234.647	90.11
234.881	80.91
235.115	80.31
235.349	75.91
235.583	81.51
235.817	79.91
236.051	76.91
236.285	77.71
236.519	84.51
236.753	77.51
236.987	80.31
237.221	75.71
237.455	72.91
237.689	73.11
237.922	79.11
238.156	77.91
238.39	76.91
238.624	77.91
238.858	80.91
239.091	77.71
239.325	77.91
239.559	81.31
239.793	81.51
240.027	80.91
240.26	79.11
240.494	79.11
240.728	70.91
240.961	78.71
241.195	79.31
241.429	76.91
241.662	73.31
241.896	82.11
242.13	72.51
242.363	77.91
242.597	74.71
242.83	76.71
243.064	79.11
243.298	81.91
243.531	77.51
243.765	79.51
243.998	79.51
244.232	79.51
244.465	80.91
244.699	76.91
244.932	79.11
245.166	86.71
245.399	73.11
245.633	85.71
245.866	78.91
246.099	75.71
246.333	70.91
246.566	76.71
246.8	74.31
247.033	76.71
247.266	78.71
247.5	89.71
247.733	88.71
247.966	78.31
248.2	85.31
248.433	85.71
248.666	78.91
248.899	84.91
249.133	86.71
249.366	79.11
249.599	82.71
249.832	76.91
250.066	79.71
250.299	79.11
250.532	78.31
250.765	80.11
250.998	85.31
251.231	79.91
251.465	85.11
251.698	81.31
251.931	84.31
252.164	88.51
252.397	81.91
252.63	91.91
252.863	86.31
253.096	85.11
253.329	89.51
253.562	89.31
253.795	86.71
254.028	80.31
254.261	83.91
254.494	84.31
254.727	92.71
254.96	81.11
255.193	84.51
255.426	86.51
255.659	91.71
255.892	91.31
256.124	85.11
256.357	93.31
256.59	88.31
256.823	89.11
257.056	87.51
257.289	88.71
257.521	84.71
257.754	88.51
257.987	91.91
258.22	89.71
258.452	92.11
258.685	94.11
258.918	86.11
259.151	81.51
259.383	89.31
259.616	90.91
259.849	88.71
260.081	87.31
260.314	90.71
260.547	94.11
260.779	95.31
261.012	101.11
261.244	106.91
261.477	111.91
261.71	107.31
261.942	99.31
262.175	99.71
262.407	88.71
262.64	85.11
262.872	93.71
263.105	88.71
263.337	92.71
263.57	86.11
263.802	92.91
264.035	95.31
264.267	90.91
264.499	92.51
264.732	94.71
264.964	99.51
265.197	96.31
265.429	90.31
265.661	91.51
265.894	89.51
266.126	95.91
266.358	103.51
266.591	101.71
266.823	94.31
267.055	91.91
267.287	86.71
267.52	96.51
267.752	88.31
267.984	92.11
268.216	87.11
268.448	96.71
268.681	89.51
268.913	91.11
269.145	82.91
269.377	90.11
269.609	94.51
269.841	93.51
270.073	98.51
270.306	88.51
270.538	86.91
270.77	89.31
271.002	87.71
271.234	93.31
271.466	90.31
271.698	96.71
271.93	91.11
272.162	89.91
272.394	91.71
272.626	88.51
272.858	87.91
273.09	91.11
273.322	87.31
273.553	95.71
273.785	91.71
274.017	91.91
274.249	90.51
274.481	86.51
274.713	87.31
274.945	93.71
275.176	85.11
275.408	86.51
275.64	86.91
275.872	87.51
276.104	100.11
276.335	91.11
276.567	93.11
276.799	91.51
277.031	92.91
277.262	90.51
277.494	88.31
277.726	89.71
277.957	96.31
278.189	95.31
278.421	99.71
278.652	96.51
278.884	101.71
279.115	99.71
279.347	101.51
279.579	106.31
279.81	117.11
280.042	126.91
280.273	132.31
280.505	128.51
280.736	113.71
280.968	111.31
281.199	104.31
281.431	96.11
281.662	100.51
281.894	104.51
282.125	106.71
282.356	106.91
282.588	108.71
282.819	109.51
283.051	109.11
283.282	116.11
283.513	127.51
283.745	108.31
283.976	104.71
284.207	103.71
284.439	98.31
284.67	101.11
284.901	99.31
285.132	98.71
285.364	96.11
285.595	98.11
285.826	96.11
286.057	89.91
286.288	99.91
286.52	103.11
286.751	104.91
286.982	99.71
287.213	114.91
287.444	111.51
287.675	106.71
287.906	98.11
288.138	95.51
288.369	102.51
288.6	92.31
288.831	99.71
289.062	97.11
289.293	89.71
289.524	93.31
289.755	92.51
289.986	91.31
290.217	92.71
290.448	95.51
290.679	97.71
290.91	98.31
291.141	91.51
291.371	99.51
291.602	95.51
291.833	95.51
292.064	96.11
292.295	87.91
292.526	98.51
292.757	91.71
292.987	90.51
293.218	94.31
293.449	99.71
293.68	92.11
293.91	93.91
294.141	104.51
294.372	97.11
294.603	93.51
294.833	94.51
295.064	96.11
295.295	95.31
295.525	99.11
295.756	100.31
295.987	93.71
296.217	94.51
296.448	96.11
296.679	98.31
296.909	99.51
297.14	100.91
297.37	96.11
297.601	97.51
297.831	92.71
298.062	97.11
298.292	94.71
298.523	97.71
298.753	94.31
298.984	95.11
299.214	101.91
299.445	91.31
299.675	91.31
299.905	93.51
300.136	95.71
300.366	96.11
300.597	102.11
300.827	93.51
301.057	97.71
301.288	101.51
301.518	101.91
301.748	93.11
301.979	108.11
302.209	101.91
302.439	95.11
302.669	86.31
302.9	99.51
303.13	99.51
303.36	101.91
303.59	97.31
303.82	97.51
304.051	100.91
304.281	102.71
304.511	105.31
304.741	102.91
304.971	94.51
305.201	98.51
305.431	99.71
305.661	97.31
305.891	99.71
306.121	97.31
306.352	97.91
306.582	98.31
306.812	95.31
307.042	93.91
307.272	88.51
307.502	97.91
307.731	98.71
307.961	103.51
308.191	101.51
308.421	94.31
308.651	98.91
308.881	97.91
309.111	94.11
309.341	91.31
309.571	98.11
309.8	98.31
310.03	107.31
310.26	95.31
310.49	100.51
310.72	95.71
310.949	101.71
311.179	97.11
311.409	98.51
311.639	97.51
311.868	95.51
312.098	96.51
312.328	101.31
312.557	100.11
312.787	99.71
313.017	100.91
313.246	103.91
313.476	103.71
313.706	104.11
313.935	99.31
314.165	92.71
314.394	104.51
314.624	102.31
314.853	108.71
315.083	102.31
315.312	103.91
315.542	103.71
315.771	103.71
316.001	104.31
316.23	101.91
316.46	99.11
316.689	101.11
316.919	100.51
317.148	101.71
317.377	104.71
317.607	104.31
317.836	101.91
318.065	101.91
318.295	104.31
318.524	103.51
318.753	100.51
318.983	103.51
319.212	99.71
319.441	102.71
319.67	96.11
319.9	100.11
320.129	97.31
320.358	97.91
320.587	94.91
320.816	97.71
321.046	94.31
321.275	96.31
321.504	100.51
321.733	100.71
321.962	98.71
322.191	96.51
322.42	97.71
322.649	98.91
322.878	101.71
323.108	100.51
323.337	102.51
323.566	98.91
323.795	95.51
324.024	98.71
324.253	102.11
324.482	99.51
324.71	97.11
324.939	104.31
325.168	97.71
325.397	98.31
325.626	107.51
325.855	100.51
326.084	93.31
326.313	99.91
326.542	98.11
326.77	102.11
326.999	103.11
327.228	102.31
327.457	104.31
327.686	102.51
327.914	101.91
328.143	92.91
328.372	99.51
328.6	94.71
328.829	96.31
329.058	95.11
329.287	92.31
329.515	98.71
329.744	103.11
329.972	102.11
330.201	97.91
330.43	97.71
330.658	103.91
330.887	94.51
331.115	103.11
331.344	103.91
331.572	97.91
331.801	98.91
332.03	99.91
332.258	102.51
332.486	95.31
332.715	93.71
332.943	101.31
333.172	98.91
333.4	100.31
333.629	103.51
333.857	96.71
334.085	98.51
334.314	105.31
334.542	100.71
334.771	99.91
334.999	95.91
335.227	107.91
335.455	106.51
335.684	98.11
335.912	96.91
336.14	95.11
336.369	99.11
336.597	98.31
336.825	95.31
337.053	90.71
337.281	103.91
337.51	94.91
337.738	101.91
337.966	100.71
338.194	94.91
338.422	98.51
338.65	94.31
338.878	97.11
339.106	99.11
339.334	103.71
339.562	98.71
339.79	96.51
340.018	98.51
340.246	91.51
340.474	96.71
340.702	97.11
340.93	95.31
341.158	96.51
341.386	101.31
341.614	94.91
341.842	92.71
342.07	95.91
342.298	96.11
342.526	95.51
342.754	98.11
342.981	89.51
343.209	95.91
343.437	113.11
343.665	95.51
343.893	107.51
344.12	103.51
344.348	102.71
344.576	97.31
344.804	97.11
345.031	100.11
345.259	95.11
345.487	98.71
345.714	99.11
345.942	99.11
346.17	100.11
346.397	100.11
346.625	101.11
346.853	100.91
347.08	95.31
347.308	98.91
347.535	97.11
347.763	102.31
347.99	92.91
348.218	100.31
348.445	96.71
348.673	101.71
348.9	96.11
349.128	101.91
349.355	95.71
349.583	96.31
349.81	97.51
350.037	102.91
350.265	101.71
350.492	100.11
350.72	95.51
350.947	101.71
351.174	98.31
351.402	98.31
351.629	95.91
351.856	98.91
352.083	93.51
352.311	99.11
352.538	94.31
352.765	93.11
352.992	107.71
353.22	104.51
353.447	104.51
353.674	100.11
353.901	100.11
354.128	90.71
354.355	94.71
354.583	96.31
354.81	98.11
355.037	103.71
355.264	97.31
355.491	96.91
355.718	101.51
355.945	104.11
356.172	103.31
356.399	100.31
356.626	102.31
356.853	112.31
357.08	129.51
357.307	145.11
357.534	148.71
357.761	131.71
357.988	114.91
358.215	106.11
358.441	113.11
358.668	107.31
358.895	106.31
359.122	102.31
359.349	95.91
359.576	98.71
359.802	100.71
360.029	95.31
360.256	100.71
360.483	99.11
360.709	98.51
360.936	103.11
361.163	94.31
361.39	96.31
361.616	99.31
361.843	99.51
362.07	97.51
362.296	103.31
362.523	101.51
362.749	102.91
362.976	101.71
363.203	106.71
363.429	107.51
363.656	128.11
363.882	152.31
364.109	173.71
364.335	143.71
364.562	121.51
364.788	112.51
365.015	104.31
365.241	107.71
365.468	110.51
365.694	106.71
365.92	103.31
366.147	104.91
366.373	106.71
366.599	110.71
366.826	111.31
367.052	118.71
367.278	119.91
367.505	123.51
367.731	123.71
367.957	134.71
368.184	168.91
368.41	193.91
368.636	181.11
368.862	146.11
369.089	122.31
369.315	119.71
369.541	112.51
369.767	110.91
369.993	105.91
370.219	102.31
370.445	109.71
370.672	101.31
370.898	98.51
371.124	103.51
371.35	101.31
371.576	97.91
371.802	106.11
372.028	101.71
372.254	100.71
372.48	100.31
372.706	107.91
372.932	103.71
373.158	103.51
373.384	113.31
373.61	123.31
373.835	139.31
374.061	151.31
374.287	151.11
374.513	128.51
374.739	109.11
374.965	106.91
375.191	105.11
375.416	96.31
375.642	104.51
375.868	104.31
376.094	102.31
376.319	104.91
376.545	98.51
376.771	99.11
376.997	96.51
377.222	105.71
377.448	102.91
377.674	95.71
377.899	102.91
378.125	93.71
378.35	94.31
378.576	100.71
378.802	94.31
379.027	106.11
379.253	98.11
379.478	102.91
379.704	105.11
379.929	100.71
380.155	106.71
380.38	97.31
380.606	99.11
380.831	106.91
381.057	108.11
381.282	97.71
381.507	99.51
381.733	100.31
381.958	96.11
382.184	93.11
382.409	104.11
382.634	103.71
382.86	103.71
383.085	101.71
383.31	105.11
383.535	107.51
383.761	102.31
383.986	106.71
384.211	98.51
384.436	101.51
384.662	104.11
384.887	96.91
385.112	101.31
385.337	98.71
385.562	103.31
385.787	105.91
386.013	99.51
386.238	99.31
386.463	101.91
386.688	109.51
386.913	101.91
387.138	97.91
387.363	93.51
387.588	106.31
387.813	101.31
388.038	108.71
388.263	106.11
388.488	99.91
388.713	99.71
388.938	100.51
389.163	98.91
389.387	96.11
389.612	101.31
389.837	98.11
390.062	98.11
390.287	100.51
390.512	102.91
390.736	101.31
390.961	97.31
391.186	96.31
391.411	97.71
391.636	111.31
391.86	99.31
392.085	106.31
392.31	103.51
392.534	103.71
392.759	102.71
392.984	98.71
393.208	105.91
393.433	97.31
393.658	93.11
393.882	99.51
394.107	100.51
394.331	96.71
394.556	94.71
394.78	103.51
395.005	101.31
395.229	106.11
395.454	102.31
395.678	99.51
395.903	96.11
396.127	100.71
396.352	91.71
396.576	105.51
396.801	105.91
397.025	91.11
397.249	100.71
397.474	103.71
397.698	103.51
397.922	104.91
398.147	104.51
398.371	105.71
398.595	101.11
398.82	106.31
399.044	101.51
399.268	100.51
399.492	109.31
399.717	101.51
399.941	106.11
400.165	110.11
400.389	104.71
400.613	105.71
400.837	105.11
401.062	107.71
401.286	103.91
401.51	107.71
401.734	109.71
401.958	117.91
402.182	114.71
402.406	111.91
402.63	110.51
402.854	100.51
403.078	106.31
403.302	112.51
403.526	108.91
403.75	110.11
403.974	109.51
404.198	114.11
404.422	119.11
404.645	119.51
404.869	119.91
405.093	123.91
405.317	132.71
405.541	176.11
405.765	242.71
405.988	279.51
406.212	210.51
406.436	175.91
406.66	142.11
406.883	125.91
407.107	118.71
407.331	119.71
407.555	126.11
407.778	110.51
408.002	117.71
408.226	109.71
408.449	110.51
408.673	106.51
408.896	107.11
409.12	110.31
409.344	110.31
409.567	101.31
409.791	101.51
410.014	112.31
410.238	106.71
410.461	110.11
410.685	109.31
410.908	111.11
411.132	104.11
411.355	109.11
411.578	103.51
411.802	102.91
412.025	104.31
412.249	103.11
412.472	110.91
412.695	104.71
412.919	102.31
413.142	111.31
413.365	102.51
413.589	113.51
413.812	111.91
414.035	108.91
414.258	109.11
414.482	109.51
414.705	105.71
414.928	108.51
415.151	107.11
415.374	111.71
415.597	99.11
415.821	104.11
416.044	109.11
416.267	112.31
416.49	110.11
416.713	113.11
416.936	111.91
417.159	115.51
417.382	112.91
417.605	115.71
417.828	107.91
418.051	101.51
418.274	107.51
418.497	104.71
418.72	102.51
418.943	101.71
419.166	103.11
419.389	106.51
419.611	110.11
419.834	110.11
420.057	104.71
420.28	108.91
420.503	111.11
420.726	99.91
420.948	114.71
421.171	109.51
421.394	109.11
421.617	105.31
421.839	115.91
422.062	105.31
422.285	118.51
422.507	114.31
422.73	114.51
422.953	112.31
423.175	116.31
423.398	123.51
423.621	119.31
423.843	128.91
424.066	129.51
424.288	140.71
424.511	155.31
424.733	170.91
424.956	155.51
425.178	148.51
425.401	131.51
425.623	125.91
425.846	127.31
426.068	123.11
426.291	122.51
426.513	117.51
426.735	116.71
426.958	123.11
427.18	115.51
427.402	111.91
427.625	111.31
427.847	112.51
428.069	120.71
428.292	114.31
428.514	109.31
428.736	112.11
428.958	112.71
429.181	103.71
429.403	111.11
429.625	111.71
429.847	112.31
430.069	111.11
430.292	108.51
430.514	106.91
430.736	106.11
430.958	109.51
431.18	107.71
431.402	110.31
431.624	106.91
431.846	103.11
432.068	107.51
432.29	106.51
432.512	103.71
432.734	109.51
432.956	112.91
433.178	118.11
433.4	115.51
433.622	112.71
433.844	106.51
434.066	116.11
434.287	117.71
434.509	102.71
434.731	107.11
434.953	102.11
435.175	105.71
435.397	114.51
435.618	113.11
435.84	103.71
436.062	111.91
436.284	112.11
436.505	107.31
436.727	116.91
436.949	109.51
437.17	116.11
437.392	117.11
437.614	124.11
437.835	114.91
438.057	121.31
438.278	129.91
438.5	133.71
438.721	157.71
438.943	164.11
439.165	152.71
439.386	145.11
439.608	135.11
439.829	138.11
440.05	126.71
440.272	130.11
440.493	132.31
440.715	131.51
440.936	132.71
441.158	139.51
441.379	129.71
441.6	127.51
441.822	123.11
442.043	120.11
442.264	123.51
442.486	123.71
442.707	114.51
442.928	116.31
443.149	112.71
443.371	121.91
443.592	117.11
443.813	121.31
444.034	116.31
444.255	119.11
444.476	118.11
444.698	112.51
444.919	116.51
445.14	192.31
445.361	147.31
445.582	119.11
445.803	109.91
446.024	115.71
446.245	109.91
446.466	112.91
446.687	109.11
446.908	111.91
447.129	114.91
447.35	116.91
447.571	111.91
447.792	113.31
448.013	112.31
448.234	109.71
448.455	110.11
448.675	104.91
448.896	102.51
449.117	110.91
449.338	110.11
449.559	110.51
449.779	106.91
450	119.11
450.221	107.71
450.442	111.71
450.662	106.91
450.883	109.91
451.104	120.91
451.324	106.11
451.545	117.11
451.766	108.91
451.986	108.31
452.207	108.11
452.428	108.51
452.648	109.31
452.869	97.71
453.089	103.31
453.31	102.71
453.53	101.71
453.751	102.11
453.971	103.31
454.192	100.91
454.412	102.91
454.633	110.71
454.853	108.11
455.073	105.11
455.294	108.71
455.514	109.91
455.734	115.31
455.955	111.51
456.175	107.51
456.395	106.31
456.616	105.11
456.836	99.11
457.056	105.51
457.276	108.71
457.497	98.51
457.717	98.91
457.937	106.31
458.157	107.11
458.377	104.51
458.598	101.91
458.818	102.31
459.038	100.71
459.258	113.11
459.478	105.51
459.698	102.71
459.918	106.11
460.138	101.31
460.358	108.91
460.578	108.51
460.798	107.31
461.018	108.51
461.238	106.31
461.458	112.51
461.678	105.91
461.898	109.71
462.118	103.31
462.338	108.71
462.558	106.11
462.777	103.91
462.997	113.11
463.217	103.11
463.437	107.91
463.657	110.31
463.876	111.71
464.096	104.11
464.316	103.31
464.536	111.31
464.755	110.51
464.975	111.71
465.195	107.71
465.414	100.31
465.634	107.11
465.854	108.71
466.073	107.51
466.293	104.71
466.512	104.51
466.732	110.51
466.951	106.91
467.171	109.11
467.391	107.11
467.61	106.51
467.829	110.11
468.049	102.51
468.268	102.91
468.488	109.11
468.707	109.11
468.927	101.91
469.146	109.71
469.365	101.51
469.585	109.51
469.804	103.91
470.023	103.11
470.243	107.91
470.462	111.31
470.681	101.51
470.901	110.71
471.12	106.51
471.339	111.51
471.558	110.51
471.777	112.31
471.997	108.31
472.216	100.51
472.435	95.31
472.654	97.71
472.873	97.71
473.092	111.51
473.311	108.31
473.53	108.71
473.749	102.11
473.968	107.31
474.187	102.91
474.406	102.11
474.625	109.31
474.844	112.91
475.063	109.51
475.282	113.91
475.501	110.11
475.72	107.71
475.939	111.11
476.158	99.71
476.377	96.91
476.596	105.91
476.814	103.71
477.033	110.71
477.252	106.31
477.471	114.71
477.69	116.11
477.908	117.31
478.127	117.71
478.346	113.11
478.564	117.11
478.783	118.31
479.002	112.91
479.22	111.51
479.439	110.91
479.658	115.91
479.876	109.71
480.095	104.71
480.313	114.51
480.532	113.71
480.751	116.31
480.969	114.71
481.188	103.51
481.406	112.31
481.624	110.11
481.843	105.11
482.061	109.51
482.28	106.31
482.498	111.31
482.717	110.51
482.935	111.91
483.153	110.31
483.372	108.31
483.59	111.71
483.808	107.51
484.027	105.31
484.245	107.71
484.463	114.71
484.681	115.11
484.9	110.91
485.118	111.91
485.336	102.31
485.554	109.11
485.772	104.91
485.99	108.51
486.209	107.51
486.427	105.11
486.645	114.71
486.863	113.11
487.081	111.11
487.299	110.51
487.517	111.71
487.735	113.51
487.953	118.71
488.171	114.71
488.389	115.31
488.607	115.11
488.825	107.91
489.043	108.91
489.261	113.31
489.479	108.51
489.696	112.11
489.914	105.11
490.132	116.51
490.35	111.91
490.568	109.91
490.786	116.91
491.003	113.91
491.221	110.11
491.439	111.11
491.657	117.91
491.874	118.51
492.092	128.31
492.31	121.91
492.527	120.11
492.745	115.11
492.963	119.11
493.18	113.11
493.398	111.51
493.615	108.11
493.833	113.11
494.05	112.71
494.268	118.91
494.485	118.11
494.703	120.71
494.92	123.91
495.138	115.91
495.355	119.91
495.573	122.51
495.79	113.91
496.008	116.51
496.225	113.91
496.442	117.91
496.66	120.51
496.877	121.11
497.094	119.11
497.312	117.51
497.529	119.91
497.746	115.51
497.963	115.51
498.181	114.51
498.398	117.51
498.615	120.51
498.832	120.91
499.049	120.31
499.267	132.71
499.484	122.91
499.701	129.11
499.918	131.71
500.135	129.31
500.352	135.51
500.569	151.31
500.786	161.31
501.003	138.51
501.22	128.71
501.437	127.11
501.654	125.11
501.871	125.91
502.088	127.31
502.305	128.11
502.522	123.91
502.739	127.91
502.956	119.71
503.172	120.31
503.389	123.51
503.606	124.31
503.823	116.31
504.04	121.91
504.256	128.31
504.473	127.31
504.69	124.11
504.907	125.11
505.123	126.51
505.34	119.71
505.557	120.71
505.773	123.31
505.99	123.31
506.207	116.51
506.423	109.91
506.64	115.11
506.856	115.91
507.073	119.11
507.289	114.31
507.506	117.51
507.722	118.11
507.939	117.71
508.155	119.11
508.372	109.31
508.588	107.11
508.805	116.31
509.021	110.71
