Data from ZeroMicroDelayPb_HRD10591_00001.txt Node
Date: Mon Nov 24 14:25:53 EST 2025
User: Yrep
Spectrometer: HR+D1059
Trigger mode: 0
Integration Time (sec): 1.000000E-1
Scans to average: 5
Electric dark correction enabled: true
Nonlinearity correction enabled: false
Boxcar width: 0
XAxis mode: Wavelengths
Number of Pixels in Spectrum: 2048
>>>>>Begin Spectral Data<<<<<
223.165	-17.36
223.4	-17.36
223.635	-17.36
223.869	-15.76
224.104	-16.56
224.338	-20.96
224.573	-16.96
224.808	-14.76
225.042	-6.16
225.277	-5.76
225.511	-1.56
225.746	5.04
225.98	6.04
226.215	7.24
226.449	14.04
226.683	19.44
226.918	31.84
227.152	32.24
227.387	33.04
227.621	34.84
227.856	44.44
228.09	49.04
228.324	49.64
228.559	57.64
228.793	61.24
229.027	61.84
229.262	63.24
229.496	72.44
229.73	72.84
229.964	79.64
230.199	75.44
230.433	70.04
230.667	83.44
230.901	81.04
231.136	79.24
231.37	81.04
231.604	77.44
231.838	84.24
232.072	94.04
232.306	81.64
232.541	82.04
232.775	79.44
233.009	79.04
233.243	83.44
233.477	83.44
233.711	89.04
233.945	88.04
234.179	88.04
234.413	83.64
234.647	81.64
234.881	81.44
235.115	80.64
235.349	76.64
235.583	82.04
235.817	75.64
236.051	79.64
236.285	81.44
236.519	81.44
236.753	85.84
236.987	75.44
237.221	80.64
237.455	81.84
237.689	82.04
237.922	83.64
238.156	78.44
238.39	78.84
238.624	80.24
238.858	76.84
239.091	81.84
239.325	80.04
239.559	87.04
239.793	80.04
240.027	82.44
240.26	82.44
240.494	83.64
240.728	84.24
240.961	80.24
241.195	84.44
241.429	81.04
241.662	75.24
241.896	73.64
242.13	77.64
242.363	73.24
242.597	79.24
242.83	83.04
243.064	75.04
243.298	80.84
243.531	78.04
243.765	84.04
243.998	79.24
244.232	82.84
244.465	81.04
244.699	79.24
244.932	77.44
245.166	89.64
245.399	82.04
245.633	84.44
245.866	81.64
246.099	79.84
246.333	80.44
246.566	82.84
246.8	77.84
247.033	84.84
247.266	80.64
247.5	79.44
247.733	85.84
247.966	91.04
248.2	88.44
248.433	88.04
248.666	88.84
248.899	84.04
249.133	83.44
249.366	89.84
249.599	79.64
249.832	82.64
250.066	78.04
250.299	86.04
250.532	85.64
250.765	84.84
250.998	85.84
251.231	81.84
251.465	84.44
251.698	81.44
251.931	85.24
252.164	86.84
252.397	85.84
252.63	88.04
252.863	88.44
253.096	89.44
253.329	91.84
253.562	95.84
253.795	91.64
254.028	84.64
254.261	92.04
254.494	92.24
254.727	93.24
254.96	89.44
255.193	86.04
255.426	88.64
255.659	89.44
255.892	89.84
256.124	90.64
256.357	91.44
256.59	82.84
256.823	90.24
257.056	90.64
257.289	90.04
257.521	89.84
257.754	91.64
257.987	92.24
258.22	100.44
258.452	96.64
258.685	87.44
258.918	92.84
259.151	90.04
259.383	85.84
259.616	88.44
259.849	88.24
260.081	92.04
260.314	90.24
260.547	98.44
260.779	100.84
261.012	99.64
261.244	110.44
261.477	113.44
261.71	116.64
261.942	103.84
262.175	99.44
262.407	92.84
262.64	90.84
262.872	91.84
263.105	95.24
263.337	95.64
263.57	92.84
263.802	88.84
264.035	92.24
264.267	96.44
264.499	92.84
264.732	96.24
264.964	102.04
265.197	95.84
265.429	95.64
265.661	91.44
265.894	93.64
266.126	100.64
266.358	106.04
266.591	102.84
266.823	107.04
267.055	97.04
267.287	90.64
267.52	93.24
267.752	92.64
267.984	95.04
268.216	89.44
268.448	92.84
268.681	99.84
268.913	87.64
269.145	85.64
269.377	87.24
269.609	93.84
269.841	92.64
270.073	92.84
270.306	88.84
270.538	94.44
270.77	94.24
271.002	91.44
271.234	90.84
271.466	94.84
271.698	88.24
271.93	87.04
272.162	87.64
272.394	89.64
272.626	96.64
272.858	93.64
273.09	98.24
273.322	94.44
273.553	96.04
273.785	91.24
274.017	89.64
274.249	92.24
274.481	93.04
274.713	87.64
274.945	91.44
275.176	88.04
275.408	93.64
275.64	93.44
275.872	91.24
276.104	95.44
276.335	91.04
276.567	88.04
276.799	91.84
277.031	96.24
277.262	104.44
277.494	97.24
277.726	97.84
277.957	90.64
278.189	97.04
278.421	97.04
278.652	99.64
278.884	104.44
279.115	104.24
279.347	112.04
279.579	104.84
279.81	115.24
280.042	137.44
280.273	144.84
280.505	134.04
280.736	116.84
280.968	104.04
281.199	96.64
281.431	104.44
281.662	99.44
281.894	106.64
282.125	107.84
282.356	110.44
282.588	112.24
282.819	105.04
283.051	109.44
283.282	118.44
283.513	126.04
283.745	112.24
283.976	103.24
284.207	101.64
284.439	99.64
284.67	99.64
284.901	98.04
285.132	97.64
285.364	98.64
285.595	93.24
285.826	97.04
286.057	100.64
286.288	94.24
286.52	99.04
286.751	102.84
286.982	110.04
287.213	112.84
287.444	120.64
287.675	107.24
287.906	106.04
288.138	99.84
288.369	99.04
288.6	98.84
288.831	93.24
289.062	93.44
289.293	99.24
289.524	97.04
289.755	96.84
289.986	98.04
290.217	97.04
290.448	95.04
290.679	91.24
290.91	97.04
291.141	99.64
291.371	95.64
291.602	91.44
291.833	96.84
292.064	93.64
292.295	92.84
292.526	92.44
292.757	99.84
292.987	101.24
293.218	95.64
293.449	101.44
293.68	100.04
293.91	96.84
294.141	98.44
294.372	102.24
294.603	101.44
294.833	98.24
295.064	97.64
295.295	94.04
295.525	92.64
295.756	103.84
295.987	95.84
296.217	97.84
296.448	95.24
296.679	101.24
296.909	96.64
297.14	99.84
297.37	97.64
297.601	97.44
297.831	99.64
298.062	95.04
298.292	94.04
298.523	101.64
298.753	97.64
298.984	97.24
299.214	101.64
299.445	96.44
299.675	89.24
299.905	91.64
300.136	99.04
300.366	90.84
300.597	95.24
300.827	103.44
301.057	96.64
301.288	97.44
301.518	95.24
301.748	96.64
301.979	113.24
302.209	99.44
302.439	95.84
302.669	101.04
302.9	95.44
303.13	100.44
303.36	100.24
303.59	99.44
303.82	97.84
304.051	99.44
304.281	97.44
304.511	101.24
304.741	104.84
304.971	94.24
305.201	101.84
305.431	97.04
305.661	99.44
305.891	99.24
306.121	103.44
306.352	106.24
306.582	93.04
306.812	95.84
307.042	102.04
307.272	93.64
307.502	98.84
307.731	100.04
307.961	98.44
308.191	100.44
308.421	94.44
308.651	100.64
308.881	96.04
309.111	100.44
309.341	96.44
309.571	93.24
309.8	93.24
310.03	100.04
310.26	93.64
310.49	96.64
310.72	97.84
310.949	101.44
311.179	94.04
311.409	100.24
311.639	98.64
311.868	104.64
312.098	100.44
312.328	100.84
312.557	101.84
312.787	101.84
313.017	101.04
313.246	96.84
313.476	107.24
313.706	100.24
313.935	102.84
314.165	108.24
314.394	105.84
314.624	100.64
314.853	113.04
315.083	107.04
315.312	107.84
315.542	103.44
315.771	101.44
316.001	98.64
316.23	104.64
316.46	104.84
316.689	101.24
316.919	103.84
317.148	101.24
317.377	103.04
317.607	100.64
317.836	94.44
318.065	99.64
318.295	98.64
318.524	99.04
318.753	93.24
318.983	104.64
319.212	100.84
319.441	101.24
319.67	99.64
319.9	94.84
320.129	97.04
320.358	97.84
320.587	101.44
320.816	101.64
321.046	94.44
321.275	101.44
321.504	94.44
321.733	99.44
321.962	101.24
322.191	99.04
322.42	102.24
322.649	98.24
322.878	100.44
323.108	99.44
323.337	99.04
323.566	102.24
323.795	89.64
324.024	99.24
324.253	99.24
324.482	100.84
324.71	95.44
324.939	100.64
325.168	97.64
325.397	97.24
325.626	102.24
325.855	95.44
326.084	102.24
326.313	101.64
326.542	104.64
326.77	103.84
326.999	100.44
327.228	101.04
327.457	102.24
327.686	101.64
327.914	100.24
328.143	100.64
328.372	100.64
328.6	101.24
328.829	99.84
329.058	97.24
329.287	93.24
329.515	103.64
329.744	104.24
329.972	102.44
330.201	102.04
330.43	101.04
330.658	98.64
330.887	97.24
331.115	96.84
331.344	102.84
331.572	102.44
331.801	102.24
332.03	99.24
332.258	99.24
332.486	97.64
332.715	100.24
332.943	92.64
333.172	106.04
333.4	97.04
333.629	100.24
333.857	100.04
334.085	90.84
334.314	100.24
334.542	100.04
334.771	106.44
334.999	102.84
335.227	100.64
335.455	106.84
335.684	99.84
335.912	101.24
336.14	95.44
336.369	97.64
336.597	104.84
336.825	111.64
337.053	97.84
337.281	103.04
337.51	97.64
337.738	97.64
337.966	95.44
338.194	101.44
338.422	97.44
338.65	102.44
338.878	98.64
339.106	100.04
339.334	101.24
339.562	101.64
339.79	102.04
340.018	98.44
340.246	90.04
340.474	98.84
340.702	100.84
340.93	108.04
341.158	99.64
341.386	96.24
341.614	97.64
341.842	98.64
342.07	102.84
342.298	99.84
342.526	95.04
342.754	98.64
342.981	101.64
343.209	96.04
343.437	104.64
343.665	90.04
343.893	104.24
344.12	110.04
344.348	95.04
344.576	98.64
344.804	106.84
345.031	99.64
345.259	104.64
345.487	96.04
345.714	103.04
345.942	100.84
346.17	99.04
346.397	101.64
346.625	102.44
346.853	99.84
347.08	97.84
347.308	102.44
347.535	100.44
347.763	99.44
347.99	100.44
348.218	104.24
348.445	98.04
348.673	97.64
348.9	99.04
349.128	102.24
349.355	98.84
349.583	99.44
349.81	98.84
350.037	99.04
350.265	98.64
350.492	99.24
350.72	98.64
350.947	96.64
351.174	97.64
351.402	96.44
351.629	97.04
351.856	99.04
352.083	97.64
352.311	105.24
352.538	95.24
352.765	99.64
352.992	102.84
353.22	99.64
353.447	99.44
353.674	103.04
353.901	101.64
354.128	94.84
354.355	103.64
354.583	97.84
354.81	100.24
355.037	106.84
355.264	101.24
355.491	97.24
355.718	98.04
355.945	108.44
356.172	103.44
356.399	104.24
356.626	107.24
356.853	121.84
357.08	139.24
357.307	158.64
357.534	154.24
357.761	130.64
357.988	121.04
358.215	112.24
358.441	107.04
358.668	106.44
358.895	106.04
359.122	111.04
359.349	101.84
359.576	101.64
359.802	98.84
360.029	99.84
360.256	107.44
360.483	104.44
360.709	108.04
360.936	103.64
361.163	109.84
361.39	102.04
361.616	100.84
361.843	101.24
362.07	98.24
362.296	95.24
362.523	102.04
362.749	109.44
362.976	111.64
363.203	110.64
363.429	117.44
363.656	137.24
363.882	155.64
364.109	174.84
364.335	153.84
364.562	121.24
364.788	114.24
365.015	111.64
365.241	114.04
365.468	107.64
365.694	104.24
365.92	104.44
366.147	108.84
366.373	103.24
366.599	104.64
366.826	109.44
367.052	115.24
367.278	129.04
367.505	114.44
367.731	128.64
367.957	134.84
368.184	172.04
368.41	203.44
368.636	189.44
368.862	149.04
369.089	130.44
369.315	115.64
369.541	118.24
369.767	111.24
369.993	110.44
370.219	102.84
370.445	101.04
370.672	105.84
370.898	104.44
371.124	102.64
371.35	103.44
371.576	105.44
371.802	101.44
372.028	103.04
372.254	97.24
372.48	105.04
372.706	105.64
372.932	109.04
373.158	105.04
373.384	110.44
373.61	125.84
373.835	138.64
374.061	151.24
374.287	156.04
374.513	124.44
374.739	119.44
374.965	111.04
375.191	108.24
375.416	103.44
375.642	110.44
375.868	99.64
376.094	101.44
376.319	97.64
376.545	102.64
376.771	103.24
376.997	99.84
377.222	105.04
377.448	108.04
377.674	98.64
377.899	106.44
378.125	104.44
378.35	101.84
378.576	101.64
378.802	98.84
379.027	104.64
379.253	107.84
379.478	102.64
379.704	102.24
379.929	97.64
380.155	97.44
380.38	100.04
380.606	102.64
380.831	104.44
381.057	103.04
381.282	100.04
381.507	94.24
381.733	103.04
381.958	101.04
382.184	98.84
382.409	104.24
382.634	101.64
382.86	104.44
383.085	103.24
383.31	101.84
383.535	100.84
383.761	109.24
383.986	107.04
384.211	97.64
384.436	100.04
384.662	102.24
384.887	108.84
385.112	106.24
385.337	96.44
385.562	108.24
385.787	100.24
386.013	99.44
386.238	101.04
386.463	98.44
386.688	109.04
386.913	99.44
387.138	107.64
387.363	107.04
387.588	111.64
387.813	103.04
388.038	105.24
388.263	104.24
388.488	98.44
388.713	105.84
388.938	101.24
389.163	100.84
389.387	96.44
389.612	105.04
389.837	104.24
390.062	99.44
390.287	100.64
390.512	96.64
390.736	100.24
390.961	100.04
391.186	104.84
391.411	102.04
391.636	107.04
391.86	108.84
392.085	95.24
392.31	98.44
392.534	102.04
392.759	104.64
392.984	104.44
393.208	97.44
393.433	98.44
393.658	106.64
393.882	101.84
394.107	102.84
394.331	100.44
394.556	100.24
394.78	102.44
395.005	97.04
395.229	109.64
395.454	106.44
395.678	104.04
395.903	103.84
396.127	104.44
396.352	101.84
396.576	101.64
396.801	100.44
397.025	107.24
397.249	112.44
397.474	100.64
397.698	100.24
397.922	105.04
398.147	100.64
398.371	104.84
398.595	109.24
398.82	104.84
399.044	106.44
399.268	113.04
399.492	109.64
399.717	108.64
399.941	111.24
400.165	115.84
400.389	110.24
400.613	113.04
400.837	104.84
401.062	107.64
401.286	109.64
401.51	99.84
401.734	108.64
401.958	116.44
402.182	118.24
402.406	110.44
402.63	113.04
402.854	108.64
403.078	110.24
403.302	107.04
403.526	107.04
403.75	116.64
403.974	109.44
404.198	109.24
404.422	114.84
404.645	116.84
404.869	122.64
405.093	129.84
405.317	147.04
405.541	185.24
405.765	262.44
405.988	292.64
406.212	224.84
406.436	166.64
406.66	144.84
406.883	130.24
407.107	130.84
407.331	123.04
407.555	120.24
407.778	118.84
408.002	116.84
408.226	116.64
408.449	111.24
408.673	108.84
408.896	115.84
409.12	108.64
409.344	113.64
409.567	102.24
409.791	111.44
410.014	110.04
410.238	102.64
410.461	106.64
410.685	110.24
410.908	109.64
411.132	111.04
411.355	108.24
411.578	108.84
411.802	115.44
412.025	112.24
412.249	106.84
412.472	106.24
412.695	112.24
412.919	105.64
413.142	110.44
413.365	103.04
413.589	109.44
413.812	105.44
414.035	110.64
414.258	116.04
414.482	111.84
414.705	105.04
414.928	109.04
415.151	105.24
415.374	106.24
415.597	105.44
415.821	100.64
416.044	104.04
416.267	104.24
416.49	101.04
416.713	109.24
416.936	114.64
417.159	113.84
417.382	107.64
417.605	108.24
417.828	107.44
418.051	106.24
418.274	103.84
418.497	103.64
418.72	103.24
418.943	110.64
419.166	111.04
419.389	110.44
419.611	111.24
419.834	114.04
420.057	106.44
420.28	113.84
420.503	113.24
420.726	108.24
420.948	109.84
421.171	115.04
421.394	113.24
421.617	104.84
421.839	107.04
422.062	115.04
422.285	114.84
422.507	110.44
422.73	111.84
422.953	117.04
423.175	116.84
423.398	123.44
423.621	119.24
423.843	128.04
424.066	130.64
424.288	146.64
424.511	157.44
424.733	172.44
424.956	159.04
425.178	148.04
425.401	133.24
425.623	133.44
425.846	122.84
426.068	123.84
426.291	124.24
426.513	122.64
426.735	122.04
426.958	121.44
427.18	119.24
427.402	127.24
427.625	114.44
427.847	111.44
428.069	117.04
428.292	108.84
428.514	115.24
428.736	109.04
428.958	115.84
429.181	105.24
429.403	121.04
429.625	110.64
429.847	105.64
430.069	116.64
430.292	113.64
430.514	104.64
430.736	114.64
430.958	111.84
431.18	111.24
431.402	104.64
431.624	108.64
431.846	113.64
432.068	108.44
432.29	102.44
432.512	113.64
432.734	100.04
432.956	114.84
433.178	116.04
433.4	113.24
433.622	114.44
433.844	112.84
434.066	108.04
434.287	109.24
434.509	107.84
434.731	106.84
434.953	114.04
435.175	113.64
435.397	119.44
435.618	111.64
435.84	113.04
436.062	112.44
436.284	116.64
436.505	115.24
436.727	113.64
436.949	117.24
437.17	116.24
437.392	119.04
437.614	110.84
437.835	122.44
438.057	118.04
438.278	128.04
438.5	139.64
438.721	165.44
438.943	172.64
439.165	155.64
439.386	144.44
439.608	144.04
439.829	134.84
440.05	139.84
440.272	134.24
440.493	139.04
440.715	132.64
440.936	140.84
441.158	142.84
441.379	123.24
441.6	129.04
441.822	126.44
442.043	123.44
442.264	122.84
442.486	118.84
442.707	118.84
442.928	123.24
443.149	121.04
443.371	115.84
443.592	112.44
443.813	113.64
444.034	117.44
444.255	113.64
444.476	113.44
444.698	106.44
444.919	119.24
445.14	191.64
445.361	152.04
445.582	114.04
445.803	119.64
446.024	109.44
446.245	115.04
446.466	114.24
446.687	109.64
446.908	111.04
447.129	108.44
447.35	111.44
447.571	110.04
447.792	107.84
448.013	110.04
448.234	112.44
448.455	108.84
448.675	117.04
448.896	110.64
449.117	108.64
449.338	111.04
449.559	115.64
449.779	112.44
450	110.44
450.221	110.64
450.442	116.04
450.662	114.44
450.883	106.64
451.104	117.84
451.324	105.24
451.545	112.44
451.766	110.64
451.986	110.84
452.207	102.84
452.428	104.04
452.648	107.24
452.869	106.24
453.089	105.24
453.31	106.24
453.53	99.24
453.751	108.24
453.971	107.44
454.192	102.84
454.412	106.44
454.633	102.04
454.853	108.24
455.073	105.04
455.294	112.04
455.514	104.24
455.734	106.24
455.955	111.24
456.175	98.24
456.395	105.84
456.616	101.84
456.836	109.24
457.056	99.64
457.276	101.44
457.497	98.04
457.717	99.64
457.937	101.64
458.157	103.64
458.377	108.44
458.598	108.44
458.818	105.44
459.038	107.24
459.258	102.24
459.478	106.84
459.698	106.84
459.918	106.24
460.138	108.24
460.358	108.24
460.578	110.64
460.798	110.44
461.018	105.84
461.238	108.64
461.458	113.44
461.678	111.24
461.898	109.84
462.118	111.64
462.338	111.64
462.558	108.24
462.777	103.44
462.997	109.84
463.217	113.84
463.437	106.24
463.657	104.24
463.876	109.04
464.096	113.44
464.316	105.24
464.536	102.84
464.755	110.84
464.975	106.24
465.195	103.44
465.414	106.04
465.634	106.04
465.854	103.04
466.073	104.64
466.293	102.84
466.512	112.04
466.732	106.64
466.951	109.64
467.171	110.64
467.391	107.84
467.61	105.44
467.829	107.44
468.049	104.84
468.268	112.04
468.488	105.84
468.707	104.04
468.927	105.24
469.146	99.64
469.365	111.04
469.585	105.04
469.804	106.64
470.023	106.04
470.243	112.04
470.462	108.44
470.681	110.64
470.901	106.04
471.12	110.84
471.339	106.24
471.558	108.44
471.777	112.24
471.997	107.24
472.216	106.24
472.435	109.44
472.654	95.24
472.873	106.44
473.092	102.84
473.311	107.04
473.53	112.24
473.749	105.44
473.968	108.44
474.187	101.84
474.406	101.84
474.625	107.44
474.844	104.24
475.063	106.04
475.282	104.84
475.501	110.84
475.72	112.24
475.939	106.64
476.158	106.24
476.377	112.04
476.596	105.24
476.814	98.24
477.033	104.04
477.252	113.04
477.471	114.44
477.69	102.24
477.908	113.84
478.127	110.04
478.346	111.04
478.564	117.44
478.783	112.04
479.002	106.64
479.22	115.84
479.439	112.84
479.658	114.04
479.876	114.44
480.095	110.64
480.313	111.24
480.532	108.84
480.751	109.64
480.969	116.04
481.188	112.44
481.406	111.24
481.624	99.04
481.843	105.84
482.061	104.24
482.28	109.84
482.498	108.04
482.717	117.04
482.935	106.84
483.153	111.04
483.372	116.04
483.59	103.24
483.808	109.84
484.027	116.84
484.245	115.04
484.463	107.84
484.681	114.84
484.9	106.84
485.118	118.64
485.336	111.64
485.554	109.84
485.772	110.44
485.99	104.24
486.209	108.64
486.427	109.44
486.645	106.04
486.863	108.84
487.081	109.84
487.299	112.64
487.517	116.24
487.735	112.04
487.953	118.44
488.171	110.24
488.389	112.04
488.607	114.64
488.825	110.84
489.043	117.44
489.261	114.84
489.479	112.04
489.696	121.44
489.914	115.84
490.132	115.24
490.35	114.44
490.568	114.04
490.786	115.24
491.003	117.64
491.221	113.44
491.439	121.04
491.657	123.04
491.874	124.44
492.092	124.24
492.31	124.44
492.527	123.84
492.745	115.84
492.963	117.84
493.18	112.04
493.398	118.24
493.615	115.64
493.833	114.24
494.05	119.84
494.268	117.24
494.485	116.24
494.703	120.04
494.92	118.84
495.138	119.64
495.355	125.24
495.573	125.04
495.79	122.44
496.008	121.44
496.225	118.04
496.442	120.44
496.66	124.44
496.877	119.04
497.094	122.04
497.312	117.04
497.529	118.04
497.746	118.84
497.963	121.44
498.181	120.64
498.398	113.84
498.615	127.04
498.832	117.44
499.049	127.64
499.267	128.84
499.484	127.24
499.701	132.64
499.918	128.04
500.135	131.24
500.352	132.44
500.569	148.84
500.786	162.44
501.003	147.44
501.22	137.24
501.437	132.64
501.654	128.64
501.871	127.84
502.088	120.24
502.305	127.04
502.522	128.44
502.739	122.84
502.956	122.04
503.172	124.04
503.389	127.64
503.606	122.44
503.823	122.44
504.04	124.84
504.256	125.64
504.473	133.24
504.69	132.64
504.907	130.64
505.123	120.04
505.34	125.84
505.557	123.04
505.773	125.84
505.99	114.04
506.207	117.24
506.423	122.64
506.64	116.84
506.856	120.24
507.073	125.04
507.289	120.84
507.506	119.44
507.722	117.84
507.939	112.84
508.155	113.24
508.372	111.64
