Data from ZeroMicroDelayPb_HRD10591_00003.txt Node
Date: Mon Nov 24 14:25:54 EST 2025
User: Yrep
Spectrometer: HR+D1059
Trigger mode: 0
Integration Time (sec): 1.000000E-1
Scans to average: 5
Electric dark correction enabled: true
Nonlinearity correction enabled: false
Boxcar width: 0
XAxis mode: Wavelengths
Number of Pixels in Spectrum: 2048
>>>>>Begin Spectral Data<<<<<
223.165	-19.11
223.4	-19.11
223.635	-19.11
223.869	-14.11
224.104	-21.11
224.338	-13.91
224.573	-14.11
224.808	-8.91
225.042	-11.31
225.277	-6.51
225.511	-1.31
225.746	4.09
225.98	8.09
226.215	7.09
226.449	23.29
226.683	16.49
226.918	22.69
227.152	28.69
227.387	37.29
227.621	38.29
227.856	38.49
228.09	41.29
228.324	46.69
228.559	59.29
228.793	62.89
229.027	65.29
229.262	65.49
229.496	70.49
229.73	71.29
229.964	72.69
230.199	73.89
230.433	79.89
230.667	77.89
230.901	83.69
231.136	84.89
231.37	82.49
231.604	83.49
231.838	75.89
232.072	75.29
232.306	80.89
232.541	76.09
232.775	84.49
233.009	79.89
233.243	82.49
233.477	83.89
233.711	83.29
233.945	78.09
234.179	81.69
234.413	85.49
234.647	81.09
234.881	81.09
235.115	85.29
235.349	76.89
235.583	78.29
235.817	83.29
236.051	84.09
236.285	77.09
236.519	77.49
236.753	84.89
236.987	83.09
237.221	79.49
237.455	81.29
237.689	77.69
237.922	78.89
238.156	75.69
238.39	74.09
238.624	82.09
238.858	77.29
239.091	83.69
239.325	81.09
239.559	80.69
239.793	87.09
240.027	89.49
240.26	82.49
240.494	82.49
240.728	87.69
240.961	76.29
241.195	77.89
241.429	82.69
241.662	74.89
241.896	78.29
242.13	80.89
242.363	80.09
242.597	84.09
242.83	83.89
243.064	78.69
243.298	80.29
243.531	85.09
243.765	84.89
243.998	85.29
244.232	75.09
244.465	88.09
244.699	76.69
244.932	81.29
245.166	83.09
245.399	83.29
245.633	80.89
245.866	82.29
246.099	78.29
246.333	83.69
246.566	75.89
246.8	84.29
247.033	84.29
247.266	88.89
247.5	87.29
247.733	93.49
247.966	89.69
248.2	89.29
248.433	73.49
248.666	76.89
248.899	82.69
249.133	74.69
249.366	87.69
249.599	82.49
249.832	88.69
250.066	88.09
250.299	84.49
250.532	83.89
250.765	85.69
250.998	84.69
251.231	83.09
251.465	90.49
251.698	81.49
251.931	89.49
252.164	91.69
252.397	88.09
252.63	84.69
252.863	86.89
253.096	90.89
253.329	91.49
253.562	88.69
253.795	86.69
254.028	91.69
254.261	88.29
254.494	86.29
254.727	94.29
254.96	88.09
255.193	88.69
255.426	92.09
255.659	85.09
255.892	96.09
256.124	89.49
256.357	92.09
256.59	86.69
256.823	90.49
257.056	88.89
257.289	92.89
257.521	92.49
257.754	94.29
257.987	92.89
258.22	89.69
258.452	94.09
258.685	92.69
258.918	89.69
259.151	93.89
259.383	90.49
259.616	88.49
259.849	88.69
260.081	89.49
260.314	90.49
260.547	84.89
260.779	90.89
261.012	103.49
261.244	110.69
261.477	120.49
261.71	116.29
261.942	107.49
262.175	97.89
262.407	91.49
262.64	94.29
262.872	87.69
263.105	96.69
263.337	89.49
263.57	94.29
263.802	90.29
264.035	98.09
264.267	93.89
264.499	98.69
264.732	94.09
264.964	100.29
265.197	100.69
265.429	101.89
265.661	95.09
265.894	95.49
266.126	96.69
266.358	99.89
266.591	102.89
266.823	102.69
267.055	91.29
267.287	95.89
267.52	90.29
267.752	92.89
267.984	90.49
268.216	90.09
268.448	89.49
268.681	87.09
268.913	87.49
269.145	90.29
269.377	91.89
269.609	90.69
269.841	99.89
270.073	97.49
270.306	96.69
270.538	91.49
270.77	85.09
271.002	93.49
271.234	87.29
271.466	95.49
271.698	90.89
271.93	91.89
272.162	93.09
272.394	98.49
272.626	96.69
272.858	91.49
273.09	89.49
273.322	94.49
273.553	96.09
273.785	85.69
274.017	93.09
274.249	95.09
274.481	97.69
274.713	90.49
274.945	94.69
275.176	93.69
275.408	95.09
275.64	91.49
275.872	93.49
276.104	99.89
276.335	90.29
276.567	89.29
276.799	89.69
277.031	86.29
277.262	89.69
277.494	97.89
277.726	91.49
277.957	96.29
278.189	93.29
278.421	102.69
278.652	97.69
278.884	102.29
279.115	107.49
279.347	105.49
279.579	114.69
279.81	118.69
280.042	132.29
280.273	148.09
280.505	135.89
280.736	124.09
280.968	101.89
281.199	108.49
281.431	102.09
281.662	99.29
281.894	109.09
282.125	107.89
282.356	111.29
282.588	109.09
282.819	107.69
283.051	112.89
283.282	126.49
283.513	128.89
283.745	120.69
283.976	111.09
284.207	103.29
284.439	103.09
284.67	97.89
284.901	95.69
285.132	99.29
285.364	96.09
285.595	95.69
285.826	94.49
286.057	105.09
286.288	101.29
286.52	104.89
286.751	106.09
286.982	106.09
287.213	110.69
287.444	121.29
287.675	110.89
287.906	101.69
288.138	97.09
288.369	101.49
288.6	97.69
288.831	96.89
289.062	102.29
289.293	97.09
289.524	84.29
289.755	95.29
289.986	92.29
290.217	101.69
290.448	92.89
290.679	97.89
290.91	102.89
291.141	94.49
291.371	94.49
291.602	95.89
291.833	101.09
292.064	94.49
292.295	99.69
292.526	96.69
292.757	91.89
292.987	97.69
293.218	102.89
293.449	98.09
293.68	97.69
293.91	90.49
294.141	99.09
294.372	96.29
294.603	97.69
294.833	103.29
295.064	94.09
295.295	96.69
295.525	98.09
295.756	98.89
295.987	96.49
296.217	104.09
296.448	98.09
296.679	101.49
296.909	97.89
297.14	95.69
297.37	100.49
297.601	100.29
297.831	101.89
298.062	93.89
298.292	97.89
298.523	98.69
298.753	98.69
298.984	97.89
299.214	97.29
299.445	99.49
299.675	93.69
299.905	103.09
300.136	95.29
300.366	96.49
300.597	91.69
300.827	96.29
301.057	95.29
301.288	97.69
301.518	101.69
301.748	103.29
301.979	109.49
302.209	99.09
302.439	96.49
302.669	99.69
302.9	102.49
303.13	98.09
303.36	98.49
303.59	96.09
303.82	109.29
304.051	102.49
304.281	104.69
304.511	102.89
304.741	100.49
304.971	103.49
305.201	101.09
305.431	101.29
305.661	102.69
305.891	98.89
306.121	104.09
306.352	95.69
306.582	99.89
306.812	97.89
307.042	98.89
307.272	94.09
307.502	98.89
307.731	103.29
307.961	99.09
308.191	96.29
308.421	96.29
308.651	101.29
308.881	97.29
309.111	99.69
309.341	93.89
309.571	96.09
309.8	100.69
310.03	105.09
310.26	100.09
310.49	92.09
310.72	101.49
310.949	99.69
311.179	105.29
311.409	102.29
311.639	97.09
311.868	94.69
312.098	107.49
312.328	107.89
312.557	99.89
312.787	102.09
313.017	104.09
313.246	100.49
313.476	102.29
313.706	98.89
313.935	106.29
314.165	108.29
314.394	108.49
314.624	98.89
314.853	105.89
315.083	101.89
315.312	107.69
315.542	100.69
315.771	105.09
316.001	108.09
316.23	102.09
316.46	102.49
316.689	103.69
316.919	102.69
317.148	109.29
317.377	110.09
317.607	103.09
317.836	101.89
318.065	100.69
318.295	104.49
318.524	98.09
318.753	100.69
318.983	102.09
319.212	101.49
319.441	99.89
319.67	99.69
319.9	100.09
320.129	92.09
320.358	106.69
320.587	103.09
320.816	97.49
321.046	91.49
321.275	103.69
321.504	100.09
321.733	100.49
321.962	104.89
322.191	100.89
322.42	99.69
322.649	104.09
322.878	100.09
323.108	101.09
323.337	97.69
323.566	98.69
323.795	97.69
324.024	98.29
324.253	103.09
324.482	97.89
324.71	101.69
324.939	101.69
325.168	101.89
325.397	99.89
325.626	95.29
325.855	97.69
326.084	104.09
326.313	105.49
326.542	94.09
326.77	97.69
326.999	101.49
327.228	101.29
327.457	94.09
327.686	101.09
327.914	101.69
328.143	102.89
328.372	103.49
328.6	107.09
328.829	101.69
329.058	102.69
329.287	101.29
329.515	99.69
329.744	101.69
329.972	94.69
330.201	100.29
330.43	99.09
330.658	103.49
330.887	100.29
331.115	94.49
331.344	105.09
331.572	106.09
331.801	101.89
332.03	99.89
332.258	99.09
332.486	101.49
332.715	102.09
332.943	103.49
333.172	100.89
333.4	97.69
333.629	103.09
333.857	101.29
334.085	106.69
334.314	103.49
334.542	95.09
334.771	97.49
334.999	99.89
335.227	97.49
335.455	101.09
335.684	98.09
335.912	102.09
336.14	96.49
336.369	96.29
336.597	100.69
336.825	98.69
337.053	100.49
337.281	98.69
337.51	104.29
337.738	102.89
337.966	98.29
338.194	99.89
338.422	101.29
338.65	106.89
338.878	105.49
339.106	103.29
339.334	100.09
339.562	100.89
339.79	102.49
340.018	102.09
340.246	100.09
340.474	99.89
340.702	103.09
340.93	96.29
341.158	95.89
341.386	101.49
341.614	100.49
341.842	103.29
342.07	102.69
342.298	96.69
342.526	99.29
342.754	91.89
342.981	103.69
343.209	104.89
343.437	108.49
343.665	106.09
343.893	100.09
344.12	100.49
344.348	99.89
344.576	107.69
344.804	97.29
345.031	101.69
345.259	102.89
345.487	97.29
345.714	101.89
345.942	96.69
346.17	96.89
346.397	104.09
346.625	101.09
346.853	108.49
347.08	94.09
347.308	87.89
347.535	96.89
347.763	92.29
347.99	95.29
348.218	98.29
348.445	97.29
348.673	103.69
348.9	102.29
349.128	103.89
349.355	100.69
349.583	93.09
349.81	97.69
350.037	97.49
350.265	101.69
350.492	100.49
350.72	106.89
350.947	101.09
351.174	102.49
351.402	96.29
351.629	102.89
351.856	99.69
352.083	94.69
352.311	100.89
352.538	98.49
352.765	100.29
352.992	101.69
353.22	107.49
353.447	97.89
353.674	95.09
353.901	102.89
354.128	101.09
354.355	104.89
354.583	103.29
354.81	93.89
355.037	95.49
355.264	99.29
355.491	99.49
355.718	110.89
355.945	111.69
356.172	106.69
356.399	106.49
356.626	111.49
356.853	116.09
357.08	133.89
357.307	146.29
357.534	158.29
357.761	138.29
357.988	117.29
358.215	111.89
358.441	113.89
358.668	109.49
358.895	103.49
359.122	112.89
359.349	105.29
359.576	107.89
359.802	105.09
360.029	105.89
360.256	110.49
360.483	99.09
360.709	99.49
360.936	105.29
361.163	104.69
361.39	102.29
361.616	106.69
361.843	105.29
362.07	107.29
362.296	100.69
362.523	101.89
362.749	103.09
362.976	112.09
363.203	110.69
363.429	118.49
363.656	135.29
363.882	162.89
364.109	168.49
364.335	150.29
364.562	122.29
364.788	118.29
365.015	117.09
365.241	110.09
365.468	109.09
365.694	102.69
365.92	104.29
366.147	105.29
366.373	102.09
366.599	113.29
366.826	109.49
367.052	116.49
367.278	121.49
367.505	119.09
367.731	124.49
367.957	137.89
368.184	167.89
368.41	210.89
368.636	188.49
368.862	145.49
369.089	124.89
369.315	120.09
369.541	116.89
369.767	111.29
369.993	108.49
370.219	102.69
370.445	101.89
370.672	109.29
370.898	103.29
371.124	107.09
371.35	101.89
371.576	110.09
371.802	104.69
372.028	107.89
372.254	111.09
372.48	107.29
372.706	105.09
372.932	108.09
373.158	110.29
373.384	113.49
373.61	120.69
373.835	151.09
374.061	163.09
374.287	149.89
374.513	124.49
374.739	112.69
374.965	111.49
375.191	115.89
375.416	105.69
375.642	105.49
375.868	110.29
376.094	106.49
376.319	103.29
376.545	104.49
376.771	108.49
376.997	104.69
377.222	106.29
377.448	99.89
377.674	102.29
377.899	103.09
378.125	101.09
378.35	106.69
378.576	103.29
378.802	104.69
379.027	104.49
379.253	110.69
379.478	101.69
379.704	105.49
379.929	102.89
380.155	99.89
380.38	103.69
380.606	99.69
380.831	105.09
381.057	107.69
381.282	99.49
381.507	104.29
381.733	100.89
381.958	101.29
382.184	103.29
382.409	102.29
382.634	101.69
382.86	107.89
383.085	103.69
383.31	103.29
383.535	102.29
383.761	100.29
383.986	103.69
384.211	99.89
384.436	109.29
384.662	107.09
384.887	107.69
385.112	94.69
385.337	105.69
385.562	98.89
385.787	100.89
386.013	102.29
386.238	106.69
386.463	100.69
386.688	112.49
386.913	101.49
387.138	105.89
387.363	103.49
387.588	103.69
387.813	100.69
388.038	101.29
388.263	102.49
388.488	98.29
388.713	102.49
388.938	101.69
389.163	100.29
389.387	106.49
389.612	102.69
389.837	100.69
390.062	101.49
390.287	106.29
390.512	109.89
390.736	98.29
390.961	102.49
391.186	98.09
391.411	102.49
391.636	100.29
391.86	107.89
392.085	101.29
392.31	100.69
392.534	103.69
392.759	107.89
392.984	106.69
393.208	102.69
393.433	106.29
393.658	103.69
393.882	102.69
394.107	96.89
394.331	101.09
394.556	108.09
394.78	103.89
395.005	106.89
395.229	106.69
395.454	108.69
395.678	109.69
395.903	104.29
396.127	99.69
396.352	110.89
396.576	107.69
396.801	102.89
397.025	98.69
397.249	105.29
397.474	107.89
397.698	103.89
397.922	105.29
398.147	96.29
398.371	102.89
398.595	103.09
398.82	107.49
399.044	105.29
399.268	112.49
399.492	105.69
399.717	108.29
399.941	114.89
400.165	111.49
400.389	105.09
400.613	107.89
400.837	105.49
401.062	109.89
401.286	109.49
401.51	112.09
401.734	116.69
401.958	122.29
402.182	114.09
402.406	105.09
402.63	109.49
402.854	114.49
403.078	111.09
403.302	107.49
403.526	108.09
403.75	111.29
403.974	110.09
404.198	119.09
404.422	117.69
404.645	109.49
404.869	121.49
405.093	130.49
405.317	143.89
405.541	183.89
405.765	265.89
405.988	287.69
406.212	215.89
406.436	177.09
406.66	154.69
406.883	138.29
407.107	132.69
407.331	125.09
407.555	128.49
407.778	122.29
408.002	118.29
408.226	116.89
408.449	119.89
408.673	117.49
408.896	109.29
409.12	110.89
409.344	112.09
409.567	109.69
409.791	110.09
410.014	108.69
410.238	111.69
410.461	109.09
410.685	106.89
410.908	109.09
411.132	114.29
411.355	104.29
411.578	105.49
411.802	108.49
412.025	111.29
412.249	103.89
412.472	118.29
412.695	110.49
412.919	107.09
413.142	110.29
413.365	106.09
413.589	113.69
413.812	104.29
414.035	113.89
414.258	113.09
414.482	111.69
414.705	101.49
414.928	107.89
415.151	106.49
415.374	108.69
415.597	111.29
415.821	107.89
416.044	109.09
416.267	108.89
416.49	113.89
416.713	109.09
416.936	119.69
417.159	100.89
417.382	105.69
417.605	108.49
417.828	112.49
418.051	109.49
418.274	108.09
418.497	111.69
418.72	112.09
418.943	113.29
419.166	108.89
419.389	113.49
419.611	110.69
419.834	107.29
420.057	111.09
420.28	102.69
420.503	113.29
420.726	108.29
420.948	107.49
421.171	107.89
421.394	111.09
421.617	110.09
421.839	111.09
422.062	116.69
422.285	106.49
422.507	112.29
422.73	112.89
422.953	119.09
423.175	116.49
423.398	117.09
423.621	122.29
423.843	129.89
424.066	131.09
424.288	139.49
424.511	162.09
424.733	176.89
424.956	167.29
425.178	154.69
425.401	142.49
425.623	138.49
425.846	130.49
426.068	122.89
426.291	123.49
426.513	123.09
426.735	126.09
426.958	114.89
427.18	121.09
427.402	119.49
427.625	122.69
427.847	116.09
428.069	121.09
428.292	117.29
428.514	115.29
428.736	115.29
428.958	114.69
429.181	110.69
429.403	110.89
429.625	111.49
429.847	109.69
430.069	107.89
430.292	116.49
430.514	103.09
430.736	109.09
430.958	110.49
431.18	110.29
431.402	114.09
431.624	107.69
431.846	109.29
432.068	109.49
432.29	108.89
432.512	110.49
432.734	107.29
432.956	107.69
433.178	108.29
433.4	110.69
433.622	114.49
433.844	109.09
434.066	109.69
434.287	113.29
434.509	110.49
434.731	103.29
434.953	116.29
435.175	116.69
435.397	117.49
435.618	114.09
435.84	109.49
436.062	112.09
436.284	116.89
436.505	118.69
436.727	117.09
436.949	115.29
437.17	116.49
437.392	111.69
437.614	123.49
437.835	124.09
438.057	123.69
438.278	132.09
438.5	141.49
438.721	154.09
438.943	169.29
439.165	166.69
439.386	145.69
439.608	145.89
439.829	140.49
440.05	134.09
440.272	134.69
440.493	133.69
440.715	135.09
440.936	140.49
441.158	139.69
441.379	139.29
441.6	125.69
441.822	118.69
442.043	118.29
442.264	129.29
442.486	123.69
442.707	123.89
442.928	121.49
443.149	122.89
443.371	124.29
443.592	119.09
443.813	121.49
444.034	109.09
444.255	117.29
444.476	120.89
444.698	113.29
444.919	113.89
445.14	185.89
445.361	147.29
445.582	116.49
445.803	111.49
446.024	117.69
446.245	120.49
446.466	116.09
446.687	113.69
446.908	114.49
447.129	118.89
447.35	119.89
447.571	114.29
447.792	115.89
448.013	105.89
448.234	109.09
448.455	106.69
448.675	108.09
448.896	108.09
449.117	111.69
449.338	118.89
449.559	111.89
449.779	109.89
450	105.49
450.221	107.69
450.442	109.49
450.662	106.69
450.883	110.49
451.104	106.09
451.324	101.29
451.545	108.29
451.766	110.09
451.986	105.89
452.207	107.49
452.428	110.69
452.648	116.09
452.869	104.89
453.089	102.09
453.31	104.69
453.53	104.49
453.751	99.29
453.971	105.09
454.192	108.49
454.412	103.89
454.633	100.89
454.853	101.89
455.073	104.89
455.294	101.69
455.514	107.69
455.734	107.69
455.955	107.49
456.175	103.09
456.395	101.29
456.616	107.49
456.836	110.29
457.056	103.49
457.276	100.09
457.497	101.49
457.717	102.49
457.937	96.49
458.157	106.69
458.377	107.29
458.598	103.09
458.818	108.09
459.038	105.49
459.258	104.69
459.478	101.09
459.698	105.09
459.918	103.89
460.138	98.69
460.358	108.09
460.578	104.09
460.798	113.69
461.018	104.89
461.238	116.89
461.458	113.49
461.678	110.09
461.898	109.49
462.118	107.49
462.338	108.29
462.558	111.29
462.777	114.69
462.997	108.29
463.217	104.09
463.437	112.29
463.657	107.69
463.876	110.09
464.096	110.49
464.316	108.49
464.536	106.29
464.755	106.49
464.975	109.89
465.195	110.49
465.414	110.69
465.634	111.69
465.854	103.49
466.073	115.29
466.293	111.29
466.512	106.29
466.732	106.29
466.951	105.49
467.171	104.09
467.391	115.89
467.61	105.09
467.829	104.09
468.049	115.89
468.268	107.49
468.488	105.49
468.707	110.29
468.927	108.09
469.146	107.89
469.365	101.89
469.585	102.69
469.804	104.49
470.023	114.49
470.243	107.69
470.462	103.09
470.681	110.29
470.901	108.29
471.12	109.69
471.339	107.69
471.558	106.89
471.777	106.69
471.997	111.69
472.216	103.29
472.435	100.29
472.654	100.29
472.873	108.49
473.092	108.29
473.311	103.09
473.53	107.69
473.749	107.09
473.968	113.69
474.187	112.09
474.406	102.89
474.625	110.09
474.844	113.09
475.063	112.09
475.282	104.89
475.501	104.29
475.72	107.49
475.939	107.09
476.158	105.49
476.377	107.89
476.596	108.69
476.814	108.29
477.033	103.49
477.252	113.49
477.471	107.29
477.69	110.09
477.908	110.29
478.127	114.89
478.346	115.09
478.564	106.49
478.783	111.69
479.002	116.69
479.22	120.49
479.439	122.29
479.658	107.09
479.876	119.09
480.095	117.29
480.313	110.29
480.532	122.29
480.751	116.29
480.969	113.29
481.188	107.69
481.406	113.29
481.624	105.69
481.843	103.29
482.061	104.69
482.28	117.29
482.498	101.49
482.717	113.49
482.935	113.69
483.153	121.09
483.372	119.49
483.59	118.69
483.808	114.49
484.027	110.89
484.245	113.69
484.463	112.89
484.681	114.29
484.9	114.89
485.118	114.69
485.336	109.09
485.554	99.09
485.772	107.29
485.99	111.69
486.209	105.69
486.427	112.49
486.645	105.69
486.863	114.09
487.081	113.49
487.299	111.69
487.517	116.09
487.735	112.69
487.953	119.29
488.171	119.89
488.389	106.49
488.607	111.49
488.825	113.69
489.043	114.69
489.261	110.29
489.479	117.89
489.696	113.89
489.914	113.09
490.132	116.69
490.35	112.69
490.568	117.69
490.786	117.29
491.003	115.89
491.221	113.89
491.439	111.09
491.657	117.89
491.874	125.49
492.092	124.89
492.31	126.89
492.527	118.09
492.745	120.09
492.963	120.69
493.18	120.09
493.398	118.69
493.615	117.69
493.833	113.09
494.05	117.89
494.268	115.69
494.485	119.89
494.703	120.29
494.92	120.29
495.138	121.29
495.355	116.29
495.573	122.69
495.79	122.69
496.008	119.69
496.225	119.09
496.442	123.89
496.66	114.69
496.877	114.89
497.094	120.09
497.312	118.89
497.529	120.49
497.746	116.69
497.963	119.49
498.181	118.09
498.398	106.89
498.615	121.09
498.832	124.69
499.049	125.69
499.267	122.49
499.484	127.89
499.701	127.69
499.918	139.09
500.135	135.29
500.352	139.89
500.569	144.69
500.786	163.69
501.003	144.89
501.22	138.29
501.437	130.29
501.654	129.29
501.871	126.69
502.088	128.49
502.305	129.49
502.522	127.69
502.739	128.29
502.956	123.49
503.172	119.49
503.389	122.29
503.606	122.49
503.823	118.69
504.04	125.69
504.256	132.09
504.473	130.29
504.69	127.09
504.907	122.89
505.123	127.09
505.34	128.49
505.557	121.09
505.773	133.89
505.99	123.89
506.207	123.49
506.423	113.49
506.64	122.49
506.856	120.69
507.073	124.49
507.289	114.89
507.506	115.29
507.722	114.89
