Data from ZeroMicroDelayPb_HRD10591_00002.txt Node
Date: Mon Nov 24 14:25:53 EST 2025
User: Yrep
Spectrometer: HR+D1059
Trigger mode: 0
Integration Time (sec): 1.000000E-1
Scans to average: 5
Electric dark correction enabled: true
Nonlinearity correction enabled: false
Boxcar width: 0
XAxis mode: Wavelengths
Number of Pixels in Spectrum: 2048
>>>>>Begin Spectral Data<<<<<
223.165	-20.84
223.4	-20.84
223.635	-20.84
223.869	-17.44
224.104	-22.04
224.338	-12.24
224.573	-15.84
224.808	-14.44
225.042	-2.64
225.277	-7.64
225.511	-5.04
225.746	7.36
225.98	8.96
226.215	10.56
226.449	12.56
226.683	22.36
226.918	24.56
227.152	31.76
227.387	35.76
227.621	36.36
227.856	49.16
228.09	46.96
228.324	53.96
228.559	56.16
228.793	62.36
229.027	64.16
229.262	60.76
229.496	70.56
229.73	67.36
229.964	76.76
230.199	75.36
230.433	77.36
230.667	79.96
230.901	75.16
231.136	68.56
231.37	87.36
231.604	74.96
231.838	78.16
232.072	78.96
232.306	83.56
232.541	86.76
232.775	83.56
233.009	83.96
233.243	81.36
233.477	85.36
233.711	88.96
233.945	76.56
234.179	79.76
234.413	83.76
234.647	79.36
234.881	82.76
235.115	83.76
235.349	82.16
235.583	81.56
235.817	83.36
236.051	75.16
236.285	76.36
236.519	82.96
236.753	83.36
236.987	72.76
237.221	80.36
237.455	81.76
237.689	81.76
237.922	80.36
238.156	80.16
238.39	75.96
238.624	83.16
238.858	88.76
239.091	80.76
239.325	78.36
239.559	75.56
239.793	80.16
240.027	84.96
240.26	76.56
240.494	83.76
240.728	75.96
240.961	75.96
241.195	80.96
241.429	83.36
241.662	75.96
241.896	80.56
242.13	77.36
242.363	77.96
242.597	77.96
242.83	86.16
243.064	81.36
243.298	81.96
243.531	83.76
243.765	83.56
243.998	76.76
244.232	86.36
244.465	82.16
244.699	82.56
244.932	79.16
245.166	81.36
245.399	85.76
245.633	82.16
245.866	83.36
246.099	81.36
246.333	78.36
246.566	84.36
246.8	82.76
247.033	83.16
247.266	84.16
247.5	80.36
247.733	89.16
247.966	81.16
248.2	83.36
248.433	87.76
248.666	84.16
248.899	81.76
249.133	86.36
249.366	90.36
249.599	89.76
249.832	89.16
250.066	84.76
250.299	76.76
250.532	83.96
250.765	89.16
250.998	77.36
251.231	83.56
251.465	86.76
251.698	85.56
251.931	83.56
252.164	86.76
252.397	89.76
252.63	90.36
252.863	82.16
253.096	92.96
253.329	88.76
253.562	91.96
253.795	93.56
254.028	90.16
254.261	89.16
254.494	85.76
254.727	89.76
254.96	86.76
255.193	87.96
255.426	90.96
255.659	92.16
255.892	93.16
256.124	89.36
256.357	82.96
256.59	93.96
256.823	89.16
257.056	88.36
257.289	97.96
257.521	94.56
257.754	92.76
257.987	87.56
258.22	96.56
258.452	98.16
258.685	91.76
258.918	87.56
259.151	95.16
259.383	91.56
259.616	93.56
259.849	90.76
260.081	94.56
260.314	90.96
260.547	92.16
260.779	99.96
261.012	102.76
261.244	108.76
261.477	121.16
261.71	111.16
261.942	101.16
262.175	92.36
262.407	93.56
262.64	92.76
262.872	95.76
263.105	100.16
263.337	95.56
263.57	90.96
263.802	93.96
264.035	92.56
264.267	91.96
264.499	85.96
264.732	94.56
264.964	95.56
265.197	100.36
265.429	93.76
265.661	90.76
265.894	91.96
266.126	103.36
266.358	98.36
266.591	100.36
266.823	102.16
267.055	90.96
267.287	91.16
267.52	93.56
267.752	97.96
267.984	93.76
268.216	92.36
268.448	97.56
268.681	93.96
268.913	87.36
269.145	93.16
269.377	92.16
269.609	85.76
269.841	102.56
270.073	97.36
270.306	97.76
270.538	92.96
270.77	89.76
271.002	89.96
271.234	90.96
271.466	93.16
271.698	91.16
271.93	90.96
272.162	98.96
272.394	97.96
272.626	85.36
272.858	95.76
273.09	89.76
273.322	91.56
273.553	93.16
273.785	94.36
274.017	94.16
274.249	87.76
274.481	90.16
274.713	90.16
274.945	87.96
275.176	84.76
275.408	97.36
275.64	88.16
275.872	92.56
276.104	95.16
276.335	90.16
276.567	95.76
276.799	98.16
277.031	92.16
277.262	94.96
277.494	97.16
277.726	90.96
277.957	97.36
278.189	90.96
278.421	95.96
278.652	92.96
278.884	98.76
279.115	100.16
279.347	104.16
279.579	112.76
279.81	117.36
280.042	133.56
280.273	146.16
280.505	133.56
280.736	113.56
280.968	110.56
281.199	106.96
281.431	103.36
281.662	96.56
281.894	104.16
282.125	113.56
282.356	121.96
282.588	118.96
282.819	111.56
283.051	108.76
283.282	127.16
283.513	127.56
283.745	119.36
283.976	106.96
284.207	98.56
284.439	103.56
284.67	102.16
284.901	99.36
285.132	96.56
285.364	101.16
285.595	98.16
285.826	100.16
286.057	100.16
286.288	100.96
286.52	105.36
286.751	100.56
286.982	111.16
287.213	108.96
287.444	113.36
287.675	112.96
287.906	99.36
288.138	103.16
288.369	101.36
288.6	100.76
288.831	95.16
289.062	102.16
289.293	96.16
289.524	97.36
289.755	97.96
289.986	103.96
290.217	96.96
290.448	95.16
290.679	93.16
290.91	96.96
291.141	94.16
291.371	97.76
291.602	91.96
291.833	96.76
292.064	97.16
292.295	101.76
292.526	90.96
292.757	97.36
292.987	100.56
293.218	94.76
293.449	98.96
293.68	96.16
293.91	96.16
294.141	95.56
294.372	93.36
294.603	102.56
294.833	101.76
295.064	96.56
295.295	98.56
295.525	98.56
295.756	99.16
295.987	89.36
296.217	96.96
296.448	100.16
296.679	97.96
296.909	103.16
297.14	97.96
297.37	96.16
297.601	94.56
297.831	93.76
298.062	99.76
298.292	97.96
298.523	99.56
298.753	97.96
298.984	100.56
299.214	93.36
299.445	99.16
299.675	97.16
299.905	95.56
300.136	90.76
300.366	93.36
300.597	98.36
300.827	95.76
301.057	93.76
301.288	93.76
301.518	102.16
301.748	100.16
301.979	115.76
302.209	96.96
302.439	99.16
302.669	94.16
302.9	102.56
303.13	103.56
303.36	95.16
303.59	98.96
303.82	97.56
304.051	102.36
304.281	103.16
304.511	103.96
304.741	100.16
304.971	97.76
305.201	95.16
305.431	102.56
305.661	97.56
305.891	102.56
306.121	98.96
306.352	97.16
306.582	98.56
306.812	98.36
307.042	98.96
307.272	103.96
307.502	94.56
307.731	95.16
307.961	95.56
308.191	92.16
308.421	99.96
308.651	95.76
308.881	103.16
309.111	100.96
309.341	96.16
309.571	97.96
309.8	101.96
310.03	97.76
310.26	104.36
310.49	103.96
310.72	97.76
310.949	99.56
311.179	105.96
311.409	101.36
311.639	97.76
311.868	100.16
312.098	102.16
312.328	111.96
312.557	99.76
312.787	107.36
313.017	106.96
313.246	111.16
313.476	108.96
313.706	103.96
313.935	102.16
314.165	105.16
314.394	99.76
314.624	110.76
314.853	103.96
315.083	103.96
315.312	104.96
315.542	99.76
315.771	106.36
316.001	108.16
316.23	102.16
316.46	99.56
316.689	93.76
316.919	106.16
317.148	101.96
317.377	99.36
317.607	101.56
317.836	105.16
318.065	102.96
318.295	100.56
318.524	98.56
318.753	104.56
318.983	103.96
319.212	105.36
319.441	98.56
319.67	101.76
319.9	98.76
320.129	98.96
320.358	101.16
320.587	95.96
320.816	101.36
321.046	96.96
321.275	99.76
321.504	103.76
321.733	100.96
321.962	101.76
322.191	96.36
322.42	102.56
322.649	101.76
322.878	105.56
323.108	103.96
323.337	99.96
323.566	100.16
323.795	104.96
324.024	97.36
324.253	104.96
324.482	102.76
324.71	96.76
324.939	96.16
325.168	98.16
325.397	101.16
325.626	105.96
325.855	101.76
326.084	96.36
326.313	92.96
326.542	92.96
326.77	99.16
326.999	96.56
327.228	94.16
327.457	101.36
327.686	103.76
327.914	106.16
328.143	106.36
328.372	98.16
328.6	104.16
328.829	100.36
329.058	95.96
329.287	103.36
329.515	103.96
329.744	107.16
329.972	93.76
330.201	101.96
330.43	100.16
330.658	98.96
330.887	105.56
331.115	105.96
331.344	103.16
331.572	105.16
331.801	102.36
332.03	99.36
332.258	99.96
332.486	101.56
332.715	98.36
332.943	102.96
333.172	105.56
333.4	104.76
333.629	101.76
333.857	100.96
334.085	98.16
334.314	100.56
334.542	96.16
334.771	102.76
334.999	99.36
335.227	100.76
335.455	98.96
335.684	107.76
335.912	100.16
336.14	99.76
336.369	101.56
336.597	98.36
336.825	91.76
337.053	95.16
337.281	94.76
337.51	100.16
337.738	112.16
337.966	102.96
338.194	97.76
338.422	101.36
338.65	100.76
338.878	104.96
339.106	100.76
339.334	104.56
339.562	100.16
339.79	104.96
340.018	99.16
340.246	91.56
340.474	105.76
340.702	99.56
340.93	96.56
341.158	93.76
341.386	94.96
341.614	105.76
341.842	101.96
342.07	98.16
342.298	102.16
342.526	96.56
342.754	100.56
342.981	102.76
343.209	99.76
343.437	109.96
343.665	101.76
343.893	99.36
344.12	98.96
344.348	99.36
344.576	94.16
344.804	98.76
345.031	98.76
345.259	101.36
345.487	100.76
345.714	100.96
345.942	97.16
346.17	104.96
346.397	103.76
346.625	101.56
346.853	101.76
347.08	96.76
347.308	105.96
347.535	104.36
347.763	94.56
347.99	99.76
348.218	97.36
348.445	95.16
348.673	97.16
348.9	105.16
349.128	102.16
349.355	93.36
349.583	102.36
349.81	99.96
350.037	93.56
350.265	96.96
350.492	99.96
350.72	95.16
350.947	99.76
351.174	104.16
351.402	100.96
351.629	99.36
351.856	101.56
352.083	101.16
352.311	97.56
352.538	97.36
352.765	100.16
352.992	105.76
353.22	100.56
353.447	98.96
353.674	99.36
353.901	101.16
354.128	97.16
354.355	105.16
354.583	107.96
354.81	101.36
355.037	97.76
355.264	104.96
355.491	99.16
355.718	105.76
355.945	102.16
356.172	111.36
356.399	99.96
356.626	109.36
356.853	118.36
357.08	137.76
357.307	159.76
357.534	156.96
357.761	129.36
357.988	125.76
358.215	120.76
358.441	110.56
358.668	112.16
358.895	109.96
359.122	102.36
359.349	102.76
359.576	106.16
359.802	106.76
360.029	96.76
360.256	103.56
360.483	101.76
360.709	97.36
360.936	103.76
361.163	104.56
361.39	103.36
361.616	105.56
361.843	106.16
362.07	103.76
362.296	104.56
362.523	101.36
362.749	100.16
362.976	105.56
363.203	116.76
363.429	114.16
363.656	139.76
363.882	163.36
364.109	186.56
364.335	150.76
364.562	118.96
364.788	109.76
365.015	113.96
365.241	111.96
365.468	110.16
365.694	107.56
365.92	107.56
366.147	102.56
366.373	101.36
366.599	108.16
366.826	111.36
367.052	120.36
367.278	122.96
367.505	117.36
367.731	134.76
367.957	144.16
368.184	181.16
368.41	214.96
368.636	196.96
368.862	151.56
369.089	129.16
369.315	120.16
369.541	116.56
369.767	109.76
369.993	110.36
370.219	110.56
370.445	108.36
370.672	111.96
370.898	109.56
371.124	102.16
371.35	104.96
371.576	108.56
371.802	107.96
372.028	107.56
372.254	103.96
372.48	105.36
372.706	106.16
372.932	97.56
373.158	104.16
373.384	112.36
373.61	121.36
373.835	141.96
374.061	160.56
374.287	148.36
374.513	132.96
374.739	115.36
374.965	107.36
375.191	107.76
375.416	103.96
375.642	119.36
375.868	105.36
376.094	101.96
376.319	101.36
376.545	102.56
376.771	108.96
376.997	102.16
377.222	98.36
377.448	106.56
377.674	107.56
377.899	106.36
378.125	99.76
378.35	104.56
378.576	105.36
378.802	100.56
379.027	104.76
379.253	103.56
379.478	104.36
379.704	103.56
379.929	100.16
380.155	100.36
380.38	100.76
380.606	97.36
380.831	104.76
381.057	104.56
381.282	102.76
381.507	102.36
381.733	101.76
381.958	109.16
382.184	100.56
382.409	100.56
382.634	111.56
382.86	100.56
383.085	104.96
383.31	106.56
383.535	101.56
383.761	103.56
383.986	107.76
384.211	102.76
384.436	104.36
384.662	110.56
384.887	102.76
385.112	102.76
385.337	102.56
385.562	102.96
385.787	116.16
386.013	98.36
386.238	107.96
386.463	107.56
386.688	112.16
386.913	110.36
387.138	99.76
387.363	106.96
387.588	104.96
387.813	102.76
388.038	108.56
388.263	101.96
388.488	109.16
388.713	100.16
388.938	104.16
389.163	97.76
389.387	105.36
389.612	98.76
389.837	101.36
390.062	103.36
390.287	111.56
390.512	106.96
390.736	98.96
390.961	98.76
391.186	102.16
391.411	101.96
391.636	100.36
391.86	104.16
392.085	103.56
392.31	105.56
392.534	102.36
392.759	101.36
392.984	105.56
393.208	101.96
393.433	101.16
393.658	104.36
393.882	100.96
394.107	103.56
394.331	100.36
394.556	99.56
394.78	105.56
395.005	101.16
395.229	109.56
395.454	110.36
395.678	104.56
395.903	109.96
396.127	108.16
396.352	104.56
396.576	106.36
396.801	96.36
397.025	101.56
397.249	104.36
397.474	107.36
397.698	110.76
397.922	109.96
398.147	107.96
398.371	104.76
398.595	104.96
398.82	107.16
399.044	106.36
399.268	108.56
399.492	108.96
399.717	114.96
399.941	112.16
400.165	110.76
400.389	109.56
400.613	119.16
400.837	107.76
401.062	114.96
401.286	111.76
401.51	109.96
401.734	118.16
401.958	116.16
402.182	115.76
402.406	112.56
402.63	107.56
402.854	109.36
403.078	116.76
403.302	114.56
403.526	109.76
403.75	113.76
403.974	111.76
404.198	108.16
404.422	113.16
404.645	114.96
404.869	122.56
405.093	128.36
405.317	147.96
405.541	189.76
405.765	266.76
405.988	291.36
406.212	222.56
406.436	166.16
406.66	143.96
406.883	134.36
407.107	132.16
407.331	126.36
407.555	119.76
407.778	120.76
408.002	121.56
408.226	112.56
408.449	113.76
408.673	105.76
408.896	110.56
409.12	108.76
409.344	109.96
409.567	112.96
409.791	110.36
410.014	117.56
410.238	116.76
410.461	112.56
410.685	98.96
410.908	105.96
411.132	107.16
411.355	107.56
411.578	115.56
411.802	103.76
412.025	108.56
412.249	107.16
412.472	105.96
412.695	112.36
412.919	107.76
413.142	109.36
413.365	110.56
413.589	114.16
413.812	107.96
414.035	113.16
414.258	112.76
414.482	111.96
414.705	101.56
414.928	105.56
415.151	105.76
415.374	102.76
415.597	103.96
415.821	108.16
416.044	108.96
416.267	109.36
416.49	105.56
416.713	108.56
416.936	111.76
417.159	113.16
417.382	105.56
417.605	103.56
417.828	112.16
418.051	112.56
418.274	106.56
418.497	110.76
418.72	101.56
418.943	111.16
419.166	114.96
419.389	114.36
419.611	111.36
419.834	112.76
420.057	110.16
420.28	110.56
420.503	107.16
420.726	110.96
420.948	109.36
421.171	111.56
421.394	109.96
421.617	116.16
421.839	113.36
422.062	113.56
422.285	110.16
422.507	108.36
422.73	117.56
422.953	121.76
423.175	116.36
423.398	123.76
423.621	128.36
423.843	128.16
424.066	137.96
424.288	147.56
424.511	160.76
424.733	176.96
424.956	160.36
425.178	154.76
425.401	149.36
425.623	140.36
425.846	124.56
426.068	124.76
426.291	131.76
426.513	126.36
426.735	114.96
426.958	117.76
427.18	117.96
427.402	115.16
427.625	115.16
427.847	117.76
428.069	116.96
428.292	108.96
428.514	114.96
428.736	111.76
428.958	111.56
429.181	111.56
429.403	115.16
429.625	112.96
429.847	106.16
430.069	107.76
430.292	112.36
430.514	113.56
430.736	117.56
430.958	103.56
431.18	107.36
431.402	115.16
431.624	113.36
431.846	113.36
432.068	113.76
432.29	107.76
432.512	108.16
432.734	109.16
432.956	109.56
433.178	114.16
433.4	116.76
433.622	112.36
433.844	113.76
434.066	121.96
434.287	118.96
434.509	109.56
434.731	111.56
434.953	110.96
435.175	118.76
435.397	112.76
435.618	113.16
435.84	109.56
436.062	111.76
436.284	111.36
436.505	112.56
436.727	115.96
436.949	115.56
437.17	112.56
437.392	120.16
437.614	118.76
437.835	120.16
438.057	126.96
438.278	131.96
438.5	151.56
438.721	166.36
438.943	166.56
439.165	159.36
439.386	142.76
439.608	146.16
439.829	137.36
440.05	133.36
440.272	139.76
440.493	131.76
440.715	135.76
440.936	142.36
441.158	140.96
441.379	134.76
441.6	127.96
441.822	131.56
442.043	127.56
442.264	120.96
442.486	116.36
442.707	120.16
442.928	120.16
443.149	115.96
443.371	114.56
443.592	123.76
443.813	118.76
444.034	119.16
444.255	119.96
444.476	118.76
444.698	113.56
444.919	117.16
445.14	187.96
445.361	158.56
445.582	128.16
445.803	118.36
446.024	119.16
446.245	119.76
446.466	115.56
446.687	113.56
446.908	116.16
447.129	105.56
447.35	110.16
447.571	106.36
447.792	114.56
448.013	104.96
448.234	112.96
448.455	114.96
448.675	107.76
448.896	109.16
449.117	112.16
449.338	109.96
449.559	119.16
449.779	114.56
450	109.56
450.221	109.96
450.442	112.36
450.662	110.56
450.883	108.76
451.104	106.16
451.324	101.96
451.545	104.76
451.766	106.36
451.986	104.36
452.207	106.16
452.428	110.56
452.648	105.76
452.869	109.16
453.089	110.36
453.31	106.56
453.53	104.16
453.751	107.76
453.971	110.76
454.192	102.56
454.412	104.56
454.633	105.56
454.853	110.16
455.073	104.56
455.294	110.56
455.514	110.76
455.734	110.36
455.955	104.56
456.175	107.56
456.395	102.36
456.616	103.96
456.836	104.36
457.056	102.76
457.276	106.96
457.497	103.36
457.717	107.76
457.937	107.56
458.157	105.76
458.377	108.76
458.598	101.16
458.818	100.36
459.038	108.16
459.258	108.96
459.478	104.56
459.698	105.36
459.918	104.16
460.138	102.16
460.358	108.96
460.578	106.76
460.798	115.36
461.018	103.36
461.238	108.96
461.458	113.56
461.678	99.96
461.898	108.96
462.118	108.36
462.338	109.96
462.558	111.76
462.777	110.16
462.997	113.76
463.217	109.36
463.437	109.36
463.657	111.16
463.876	107.56
464.096	107.96
464.316	107.76
464.536	117.16
464.755	114.36
464.975	113.56
465.195	110.96
465.414	108.16
465.634	106.76
465.854	109.56
466.073	113.56
466.293	106.56
466.512	104.96
466.732	106.96
466.951	113.56
467.171	105.36
467.391	108.76
467.61	112.76
467.829	103.56
468.049	105.76
468.268	107.56
468.488	106.96
468.707	105.36
468.927	103.76
469.146	107.16
469.365	108.56
469.585	106.16
469.804	107.16
470.023	111.56
470.243	108.76
470.462	111.96
470.681	113.56
470.901	103.76
471.12	110.96
471.339	107.56
471.558	104.16
471.777	108.96
471.997	102.16
472.216	100.16
472.435	103.16
472.654	108.36
472.873	110.96
473.092	107.96
473.311	109.76
473.53	108.56
473.749	104.36
473.968	104.76
474.187	107.36
474.406	104.56
474.625	109.76
474.844	109.56
475.063	107.76
475.282	107.96
475.501	101.56
475.72	107.16
475.939	104.96
476.158	111.56
476.377	108.16
476.596	102.36
476.814	107.76
477.033	111.56
477.252	108.76
477.471	108.16
477.69	114.36
477.908	109.56
478.127	114.36
478.346	119.96
478.564	113.96
478.783	117.56
479.002	122.16
479.22	112.76
479.439	112.16
479.658	124.76
479.876	110.76
480.095	109.76
480.313	112.76
480.532	115.36
480.751	120.36
480.969	111.96
481.188	110.76
481.406	115.16
481.624	114.76
481.843	112.96
482.061	114.76
482.28	111.56
482.498	109.56
482.717	108.16
482.935	111.96
483.153	116.16
483.372	113.36
483.59	116.76
483.808	108.96
484.027	113.76
484.245	113.96
484.463	116.36
484.681	114.56
484.9	113.36
485.118	107.76
485.336	114.76
485.554	108.16
485.772	113.96
485.99	110.56
486.209	118.96
486.427	109.96
486.645	108.36
486.863	107.96
487.081	117.16
487.299	111.56
487.517	118.16
487.735	119.36
487.953	121.76
488.171	123.16
488.389	119.16
488.607	118.56
488.825	111.36
489.043	111.96
489.261	113.16
489.479	115.36
489.696	112.96
489.914	120.36
490.132	116.96
490.35	117.56
490.568	120.76
490.786	116.76
491.003	114.96
491.221	119.36
491.439	117.56
491.657	109.96
491.874	119.96
492.092	122.16
492.31	121.56
492.527	116.36
492.745	112.96
492.963	113.56
493.18	124.76
493.398	118.76
493.615	117.76
493.833	121.36
494.05	116.96
494.268	116.96
494.485	113.56
494.703	110.76
494.92	118.56
495.138	118.56
495.355	123.96
495.573	127.36
495.79	126.96
496.008	118.76
496.225	115.16
496.442	115.76
496.66	122.16
496.877	121.36
497.094	120.96
497.312	115.96
497.529	114.76
497.746	120.36
497.963	115.56
498.181	110.56
498.398	119.36
498.615	115.36
498.832	116.36
499.049	122.76
499.267	122.76
499.484	127.96
499.701	120.96
499.918	129.56
500.135	134.76
500.352	139.56
500.569	147.96
500.786	160.56
501.003	145.96
501.22	138.56
501.437	131.36
501.654	129.76
501.871	130.56
502.088	123.56
502.305	125.36
502.522	124.76
502.739	123.96
502.956	123.76
503.172	121.16
503.389	131.36
503.606	118.36
503.823	128.36
504.04	125.96
504.256	133.56
504.473	127.36
504.69	128.36
504.907	129.16
505.123	127.16
505.34	126.36
505.557	124.76
505.773	125.76
505.99	124.36
506.207	117.16
506.423	117.96
506.64	119.96
506.856	117.36
507.073	114.36
507.289	117.16
507.506	118.96
507.722	116.16
