Data from ZeroMicroDelayPb_HRD10591_00015.txt Node
Date: Mon Nov 24 14:26:00 EST 2025
User: Yrep
Spectrometer: HR+D1059
Trigger mode: 0
Integration Time (sec): 1.000000E-1
Scans to average: 5
Electric dark correction enabled: true
Nonlinearity correction enabled: false
Boxcar width: 0
XAxis mode: Wavelengths
Number of Pixels in Spectrum: 2048
>>>>>Begin Spectral Data<<<<<
223.165	-8.64
223.4	-8.64
223.635	-8.64
223.869	-18.84
224.104	-18.44
224.338	-13.64
224.573	-15.24
224.808	-16.04
225.042	-12.64
225.277	-5.24
225.511	0.56
225.746	3.16
225.98	8.36
226.215	14.36
226.449	13.76
226.683	10.76
226.918	23.56
227.152	34.16
227.387	32.76
227.621	36.56
227.856	45.16
228.09	53.96
228.324	56.56
228.559	54.36
228.793	57.16
229.027	58.76
229.262	70.76
229.496	71.96
229.73	67.56
229.964	76.16
230.199	75.36
230.433	76.76
230.667	76.16
230.901	75.36
231.136	80.96
231.37	87.76
231.604	74.76
231.838	84.36
232.072	78.56
232.306	82.96
232.541	80.56
232.775	86.96
233.009	79.16
233.243	84.56
233.477	81.56
233.711	83.56
233.945	80.96
234.179	85.56
234.413	81.76
234.647	81.16
234.881	81.36
235.115	82.36
235.349	82.36
235.583	80.36
235.817	79.56
236.051	75.16
236.285	79.16
236.519	77.16
236.753	86.36
236.987	84.16
237.221	77.16
237.455	77.36
237.689	80.56
237.922	76.36
238.156	74.36
238.39	76.96
238.624	75.56
238.858	82.16
239.091	78.76
239.325	78.56
239.559	76.96
239.793	86.96
240.027	81.56
240.26	84.16
240.494	85.96
240.728	85.16
240.961	86.56
241.195	79.96
241.429	78.76
241.662	80.36
241.896	79.36
242.13	86.36
242.363	79.16
242.597	84.96
242.83	75.16
243.064	85.96
243.298	80.36
243.531	85.56
243.765	81.96
243.998	78.96
244.232	88.96
244.465	90.36
244.699	83.16
244.932	82.16
245.166	81.96
245.399	78.96
245.633	81.36
245.866	78.96
246.099	83.36
246.333	80.56
246.566	81.96
246.8	82.36
247.033	86.96
247.266	80.96
247.5	87.96
247.733	88.56
247.966	87.56
248.2	90.16
248.433	80.76
248.666	84.76
248.899	88.56
249.133	86.76
249.366	89.96
249.599	87.76
249.832	81.16
250.066	91.16
250.299	94.16
250.532	90.56
250.765	88.56
250.998	83.16
251.231	92.16
251.465	86.36
251.698	83.96
251.931	83.96
252.164	94.16
252.397	84.56
252.63	89.96
252.863	91.16
253.096	89.16
253.329	87.76
253.562	84.96
253.795	83.96
254.028	90.76
254.261	85.76
254.494	93.16
254.727	89.16
254.96	89.36
255.193	88.16
255.426	92.56
255.659	89.16
255.892	95.36
256.124	85.96
256.357	90.56
256.59	95.16
256.823	94.56
257.056	91.76
257.289	85.76
257.521	87.56
257.754	93.96
257.987	92.16
258.22	93.16
258.452	87.36
258.685	90.96
258.918	90.96
259.151	88.36
259.383	95.56
259.616	85.56
259.849	91.16
260.081	90.56
260.314	95.96
260.547	101.76
260.779	98.76
261.012	105.76
261.244	110.16
261.477	117.96
261.71	117.36
261.942	110.36
262.175	102.56
262.407	95.76
262.64	93.16
262.872	93.36
263.105	85.36
263.337	90.76
263.57	93.76
263.802	88.36
264.035	96.36
264.267	88.76
264.499	92.16
264.732	99.36
264.964	96.36
265.197	104.16
265.429	95.76
265.661	94.16
265.894	94.56
266.126	100.36
266.358	98.96
266.591	106.16
266.823	100.96
267.055	93.56
267.287	99.56
267.52	95.76
267.752	93.76
267.984	96.36
268.216	89.36
268.448	92.76
268.681	91.16
268.913	92.56
269.145	93.36
269.377	93.96
269.609	92.96
269.841	98.76
270.073	89.36
270.306	96.16
270.538	90.76
270.77	93.76
271.002	94.76
271.234	95.76
271.466	91.76
271.698	87.96
271.93	95.76
272.162	90.96
272.394	90.96
272.626	88.56
272.858	91.76
273.09	99.76
273.322	92.96
273.553	91.36
273.785	90.56
274.017	95.16
274.249	91.36
274.481	94.16
274.713	94.36
274.945	88.76
275.176	83.36
275.408	92.16
275.64	90.76
275.872	94.76
276.104	92.16
276.335	97.56
276.567	91.76
276.799	90.36
277.031	91.76
277.262	100.16
277.494	93.56
277.726	102.16
277.957	103.76
278.189	97.96
278.421	102.56
278.652	95.96
278.884	98.56
279.115	99.96
279.347	111.36
279.579	109.16
279.81	124.36
280.042	132.36
280.273	140.56
280.505	137.16
280.736	121.56
280.968	117.16
281.199	113.36
281.431	103.96
281.662	104.36
281.894	115.76
282.125	105.36
282.356	110.56
282.588	113.76
282.819	104.56
283.051	109.96
283.282	124.56
283.513	127.56
283.745	115.36
283.976	106.76
284.207	103.36
284.439	100.56
284.67	99.36
284.901	93.76
285.132	100.36
285.364	104.36
285.595	94.16
285.826	97.96
286.057	102.16
286.288	95.76
286.52	107.16
286.751	103.36
286.982	105.76
287.213	109.56
287.444	123.96
287.675	122.56
287.906	103.56
288.138	99.76
288.369	97.36
288.6	96.16
288.831	96.56
289.062	99.36
289.293	99.36
289.524	96.16
289.755	103.36
289.986	100.96
290.217	94.36
290.448	97.36
290.679	104.16
290.91	98.56
291.141	95.96
291.371	97.36
291.602	95.36
291.833	96.76
292.064	100.36
292.295	93.76
292.526	96.56
292.757	88.36
292.987	99.76
293.218	100.56
293.449	93.16
293.68	96.96
293.91	100.76
294.141	103.76
294.372	96.76
294.603	96.16
294.833	88.76
295.064	90.56
295.295	96.56
295.525	93.76
295.756	100.76
295.987	102.56
296.217	98.96
296.448	98.16
296.679	100.16
296.909	101.96
297.14	97.96
297.37	98.56
297.601	99.36
297.831	97.56
298.062	101.56
298.292	95.16
298.523	104.16
298.753	101.16
298.984	97.56
299.214	100.56
299.445	98.36
299.675	96.96
299.905	97.56
300.136	97.16
300.366	96.56
300.597	102.76
300.827	99.36
301.057	100.96
301.288	95.56
301.518	88.96
301.748	98.56
301.979	107.96
302.209	95.76
302.439	97.36
302.669	96.36
302.9	100.36
303.13	99.36
303.36	105.16
303.59	103.36
303.82	96.16
304.051	103.36
304.281	103.16
304.511	99.16
304.741	97.16
304.971	102.76
305.201	98.76
305.431	98.36
305.661	95.16
305.891	99.16
306.121	100.76
306.352	102.96
306.582	91.76
306.812	97.96
307.042	97.76
307.272	100.16
307.502	92.76
307.731	96.36
307.961	92.16
308.191	89.96
308.421	105.96
308.651	101.56
308.881	103.76
309.111	98.96
309.341	101.16
309.571	105.56
309.8	94.36
310.03	97.16
310.26	100.56
310.49	100.16
310.72	104.36
310.949	104.16
311.179	95.56
311.409	100.16
311.639	95.96
311.868	101.76
312.098	103.56
312.328	104.16
312.557	111.36
312.787	104.56
313.017	105.76
313.246	100.16
313.476	100.56
313.706	99.96
313.935	105.56
314.165	106.96
314.394	105.36
314.624	110.56
314.853	106.36
315.083	105.36
315.312	103.56
315.542	107.16
315.771	99.76
316.001	103.16
316.23	101.16
316.46	105.16
316.689	104.96
316.919	98.96
317.148	108.56
317.377	101.76
317.607	106.76
317.836	91.96
318.065	101.16
318.295	105.76
318.524	96.96
318.753	104.36
318.983	104.76
319.212	108.16
319.441	94.96
319.67	97.96
319.9	100.76
320.129	100.76
320.358	99.56
320.587	104.36
320.816	105.16
321.046	104.76
321.275	102.96
321.504	97.56
321.733	95.16
321.962	104.36
322.191	104.96
322.42	96.36
322.649	102.36
322.878	108.16
323.108	103.96
323.337	95.76
323.566	102.56
323.795	101.96
324.024	109.16
324.253	102.16
324.482	110.16
324.71	100.96
324.939	104.96
325.168	97.96
325.397	103.36
325.626	103.76
325.855	96.56
326.084	96.36
326.313	104.36
326.542	101.96
326.77	104.56
326.999	99.16
327.228	102.76
327.457	100.36
327.686	99.36
327.914	97.16
328.143	104.96
328.372	102.56
328.6	99.56
328.829	101.16
329.058	102.36
329.287	101.16
329.515	98.56
329.744	98.76
329.972	99.96
330.201	98.76
330.43	101.76
330.658	93.16
330.887	97.56
331.115	99.96
331.344	106.56
331.572	101.16
331.801	95.96
332.03	98.56
332.258	97.56
332.486	98.56
332.715	102.16
332.943	100.96
333.172	103.76
333.4	104.36
333.629	102.76
333.857	102.96
334.085	102.36
334.314	100.36
334.542	102.76
334.771	97.36
334.999	100.76
335.227	105.16
335.455	101.16
335.684	104.16
335.912	97.16
336.14	101.36
336.369	95.56
336.597	101.96
336.825	100.96
337.053	103.76
337.281	99.36
337.51	98.16
337.738	105.16
337.966	102.16
338.194	99.16
338.422	97.76
338.65	96.36
338.878	102.96
339.106	95.36
339.334	101.16
339.562	102.96
339.79	100.36
340.018	92.56
340.246	101.56
340.474	104.56
340.702	93.16
340.93	100.16
341.158	102.96
341.386	101.76
341.614	93.16
341.842	100.76
342.07	103.16
342.298	105.56
342.526	102.56
342.754	102.76
342.981	102.76
343.209	103.36
343.437	109.76
343.665	98.36
343.893	101.76
344.12	107.96
344.348	103.36
344.576	102.56
344.804	101.96
345.031	102.36
345.259	102.76
345.487	100.16
345.714	106.56
345.942	102.56
346.17	102.16
346.397	99.96
346.625	97.96
346.853	98.56
347.08	101.36
347.308	103.36
347.535	97.16
347.763	103.56
347.99	102.96
348.218	100.36
348.445	101.56
348.673	97.96
348.9	102.56
349.128	98.76
349.355	97.96
349.583	95.96
349.81	99.76
350.037	96.76
350.265	97.36
350.492	106.16
350.72	99.96
350.947	100.56
351.174	93.76
351.402	104.36
351.629	100.16
351.856	108.56
352.083	102.16
352.311	101.56
352.538	99.36
352.765	93.36
352.992	105.76
353.22	104.16
353.447	98.36
353.674	103.56
353.901	103.36
354.128	101.76
354.355	96.36
354.583	102.76
354.81	105.36
355.037	104.16
355.264	102.36
355.491	106.16
355.718	105.76
355.945	107.16
356.172	106.96
356.399	101.96
356.626	106.56
356.853	112.96
357.08	131.56
357.307	154.56
357.534	149.36
357.761	129.76
357.988	121.16
358.215	113.96
358.441	105.96
358.668	102.96
358.895	116.16
359.122	109.96
359.349	101.96
359.576	104.56
359.802	101.96
360.029	102.36
360.256	103.76
360.483	102.36
360.709	110.36
360.936	107.56
361.163	101.36
361.39	110.76
361.616	103.36
361.843	102.96
362.07	103.96
362.296	101.96
362.523	103.36
362.749	106.56
362.976	110.96
363.203	108.76
363.429	109.36
363.656	136.36
363.882	159.16
364.109	171.76
364.335	141.96
364.562	123.16
364.788	110.96
365.015	112.76
365.241	108.16
365.468	109.96
365.694	102.96
365.92	106.36
366.147	105.16
366.373	102.56
366.599	107.36
366.826	112.16
367.052	114.96
367.278	124.76
367.505	123.36
367.731	134.36
367.957	134.16
368.184	165.36
368.41	202.16
368.636	184.76
368.862	140.96
369.089	127.96
369.315	111.96
369.541	116.16
369.767	107.56
369.993	111.36
370.219	101.16
370.445	97.56
370.672	105.16
370.898	109.76
371.124	99.76
371.35	105.36
371.576	100.76
371.802	106.16
372.028	99.16
372.254	103.16
372.48	109.36
372.706	111.56
372.932	109.56
373.158	108.36
373.384	111.76
373.61	126.16
373.835	140.96
374.061	153.36
374.287	154.76
374.513	126.76
374.739	116.36
374.965	106.36
375.191	102.36
375.416	110.96
375.642	109.56
375.868	106.76
376.094	99.96
376.319	103.96
376.545	104.96
376.771	102.96
376.997	104.16
377.222	100.96
377.448	105.16
377.674	109.76
377.899	100.76
378.125	103.16
378.35	104.36
378.576	106.76
378.802	96.36
379.027	99.76
379.253	107.16
379.478	103.56
379.704	100.16
379.929	109.76
380.155	104.96
380.38	101.96
380.606	107.56
380.831	101.76
381.057	104.96
381.282	100.76
381.507	102.36
381.733	101.76
381.958	107.16
382.184	99.36
382.409	103.16
382.634	109.16
382.86	104.16
383.085	105.16
383.31	103.36
383.535	98.96
383.761	110.56
383.986	107.76
384.211	99.16
384.436	108.96
384.662	105.56
384.887	102.56
385.112	107.16
385.337	106.96
385.562	104.36
385.787	101.96
386.013	112.16
386.238	103.36
386.463	104.76
386.688	114.96
386.913	107.76
387.138	103.76
387.363	104.56
387.588	105.36
387.813	102.56
388.038	98.16
388.263	103.16
388.488	108.36
388.713	104.56
388.938	105.16
389.163	107.76
389.387	101.56
389.612	99.76
389.837	102.16
390.062	103.16
390.287	105.16
390.512	99.96
390.736	101.16
390.961	102.56
391.186	109.96
391.411	107.96
391.636	103.76
391.86	96.16
392.085	99.16
392.31	101.36
392.534	114.76
392.759	104.96
392.984	104.56
393.208	102.36
393.433	106.96
393.658	99.96
393.882	102.16
394.107	102.16
394.331	100.96
394.556	99.76
394.78	106.76
395.005	100.36
395.229	107.36
395.454	108.36
395.678	104.56
395.903	104.36
396.127	99.56
396.352	104.76
396.576	104.56
396.801	111.36
397.025	103.96
397.249	105.16
397.474	108.36
397.698	112.16
397.922	115.56
398.147	106.56
398.371	108.16
398.595	102.76
398.82	108.16
399.044	101.16
399.268	105.76
399.492	114.96
399.717	112.56
399.941	105.16
400.165	110.16
400.389	112.36
400.613	113.96
400.837	116.36
401.062	106.76
401.286	106.16
401.51	109.96
401.734	110.56
401.958	116.96
402.182	115.16
402.406	99.56
402.63	108.76
402.854	111.96
403.078	107.56
403.302	108.56
403.526	113.96
403.75	117.36
403.974	101.76
404.198	113.36
404.422	126.76
404.645	115.16
404.869	119.76
405.093	129.76
405.317	147.56
405.541	192.16
405.765	262.76
405.988	284.36
406.212	214.96
406.436	191.16
406.66	149.76
406.883	128.16
407.107	126.76
407.331	119.76
407.555	120.16
407.778	120.76
408.002	115.56
408.226	107.36
408.449	115.56
408.673	113.96
408.896	107.96
409.12	111.36
409.344	112.76
409.567	108.56
409.791	115.56
410.014	107.76
410.238	109.36
410.461	110.16
410.685	109.16
410.908	109.36
411.132	116.36
411.355	105.96
411.578	118.56
411.802	108.16
412.025	110.96
412.249	109.96
412.472	113.16
412.695	106.76
412.919	107.56
413.142	107.36
413.365	108.96
413.589	107.96
413.812	108.16
414.035	107.96
414.258	104.16
414.482	106.36
414.705	112.16
414.928	110.76
415.151	109.36
415.374	105.16
415.597	110.96
415.821	104.36
416.044	106.76
416.267	108.16
416.49	112.96
416.713	113.36
416.936	119.36
417.159	111.96
417.382	108.96
417.605	109.36
417.828	107.36
418.051	116.96
418.274	108.56
418.497	105.96
418.72	103.76
418.943	111.36
419.166	104.96
419.389	108.36
419.611	112.76
419.834	106.56
420.057	109.16
420.28	104.76
420.503	120.36
420.726	110.36
420.948	113.56
421.171	118.56
421.394	112.36
421.617	114.36
421.839	108.76
422.062	113.96
422.285	103.96
422.507	116.76
422.73	114.56
422.953	115.76
423.175	118.76
423.398	125.56
423.621	121.36
423.843	125.36
424.066	129.16
424.288	146.76
424.511	174.36
424.733	173.36
424.956	161.36
425.178	147.36
425.401	137.56
425.623	131.76
425.846	130.76
426.068	126.16
426.291	120.16
426.513	120.36
426.735	121.96
426.958	120.36
427.18	125.56
427.402	124.16
427.625	116.16
427.847	117.16
428.069	117.56
428.292	110.36
428.514	120.96
428.736	111.96
428.958	112.56
429.181	114.56
429.403	118.16
429.625	109.56
429.847	109.56
430.069	108.96
430.292	114.96
430.514	104.16
430.736	110.56
430.958	110.36
431.18	108.96
431.402	105.56
431.624	115.16
431.846	107.16
432.068	110.16
432.29	106.76
432.512	113.36
432.734	105.96
432.956	113.16
433.178	111.56
433.4	113.56
433.622	112.96
433.844	112.56
434.066	120.76
434.287	115.36
434.509	111.76
434.731	115.16
434.953	111.96
435.175	110.76
435.397	106.76
435.618	112.56
435.84	113.56
436.062	115.16
436.284	113.56
436.505	108.76
436.727	116.16
436.949	114.76
437.17	114.56
437.392	119.36
437.614	120.16
437.835	115.56
438.057	120.36
438.278	129.16
438.5	140.76
438.721	164.76
438.943	168.16
439.165	157.16
439.386	146.36
439.608	142.16
439.829	141.36
440.05	133.76
440.272	125.36
440.493	132.56
440.715	140.96
440.936	141.16
441.158	136.76
441.379	135.56
441.6	126.16
441.822	129.96
442.043	123.36
442.264	122.36
442.486	118.96
442.707	110.96
442.928	112.96
443.149	119.96
443.371	122.96
443.592	113.96
443.813	117.36
444.034	118.96
444.255	117.16
444.476	111.16
444.698	121.36
444.919	116.56
445.14	190.96
445.361	153.36
445.582	114.36
445.803	114.76
446.024	120.16
446.245	117.16
446.466	114.56
446.687	108.96
446.908	115.36
447.129	113.16
447.35	114.36
447.571	115.96
447.792	112.96
448.013	115.76
448.234	110.36
448.455	104.16
448.675	108.76
448.896	116.76
449.117	109.36
449.338	110.36
449.559	110.76
449.779	110.36
450	113.56
450.221	107.96
450.442	104.16
450.662	110.96
450.883	111.76
451.104	110.56
451.324	109.56
451.545	109.36
451.766	109.16
451.986	113.76
452.207	101.16
452.428	108.96
452.648	112.16
452.869	106.76
453.089	108.36
453.31	112.36
453.53	102.36
453.751	107.76
453.971	103.16
454.192	108.36
454.412	106.16
454.633	111.76
454.853	110.56
455.073	104.96
455.294	105.56
455.514	107.96
455.734	107.96
455.955	101.96
456.175	99.16
456.395	105.36
456.616	104.56
456.836	106.96
457.056	107.16
457.276	109.16
457.497	100.16
457.717	103.56
457.937	101.36
458.157	115.56
458.377	103.56
458.598	107.96
458.818	106.56
459.038	111.96
459.258	113.76
459.478	108.96
459.698	108.16
459.918	109.36
460.138	104.16
460.358	99.56
460.578	107.16
460.798	111.76
461.018	109.76
461.238	116.76
461.458	104.36
461.678	110.16
461.898	103.16
462.118	108.56
462.338	103.16
462.558	114.16
462.777	106.16
462.997	107.36
463.217	109.16
463.437	106.96
463.657	111.76
463.876	108.36
464.096	107.76
464.316	100.96
464.536	106.76
464.755	110.96
464.975	113.16
465.195	109.16
465.414	104.76
465.634	102.76
465.854	108.96
466.073	109.56
466.293	104.56
466.512	112.76
466.732	106.96
466.951	103.76
467.171	114.56
467.391	101.76
467.61	105.36
467.829	103.56
468.049	104.16
468.268	105.16
468.488	106.56
468.707	105.56
468.927	102.56
469.146	110.96
469.365	107.36
469.585	108.16
469.804	112.76
470.023	105.36
470.243	108.76
470.462	109.76
470.681	103.56
470.901	104.96
471.12	107.96
471.339	109.96
471.558	107.76
471.777	106.96
471.997	110.16
472.216	110.76
472.435	108.76
472.654	109.16
472.873	111.36
473.092	111.36
473.311	107.16
473.53	105.16
473.749	107.36
473.968	113.56
474.187	109.56
474.406	103.36
474.625	106.36
474.844	109.36
475.063	107.96
475.282	112.56
475.501	112.36
475.72	109.16
475.939	107.16
476.158	106.96
476.377	108.16
476.596	115.36
476.814	115.56
477.033	106.96
477.252	118.96
477.471	116.16
477.69	111.56
477.908	107.76
478.127	111.76
478.346	113.16
478.564	115.16
478.783	106.96
479.002	118.56
479.22	113.56
479.439	122.76
479.658	116.16
479.876	107.76
480.095	106.56
480.313	116.96
480.532	113.96
480.751	112.96
480.969	108.16
481.188	118.56
481.406	106.56
481.624	107.36
481.843	113.56
482.061	107.16
482.28	107.76
482.498	104.16
482.717	106.76
482.935	106.56
483.153	118.16
483.372	114.76
483.59	111.56
483.808	107.76
484.027	113.36
484.245	109.16
484.463	110.36
484.681	107.76
484.9	108.56
485.118	112.76
485.336	113.16
485.554	108.76
485.772	110.36
485.99	110.96
486.209	108.76
486.427	116.76
486.645	109.76
486.863	108.56
487.081	105.36
487.299	115.96
487.517	114.16
487.735	126.16
487.953	116.76
488.171	113.56
488.389	114.36
488.607	113.36
488.825	113.56
489.043	115.36
489.261	118.96
489.479	112.56
489.696	113.56
489.914	116.96
490.132	111.36
490.35	119.96
490.568	110.96
490.786	113.56
491.003	122.96
491.221	125.76
491.439	124.96
491.657	113.56
491.874	123.56
492.092	114.36
492.31	125.16
492.527	124.36
492.745	114.96
492.963	123.16
493.18	116.96
493.398	121.96
493.615	121.36
493.833	118.76
494.05	112.56
494.268	117.36
494.485	123.96
494.703	116.36
494.92	118.16
495.138	117.36
495.355	129.56
495.573	125.16
495.79	120.36
496.008	117.36
496.225	115.76
496.442	115.56
496.66	117.56
496.877	122.16
497.094	123.76
497.312	109.96
497.529	125.36
497.746	114.56
497.963	122.96
498.181	123.56
498.398	121.76
498.615	123.96
498.832	121.16
499.049	124.76
499.267	125.76
499.484	126.16
499.701	128.36
499.918	136.96
500.135	127.36
500.352	133.96
500.569	150.36
500.786	161.56
501.003	142.36
501.22	129.96
501.437	131.16
501.654	132.56
501.871	127.96
502.088	120.76
502.305	131.96
502.522	125.96
502.739	125.56
502.956	126.76
503.172	126.76
503.389	119.36
503.606	119.16
503.823	118.96
504.04	126.36
504.256	128.76
504.473	130.56
504.69	130.36
504.907	134.36
505.123	132.96
505.34	128.76
505.557	130.16
505.773	121.96
505.99	123.56
506.207	121.16
506.423	122.36
506.64	119.36
506.856	124.76
507.073	120.16
507.289	114.76
507.506	116.76
