Data from ZeroMicroDelayPb_HRD10591_00008.txt Node
Date: Mon Nov 24 14:25:56 EST 2025
User: Yrep
Spectrometer: HR+D1059
Trigger mode: 0
Integration Time (sec): 1.000000E-1
Scans to average: 5
Electric dark correction enabled: true
Nonlinearity correction enabled: false
Boxcar width: 0
XAxis mode: Wavelengths
Number of Pixels in Spectrum: 2048
>>>>>Begin Spectral Data<<<<<
223.165	-17.56
223.4	-17.56
223.635	-17.56
223.869	-14.96
224.104	-18.36
224.338	-18.96
224.573	-15.96
224.808	-12.16
225.042	-7.96
225.277	-10.96
225.511	5.44
225.746	4.24
225.98	11.24
226.215	12.04
226.449	14.64
226.683	15.04
226.918	20.44
227.152	33.84
227.387	38.84
227.621	39.24
227.856	47.64
228.09	45.44
228.324	51.04
228.559	57.64
228.793	64.64
229.027	70.84
229.262	68.64
229.496	66.64
229.73	74.84
229.964	80.44
230.199	74.64
230.433	70.64
230.667	80.44
230.901	70.44
231.136	80.84
231.37	82.64
231.604	84.04
231.838	82.84
232.072	84.84
232.306	86.04
232.541	83.84
232.775	83.84
233.009	82.84
233.243	77.84
233.477	86.64
233.711	85.84
233.945	81.64
234.179	84.84
234.413	82.64
234.647	84.84
234.881	79.84
235.115	88.04
235.349	80.84
235.583	81.84
235.817	82.24
236.051	84.44
236.285	78.44
236.519	86.44
236.753	79.24
236.987	77.64
237.221	73.04
237.455	77.04
237.689	78.84
237.922	81.04
238.156	83.64
238.39	82.44
238.624	82.44
238.858	87.24
239.091	79.64
239.325	80.44
239.559	84.24
239.793	80.04
240.027	85.64
240.26	81.44
240.494	83.84
240.728	76.44
240.961	78.44
241.195	88.84
241.429	82.24
241.662	79.84
241.896	84.64
242.13	76.04
242.363	79.44
242.597	81.04
242.83	76.64
243.064	88.04
243.298	80.04
243.531	85.64
243.765	79.84
243.998	81.84
244.232	82.64
244.465	78.84
244.699	82.84
244.932	77.64
245.166	82.44
245.399	78.04
245.633	80.04
245.866	84.84
246.099	80.04
246.333	87.04
246.566	78.04
246.8	79.84
247.033	85.04
247.266	86.64
247.5	80.24
247.733	85.84
247.966	89.24
248.2	82.24
248.433	82.44
248.666	84.84
248.899	82.24
249.133	83.64
249.366	83.44
249.599	82.64
249.832	82.84
250.066	83.84
250.299	84.04
250.532	79.84
250.765	85.64
250.998	84.44
251.231	86.84
251.465	88.84
251.698	86.24
251.931	89.84
252.164	93.84
252.397	93.24
252.63	91.04
252.863	87.84
253.096	86.84
253.329	85.24
253.562	89.44
253.795	88.44
254.028	88.44
254.261	85.24
254.494	85.04
254.727	92.04
254.96	88.84
255.193	84.24
255.426	84.24
255.659	88.24
255.892	91.04
256.124	91.84
256.357	91.64
256.59	88.44
256.823	92.04
257.056	91.64
257.289	92.44
257.521	91.24
257.754	97.04
257.987	103.04
258.22	93.24
258.452	95.04
258.685	92.84
258.918	84.84
259.151	83.44
259.383	95.04
259.616	94.04
259.849	94.44
260.081	97.44
260.314	90.04
260.547	89.44
260.779	98.84
261.012	98.44
261.244	106.44
261.477	117.84
261.71	109.64
261.942	106.84
262.175	101.24
262.407	94.24
262.64	93.64
262.872	91.24
263.105	95.04
263.337	94.84
263.57	92.64
263.802	93.84
264.035	96.04
264.267	86.44
264.499	95.84
264.732	97.04
264.964	99.84
265.197	90.64
265.429	91.44
265.661	98.24
265.894	98.24
266.126	98.04
266.358	100.04
266.591	109.24
266.823	101.44
267.055	91.84
267.287	96.04
267.52	93.24
267.752	93.04
267.984	92.44
268.216	90.24
268.448	88.24
268.681	87.44
268.913	86.84
269.145	90.84
269.377	92.44
269.609	93.04
269.841	93.84
270.073	95.84
270.306	89.84
270.538	88.64
270.77	88.64
271.002	97.84
271.234	94.44
271.466	87.64
271.698	87.04
271.93	91.04
272.162	94.24
272.394	94.84
272.626	86.04
272.858	94.24
273.09	89.44
273.322	92.64
273.553	89.44
273.785	95.64
274.017	98.24
274.249	95.04
274.481	88.44
274.713	91.44
274.945	91.64
275.176	96.64
275.408	97.84
275.64	91.44
275.872	89.24
276.104	97.04
276.335	94.44
276.567	93.24
276.799	88.04
277.031	94.64
277.262	94.64
277.494	94.64
277.726	95.24
277.957	98.84
278.189	98.84
278.421	93.84
278.652	97.84
278.884	101.84
279.115	108.24
279.347	110.04
279.579	111.04
279.81	114.64
280.042	131.04
280.273	148.24
280.505	128.64
280.736	120.44
280.968	109.44
281.199	107.84
281.431	102.24
281.662	106.64
281.894	103.44
282.125	113.24
282.356	121.44
282.588	114.64
282.819	109.04
283.051	116.04
283.282	122.44
283.513	135.44
283.745	108.64
283.976	105.64
284.207	97.64
284.439	97.64
284.67	103.84
284.901	99.84
285.132	95.84
285.364	100.04
285.595	95.24
285.826	97.64
286.057	101.24
286.288	101.04
286.52	103.44
286.751	102.44
286.982	112.04
287.213	111.84
287.444	119.44
287.675	117.24
287.906	110.84
288.138	99.44
288.369	100.04
288.6	96.84
288.831	102.84
289.062	97.44
289.293	91.04
289.524	97.44
289.755	100.64
289.986	93.84
290.217	103.24
290.448	91.04
290.679	96.64
290.91	98.04
291.141	95.24
291.371	95.84
291.602	97.24
291.833	92.24
292.064	95.44
292.295	95.64
292.526	99.24
292.757	96.84
292.987	98.44
293.218	96.64
293.449	97.04
293.68	100.84
293.91	99.04
294.141	93.44
294.372	89.64
294.603	104.04
294.833	101.04
295.064	97.44
295.295	99.04
295.525	96.24
295.756	100.04
295.987	96.44
296.217	98.44
296.448	96.04
296.679	94.44
296.909	96.84
297.14	99.84
297.37	109.24
297.601	99.84
297.831	93.64
298.062	97.84
298.292	97.44
298.523	102.64
298.753	91.04
298.984	98.24
299.214	102.24
299.445	100.44
299.675	97.44
299.905	100.44
300.136	98.24
300.366	102.84
300.597	99.44
300.827	99.04
301.057	98.04
301.288	98.64
301.518	101.84
301.748	93.44
301.979	106.04
302.209	98.04
302.439	96.84
302.669	101.64
302.9	101.84
303.13	102.24
303.36	94.24
303.59	100.04
303.82	103.04
304.051	99.84
304.281	98.04
304.511	102.44
304.741	102.04
304.971	99.24
305.201	95.04
305.431	96.44
305.661	101.44
305.891	99.84
306.121	99.24
306.352	93.04
306.582	91.44
306.812	95.24
307.042	95.44
307.272	102.84
307.502	104.64
307.731	97.84
307.961	103.24
308.191	105.64
308.421	101.04
308.651	100.64
308.881	100.64
309.111	93.64
309.341	95.84
309.571	94.44
309.8	97.24
310.03	99.44
310.26	104.04
310.49	106.84
310.72	99.24
310.949	99.04
311.179	104.04
311.409	105.44
311.639	99.84
311.868	104.64
312.098	102.44
312.328	103.44
312.557	99.44
312.787	102.24
313.017	102.04
313.246	101.84
313.476	97.24
313.706	98.44
313.935	103.44
314.165	99.64
314.394	107.44
314.624	112.84
314.853	107.44
315.083	102.64
315.312	100.64
315.542	104.24
315.771	109.04
316.001	103.04
316.23	100.44
316.46	101.24
316.689	108.04
316.919	108.64
317.148	108.24
317.377	108.84
317.607	110.84
317.836	100.44
318.065	102.84
318.295	99.64
318.524	97.84
318.753	104.64
318.983	99.44
319.212	99.24
319.441	100.44
319.67	103.44
319.9	98.04
320.129	96.04
320.358	99.84
320.587	104.64
320.816	100.24
321.046	103.64
321.275	102.64
321.504	96.84
321.733	105.84
321.962	99.24
322.191	102.04
322.42	108.44
322.649	101.64
322.878	100.04
323.108	93.24
323.337	100.24
323.566	99.24
323.795	97.24
324.024	101.84
324.253	101.24
324.482	98.64
324.71	96.04
324.939	101.84
325.168	100.64
325.397	96.24
325.626	101.64
325.855	98.04
326.084	101.44
326.313	105.44
326.542	102.64
326.77	94.24
326.999	98.24
327.228	102.44
327.457	101.04
327.686	103.04
327.914	100.84
328.143	102.84
328.372	102.64
328.6	100.24
328.829	98.24
329.058	104.04
329.287	103.44
329.515	97.04
329.744	103.24
329.972	107.84
330.201	104.84
330.43	102.64
330.658	100.84
330.887	103.04
331.115	99.64
331.344	104.84
331.572	108.04
331.801	104.84
332.03	101.84
332.258	106.44
332.486	93.04
332.715	103.24
332.943	99.44
333.172	98.44
333.4	97.04
333.629	102.84
333.857	105.64
334.085	102.84
334.314	98.24
334.542	104.04
334.771	99.84
334.999	102.64
335.227	103.04
335.455	98.44
335.684	98.84
335.912	104.44
336.14	102.04
336.369	110.64
336.597	95.64
336.825	102.64
337.053	94.84
337.281	93.64
337.51	99.04
337.738	101.84
337.966	96.84
338.194	98.84
338.422	97.24
338.65	108.44
338.878	96.64
339.106	99.04
339.334	103.44
339.562	96.84
339.79	95.64
340.018	98.04
340.246	96.44
340.474	94.04
340.702	97.64
340.93	102.04
341.158	102.64
341.386	98.24
341.614	98.24
341.842	99.04
342.07	99.64
342.298	90.84
342.526	100.64
342.754	95.04
342.981	99.44
343.209	107.84
343.437	111.84
343.665	101.64
343.893	101.24
344.12	103.84
344.348	98.64
344.576	100.24
344.804	101.24
345.031	102.44
345.259	100.24
345.487	109.64
345.714	105.04
345.942	106.84
346.17	102.84
346.397	104.44
346.625	103.84
346.853	98.24
347.08	95.44
347.308	97.84
347.535	96.64
347.763	95.24
347.99	101.24
348.218	98.44
348.445	98.84
348.673	104.24
348.9	101.04
349.128	96.04
349.355	97.64
349.583	97.04
349.81	103.44
350.037	101.84
350.265	98.84
350.492	94.24
350.72	92.04
350.947	93.04
351.174	103.84
351.402	96.44
351.629	96.44
351.856	99.44
352.083	102.04
352.311	104.64
352.538	103.04
352.765	98.04
352.992	103.84
353.22	92.24
353.447	103.64
353.674	104.64
353.901	106.64
354.128	96.44
354.355	101.64
354.583	99.24
354.81	96.64
355.037	104.24
355.264	103.64
355.491	108.04
355.718	100.24
355.945	109.44
356.172	106.84
356.399	106.04
356.626	112.24
356.853	117.84
357.08	142.44
357.307	156.64
357.534	151.64
357.761	133.24
357.988	120.24
358.215	110.04
358.441	109.44
358.668	102.84
358.895	111.24
359.122	104.44
359.349	101.64
359.576	98.04
359.802	104.24
360.029	102.44
360.256	97.04
360.483	100.44
360.709	103.64
360.936	105.84
361.163	105.04
361.39	100.64
361.616	104.84
361.843	105.84
362.07	103.44
362.296	101.24
362.523	103.04
362.749	106.84
362.976	104.84
363.203	111.84
363.429	119.84
363.656	137.64
363.882	163.44
364.109	178.84
364.335	146.24
364.562	124.64
364.788	114.64
365.015	112.44
365.241	116.64
365.468	105.24
365.694	104.24
365.92	104.84
366.147	100.64
366.373	103.84
366.599	108.64
366.826	109.04
367.052	121.24
367.278	126.24
367.505	124.24
367.731	128.84
367.957	142.44
368.184	185.64
368.41	212.24
368.636	194.84
368.862	151.44
369.089	129.44
369.315	116.64
369.541	113.84
369.767	110.24
369.993	114.84
370.219	108.24
370.445	103.44
370.672	106.44
370.898	111.84
371.124	105.24
371.35	98.04
371.576	108.04
371.802	104.84
372.028	108.84
372.254	108.04
372.48	105.24
372.706	108.44
372.932	108.24
373.158	100.84
373.384	116.44
373.61	123.24
373.835	150.84
374.061	157.04
374.287	154.24
374.513	126.04
374.739	122.84
374.965	118.84
375.191	110.24
375.416	107.44
375.642	109.44
375.868	111.84
376.094	103.44
376.319	98.64
376.545	105.24
376.771	108.84
376.997	107.64
377.222	99.84
377.448	101.24
377.674	96.84
377.899	94.84
378.125	106.44
378.35	111.44
378.576	108.24
378.802	102.84
379.027	106.84
379.253	109.84
379.478	102.64
379.704	97.84
379.929	107.64
380.155	101.04
380.38	98.64
380.606	102.64
380.831	104.04
381.057	105.44
381.282	108.04
381.507	105.44
381.733	108.24
381.958	98.24
382.184	96.64
382.409	103.04
382.634	99.84
382.86	106.64
383.085	101.24
383.31	107.24
383.535	104.64
383.761	99.44
383.986	103.64
384.211	101.44
384.436	100.64
384.662	103.24
384.887	98.64
385.112	102.84
385.337	107.04
385.562	103.04
385.787	108.84
386.013	103.84
386.238	109.64
386.463	106.44
386.688	109.84
386.913	103.84
387.138	102.04
387.363	107.04
387.588	100.24
387.813	106.24
388.038	102.64
388.263	102.04
388.488	104.24
388.713	102.44
388.938	104.64
389.163	109.04
389.387	107.84
389.612	101.64
389.837	109.04
390.062	106.04
390.287	103.04
390.512	111.84
390.736	96.64
390.961	99.84
391.186	99.04
391.411	103.84
391.636	102.44
391.86	98.24
392.085	106.44
392.31	107.24
392.534	105.64
392.759	106.44
392.984	105.24
393.208	103.84
393.433	107.44
393.658	106.84
393.882	106.04
394.107	97.44
394.331	96.64
394.556	98.24
394.78	99.64
395.005	104.64
395.229	107.04
395.454	110.04
395.678	96.84
395.903	103.84
396.127	109.84
396.352	110.44
396.576	104.24
396.801	100.04
397.025	103.24
397.249	107.44
397.474	110.84
397.698	107.44
397.922	107.44
398.147	105.24
398.371	107.44
398.595	110.44
398.82	105.64
399.044	105.44
399.268	113.04
399.492	106.04
399.717	113.04
399.941	107.04
400.165	111.64
400.389	110.24
400.613	110.44
400.837	102.84
401.062	113.24
401.286	107.24
401.51	115.84
401.734	109.84
401.958	114.64
402.182	114.44
402.406	104.44
402.63	111.64
402.854	104.44
403.078	109.84
403.302	110.84
403.526	111.84
403.75	110.04
403.974	110.24
404.198	112.84
404.422	114.24
404.645	120.44
404.869	120.04
405.093	123.64
405.317	148.64
405.541	201.04
405.765	279.64
405.988	303.44
406.212	223.24
406.436	177.84
406.66	143.04
406.883	137.24
407.107	121.04
407.331	127.44
407.555	124.04
407.778	116.84
408.002	110.84
408.226	121.04
408.449	115.44
408.673	115.84
408.896	113.64
409.12	108.44
409.344	111.24
409.567	110.04
409.791	115.84
410.014	112.04
410.238	106.44
410.461	104.44
410.685	117.84
410.908	105.64
411.132	108.44
411.355	107.04
411.578	113.64
411.802	116.84
412.025	108.44
412.249	109.64
412.472	120.44
412.695	110.44
412.919	113.24
413.142	108.44
413.365	111.04
413.589	118.04
413.812	109.84
414.035	110.04
414.258	111.44
414.482	115.24
414.705	106.84
414.928	109.64
415.151	104.24
415.374	113.44
415.597	113.04
415.821	109.84
416.044	105.24
416.267	102.24
416.49	107.04
416.713	112.04
416.936	116.04
417.159	113.24
417.382	103.64
417.605	107.24
417.828	114.04
418.051	103.24
418.274	112.04
418.497	105.04
418.72	109.84
418.943	107.04
419.166	111.44
419.389	116.04
419.611	105.24
419.834	110.84
420.057	112.64
420.28	112.84
420.503	113.84
420.726	109.84
420.948	109.64
421.171	111.64
421.394	105.84
421.617	107.04
421.839	106.24
422.062	119.64
422.285	114.24
422.507	114.64
422.73	107.24
422.953	119.84
423.175	114.44
423.398	124.44
423.621	122.44
423.843	133.84
424.066	132.44
424.288	155.24
424.511	163.44
424.733	178.24
424.956	165.24
425.178	148.64
425.401	137.84
425.623	135.04
425.846	130.84
426.068	128.04
426.291	120.84
426.513	121.64
426.735	120.44
426.958	117.84
427.18	123.44
427.402	116.04
427.625	115.24
427.847	115.04
428.069	113.24
428.292	114.84
428.514	116.04
428.736	115.44
428.958	114.44
429.181	109.24
429.403	110.04
429.625	114.64
429.847	105.84
430.069	119.44
430.292	108.44
430.514	111.04
430.736	108.04
430.958	106.24
431.18	110.84
431.402	111.04
431.624	111.24
431.846	111.24
432.068	109.84
432.29	106.24
432.512	110.24
432.734	110.24
432.956	109.44
433.178	114.04
433.4	110.84
433.622	115.24
433.844	113.44
434.066	114.64
434.287	109.44
434.509	113.64
434.731	111.84
434.953	104.84
435.175	113.04
435.397	109.64
435.618	111.64
435.84	112.24
436.062	109.84
436.284	111.04
436.505	111.64
436.727	121.44
436.949	119.84
437.17	120.04
437.392	115.44
437.614	122.44
437.835	122.64
438.057	130.64
438.278	132.24
438.5	144.44
438.721	161.64
438.943	169.24
439.165	161.84
439.386	148.24
439.608	142.44
439.829	130.04
440.05	141.04
440.272	137.84
440.493	132.24
440.715	142.64
440.936	143.24
441.158	138.84
441.379	134.44
441.6	128.64
441.822	124.04
442.043	123.64
442.264	126.84
442.486	120.24
442.707	112.44
442.928	112.64
443.149	118.64
443.371	118.84
443.592	116.44
443.813	118.04
444.034	115.64
444.255	120.44
444.476	116.24
444.698	119.84
444.919	120.24
445.14	189.04
445.361	148.44
445.582	118.44
445.803	112.04
446.024	116.24
446.245	120.64
446.466	121.64
446.687	117.64
446.908	112.24
447.129	110.84
447.35	116.24
447.571	117.04
447.792	114.64
448.013	111.84
448.234	105.64
448.455	108.04
448.675	107.44
448.896	114.04
449.117	111.84
449.338	112.24
449.559	110.24
449.779	108.44
450	112.64
450.221	107.24
450.442	110.44
450.662	104.04
450.883	111.44
451.104	112.04
451.324	108.24
451.545	113.84
451.766	109.24
451.986	105.04
452.207	110.44
452.428	107.64
452.648	108.24
452.869	104.04
453.089	106.04
453.31	98.84
453.53	104.04
453.751	106.04
453.971	110.84
454.192	107.24
454.412	107.44
454.633	103.04
454.853	101.84
455.073	108.24
455.294	107.64
455.514	110.84
455.734	105.24
455.955	105.04
456.175	107.64
456.395	102.44
456.616	105.64
456.836	103.24
457.056	106.44
457.276	99.24
457.497	100.24
457.717	97.84
457.937	111.04
458.157	106.44
458.377	97.64
458.598	95.64
458.818	102.44
459.038	105.04
459.258	100.24
459.478	102.24
459.698	102.24
459.918	99.44
460.138	104.24
460.358	100.04
460.578	106.24
460.798	108.24
461.018	111.84
461.238	104.04
461.458	105.44
461.678	110.24
461.898	109.64
462.118	111.24
462.338	112.84
462.558	112.04
462.777	106.84
462.997	109.04
463.217	111.84
463.437	116.24
463.657	112.04
463.876	112.64
464.096	113.44
464.316	107.84
464.536	111.84
464.755	102.64
464.975	111.04
465.195	105.64
465.414	110.24
465.634	105.04
465.854	111.44
466.073	102.44
466.293	101.84
466.512	108.24
466.732	102.04
466.951	107.64
467.171	107.44
467.391	106.04
467.61	102.24
467.829	108.04
468.049	104.24
468.268	108.84
468.488	107.84
468.707	107.64
468.927	110.04
469.146	105.64
469.365	109.84
469.585	103.04
469.804	109.04
470.023	106.84
470.243	109.64
470.462	110.64
470.681	110.04
470.901	99.44
471.12	107.84
471.339	109.84
471.558	112.04
471.777	115.04
471.997	108.84
472.216	105.64
472.435	108.84
472.654	102.84
472.873	109.84
473.092	109.24
473.311	102.84
473.53	104.24
473.749	105.44
473.968	109.04
474.187	98.04
474.406	106.44
474.625	110.44
474.844	107.64
475.063	111.44
475.282	113.64
475.501	108.44
475.72	110.64
475.939	106.44
476.158	101.44
476.377	111.04
476.596	110.24
476.814	115.84
477.033	104.84
477.252	109.64
477.471	104.84
477.69	109.84
477.908	110.64
478.127	112.64
478.346	113.44
478.564	121.44
478.783	115.64
479.002	118.44
479.22	114.24
479.439	121.04
479.658	109.84
479.876	111.04
480.095	116.84
480.313	116.04
480.532	114.44
480.751	114.84
480.969	107.04
481.188	114.64
481.406	111.64
481.624	113.04
481.843	105.04
482.061	113.64
482.28	112.04
482.498	110.64
482.717	103.64
482.935	110.64
483.153	114.84
483.372	115.84
483.59	115.84
483.808	103.04
484.027	116.84
484.245	118.24
484.463	117.44
484.681	123.04
484.9	108.84
485.118	119.44
485.336	110.84
485.554	108.44
485.772	111.84
485.99	103.24
486.209	115.84
486.427	113.44
486.645	109.44
486.863	112.64
487.081	113.64
487.299	122.44
487.517	122.24
487.735	112.04
487.953	118.84
488.171	115.64
488.389	115.64
488.607	110.04
488.825	122.04
489.043	109.24
489.261	113.64
489.479	113.64
489.696	108.44
489.914	113.04
490.132	118.04
490.35	123.44
490.568	113.64
490.786	117.44
491.003	113.44
491.221	118.44
491.439	121.44
491.657	116.04
491.874	117.84
492.092	121.04
492.31	122.24
492.527	119.24
492.745	119.04
492.963	119.84
493.18	113.24
493.398	117.44
493.615	122.84
493.833	120.44
494.05	114.64
494.268	115.64
494.485	118.64
494.703	114.24
494.92	114.64
495.138	118.04
495.355	125.24
495.573	122.84
495.79	120.24
496.008	121.84
496.225	119.44
496.442	119.44
496.66	118.64
496.877	123.04
497.094	122.84
497.312	118.84
497.529	118.84
497.746	116.44
497.963	121.44
498.181	119.64
498.398	124.84
498.615	110.44
498.832	123.84
499.049	128.84
499.267	123.64
499.484	128.44
499.701	133.44
499.918	128.64
500.135	132.04
500.352	139.44
500.569	151.84
500.786	164.04
501.003	151.84
501.22	137.24
501.437	137.44
501.654	133.04
501.871	124.84
502.088	129.24
502.305	126.64
502.522	127.44
502.739	123.44
502.956	128.44
503.172	124.64
503.389	126.04
503.606	125.84
503.823	120.24
504.04	137.84
504.256	124.44
504.473	128.04
504.69	129.64
504.907	128.24
505.123	120.24
505.34	131.84
505.557	122.84
505.773	124.04
505.99	123.04
506.207	120.44
506.423	123.04
506.64	118.84
506.856	119.44
507.073	122.44
507.289	124.04
507.506	116.44
507.722	118.04
507.939	119.64
