Data from ZeroMicroDelayPb_HRD10591_00004.txt Node
Date: Mon Nov 24 14:25:54 EST 2025
User: Yrep
Spectrometer: HR+D1059
Trigger mode: 0
Integration Time (sec): 1.000000E-1
Scans to average: 5
Electric dark correction enabled: true
Nonlinearity correction enabled: false
Boxcar width: 0
XAxis mode: Wavelengths
Number of Pixels in Spectrum: 2048
>>>>>Begin Spectral Data<<<<<
223.165	-20.27
223.4	-20.27
223.635	-20.27
223.869	-14.27
224.104	-18.87
224.338	-13.67
224.573	-10.27
224.808	-16.07
225.042	-8.67
225.277	-7.87
225.511	-6.07
225.746	3.13
225.98	10.33
226.215	11.33
226.449	14.13
226.683	20.13
226.918	27.13
227.152	29.93
227.387	34.93
227.621	38.13
227.856	45.73
228.09	38.93
228.324	51.73
228.559	49.93
228.793	54.33
229.027	60.33
229.262	61.93
229.496	68.33
229.73	73.33
229.964	71.93
230.199	68.13
230.433	80.53
230.667	75.13
230.901	75.73
231.136	72.73
231.37	77.93
231.604	77.73
231.838	82.93
232.072	84.93
232.306	75.93
232.541	84.33
232.775	86.33
233.009	78.13
233.243	86.33
233.477	77.33
233.711	84.93
233.945	81.33
234.179	80.73
234.413	78.93
234.647	78.13
234.881	90.33
235.115	83.33
235.349	83.73
235.583	71.73
235.817	79.53
236.051	76.53
236.285	78.13
236.519	72.13
236.753	79.53
236.987	81.13
237.221	75.13
237.455	73.33
237.689	78.33
237.922	82.33
238.156	76.53
238.39	74.93
238.624	80.53
238.858	85.13
239.091	75.53
239.325	74.73
239.559	75.73
239.793	83.33
240.027	77.53
240.26	80.73
240.494	75.33
240.728	78.93
240.961	76.93
241.195	84.73
241.429	76.33
241.662	73.93
241.896	86.13
242.13	75.33
242.363	79.53
242.597	80.53
242.83	76.93
243.064	75.73
243.298	79.93
243.531	78.13
243.765	81.93
243.998	78.93
244.232	74.73
244.465	76.93
244.699	76.13
244.932	80.13
245.166	85.53
245.399	76.93
245.633	78.93
245.866	73.73
246.099	80.53
246.333	81.73
246.566	80.73
246.8	81.73
247.033	83.13
247.266	82.73
247.5	78.53
247.733	76.73
247.966	82.13
248.2	86.33
248.433	79.73
248.666	87.33
248.899	80.93
249.133	82.13
249.366	82.13
249.599	82.13
249.832	82.13
250.066	84.53
250.299	89.93
250.532	90.53
250.765	82.13
250.998	80.73
251.231	86.53
251.465	81.93
251.698	90.73
251.931	78.73
252.164	95.33
252.397	83.13
252.63	90.93
252.863	92.53
253.096	90.13
253.329	87.53
253.562	88.13
253.795	94.73
254.028	89.53
254.261	88.53
254.494	89.33
254.727	86.73
254.96	89.13
255.193	90.33
255.426	89.53
255.659	84.93
255.892	87.73
256.124	88.13
256.357	88.73
256.59	92.53
256.823	86.33
257.056	85.93
257.289	88.53
257.521	84.13
257.754	87.33
257.987	94.53
258.22	94.33
258.452	89.33
258.685	87.73
258.918	87.13
259.151	95.93
259.383	88.53
259.616	89.93
259.849	91.53
260.081	92.33
260.314	91.33
260.547	89.93
260.779	99.33
261.012	102.33
261.244	96.13
261.477	115.13
261.71	121.13
261.942	106.13
262.175	102.13
262.407	96.73
262.64	88.33
262.872	89.53
263.105	88.33
263.337	96.73
263.57	95.73
263.802	90.33
264.035	90.33
264.267	90.93
264.499	87.93
264.732	94.13
264.964	91.53
265.197	91.13
265.429	92.93
265.661	90.53
265.894	90.73
266.126	92.73
266.358	101.73
266.591	110.53
266.823	99.33
267.055	92.73
267.287	92.33
267.52	92.13
267.752	97.53
267.984	89.73
268.216	92.73
268.448	85.93
268.681	88.73
268.913	89.13
269.145	90.13
269.377	91.53
269.609	87.13
269.841	92.53
270.073	94.33
270.306	93.93
270.538	89.33
270.77	81.73
271.002	87.13
271.234	88.93
271.466	93.53
271.698	95.73
271.93	84.93
272.162	89.53
272.394	93.93
272.626	87.33
272.858	85.93
273.09	91.93
273.322	93.93
273.553	91.53
273.785	100.93
274.017	88.53
274.249	95.33
274.481	93.53
274.713	92.93
274.945	92.53
275.176	85.13
275.408	97.13
275.64	90.13
275.872	97.13
276.104	97.93
276.335	89.13
276.567	83.93
276.799	93.93
277.031	97.33
277.262	91.33
277.494	99.73
277.726	96.13
277.957	93.53
278.189	94.53
278.421	100.13
278.652	94.73
278.884	102.73
279.115	104.13
279.347	100.73
279.579	109.93
279.81	121.93
280.042	129.73
280.273	140.73
280.505	128.53
280.736	114.33
280.968	98.93
281.199	104.53
281.431	92.33
281.662	96.93
281.894	107.53
282.125	109.53
282.356	113.93
282.588	112.73
282.819	110.53
283.051	110.53
283.282	116.73
283.513	124.13
283.745	117.13
283.976	104.73
284.207	103.33
284.439	102.13
284.67	100.73
284.901	102.33
285.132	94.33
285.364	100.33
285.595	100.13
285.826	96.13
286.057	97.93
286.288	95.33
286.52	102.53
286.751	97.73
286.982	100.93
287.213	116.33
287.444	120.53
287.675	111.93
287.906	99.33
288.138	92.73
288.369	98.33
288.6	103.93
288.831	97.73
289.062	95.13
289.293	93.73
289.524	90.53
289.755	95.33
289.986	84.73
290.217	99.13
290.448	88.73
290.679	98.73
290.91	95.33
291.141	91.93
291.371	95.93
291.602	95.13
291.833	92.73
292.064	88.93
292.295	96.33
292.526	94.53
292.757	92.93
292.987	100.33
293.218	91.93
293.449	94.73
293.68	95.13
293.91	92.93
294.141	102.93
294.372	99.33
294.603	89.73
294.833	95.13
295.064	99.73
295.295	104.13
295.525	92.93
295.756	103.33
295.987	93.33
296.217	98.93
296.448	95.73
296.679	97.93
296.909	99.33
297.14	92.93
297.37	97.73
297.601	92.73
297.831	91.53
298.062	92.33
298.292	96.13
298.523	102.13
298.753	94.53
298.984	93.73
299.214	100.93
299.445	97.73
299.675	98.13
299.905	102.33
300.136	97.73
300.366	103.93
300.597	93.53
300.827	96.53
301.057	91.73
301.288	95.93
301.518	93.93
301.748	99.73
301.979	110.53
302.209	94.53
302.439	99.73
302.669	98.73
302.9	91.93
303.13	99.53
303.36	95.13
303.59	96.73
303.82	94.73
304.051	96.33
304.281	101.33
304.511	100.93
304.741	97.93
304.971	97.13
305.201	100.33
305.431	95.13
305.661	96.53
305.891	100.13
306.121	94.13
306.352	95.93
306.582	101.33
306.812	98.53
307.042	98.53
307.272	92.73
307.502	98.73
307.731	96.53
307.961	97.93
308.191	98.33
308.421	94.13
308.651	101.33
308.881	99.13
309.111	95.93
309.341	101.73
309.571	100.93
309.8	98.33
310.03	96.53
310.26	101.93
310.49	103.33
310.72	97.13
310.949	105.53
311.179	102.33
311.409	103.33
311.639	100.53
311.868	97.53
312.098	90.53
312.328	100.33
312.557	97.53
312.787	96.13
313.017	101.93
313.246	109.33
313.476	105.53
313.706	104.33
313.935	112.53
314.165	102.33
314.394	107.13
314.624	104.53
314.853	117.13
315.083	106.13
315.312	101.73
315.542	99.33
315.771	105.33
316.001	99.33
316.23	104.93
316.46	106.73
316.689	95.73
316.919	101.53
317.148	103.13
317.377	102.73
317.607	102.53
317.836	102.93
318.065	100.93
318.295	101.33
318.524	94.93
318.753	100.73
318.983	98.73
319.212	97.13
319.441	99.33
319.67	105.13
319.9	100.73
320.129	100.33
320.358	92.33
320.587	90.53
320.816	94.93
321.046	99.93
321.275	103.73
321.504	102.93
321.733	93.33
321.962	93.53
322.191	98.53
322.42	100.93
322.649	101.13
322.878	100.73
323.108	101.73
323.337	103.93
323.566	92.33
323.795	97.33
324.024	102.53
324.253	100.53
324.482	99.73
324.71	97.73
324.939	103.53
325.168	101.93
325.397	105.93
325.626	98.73
325.855	102.33
326.084	101.13
326.313	98.53
326.542	95.73
326.77	105.13
326.999	103.13
327.228	97.13
327.457	91.53
327.686	101.53
327.914	96.73
328.143	101.13
328.372	101.13
328.6	97.33
328.829	100.73
329.058	98.93
329.287	102.13
329.515	99.53
329.744	104.73
329.972	98.93
330.201	99.93
330.43	97.73
330.658	99.93
330.887	100.53
331.115	98.73
331.344	98.73
331.572	107.13
331.801	102.93
332.03	99.93
332.258	101.33
332.486	103.33
332.715	105.13
332.943	108.93
333.172	99.53
333.4	97.93
333.629	103.53
333.857	99.53
334.085	96.53
334.314	97.13
334.542	99.93
334.771	93.53
334.999	100.13
335.227	101.33
335.455	102.53
335.684	100.33
335.912	104.53
336.14	97.53
336.369	102.53
336.597	100.53
336.825	103.33
337.053	98.13
337.281	96.73
337.51	103.13
337.738	98.73
337.966	102.53
338.194	96.13
338.422	96.73
338.65	106.13
338.878	99.93
339.106	91.93
339.334	99.13
339.562	93.33
339.79	94.13
340.018	99.93
340.246	95.53
340.474	99.13
340.702	104.73
340.93	98.53
341.158	98.73
341.386	98.33
341.614	100.33
341.842	96.93
342.07	97.33
342.298	100.33
342.526	93.53
342.754	102.33
342.981	102.73
343.209	97.33
343.437	110.13
343.665	101.13
343.893	102.13
344.12	102.73
344.348	94.73
344.576	98.73
344.804	101.93
345.031	97.33
345.259	97.53
345.487	97.93
345.714	99.93
345.942	96.33
346.17	95.93
346.397	95.13
346.625	96.53
346.853	99.53
347.08	94.33
347.308	100.33
347.535	106.93
347.763	100.53
347.99	99.13
348.218	98.93
348.445	97.53
348.673	95.53
348.9	101.33
349.128	100.13
349.355	100.73
349.583	91.53
349.81	100.13
350.037	93.33
350.265	97.93
350.492	95.73
350.72	99.73
350.947	103.53
351.174	101.13
351.402	104.13
351.629	95.93
351.856	101.33
352.083	97.33
352.311	97.93
352.538	99.53
352.765	98.33
352.992	105.33
353.22	100.93
353.447	93.13
353.674	102.13
353.901	102.73
354.128	96.13
354.355	91.33
354.583	99.73
354.81	101.93
355.037	100.73
355.264	105.73
355.491	106.53
355.718	99.93
355.945	102.53
356.172	98.93
356.399	107.93
356.626	105.73
356.853	121.13
357.08	138.33
357.307	158.13
357.534	149.33
357.761	134.13
357.988	119.73
358.215	110.13
358.441	108.13
358.668	111.33
358.895	104.33
359.122	109.33
359.349	107.93
359.576	108.53
359.802	95.13
360.029	96.53
360.256	102.93
360.483	96.33
360.709	99.93
360.936	106.13
361.163	108.73
361.39	109.93
361.616	99.93
361.843	102.73
362.07	100.13
362.296	101.33
362.523	99.53
362.749	101.53
362.976	101.93
363.203	106.33
363.429	114.73
363.656	141.33
363.882	164.53
364.109	176.53
364.335	146.53
364.562	119.33
364.788	116.73
365.015	109.73
365.241	116.33
365.468	106.33
365.694	105.93
365.92	101.93
366.147	108.53
366.373	105.13
366.599	107.53
366.826	111.13
367.052	114.33
367.278	124.13
367.505	123.33
367.731	124.33
367.957	130.53
368.184	179.13
368.41	208.93
368.636	188.93
368.862	148.13
369.089	123.93
369.315	116.13
369.541	120.13
369.767	111.53
369.993	108.13
370.219	112.73
370.445	102.93
370.672	100.13
370.898	106.33
371.124	106.93
371.35	95.93
371.576	101.53
371.802	103.13
372.028	104.33
372.254	105.33
372.48	104.73
372.706	96.93
372.932	104.53
373.158	104.53
373.384	111.93
373.61	118.33
373.835	134.53
374.061	158.73
374.287	153.93
374.513	123.13
374.739	121.73
374.965	107.13
375.191	107.93
375.416	104.53
375.642	108.13
375.868	104.13
376.094	98.53
376.319	95.93
376.545	101.93
376.771	101.93
376.997	100.73
377.222	100.73
377.448	104.93
377.674	101.53
377.899	102.93
378.125	99.53
378.35	97.93
378.576	103.93
378.802	105.73
379.027	107.93
379.253	107.33
379.478	105.53
379.704	107.53
379.929	99.93
380.155	99.13
380.38	103.93
380.606	95.73
380.831	102.93
381.057	105.73
381.282	98.73
381.507	99.33
381.733	95.93
381.958	97.53
382.184	104.93
382.409	101.53
382.634	100.13
382.86	98.93
383.085	107.13
383.31	96.73
383.535	97.33
383.761	101.33
383.986	107.53
384.211	105.33
384.436	97.53
384.662	100.33
384.887	98.13
385.112	105.53
385.337	107.13
385.562	111.93
385.787	104.33
386.013	106.93
386.238	106.33
386.463	98.13
386.688	115.13
386.913	104.93
387.138	100.13
387.363	99.73
387.588	101.93
387.813	102.33
388.038	100.33
388.263	100.13
388.488	102.33
388.713	110.13
388.938	101.53
389.163	104.93
389.387	101.73
389.612	97.13
389.837	96.93
390.062	109.33
390.287	98.13
390.512	97.33
390.736	93.73
390.961	101.73
391.186	100.33
391.411	101.73
391.636	100.53
391.86	104.13
392.085	101.73
392.31	103.73
392.534	103.73
392.759	105.53
392.984	104.93
393.208	94.13
393.433	102.33
393.658	104.13
393.882	96.93
394.107	104.53
394.331	104.33
394.556	95.33
394.78	102.33
395.005	97.33
395.229	104.13
395.454	100.93
395.678	101.33
395.903	106.73
396.127	99.93
396.352	97.53
396.576	99.53
396.801	105.53
397.025	104.33
397.249	102.73
397.474	105.33
397.698	100.13
397.922	107.73
398.147	102.93
398.371	111.93
398.595	102.93
398.82	100.73
399.044	98.33
399.268	102.53
399.492	114.93
399.717	116.53
399.941	113.13
400.165	106.73
400.389	116.73
400.613	108.53
400.837	107.73
401.062	104.13
401.286	100.73
401.51	110.33
401.734	115.13
401.958	119.13
402.182	115.73
402.406	105.33
402.63	106.33
402.854	104.33
403.078	106.93
403.302	108.13
403.526	114.73
403.75	110.53
403.974	112.33
404.198	113.33
404.422	112.13
404.645	111.13
404.869	113.33
405.093	130.33
405.317	143.13
405.541	192.93
405.765	272.73
405.988	298.93
406.212	226.33
406.436	166.53
406.66	150.53
406.883	132.53
407.107	124.53
407.331	118.53
407.555	126.53
407.778	121.13
408.002	114.13
408.226	114.13
408.449	119.33
408.673	109.93
408.896	110.73
409.12	111.93
409.344	114.13
409.567	110.53
409.791	106.73
410.014	108.73
410.238	113.53
410.461	106.33
410.685	105.13
410.908	106.73
411.132	113.33
411.355	108.13
411.578	112.73
411.802	107.13
412.025	110.93
412.249	111.13
412.472	109.53
412.695	112.13
412.919	105.53
413.142	109.53
413.365	110.13
413.589	106.73
413.812	107.33
414.035	100.93
414.258	104.13
414.482	104.73
414.705	106.73
414.928	102.33
415.151	113.33
415.374	107.73
415.597	108.93
415.821	106.33
416.044	105.33
416.267	104.93
416.49	108.73
416.713	113.73
416.936	113.93
417.159	114.33
417.382	105.53
417.605	107.13
417.828	108.53
418.051	108.13
418.274	103.13
418.497	105.33
418.72	110.33
418.943	107.33
419.166	109.53
419.389	107.13
419.611	112.93
419.834	109.73
420.057	109.13
420.28	109.13
420.503	108.13
420.726	111.73
420.948	107.33
421.171	110.33
421.394	111.93
421.617	108.33
421.839	109.33
422.062	108.73
422.285	109.53
422.507	114.33
422.73	109.33
422.953	111.93
423.175	115.13
423.398	118.13
423.621	123.73
423.843	137.13
424.066	130.93
424.288	142.33
424.511	157.33
424.733	164.33
424.956	154.53
425.178	144.13
425.401	131.13
425.623	138.73
425.846	129.93
426.068	127.33
426.291	124.13
426.513	121.73
426.735	127.33
426.958	113.73
427.18	113.53
427.402	116.13
427.625	110.13
427.847	109.93
428.069	112.73
428.292	107.53
428.514	114.33
428.736	110.13
428.958	109.53
429.181	105.13
429.403	111.93
429.625	112.33
429.847	108.13
430.069	115.13
430.292	110.33
430.514	108.53
430.736	102.33
430.958	104.73
431.18	110.53
431.402	118.13
431.624	109.13
431.846	102.53
432.068	104.13
432.29	105.13
432.512	108.73
432.734	107.73
432.956	107.73
433.178	114.33
433.4	110.33
433.622	111.73
433.844	104.33
434.066	109.13
434.287	115.93
434.509	106.93
434.731	108.93
434.953	111.13
435.175	120.13
435.397	108.53
435.618	110.13
435.84	113.73
436.062	114.93
436.284	110.53
436.505	111.93
436.727	114.53
436.949	117.73
437.17	121.13
437.392	113.73
437.614	109.13
437.835	120.93
438.057	129.13
438.278	128.73
438.5	142.93
438.721	160.33
438.943	166.73
439.165	153.13
439.386	147.93
439.608	142.13
439.829	141.13
440.05	127.73
440.272	132.53
440.493	131.33
440.715	142.73
440.936	145.13
441.158	133.53
441.379	132.33
441.6	134.53
441.822	123.53
442.043	122.93
442.264	127.13
442.486	125.53
442.707	117.33
442.928	125.73
443.149	120.53
443.371	116.13
443.592	117.13
443.813	119.93
444.034	111.93
444.255	111.53
444.476	112.73
444.698	121.93
444.919	118.33
445.14	181.53
445.361	140.53
445.582	120.13
445.803	109.93
446.024	105.73
446.245	113.53
446.466	109.73
446.687	107.93
446.908	111.33
447.129	108.33
447.35	111.53
447.571	113.93
447.792	103.53
448.013	107.33
448.234	111.73
448.455	108.13
448.675	119.73
448.896	112.93
449.117	106.53
449.338	114.33
449.559	108.73
449.779	107.73
450	106.73
450.221	101.33
450.442	105.33
450.662	109.93
450.883	106.93
451.104	111.73
451.324	102.13
451.545	113.53
451.766	105.93
451.986	108.73
452.207	104.93
452.428	107.13
452.648	110.73
452.869	103.13
453.089	110.33
453.31	104.13
453.53	106.73
453.751	103.13
453.971	102.93
454.192	100.93
454.412	101.93
454.633	103.33
454.853	106.73
455.073	104.73
455.294	106.73
455.514	105.13
455.734	105.73
455.955	102.53
456.175	110.13
456.395	97.93
456.616	102.13
456.836	101.53
457.056	97.53
457.276	106.53
457.497	110.13
457.717	107.93
457.937	104.53
458.157	99.93
458.377	99.13
458.598	105.13
458.818	99.73
459.038	102.73
459.258	104.73
459.478	103.73
459.698	99.13
459.918	106.93
460.138	101.73
460.358	110.53
460.578	107.13
460.798	101.13
461.018	104.73
461.238	106.33
461.458	110.53
461.678	106.33
461.898	102.53
462.118	107.13
462.338	110.33
462.558	105.13
462.777	108.53
462.997	107.33
463.217	108.93
463.437	110.33
463.657	108.73
463.876	106.13
464.096	110.53
464.316	107.53
464.536	109.33
464.755	108.73
464.975	114.53
465.195	108.13
465.414	102.93
465.634	108.13
465.854	106.13
466.073	103.73
466.293	105.53
466.512	102.33
466.732	103.33
466.951	103.13
467.171	97.33
467.391	102.53
467.61	102.73
467.829	105.93
468.049	108.53
468.268	105.53
468.488	109.33
468.707	105.33
468.927	108.73
469.146	112.93
469.365	106.13
469.585	99.33
469.804	102.13
470.023	106.73
470.243	109.13
470.462	104.33
470.681	110.33
470.901	113.13
471.12	105.53
471.339	105.93
471.558	99.13
471.777	99.73
471.997	100.33
472.216	107.53
472.435	103.53
472.654	101.13
472.873	107.33
473.092	107.93
473.311	106.93
473.53	100.93
473.749	111.53
473.968	112.73
474.187	111.13
474.406	107.73
474.625	109.53
474.844	105.13
475.063	97.13
475.282	114.33
475.501	105.93
475.72	113.13
475.939	107.13
476.158	109.13
476.377	105.93
476.596	107.13
476.814	107.13
477.033	105.73
477.252	107.33
477.471	105.93
477.69	114.73
477.908	112.53
478.127	114.13
478.346	114.53
478.564	115.33
478.783	115.73
479.002	113.33
479.22	113.93
479.439	107.13
479.658	105.73
479.876	112.33
480.095	106.73
480.313	117.93
480.532	112.73
480.751	111.73
480.969	111.53
481.188	112.13
481.406	108.73
481.624	109.73
481.843	109.13
482.061	98.93
482.28	101.73
482.498	110.73
482.717	109.53
482.935	114.93
483.153	114.13
483.372	106.93
483.59	111.93
483.808	107.93
484.027	112.53
484.245	108.73
484.463	110.73
484.681	111.53
484.9	111.13
485.118	112.93
485.336	110.73
485.554	110.53
485.772	109.33
485.99	108.53
486.209	106.73
486.427	109.13
486.645	109.73
486.863	113.13
487.081	109.93
487.299	110.73
487.517	112.33
487.735	112.73
487.953	112.73
488.171	111.33
488.389	116.53
488.607	107.33
488.825	111.53
489.043	114.53
489.261	114.53
489.479	116.33
489.696	118.13
489.914	109.33
490.132	113.93
490.35	121.93
490.568	109.13
490.786	117.13
491.003	121.13
491.221	122.53
491.439	113.13
491.657	112.13
491.874	119.33
492.092	119.73
492.31	119.73
492.527	116.33
492.745	111.33
492.963	115.53
493.18	117.13
493.398	116.13
493.615	112.13
493.833	116.33
494.05	116.93
494.268	115.33
494.485	121.33
494.703	115.53
494.92	111.53
495.138	111.13
495.355	120.33
495.573	126.13
495.79	123.93
496.008	118.53
496.225	124.33
496.442	114.93
496.66	117.53
496.877	114.53
497.094	126.33
497.312	116.53
497.529	122.33
497.746	116.73
497.963	117.93
498.181	112.53
498.398	117.93
498.615	120.33
498.832	123.53
499.049	120.93
499.267	128.93
499.484	129.13
499.701	128.53
499.918	130.13
500.135	135.13
500.352	132.93
500.569	153.73
500.786	163.13
501.003	141.33
501.22	135.33
501.437	135.73
501.654	131.33
501.871	128.53
502.088	129.73
502.305	122.93
502.522	124.13
502.739	124.13
502.956	127.13
503.172	127.33
503.389	123.33
503.606	123.93
503.823	125.53
504.04	128.93
504.256	129.73
504.473	125.13
504.69	123.93
504.907	128.73
505.123	129.33
505.34	123.73
505.557	119.73
505.773	124.13
505.99	116.93
506.207	115.53
506.423	120.93
506.64	113.93
506.856	119.73
507.073	107.13
507.289	119.33
507.506	117.13
507.722	108.33
507.939	117.33
508.155	118.93
508.372	115.53
508.588	113.13
