Data from ZeroMicroDelayPb_HRD10591_00012.txt Node
Date: Mon Nov 24 14:25:58 EST 2025
User: Yrep
Spectrometer: HR+D1059
Trigger mode: 0
Integration Time (sec): 1.000000E-1
Scans to average: 5
Electric dark correction enabled: true
Nonlinearity correction enabled: false
Boxcar width: 0
XAxis mode: Wavelengths
Number of Pixels in Spectrum: 2048
>>>>>Begin Spectral Data<<<<<
223.165	-15.58
223.4	-15.58
223.635	-15.58
223.869	-21.58
224.104	-16.98
224.338	-11.98
224.573	-17.58
224.808	-16.78
225.042	-7.38
225.277	-3.58
225.511	-3.98
225.746	0.42
225.98	5.42
226.215	11.42
226.449	12.62
226.683	16.22
226.918	32.22
227.152	37.02
227.387	33.22
227.621	35.42
227.856	43.62
228.09	47.82
228.324	47.22
228.559	56.82
228.793	68.02
229.027	58.62
229.262	64.02
229.496	70.02
229.73	65.82
229.964	71.42
230.199	66.82
230.433	74.22
230.667	70.62
230.901	78.42
231.136	79.22
231.37	83.22
231.604	81.82
231.838	86.22
232.072	79.82
232.306	83.62
232.541	79.82
232.775	82.42
233.009	86.22
233.243	77.82
233.477	81.02
233.711	82.22
233.945	83.02
234.179	81.62
234.413	73.22
234.647	84.42
234.881	83.62
235.115	81.62
235.349	79.82
235.583	83.82
235.817	82.62
236.051	77.02
236.285	76.82
236.519	76.82
236.753	75.42
236.987	82.22
237.221	84.62
237.455	78.42
237.689	76.02
237.922	81.02
238.156	76.42
238.39	76.02
238.624	75.22
238.858	71.62
239.091	76.22
239.325	78.42
239.559	81.82
239.793	79.42
240.027	84.22
240.26	83.62
240.494	80.22
240.728	76.42
240.961	82.02
241.195	79.22
241.429	87.82
241.662	82.02
241.896	71.62
242.13	78.82
242.363	82.62
242.597	82.42
242.83	77.62
243.064	81.82
243.298	90.22
243.531	77.62
243.765	84.02
243.998	82.02
244.232	88.02
244.465	76.42
244.699	77.82
244.932	76.02
245.166	81.02
245.399	84.02
245.633	85.02
245.866	76.62
246.099	85.62
246.333	84.62
246.566	82.62
246.8	86.22
247.033	80.62
247.266	76.82
247.5	81.62
247.733	80.22
247.966	81.82
248.2	83.62
248.433	83.42
248.666	83.22
248.899	83.42
249.133	86.42
249.366	84.62
249.599	84.82
249.832	90.62
250.066	81.02
250.299	79.02
250.532	84.82
250.765	85.62
250.998	89.62
251.231	84.22
251.465	88.42
251.698	86.62
251.931	89.02
252.164	89.22
252.397	94.22
252.63	88.62
252.863	93.02
253.096	88.82
253.329	86.42
253.562	87.22
253.795	96.62
254.028	88.02
254.261	91.22
254.494	90.22
254.727	89.22
254.96	86.42
255.193	87.02
255.426	86.62
255.659	80.22
255.892	89.22
256.124	90.82
256.357	88.82
256.59	88.42
256.823	95.02
257.056	88.22
257.289	88.22
257.521	91.22
257.754	90.82
257.987	95.42
258.22	93.22
258.452	96.22
258.685	86.62
258.918	88.02
259.151	86.22
259.383	90.22
259.616	90.82
259.849	89.42
260.081	95.82
260.314	94.02
260.547	92.82
260.779	89.02
261.012	90.42
261.244	102.82
261.477	114.02
261.71	113.62
261.942	104.02
262.175	96.62
262.407	92.42
262.64	91.82
262.872	90.82
263.105	87.82
263.337	88.02
263.57	91.42
263.802	89.42
264.035	87.82
264.267	90.02
264.499	90.42
264.732	91.62
264.964	99.22
265.197	105.42
265.429	96.22
265.661	89.02
265.894	88.02
266.126	97.82
266.358	104.82
266.591	111.22
266.823	103.82
267.055	93.22
267.287	86.82
267.52	88.42
267.752	89.42
267.984	96.02
268.216	82.02
268.448	91.42
268.681	92.22
268.913	87.02
269.145	85.22
269.377	82.62
269.609	93.42
269.841	89.22
270.073	95.82
270.306	92.82
270.538	81.62
270.77	90.62
271.002	83.82
271.234	87.22
271.466	91.02
271.698	95.02
271.93	88.22
272.162	90.02
272.394	91.02
272.626	93.62
272.858	95.42
273.09	91.62
273.322	98.42
273.553	89.62
273.785	95.82
274.017	91.02
274.249	91.02
274.481	88.02
274.713	92.82
274.945	85.62
275.176	87.22
275.408	90.62
275.64	86.42
275.872	93.62
276.104	91.02
276.335	98.02
276.567	89.62
276.799	89.02
277.031	94.42
277.262	93.62
277.494	90.82
277.726	99.02
277.957	96.02
278.189	97.42
278.421	98.02
278.652	93.22
278.884	103.82
279.115	99.22
279.347	104.02
279.579	109.62
279.81	119.62
280.042	127.82
280.273	139.82
280.505	140.02
280.736	116.02
280.968	104.82
281.199	105.42
281.431	103.82
281.662	95.02
281.894	101.22
282.125	110.82
282.356	117.42
282.588	109.62
282.819	104.82
283.051	117.82
283.282	117.02
283.513	131.22
283.745	118.02
283.976	108.02
284.207	97.62
284.439	104.02
284.67	110.02
284.901	100.42
285.132	98.82
285.364	97.42
285.595	98.62
285.826	98.82
286.057	102.42
286.288	103.42
286.52	96.62
286.751	102.22
286.982	111.42
287.213	114.62
287.444	112.62
287.675	106.22
287.906	99.62
288.138	98.82
288.369	107.02
288.6	94.22
288.831	97.62
289.062	94.62
289.293	92.02
289.524	96.82
289.755	92.02
289.986	92.42
290.217	93.82
290.448	96.22
290.679	97.22
290.91	101.02
291.141	94.62
291.371	91.22
291.602	95.42
291.833	95.82
292.064	89.82
292.295	96.62
292.526	102.02
292.757	96.22
292.987	92.42
293.218	94.82
293.449	88.42
293.68	92.02
293.91	93.22
294.141	93.42
294.372	96.82
294.603	102.42
294.833	99.62
295.064	97.02
295.295	108.02
295.525	93.02
295.756	93.82
295.987	95.82
296.217	94.22
296.448	92.02
296.679	98.42
296.909	103.82
297.14	97.42
297.37	104.02
297.601	98.42
297.831	97.42
298.062	95.22
298.292	100.82
298.523	96.82
298.753	93.02
298.984	103.02
299.214	98.82
299.445	94.82
299.675	91.02
299.905	93.02
300.136	97.62
300.366	91.82
300.597	94.02
300.827	96.62
301.057	99.02
301.288	95.02
301.518	98.02
301.748	94.42
301.979	104.22
302.209	99.42
302.439	94.22
302.669	102.82
302.9	105.42
303.13	98.82
303.36	97.42
303.59	96.62
303.82	93.22
304.051	92.62
304.281	96.42
304.511	101.02
304.741	99.22
304.971	100.42
305.201	98.22
305.431	90.62
305.661	95.82
305.891	95.62
306.121	94.22
306.352	97.82
306.582	93.22
306.812	95.02
307.042	103.82
307.272	96.82
307.502	98.62
307.731	98.02
307.961	95.22
308.191	97.82
308.421	97.22
308.651	94.82
308.881	94.62
309.111	94.82
309.341	91.42
309.571	100.22
309.8	97.02
310.03	95.42
310.26	95.62
310.49	100.22
310.72	99.82
310.949	93.62
311.179	97.82
311.409	96.82
311.639	101.42
311.868	106.22
312.098	106.22
312.328	103.22
312.557	98.82
312.787	90.82
313.017	103.42
313.246	101.42
313.476	103.82
313.706	98.02
313.935	99.62
314.165	100.82
314.394	103.22
314.624	104.42
314.853	107.02
315.083	102.82
315.312	102.22
315.542	102.02
315.771	100.22
316.001	112.42
316.23	103.62
316.46	103.22
316.689	101.62
316.919	101.82
317.148	104.62
317.377	109.42
317.607	109.22
317.836	106.42
318.065	104.42
318.295	101.62
318.524	99.22
318.753	100.82
318.983	103.22
319.212	99.42
319.441	102.02
319.67	102.22
319.9	95.82
320.129	98.42
320.358	100.62
320.587	88.42
320.816	103.02
321.046	97.82
321.275	104.02
321.504	106.22
321.733	100.42
321.962	98.62
322.191	104.42
322.42	98.62
322.649	98.02
322.878	98.82
323.108	99.62
323.337	97.22
323.566	101.82
323.795	101.82
324.024	107.02
324.253	103.42
324.482	102.62
324.71	97.82
324.939	105.22
325.168	97.22
325.397	96.22
325.626	101.22
325.855	99.62
326.084	101.82
326.313	100.82
326.542	98.22
326.77	98.02
326.999	95.82
327.228	96.62
327.457	89.42
327.686	98.02
327.914	103.82
328.143	100.02
328.372	97.22
328.6	103.02
328.829	100.62
329.058	91.42
329.287	97.22
329.515	97.62
329.744	107.42
329.972	100.22
330.201	98.02
330.43	99.82
330.658	104.82
330.887	96.22
331.115	108.42
331.344	103.22
331.572	101.62
331.801	95.02
332.03	104.82
332.258	100.82
332.486	101.42
332.715	101.22
332.943	97.02
333.172	102.82
333.4	94.82
333.629	102.62
333.857	99.02
334.085	98.22
334.314	107.62
334.542	98.82
334.771	97.42
334.999	98.82
335.227	92.42
335.455	100.02
335.684	99.42
335.912	101.62
336.14	99.22
336.369	95.02
336.597	98.62
336.825	94.02
337.053	103.42
337.281	101.62
337.51	97.42
337.738	103.02
337.966	95.22
338.194	99.22
338.422	101.02
338.65	101.82
338.878	99.02
339.106	94.22
339.334	99.02
339.562	102.02
339.79	102.02
340.018	106.02
340.246	94.42
340.474	101.22
340.702	98.42
340.93	93.22
341.158	98.42
341.386	100.42
341.614	86.82
341.842	102.22
342.07	94.62
342.298	105.82
342.526	105.22
342.754	103.42
342.981	94.02
343.209	98.82
343.437	104.22
343.665	99.42
343.893	108.02
344.12	108.02
344.348	101.22
344.576	100.02
344.804	95.42
345.031	98.82
345.259	96.22
345.487	100.02
345.714	93.62
345.942	97.62
346.17	94.62
346.397	92.82
346.625	101.02
346.853	93.82
347.08	98.82
347.308	100.62
347.535	97.62
347.763	94.02
347.99	103.42
348.218	96.62
348.445	102.42
348.673	102.22
348.9	97.42
349.128	102.22
349.355	96.02
349.583	100.22
349.81	96.02
350.037	103.22
350.265	100.62
350.492	101.62
350.72	98.42
350.947	104.22
351.174	98.62
351.402	99.82
351.629	105.62
351.856	97.42
352.083	95.82
352.311	103.62
352.538	103.42
352.765	100.42
352.992	110.02
353.22	102.82
353.447	91.62
353.674	100.62
353.901	100.82
354.128	104.62
354.355	102.22
354.583	94.42
354.81	102.62
355.037	105.62
355.264	100.22
355.491	99.62
355.718	96.42
355.945	100.02
356.172	102.62
356.399	110.82
356.626	112.22
356.853	117.62
357.08	126.62
357.307	152.02
357.534	155.22
357.761	126.62
357.988	114.02
358.215	110.62
358.441	108.02
358.668	104.22
358.895	106.02
359.122	98.82
359.349	101.82
359.576	103.22
359.802	106.62
360.029	108.22
360.256	107.82
360.483	101.02
360.709	100.82
360.936	108.42
361.163	96.42
361.39	100.42
361.616	105.02
361.843	97.62
362.07	104.42
362.296	103.42
362.523	100.02
362.749	106.02
362.976	102.22
363.203	105.42
363.429	116.62
363.656	129.82
363.882	166.42
364.109	178.62
364.335	150.22
364.562	116.82
364.788	114.02
365.015	103.62
365.241	106.02
365.468	111.22
365.694	103.22
365.92	103.02
366.147	110.02
366.373	101.22
366.599	105.22
366.826	110.62
367.052	114.82
367.278	119.02
367.505	115.02
367.731	126.42
367.957	138.22
368.184	173.82
368.41	202.82
368.636	188.62
368.862	152.02
369.089	122.62
369.315	113.02
369.541	114.22
369.767	108.62
369.993	105.42
370.219	101.42
370.445	108.62
370.672	102.02
370.898	107.42
371.124	106.22
371.35	102.82
371.576	107.22
371.802	107.02
372.028	103.22
372.254	104.82
372.48	105.42
372.706	113.22
372.932	106.62
373.158	110.22
373.384	110.42
373.61	121.02
373.835	143.22
374.061	161.42
374.287	145.62
374.513	120.02
374.739	111.62
374.965	107.22
375.191	109.02
375.416	109.82
375.642	103.62
375.868	104.22
376.094	107.62
376.319	104.62
376.545	109.82
376.771	102.62
376.997	96.02
377.222	98.22
377.448	102.62
377.674	94.82
377.899	107.62
378.125	99.02
378.35	107.02
378.576	98.42
378.802	102.62
379.027	97.22
379.253	101.02
379.478	97.22
379.704	102.02
379.929	100.22
380.155	106.82
380.38	101.62
380.606	99.22
380.831	98.62
381.057	109.62
381.282	105.82
381.507	102.22
381.733	95.62
381.958	100.22
382.184	102.42
382.409	98.82
382.634	97.42
382.86	99.42
383.085	103.22
383.31	106.62
383.535	102.02
383.761	95.42
383.986	102.22
384.211	101.82
384.436	100.82
384.662	102.82
384.887	101.02
385.112	99.42
385.337	102.82
385.562	97.42
385.787	100.22
386.013	103.82
386.238	106.82
386.463	103.22
386.688	112.62
386.913	103.42
387.138	96.02
387.363	106.02
387.588	104.62
387.813	110.82
388.038	97.82
388.263	97.22
388.488	99.82
388.713	99.42
388.938	102.82
389.163	102.42
389.387	96.82
389.612	98.42
389.837	101.02
390.062	103.02
390.287	103.42
390.512	103.62
390.736	98.42
390.961	102.42
391.186	101.22
391.411	99.42
391.636	102.62
391.86	108.62
392.085	101.82
392.31	103.02
392.534	104.42
392.759	100.02
392.984	106.62
393.208	96.22
393.433	103.62
393.658	103.62
393.882	106.02
394.107	106.22
394.331	109.42
394.556	101.82
394.78	104.22
395.005	103.22
395.229	100.82
395.454	100.82
395.678	100.22
395.903	105.62
396.127	100.02
396.352	103.82
396.576	98.82
396.801	97.22
397.025	102.02
397.249	98.82
397.474	102.42
397.698	105.42
397.922	101.22
398.147	102.02
398.371	104.02
398.595	106.22
398.82	101.62
399.044	101.22
399.268	102.22
399.492	111.82
399.717	113.82
399.941	104.82
400.165	107.82
400.389	108.82
400.613	111.02
400.837	101.22
401.062	108.62
401.286	107.22
401.51	103.62
401.734	112.02
401.958	109.82
402.182	112.62
402.406	106.62
402.63	108.42
402.854	111.42
403.078	107.62
403.302	108.62
403.526	111.82
403.75	112.82
403.974	107.62
404.198	111.42
404.422	116.22
404.645	114.22
404.869	119.02
405.093	125.62
405.317	148.62
405.541	190.42
405.765	257.82
405.988	294.42
406.212	226.62
406.436	175.22
406.66	148.22
406.883	131.22
407.107	125.62
407.331	117.42
407.555	123.42
407.778	120.42
408.002	118.42
408.226	117.22
408.449	120.42
408.673	109.42
408.896	102.02
409.12	108.42
409.344	108.62
409.567	108.22
409.791	109.62
410.014	113.42
410.238	107.82
410.461	110.42
410.685	104.82
410.908	106.62
411.132	108.82
411.355	106.82
411.578	104.22
411.802	113.62
412.025	108.22
412.249	114.62
412.472	109.02
412.695	110.82
412.919	109.62
413.142	112.42
413.365	105.82
413.589	107.82
413.812	107.02
414.035	109.22
414.258	106.02
414.482	110.82
414.705	106.22
414.928	107.82
415.151	104.22
415.374	107.02
415.597	108.02
415.821	104.82
416.044	106.02
416.267	109.02
416.49	111.82
416.713	115.02
416.936	102.22
417.159	113.62
417.382	106.42
417.605	108.42
417.828	106.62
418.051	109.22
418.274	112.42
418.497	110.62
418.72	110.02
418.943	110.42
419.166	111.42
419.389	111.22
419.611	107.42
419.834	108.62
420.057	116.42
420.28	105.82
420.503	107.62
420.726	113.82
420.948	111.02
421.171	106.42
421.394	109.22
421.617	111.02
421.839	111.02
422.062	115.02
422.285	123.42
422.507	121.42
422.73	113.82
422.953	109.42
423.175	113.82
423.398	124.82
423.621	121.62
423.843	125.82
424.066	132.62
424.288	149.42
424.511	166.02
424.733	175.22
424.956	155.02
425.178	150.22
425.401	134.22
425.623	129.02
425.846	129.22
426.068	122.82
426.291	123.82
426.513	120.22
426.735	125.82
426.958	122.42
427.18	118.42
427.402	119.62
427.625	113.22
427.847	113.82
428.069	120.42
428.292	116.02
428.514	116.42
428.736	115.82
428.958	111.62
429.181	115.62
429.403	112.42
429.625	122.22
429.847	104.82
430.069	114.42
430.292	114.22
430.514	109.62
430.736	113.02
430.958	112.22
431.18	101.02
431.402	110.02
431.624	103.42
431.846	109.42
432.068	103.22
432.29	105.02
432.512	109.42
432.734	109.22
432.956	113.82
433.178	116.62
433.4	109.22
433.622	115.42
433.844	107.02
434.066	108.82
434.287	118.62
434.509	105.02
434.731	106.62
434.953	106.42
435.175	112.62
435.397	111.02
435.618	106.02
435.84	110.82
436.062	111.42
436.284	113.82
436.505	116.22
436.727	114.82
436.949	116.62
437.17	116.42
437.392	116.62
437.614	122.22
437.835	118.42
438.057	120.62
438.278	135.42
438.5	149.62
438.721	168.22
438.943	170.82
439.165	149.02
439.386	147.42
439.608	136.22
439.829	134.82
440.05	130.42
440.272	132.22
440.493	139.82
440.715	132.22
440.936	138.82
441.158	140.42
441.379	131.82
441.6	131.82
441.822	133.02
442.043	120.62
442.264	126.42
442.486	121.02
442.707	123.02
442.928	113.62
443.149	122.02
443.371	117.82
443.592	115.22
443.813	111.82
444.034	116.42
444.255	112.42
444.476	110.42
444.698	117.82
444.919	118.82
445.14	186.82
445.361	150.82
445.582	124.02
445.803	111.22
446.024	112.22
446.245	116.42
446.466	112.62
446.687	112.02
446.908	113.02
447.129	112.22
447.35	124.82
447.571	113.82
447.792	114.42
448.013	109.22
448.234	113.02
448.455	108.62
448.675	116.02
448.896	112.82
449.117	110.22
449.338	104.42
449.559	110.22
449.779	105.62
450	110.82
450.221	104.22
450.442	107.02
450.662	108.82
450.883	108.42
451.104	106.62
451.324	108.22
451.545	106.02
451.766	106.22
451.986	107.62
452.207	107.22
452.428	104.82
452.648	109.02
452.869	110.62
453.089	103.02
453.31	103.22
453.53	106.02
453.751	111.02
453.971	108.22
454.192	104.02
454.412	104.22
454.633	108.42
454.853	111.62
455.073	107.62
455.294	105.62
455.514	108.02
455.734	106.82
455.955	108.02
456.175	107.82
456.395	95.62
456.616	103.22
456.836	97.22
457.056	99.42
457.276	102.62
457.497	105.22
457.717	103.82
457.937	105.62
458.157	100.02
458.377	97.02
458.598	100.22
458.818	104.62
459.038	96.42
459.258	104.02
459.478	104.62
459.698	104.02
459.918	103.22
460.138	110.42
460.358	103.22
460.578	110.02
460.798	113.82
461.018	111.02
461.238	108.62
461.458	108.22
461.678	107.02
461.898	112.02
462.118	113.62
462.338	104.82
462.558	102.82
462.777	111.62
462.997	110.02
463.217	112.42
463.437	111.82
463.657	103.62
463.876	113.02
464.096	111.22
464.316	107.02
464.536	103.82
464.755	109.42
464.975	107.82
465.195	106.02
465.414	109.02
465.634	100.02
465.854	105.62
466.073	106.02
466.293	110.22
466.512	105.22
466.732	113.62
466.951	105.22
467.171	104.22
467.391	104.02
467.61	108.02
467.829	108.42
468.049	105.62
468.268	100.42
468.488	103.02
468.707	102.02
468.927	110.62
469.146	109.42
469.365	112.42
469.585	103.82
469.804	104.82
470.023	108.42
470.243	107.62
470.462	98.02
470.681	111.42
470.901	108.82
471.12	100.42
471.339	109.22
471.558	104.42
471.777	110.22
471.997	110.22
472.216	109.02
472.435	102.62
472.654	98.22
472.873	109.82
473.092	104.82
473.311	106.02
473.53	103.22
473.749	96.82
473.968	112.02
474.187	100.22
474.406	104.02
474.625	106.82
474.844	111.22
475.063	106.62
475.282	106.82
475.501	106.42
475.72	111.82
475.939	105.82
476.158	112.42
476.377	103.82
476.596	101.82
476.814	110.62
477.033	119.02
477.252	107.62
477.471	109.42
477.69	110.42
477.908	109.82
478.127	117.02
478.346	112.22
478.564	115.62
478.783	117.82
479.002	114.02
479.22	117.42
479.439	116.02
479.658	110.02
479.876	111.62
480.095	116.62
480.313	114.62
480.532	117.42
480.751	112.02
480.969	104.62
481.188	108.62
481.406	110.82
481.624	106.02
481.843	102.22
482.061	106.62
482.28	110.42
482.498	105.02
482.717	109.62
482.935	108.82
483.153	114.42
483.372	114.62
483.59	112.82
483.808	113.02
484.027	111.62
484.245	107.82
484.463	111.62
484.681	114.42
484.9	104.42
485.118	115.22
485.336	107.82
485.554	115.62
485.772	108.82
485.99	118.22
486.209	107.82
486.427	107.82
486.645	115.42
486.863	112.62
487.081	111.82
487.299	109.82
487.517	111.22
487.735	113.62
487.953	114.42
488.171	115.02
488.389	111.82
488.607	114.82
488.825	111.02
489.043	109.42
489.261	116.02
489.479	113.82
489.696	115.42
489.914	116.62
490.132	111.42
490.35	117.82
490.568	114.62
490.786	115.02
491.003	119.42
491.221	118.82
491.439	115.62
491.657	118.82
491.874	114.82
492.092	125.02
492.31	127.62
492.527	123.02
492.745	113.02
492.963	116.42
493.18	119.42
493.398	115.82
493.615	111.22
493.833	114.42
494.05	126.02
494.268	115.82
494.485	126.42
494.703	123.22
494.92	122.42
495.138	119.02
495.355	114.82
495.573	122.42
495.79	118.42
496.008	118.62
496.225	117.42
496.442	122.42
496.66	126.42
496.877	121.22
497.094	122.42
497.312	122.22
497.529	115.42
497.746	116.82
497.963	115.02
498.181	109.82
498.398	113.02
498.615	113.02
498.832	119.22
499.049	118.42
499.267	120.42
499.484	128.82
499.701	129.22
499.918	134.62
500.135	127.02
500.352	142.82
500.569	144.02
500.786	164.22
501.003	143.02
501.22	136.62
501.437	131.02
501.654	134.82
501.871	123.22
502.088	125.82
502.305	125.62
502.522	122.62
502.739	122.02
502.956	125.22
503.172	116.62
503.389	121.42
503.606	129.02
503.823	128.82
504.04	122.62
504.256	133.02
504.473	121.82
504.69	125.22
504.907	123.02
505.123	128.42
505.34	127.02
505.557	124.42
505.773	119.62
505.99	118.22
506.207	121.02
506.423	123.02
506.64	121.22
506.856	119.82
507.073	112.02
507.289	108.42
507.506	115.02
507.722	115.62
507.939	113.62
508.155	116.62
508.372	114.22
