Data from ZeroMicroDelayPb_HRD10591_00009.txt Node
Date: Mon Nov 24 14:25:57 EST 2025
User: Yrep
Spectrometer: HR+D1059
Trigger mode: 0
Integration Time (sec): 1.000000E-1
Scans to average: 5
Electric dark correction enabled: true
Nonlinearity correction enabled: false
Boxcar width: 0
XAxis mode: Wavelengths
Number of Pixels in Spectrum: 2048
>>>>>Begin Spectral Data<<<<<
223.165	-15.02
223.4	-15.02
223.635	-15.02
223.869	-14.62
224.104	-16.02
224.338	-12.42
224.573	-19.02
224.808	-8.82
225.042	-10.02
225.277	-4.82
225.511	-2.82
225.746	3.98
225.98	1.78
226.215	10.58
226.449	15.58
226.683	17.98
226.918	26.58
227.152	27.18
227.387	27.98
227.621	38.18
227.856	40.78
228.09	44.98
228.324	47.78
228.559	56.78
228.793	58.38
229.027	63.98
229.262	62.18
229.496	68.18
229.73	71.58
229.964	73.98
230.199	75.18
230.433	81.78
230.667	79.38
230.901	79.78
231.136	80.58
231.37	82.18
231.604	84.98
231.838	82.78
232.072	78.58
232.306	83.98
232.541	82.38
232.775	75.18
233.009	86.98
233.243	79.58
233.477	84.18
233.711	80.98
233.945	83.38
234.179	82.38
234.413	85.58
234.647	86.38
234.881	82.18
235.115	77.98
235.349	77.98
235.583	83.38
235.817	82.98
236.051	82.78
236.285	76.78
236.519	79.18
236.753	85.78
236.987	83.58
237.221	86.98
237.455	80.78
237.689	80.18
237.922	75.18
238.156	74.38
238.39	73.98
238.624	84.58
238.858	80.58
239.091	75.38
239.325	80.58
239.559	79.18
239.793	78.98
240.027	82.18
240.26	81.38
240.494	84.78
240.728	74.18
240.961	74.78
241.195	83.38
241.429	75.18
241.662	74.18
241.896	79.38
242.13	74.38
242.363	79.18
242.597	81.58
242.83	81.58
243.064	83.78
243.298	78.78
243.531	79.18
243.765	81.58
243.998	88.38
244.232	81.98
244.465	78.38
244.699	82.98
244.932	82.98
245.166	84.78
245.399	88.98
245.633	81.78
245.866	85.18
246.099	80.18
246.333	83.78
246.566	86.78
246.8	86.58
247.033	83.58
247.266	85.18
247.5	86.58
247.733	83.18
247.966	86.78
248.2	78.18
248.433	80.18
248.666	78.58
248.899	77.78
249.133	83.58
249.366	85.18
249.599	85.38
249.832	84.58
250.066	89.38
250.299	83.78
250.532	89.78
250.765	87.18
250.998	80.78
251.231	82.58
251.465	85.18
251.698	79.98
251.931	83.78
252.164	83.98
252.397	88.18
252.63	81.78
252.863	87.18
253.096	87.38
253.329	89.58
253.562	92.38
253.795	90.98
254.028	90.38
254.261	85.38
254.494	87.18
254.727	85.38
254.96	84.78
255.193	87.58
255.426	92.18
255.659	90.18
255.892	88.98
256.124	85.58
256.357	84.58
256.59	91.18
256.823	83.98
257.056	91.38
257.289	87.58
257.521	90.18
257.754	91.98
257.987	97.38
258.22	95.98
258.452	91.58
258.685	92.38
258.918	85.58
259.151	95.78
259.383	88.98
259.616	92.98
259.849	97.78
260.081	93.78
260.314	93.58
260.547	89.38
260.779	92.58
261.012	98.98
261.244	105.58
261.477	116.98
261.71	110.18
261.942	105.78
262.175	99.98
262.407	89.78
262.64	96.58
262.872	91.98
263.105	87.78
263.337	89.58
263.57	93.38
263.802	89.98
264.035	90.58
264.267	90.98
264.499	96.38
264.732	97.98
264.964	95.78
265.197	98.78
265.429	96.18
265.661	97.38
265.894	99.38
266.126	94.58
266.358	97.18
266.591	103.18
266.823	102.38
267.055	98.38
267.287	89.78
267.52	88.98
267.752	99.18
267.984	93.78
268.216	85.98
268.448	93.18
268.681	91.98
268.913	85.98
269.145	90.38
269.377	97.18
269.609	96.98
269.841	92.38
270.073	89.98
270.306	92.18
270.538	92.18
270.77	82.98
271.002	89.18
271.234	88.18
271.466	92.58
271.698	85.38
271.93	94.38
272.162	89.38
272.394	92.78
272.626	94.18
272.858	91.18
273.09	94.38
273.322	86.18
273.553	90.58
273.785	95.78
274.017	90.58
274.249	91.18
274.481	92.38
274.713	96.38
274.945	89.38
275.176	93.58
275.408	98.58
275.64	92.98
275.872	94.58
276.104	89.38
276.335	91.98
276.567	95.98
276.799	86.78
277.031	94.18
277.262	87.58
277.494	100.98
277.726	93.98
277.957	101.38
278.189	97.38
278.421	98.78
278.652	95.58
278.884	100.58
279.115	109.78
279.347	102.78
279.579	114.38
279.81	117.78
280.042	127.78
280.273	141.98
280.505	133.18
280.736	119.18
280.968	104.38
281.199	106.98
281.431	101.58
281.662	107.98
281.894	105.38
282.125	109.78
282.356	111.18
282.588	112.38
282.819	110.78
283.051	111.58
283.282	120.18
283.513	130.38
283.745	118.98
283.976	114.18
284.207	103.58
284.439	104.58
284.67	98.18
284.901	99.58
285.132	96.78
285.364	100.98
285.595	91.78
285.826	99.18
286.057	104.98
286.288	98.38
286.52	104.78
286.751	103.78
286.982	108.58
287.213	106.98
287.444	118.98
287.675	121.38
287.906	108.78
288.138	90.38
288.369	94.78
288.6	100.18
288.831	98.58
289.062	96.38
289.293	92.38
289.524	99.18
289.755	94.98
289.986	92.58
290.217	101.98
290.448	95.38
290.679	93.98
290.91	92.38
291.141	95.58
291.371	92.78
291.602	102.98
291.833	94.38
292.064	101.38
292.295	95.38
292.526	96.78
292.757	91.38
292.987	95.98
293.218	91.78
293.449	88.58
293.68	96.38
293.91	96.18
294.141	100.58
294.372	96.18
294.603	97.58
294.833	95.78
295.064	91.98
295.295	94.38
295.525	95.38
295.756	97.98
295.987	97.18
296.217	98.98
296.448	94.18
296.679	98.18
296.909	99.78
297.14	98.98
297.37	96.98
297.601	102.58
297.831	94.78
298.062	101.78
298.292	95.18
298.523	102.78
298.753	99.78
298.984	100.18
299.214	94.38
299.445	93.38
299.675	91.78
299.905	100.18
300.136	94.78
300.366	94.38
300.597	98.98
300.827	97.78
301.057	96.58
301.288	95.78
301.518	95.18
301.748	93.98
301.979	102.18
302.209	103.78
302.439	98.98
302.669	102.98
302.9	96.18
303.13	96.98
303.36	95.98
303.59	97.18
303.82	100.18
304.051	102.98
304.281	102.78
304.511	106.98
304.741	103.78
304.971	95.38
305.201	96.18
305.431	101.58
305.661	98.98
305.891	101.78
306.121	95.98
306.352	93.18
306.582	96.38
306.812	97.98
307.042	103.58
307.272	91.98
307.502	96.78
307.731	94.18
307.961	94.38
308.191	97.58
308.421	99.38
308.651	102.38
308.881	101.58
309.111	100.78
309.341	98.98
309.571	102.58
309.8	98.58
310.03	96.98
310.26	100.98
310.49	99.78
310.72	100.58
310.949	95.78
311.179	94.78
311.409	97.58
311.639	102.58
311.868	97.58
312.098	98.78
312.328	100.58
312.557	101.18
312.787	111.58
313.017	102.98
313.246	105.58
313.476	101.78
313.706	100.38
313.935	103.78
314.165	101.58
314.394	101.18
314.624	105.78
314.853	105.98
315.083	106.78
315.312	105.78
315.542	111.78
315.771	102.18
316.001	104.38
316.23	105.18
316.46	103.18
316.689	97.98
316.919	99.58
317.148	105.58
317.377	107.38
317.607	104.18
317.836	98.18
318.065	102.18
318.295	102.58
318.524	103.58
318.753	104.98
318.983	103.58
319.212	98.78
319.441	95.18
319.67	102.58
319.9	104.78
320.129	102.98
320.358	104.78
320.587	104.58
320.816	99.18
321.046	97.38
321.275	101.38
321.504	98.18
321.733	96.78
321.962	102.58
322.191	109.18
322.42	105.98
322.649	104.98
322.878	104.58
323.108	96.78
323.337	98.38
323.566	102.18
323.795	101.78
324.024	109.18
324.253	102.18
324.482	95.98
324.71	102.78
324.939	108.58
325.168	97.58
325.397	98.78
325.626	102.58
325.855	97.58
326.084	100.18
326.313	96.98
326.542	102.18
326.77	100.38
326.999	102.38
327.228	97.38
327.457	99.18
327.686	97.98
327.914	102.18
328.143	103.78
328.372	101.18
328.6	95.98
328.829	96.18
329.058	95.18
329.287	104.18
329.515	95.78
329.744	99.38
329.972	92.18
330.201	101.98
330.43	103.98
330.658	101.18
330.887	98.18
331.115	102.18
331.344	97.38
331.572	102.18
331.801	103.58
332.03	105.78
332.258	96.18
332.486	106.98
332.715	101.38
332.943	99.78
333.172	98.58
333.4	98.18
333.629	106.78
333.857	95.18
334.085	97.78
334.314	97.18
334.542	101.38
334.771	99.38
334.999	98.78
335.227	104.38
335.455	101.38
335.684	106.18
335.912	103.58
336.14	97.78
336.369	97.98
336.597	103.98
336.825	103.38
337.053	102.38
337.281	100.78
337.51	97.98
337.738	102.58
337.966	100.18
338.194	103.98
338.422	100.18
338.65	105.18
338.878	99.78
339.106	93.58
339.334	108.18
339.562	89.58
339.79	98.38
340.018	95.58
340.246	98.78
340.474	91.98
340.702	105.38
340.93	101.18
341.158	97.58
341.386	90.58
341.614	97.18
341.842	94.98
342.07	95.18
342.298	100.18
342.526	97.58
342.754	101.38
342.981	100.18
343.209	96.98
343.437	113.78
343.665	99.18
343.893	97.98
344.12	104.98
344.348	102.38
344.576	97.58
344.804	97.58
345.031	98.98
345.259	99.58
345.487	108.58
345.714	104.58
345.942	99.58
346.17	103.18
346.397	94.58
346.625	100.78
346.853	96.78
347.08	95.58
347.308	108.78
347.535	103.78
347.763	94.98
347.99	99.18
348.218	100.58
348.445	103.58
348.673	98.38
348.9	96.98
349.128	100.38
349.355	97.18
349.583	97.78
349.81	96.98
350.037	98.18
350.265	101.18
350.492	98.78
350.72	98.18
350.947	95.38
351.174	95.58
351.402	96.58
351.629	97.58
351.856	100.38
352.083	97.38
352.311	94.78
352.538	102.38
352.765	104.58
352.992	100.78
353.22	97.78
353.447	103.18
353.674	101.78
353.901	104.38
354.128	96.18
354.355	101.38
354.583	91.98
354.81	91.78
355.037	100.98
355.264	102.78
355.491	103.98
355.718	99.98
355.945	100.38
356.172	101.58
356.399	105.98
356.626	100.18
356.853	114.78
357.08	131.18
357.307	148.98
357.534	147.18
357.761	133.18
357.988	119.18
358.215	113.18
358.441	109.38
358.668	108.98
358.895	110.38
359.122	101.38
359.349	103.98
359.576	103.18
359.802	106.18
360.029	105.18
360.256	102.38
360.483	103.78
360.709	100.58
360.936	102.38
361.163	110.78
361.39	102.18
361.616	101.98
361.843	104.58
362.07	106.58
362.296	101.98
362.523	101.58
362.749	104.58
362.976	101.98
363.203	109.78
363.429	113.18
363.656	136.78
363.882	163.58
364.109	172.78
364.335	141.18
364.562	121.98
364.788	103.78
365.015	110.58
365.241	111.38
365.468	110.98
365.694	106.78
365.92	107.58
366.147	108.98
366.373	105.38
366.599	103.78
366.826	114.18
367.052	115.98
367.278	121.18
367.505	120.18
367.731	128.18
367.957	139.58
368.184	163.38
368.41	206.38
368.636	182.78
368.862	142.58
369.089	123.58
369.315	113.98
369.541	113.18
369.767	114.38
369.993	111.58
370.219	110.18
370.445	103.18
370.672	103.18
370.898	99.78
371.124	104.18
371.35	103.98
371.576	99.98
371.802	103.98
372.028	100.78
372.254	105.78
372.48	104.98
372.706	104.18
372.932	95.58
373.158	108.98
373.384	111.18
373.61	119.98
373.835	142.18
374.061	158.78
374.287	153.18
374.513	127.58
374.739	117.98
374.965	119.38
375.191	106.38
375.416	101.78
375.642	110.18
375.868	103.98
376.094	99.78
376.319	100.98
376.545	97.78
376.771	96.78
376.997	107.38
377.222	102.38
377.448	103.78
377.674	101.98
377.899	98.58
378.125	99.18
378.35	100.18
378.576	105.18
378.802	109.78
379.027	103.98
379.253	104.98
379.478	104.78
379.704	100.58
379.929	102.98
380.155	92.98
380.38	102.98
380.606	97.58
380.831	96.18
381.057	102.78
381.282	99.38
381.507	98.98
381.733	94.18
381.958	96.38
382.184	102.58
382.409	102.38
382.634	104.38
382.86	96.38
383.085	107.18
383.31	107.38
383.535	97.58
383.761	98.18
383.986	99.58
384.211	102.98
384.436	102.38
384.662	105.78
384.887	102.78
385.112	110.38
385.337	105.18
385.562	95.38
385.787	99.98
386.013	97.18
386.238	101.58
386.463	104.98
386.688	110.98
386.913	102.98
387.138	98.58
387.363	102.58
387.588	106.58
387.813	102.18
388.038	100.98
388.263	100.98
388.488	101.58
388.713	109.38
388.938	95.78
389.163	102.78
389.387	103.78
389.612	101.78
389.837	103.58
390.062	107.18
390.287	105.18
390.512	101.58
390.736	101.18
390.961	103.58
391.186	99.58
391.411	95.38
391.636	103.18
391.86	105.18
392.085	110.78
392.31	102.38
392.534	102.78
392.759	102.78
392.984	102.78
393.208	112.38
393.433	98.78
393.658	98.38
393.882	100.58
394.107	103.18
394.331	103.58
394.556	100.78
394.78	103.18
395.005	100.18
395.229	106.98
395.454	102.98
395.678	100.78
395.903	108.38
396.127	104.98
396.352	100.38
396.576	99.58
396.801	102.78
397.025	94.98
397.249	99.98
397.474	109.38
397.698	108.98
397.922	97.38
398.147	99.98
398.371	107.58
398.595	95.78
398.82	104.78
399.044	105.38
399.268	105.98
399.492	106.58
399.717	107.58
399.941	103.18
400.165	111.58
400.389	107.18
400.613	107.18
400.837	107.78
401.062	112.98
401.286	109.98
401.51	108.78
401.734	112.58
401.958	113.78
402.182	112.38
402.406	103.98
402.63	112.18
402.854	112.98
403.078	104.78
403.302	108.38
403.526	112.18
403.75	107.18
403.974	108.38
404.198	110.98
404.422	117.38
404.645	114.78
404.869	122.18
405.093	124.38
405.317	137.18
405.541	187.58
405.765	254.98
405.988	283.98
406.212	222.18
406.436	173.98
406.66	151.38
406.883	123.18
407.107	132.58
407.331	124.98
407.555	117.98
407.778	117.18
408.002	121.58
408.226	118.58
408.449	117.38
408.673	106.18
408.896	115.98
409.12	107.18
409.344	111.98
409.567	105.58
409.791	108.58
410.014	103.38
410.238	103.78
410.461	111.38
410.685	109.58
410.908	115.18
411.132	110.78
411.355	113.58
411.578	108.18
411.802	102.78
412.025	105.58
412.249	111.18
412.472	110.78
412.695	107.18
412.919	109.98
413.142	100.78
413.365	101.98
413.589	105.78
413.812	106.98
414.035	110.58
414.258	102.98
414.482	107.38
414.705	103.38
414.928	109.98
415.151	111.78
415.374	109.18
415.597	103.18
415.821	110.58
416.044	105.78
416.267	110.38
416.49	107.78
416.713	110.38
416.936	109.98
417.159	102.98
417.382	105.78
417.605	101.98
417.828	106.18
418.051	107.98
418.274	114.78
418.497	112.18
418.72	112.78
418.943	109.18
419.166	111.38
419.389	111.78
419.611	111.98
419.834	105.98
420.057	108.38
420.28	107.78
420.503	104.38
420.726	111.18
420.948	111.98
421.171	112.58
421.394	110.58
421.617	120.78
421.839	115.18
422.062	111.78
422.285	114.18
422.507	122.78
422.73	113.58
422.953	120.18
423.175	125.18
423.398	120.18
423.621	130.18
423.843	125.98
424.066	139.78
424.288	149.18
424.511	167.58
424.733	164.58
424.956	160.18
425.178	143.78
425.401	135.58
425.623	138.78
425.846	126.18
426.068	120.78
426.291	125.38
426.513	121.98
426.735	123.18
426.958	117.98
427.18	114.38
427.402	120.38
427.625	121.38
427.847	115.38
428.069	115.98
428.292	110.98
428.514	118.38
428.736	115.38
428.958	118.18
429.181	115.98
429.403	106.78
429.625	105.58
429.847	111.78
430.069	116.58
430.292	112.18
430.514	111.98
430.736	105.18
430.958	106.38
431.18	101.58
431.402	103.78
431.624	110.38
431.846	106.58
432.068	110.98
432.29	105.38
432.512	105.38
432.734	111.18
432.956	119.78
433.178	109.78
433.4	115.58
433.622	113.98
433.844	118.78
434.066	117.38
434.287	114.78
434.509	110.78
434.731	110.78
434.953	109.78
435.175	113.18
435.397	111.18
435.618	110.58
435.84	103.78
436.062	112.58
436.284	112.98
436.505	114.38
436.727	116.78
436.949	119.58
437.17	112.98
437.392	108.18
437.614	121.98
437.835	119.38
438.057	117.58
438.278	129.78
438.5	143.78
438.721	161.58
438.943	170.98
439.165	156.78
439.386	141.58
439.608	139.78
439.829	130.38
440.05	133.98
440.272	132.98
440.493	135.98
440.715	139.78
440.936	134.98
441.158	138.18
441.379	126.58
441.6	133.18
441.822	124.78
442.043	123.78
442.264	119.38
442.486	116.78
442.707	125.58
442.928	120.78
443.149	116.38
443.371	116.98
443.592	118.98
443.813	109.98
444.034	115.78
444.255	117.98
444.476	120.38
444.698	116.78
444.919	118.78
445.14	186.18
445.361	147.18
445.582	113.78
445.803	116.38
446.024	113.98
446.245	115.18
446.466	117.18
446.687	110.58
446.908	113.78
447.129	110.58
447.35	108.38
447.571	108.38
447.792	118.38
448.013	114.58
448.234	111.78
448.455	109.78
448.675	112.18
448.896	110.58
449.117	111.18
449.338	107.78
449.559	108.58
449.779	109.58
450	107.78
450.221	108.98
450.442	110.78
450.662	99.58
450.883	108.78
451.104	113.78
451.324	109.18
451.545	101.18
451.766	114.58
451.986	105.58
452.207	106.98
452.428	101.58
452.648	107.78
452.869	108.78
453.089	110.38
453.31	101.78
453.53	103.18
453.751	104.78
453.971	107.38
454.192	105.38
454.412	100.78
454.633	103.58
454.853	105.38
455.073	97.78
455.294	103.38
455.514	106.38
455.734	101.38
455.955	102.58
456.175	103.38
456.395	97.58
456.616	95.58
456.836	98.18
457.056	105.98
457.276	101.78
457.497	105.78
457.717	103.18
457.937	100.18
458.157	99.58
458.377	101.78
458.598	103.58
458.818	103.98
459.038	103.18
459.258	103.78
459.478	103.18
459.698	101.78
459.918	108.18
460.138	109.58
460.358	106.78
460.578	107.58
460.798	108.58
461.018	112.38
461.238	112.98
461.458	107.78
461.678	104.38
461.898	108.78
462.118	112.18
462.338	103.38
462.558	110.18
462.777	111.98
462.997	112.38
463.217	109.98
463.437	108.58
463.657	109.38
463.876	105.18
464.096	113.38
464.316	111.18
464.536	108.18
464.755	111.18
464.975	114.58
465.195	108.18
465.414	105.58
465.634	100.18
465.854	101.18
466.073	109.98
466.293	107.38
466.512	109.18
466.732	108.38
466.951	108.98
467.171	111.38
467.391	101.38
467.61	110.58
467.829	108.38
468.049	100.98
468.268	111.78
468.488	101.18
468.707	114.78
468.927	108.38
469.146	106.38
469.365	109.38
469.585	103.78
469.804	111.18
470.023	100.98
470.243	108.58
470.462	109.78
470.681	113.78
470.901	104.98
471.12	112.98
471.339	112.38
471.558	114.38
471.777	110.98
471.997	101.58
472.216	103.98
472.435	108.38
472.654	99.38
472.873	110.18
473.092	107.58
473.311	106.98
473.53	105.38
473.749	109.58
473.968	115.38
474.187	104.18
474.406	104.58
474.625	110.38
474.844	108.18
475.063	101.58
475.282	107.38
475.501	99.18
475.72	110.38
475.939	101.98
476.158	106.78
476.377	110.78
476.596	106.58
476.814	103.18
477.033	109.78
477.252	102.18
477.471	103.98
477.69	107.98
477.908	114.38
478.127	109.18
478.346	111.98
478.564	110.18
478.783	113.58
479.002	107.78
479.22	112.58
479.439	111.78
479.658	110.38
479.876	112.98
480.095	108.18
480.313	115.18
480.532	114.98
480.751	108.98
480.969	113.58
481.188	114.98
481.406	113.18
481.624	110.38
481.843	108.38
482.061	111.58
482.28	118.98
482.498	106.38
482.717	106.98
482.935	107.98
483.153	115.38
483.372	116.98
483.59	115.38
483.808	112.18
484.027	110.18
484.245	112.58
484.463	114.78
484.681	118.98
484.9	117.58
485.118	113.78
485.336	110.78
485.554	111.38
485.772	115.38
485.99	112.78
486.209	113.18
486.427	102.98
486.645	106.38
486.863	111.58
487.081	115.98
487.299	113.18
487.517	124.18
487.735	118.38
487.953	114.58
488.171	119.98
488.389	118.78
488.607	117.18
488.825	111.98
489.043	111.38
489.261	115.98
489.479	114.38
489.696	120.78
489.914	109.58
490.132	111.58
490.35	115.18
490.568	112.58
490.786	111.38
491.003	118.78
491.221	118.38
491.439	115.38
491.657	115.58
491.874	126.18
492.092	120.38
492.31	130.58
492.527	122.18
492.745	122.78
492.963	117.58
493.18	115.18
493.398	109.58
493.615	119.18
493.833	122.18
494.05	120.78
494.268	121.98
494.485	115.78
494.703	121.78
494.92	116.78
495.138	119.38
495.355	119.78
495.573	120.78
495.79	123.58
496.008	124.58
496.225	118.58
496.442	113.98
496.66	119.38
496.877	115.78
497.094	121.58
497.312	117.98
497.529	117.98
497.746	117.18
497.963	123.38
498.181	118.98
498.398	115.38
498.615	114.78
498.832	121.38
499.049	127.18
499.267	124.58
499.484	124.98
499.701	131.98
499.918	132.98
500.135	138.78
500.352	138.58
500.569	143.78
500.786	159.98
501.003	139.38
501.22	134.38
501.437	132.78
501.654	129.18
501.871	125.58
502.088	117.78
502.305	125.98
502.522	123.18
502.739	123.18
502.956	127.38
503.172	114.78
503.389	122.58
503.606	126.78
503.823	124.38
504.04	132.18
504.256	130.38
504.473	126.78
504.69	126.38
504.907	128.18
505.123	122.18
505.34	123.18
505.557	124.38
505.773	128.18
505.99	125.18
506.207	117.98
506.423	121.78
506.64	127.18
506.856	118.38
507.073	123.58
507.289	120.38
507.506	120.78
507.722	122.78
507.939	112.18
508.155	116.78
