Data from ZeroMicroDelayPb_HRD10591_00005.txt Node
Date: Mon Nov 24 14:25:55 EST 2025
User: Yrep
Spectrometer: HR+D1059
Trigger mode: 0
Integration Time (sec): 1.000000E-1
Scans to average: 5
Electric dark correction enabled: true
Nonlinearity correction enabled: false
Boxcar width: 0
XAxis mode: Wavelengths
Number of Pixels in Spectrum: 2048
>>>>>Begin Spectral Data<<<<<
223.165	-12.22
223.4	-12.22
223.635	-12.22
223.869	-17.02
224.104	-17.22
224.338	-15.42
224.573	-15.82
224.808	-11.82
225.042	-4.22
225.277	-2.02
225.511	0.18
225.746	2.38
225.98	2.38
226.215	9.78
226.449	16.78
226.683	12.98
226.918	25.58
227.152	25.78
227.387	34.18
227.621	37.78
227.856	38.78
228.09	47.98
228.324	55.38
228.559	56.18
228.793	52.58
229.027	53.38
229.262	66.38
229.496	72.98
229.73	67.78
229.964	73.58
230.199	75.98
230.433	66.38
230.667	78.18
230.901	78.58
231.136	79.58
231.37	85.98
231.604	82.78
231.838	82.58
232.072	80.58
232.306	82.18
232.541	78.18
232.775	72.98
233.009	77.78
233.243	77.18
233.477	76.18
233.711	76.98
233.945	77.38
234.179	82.38
234.413	86.58
234.647	79.78
234.881	77.18
235.115	82.78
235.349	81.78
235.583	80.58
235.817	75.78
236.051	80.78
236.285	73.58
236.519	84.98
236.753	84.58
236.987	83.58
237.221	81.38
237.455	80.18
237.689	79.98
237.922	81.98
238.156	81.78
238.39	79.98
238.624	77.18
238.858	79.98
239.091	74.98
239.325	75.58
239.559	76.58
239.793	84.18
240.027	81.38
240.26	78.78
240.494	81.78
240.728	77.18
240.961	74.18
241.195	74.38
241.429	81.18
241.662	76.98
241.896	79.98
242.13	80.98
242.363	83.38
242.597	75.98
242.83	85.18
243.064	78.98
243.298	82.98
243.531	76.18
243.765	78.38
243.998	81.98
244.232	86.78
244.465	79.58
244.699	79.78
244.932	86.38
245.166	83.58
245.399	75.38
245.633	84.58
245.866	86.58
246.099	81.98
246.333	79.18
246.566	83.78
246.8	81.38
247.033	76.78
247.266	85.78
247.5	80.38
247.733	79.18
247.966	84.58
248.2	79.98
248.433	93.78
248.666	81.78
248.899	81.78
249.133	82.78
249.366	89.98
249.599	83.18
249.832	79.98
250.066	83.38
250.299	85.18
250.532	80.58
250.765	86.98
250.998	87.38
251.231	87.18
251.465	84.38
251.698	81.38
251.931	84.18
252.164	81.18
252.397	90.58
252.63	89.38
252.863	80.98
253.096	86.38
253.329	89.78
253.562	92.18
253.795	88.38
254.028	87.98
254.261	89.78
254.494	86.38
254.727	84.38
254.96	91.78
255.193	81.98
255.426	87.18
255.659	89.38
255.892	89.18
256.124	87.98
256.357	86.38
256.59	94.98
256.823	89.78
257.056	87.58
257.289	85.18
257.521	89.38
257.754	89.98
257.987	92.78
258.22	94.58
258.452	91.18
258.685	90.38
258.918	88.78
259.151	86.78
259.383	92.58
259.616	88.78
259.849	88.18
260.081	90.98
260.314	88.58
260.547	92.38
260.779	91.78
261.012	100.58
261.244	106.38
261.477	120.98
261.71	111.78
261.942	105.58
262.175	98.38
262.407	90.38
262.64	100.18
262.872	92.38
263.105	93.78
263.337	92.98
263.57	89.18
263.802	91.18
264.035	89.98
264.267	95.78
264.499	90.98
264.732	96.98
264.964	93.38
265.197	91.38
265.429	96.58
265.661	95.98
265.894	93.98
266.126	94.98
266.358	96.38
266.591	108.98
266.823	97.78
267.055	93.38
267.287	91.78
267.52	91.38
267.752	90.58
267.984	90.78
268.216	87.18
268.448	95.18
268.681	89.98
268.913	90.38
269.145	92.38
269.377	95.18
269.609	95.98
269.841	94.58
270.073	87.98
270.306	89.38
270.538	98.38
270.77	89.58
271.002	90.38
271.234	96.98
271.466	91.78
271.698	84.98
271.93	94.58
272.162	88.18
272.394	93.98
272.626	88.38
272.858	87.98
273.09	94.78
273.322	95.18
273.553	89.18
273.785	97.38
274.017	88.98
274.249	93.78
274.481	92.18
274.713	92.78
274.945	95.98
275.176	85.38
275.408	91.78
275.64	91.98
275.872	91.58
276.104	96.78
276.335	92.58
276.567	89.78
276.799	86.58
277.031	96.58
277.262	97.78
277.494	93.18
277.726	97.98
277.957	92.18
278.189	96.98
278.421	90.98
278.652	92.38
278.884	101.98
279.115	107.18
279.347	103.58
279.579	108.38
279.81	117.58
280.042	136.18
280.273	141.78
280.505	129.98
280.736	120.58
280.968	104.38
281.199	101.18
281.431	107.58
281.662	109.78
281.894	104.38
282.125	107.58
282.356	116.18
282.588	111.18
282.819	105.58
283.051	115.78
283.282	115.58
283.513	134.78
283.745	125.18
283.976	106.38
284.207	102.98
284.439	95.38
284.67	98.18
284.901	94.18
285.132	99.98
285.364	95.58
285.595	103.38
285.826	100.98
286.057	94.78
286.288	98.18
286.52	100.78
286.751	100.38
286.982	108.78
287.213	109.38
287.444	114.98
287.675	109.98
287.906	101.98
288.138	96.18
288.369	94.58
288.6	102.18
288.831	99.38
289.062	95.38
289.293	97.78
289.524	91.38
289.755	99.58
289.986	89.98
290.217	96.98
290.448	97.38
290.679	94.38
290.91	97.18
291.141	101.38
291.371	95.38
291.602	96.98
291.833	100.18
292.064	88.38
292.295	91.98
292.526	94.18
292.757	101.38
292.987	91.78
293.218	97.98
293.449	93.78
293.68	98.58
293.91	98.58
294.141	93.38
294.372	90.78
294.603	91.78
294.833	95.18
295.064	94.38
295.295	100.18
295.525	99.18
295.756	101.38
295.987	98.58
296.217	93.78
296.448	92.18
296.679	94.58
296.909	103.98
297.14	101.78
297.37	98.58
297.601	95.98
297.831	92.78
298.062	99.78
298.292	98.38
298.523	92.98
298.753	96.38
298.984	101.58
299.214	96.58
299.445	94.78
299.675	96.98
299.905	102.58
300.136	101.38
300.366	99.58
300.597	102.98
300.827	95.18
301.057	99.98
301.288	102.78
301.518	95.78
301.748	97.58
301.979	113.58
302.209	100.38
302.439	98.58
302.669	102.18
302.9	91.18
303.13	99.38
303.36	95.78
303.59	98.98
303.82	100.78
304.051	99.78
304.281	98.58
304.511	101.58
304.741	94.18
304.971	97.58
305.201	97.38
305.431	99.98
305.661	100.58
305.891	96.18
306.121	96.38
306.352	101.38
306.582	97.18
306.812	91.78
307.042	93.38
307.272	100.78
307.502	93.98
307.731	102.38
307.961	97.78
308.191	91.98
308.421	93.98
308.651	95.58
308.881	100.58
309.111	96.78
309.341	94.78
309.571	99.98
309.8	93.78
310.03	93.78
310.26	100.18
310.49	98.38
310.72	98.78
310.949	91.18
311.179	97.78
311.409	98.38
311.639	98.98
311.868	92.78
312.098	100.18
312.328	99.18
312.557	102.78
312.787	97.38
313.017	104.38
313.246	97.18
313.476	100.98
313.706	104.18
313.935	100.58
314.165	111.78
314.394	106.58
314.624	100.98
314.853	100.98
315.083	104.38
315.312	103.38
315.542	103.98
315.771	105.18
316.001	95.78
316.23	102.18
316.46	103.78
316.689	101.58
316.919	103.58
317.148	105.78
317.377	99.18
317.607	99.58
317.836	104.38
318.065	101.18
318.295	102.38
318.524	104.98
318.753	98.58
318.983	98.18
319.212	99.78
319.441	95.58
319.67	99.58
319.9	97.18
320.129	101.38
320.358	97.58
320.587	98.38
320.816	100.38
321.046	100.18
321.275	97.98
321.504	96.98
321.733	99.38
321.962	103.58
322.191	99.38
322.42	98.58
322.649	101.18
322.878	96.98
323.108	99.58
323.337	99.58
323.566	100.78
323.795	97.58
324.024	104.38
324.253	97.58
324.482	97.38
324.71	97.98
324.939	100.98
325.168	103.58
325.397	98.78
325.626	94.78
325.855	103.38
326.084	94.58
326.313	99.38
326.542	99.38
326.77	103.78
326.999	94.38
327.228	104.98
327.457	96.38
327.686	94.98
327.914	102.58
328.143	100.18
328.372	100.78
328.6	97.38
328.829	97.58
329.058	96.98
329.287	99.98
329.515	96.18
329.744	96.58
329.972	95.78
330.201	102.98
330.43	98.78
330.658	95.18
330.887	100.78
331.115	101.78
331.344	100.98
331.572	99.38
331.801	100.98
332.03	99.58
332.258	103.18
332.486	96.38
332.715	95.58
332.943	97.78
333.172	99.38
333.4	98.18
333.629	102.58
333.857	105.38
334.085	104.78
334.314	105.78
334.542	105.38
334.771	101.98
334.999	98.58
335.227	96.38
335.455	101.38
335.684	95.38
335.912	96.98
336.14	100.58
336.369	96.58
336.597	96.18
336.825	93.98
337.053	97.78
337.281	97.58
337.51	98.38
337.738	99.58
337.966	99.18
338.194	102.58
338.422	101.38
338.65	101.78
338.878	98.18
339.106	95.18
339.334	102.58
339.562	92.38
339.79	103.78
340.018	101.58
340.246	101.38
340.474	101.38
340.702	101.58
340.93	94.98
341.158	97.38
341.386	97.98
341.614	93.78
341.842	101.18
342.07	101.18
342.298	100.38
342.526	99.58
342.754	102.38
342.981	97.58
343.209	98.58
343.437	105.38
343.665	93.58
343.893	100.18
344.12	107.78
344.348	97.98
344.576	95.38
344.804	96.78
345.031	94.38
345.259	100.38
345.487	94.58
345.714	94.98
345.942	99.98
346.17	99.98
346.397	95.38
346.625	95.78
346.853	97.18
347.08	100.98
347.308	95.98
347.535	96.78
347.763	93.38
347.99	95.98
348.218	100.78
348.445	96.78
348.673	95.18
348.9	100.58
349.128	101.98
349.355	99.98
349.583	100.38
349.81	98.18
350.037	100.38
350.265	96.58
350.492	90.78
350.72	98.78
350.947	91.58
351.174	102.38
351.402	93.58
351.629	100.18
351.856	103.78
352.083	103.98
352.311	100.58
352.538	97.98
352.765	102.78
352.992	102.98
353.22	99.98
353.447	93.78
353.674	105.98
353.901	101.18
354.128	98.98
354.355	102.38
354.583	97.58
354.81	99.18
355.037	100.18
355.264	101.98
355.491	103.58
355.718	101.98
355.945	95.38
356.172	108.58
356.399	105.38
356.626	105.58
356.853	118.98
357.08	132.58
357.307	151.98
357.534	142.58
357.761	133.78
357.988	116.78
358.215	113.58
358.441	107.98
358.668	103.98
358.895	102.78
359.122	109.58
359.349	105.58
359.576	107.18
359.802	99.38
360.029	101.58
360.256	105.98
360.483	102.98
360.709	101.18
360.936	101.78
361.163	106.58
361.39	99.38
361.616	101.38
361.843	103.18
362.07	109.98
362.296	101.98
362.523	105.38
362.749	99.18
362.976	104.38
363.203	111.58
363.429	113.78
363.656	128.98
363.882	163.78
364.109	175.98
364.335	147.38
364.562	118.98
364.788	111.98
365.015	116.98
365.241	120.38
365.468	106.58
365.694	97.18
365.92	106.38
366.147	104.78
366.373	105.38
366.599	109.38
366.826	111.38
367.052	111.58
367.278	127.78
367.505	122.78
367.731	128.38
367.957	137.58
368.184	170.98
368.41	206.38
368.636	192.58
368.862	152.18
369.089	130.58
369.315	112.78
369.541	106.78
369.767	112.38
369.993	113.58
370.219	107.38
370.445	102.38
370.672	108.38
370.898	101.58
371.124	97.58
371.35	102.78
371.576	99.18
371.802	103.58
372.028	103.58
372.254	104.58
372.48	102.58
372.706	102.58
372.932	105.38
373.158	108.18
373.384	113.38
373.61	123.18
373.835	141.98
374.061	157.58
374.287	154.58
374.513	125.38
374.739	117.98
374.965	108.38
375.191	110.38
375.416	107.98
375.642	102.18
375.868	108.58
376.094	99.98
376.319	101.98
376.545	94.98
376.771	100.78
376.997	104.18
377.222	99.58
377.448	100.38
377.674	106.58
377.899	95.18
378.125	101.18
378.35	100.38
378.576	104.38
378.802	101.78
379.027	104.98
379.253	99.58
379.478	98.38
379.704	100.38
379.929	103.18
380.155	103.38
380.38	100.98
380.606	101.58
380.831	102.58
381.057	101.98
381.282	99.18
381.507	100.18
381.733	100.38
381.958	99.38
382.184	91.98
382.409	98.38
382.634	103.18
382.86	94.98
383.085	100.98
383.31	101.98
383.535	105.18
383.761	101.18
383.986	104.58
384.211	101.58
384.436	99.18
384.662	99.38
384.887	97.98
385.112	99.38
385.337	105.18
385.562	102.78
385.787	100.58
386.013	103.18
386.238	101.98
386.463	102.78
386.688	110.58
386.913	108.58
387.138	101.18
387.363	102.78
387.588	93.58
387.813	98.98
388.038	97.18
388.263	98.98
388.488	96.98
388.713	98.98
388.938	103.58
389.163	99.98
389.387	101.58
389.612	100.18
389.837	99.38
390.062	98.18
390.287	104.18
390.512	99.18
390.736	100.98
390.961	103.98
391.186	107.18
391.411	101.78
391.636	110.18
391.86	100.78
392.085	104.78
392.31	102.98
392.534	98.98
392.759	101.38
392.984	100.98
393.208	97.78
393.433	102.98
393.658	98.98
393.882	99.58
394.107	102.98
394.331	101.38
394.556	99.78
394.78	97.38
395.005	99.38
395.229	100.58
395.454	99.98
395.678	103.18
395.903	102.38
396.127	101.98
396.352	100.38
396.576	100.18
396.801	106.18
397.025	101.18
397.249	104.38
397.474	107.58
397.698	96.78
397.922	99.98
398.147	107.98
398.371	96.78
398.595	104.38
398.82	104.38
399.044	102.38
399.268	105.58
399.492	106.38
399.717	115.58
399.941	112.78
400.165	104.78
400.389	110.38
400.613	106.78
400.837	103.18
401.062	109.18
401.286	116.78
401.51	109.58
401.734	110.98
401.958	109.58
402.182	110.58
402.406	105.38
402.63	105.98
402.854	113.38
403.078	113.38
403.302	107.78
403.526	112.18
403.75	108.78
403.974	110.58
404.198	112.18
404.422	109.58
404.645	113.38
404.869	119.38
405.093	123.58
405.317	141.38
405.541	193.18
405.765	271.18
405.988	299.38
406.212	228.38
406.436	177.18
406.66	153.18
406.883	133.58
407.107	125.58
407.331	117.38
407.555	119.38
407.778	117.78
408.002	111.18
408.226	111.78
408.449	114.38
408.673	115.38
408.896	110.38
409.12	106.98
409.344	104.98
409.567	114.58
409.791	107.18
410.014	106.78
410.238	108.78
410.461	101.78
410.685	116.18
410.908	107.18
411.132	104.58
411.355	106.58
411.578	105.38
411.802	103.18
412.025	102.38
412.249	107.58
412.472	106.78
412.695	102.98
412.919	110.58
413.142	107.78
413.365	103.18
413.589	104.98
413.812	110.18
414.035	109.98
414.258	105.38
414.482	108.38
414.705	105.18
414.928	112.98
415.151	108.58
415.374	111.78
415.597	108.18
415.821	105.18
416.044	104.98
416.267	104.38
416.49	108.58
416.713	112.78
416.936	116.78
417.159	109.58
417.382	107.98
417.605	104.38
417.828	113.98
418.051	107.18
418.274	108.58
418.497	106.58
418.72	110.18
418.943	115.58
419.166	106.38
419.389	105.18
419.611	109.18
419.834	110.18
420.057	110.78
420.28	109.58
420.503	106.18
420.726	109.78
420.948	100.58
421.171	107.98
421.394	110.98
421.617	112.78
421.839	110.18
422.062	111.78
422.285	108.58
422.507	103.98
422.73	112.98
422.953	108.18
423.175	111.98
423.398	120.98
423.621	125.98
423.843	122.78
424.066	132.18
424.288	141.38
424.511	164.78
424.733	172.18
424.956	154.58
425.178	138.98
425.401	141.78
425.623	137.38
425.846	123.78
426.068	127.38
426.291	131.38
426.513	115.38
426.735	116.18
426.958	121.78
427.18	116.78
427.402	115.98
427.625	115.98
427.847	111.98
428.069	112.38
428.292	109.58
428.514	110.78
428.736	115.38
428.958	106.38
429.181	109.58
429.403	114.78
429.625	106.78
429.847	109.58
430.069	110.58
430.292	114.78
430.514	116.78
430.736	107.78
430.958	108.78
431.18	113.78
431.402	109.18
431.624	101.18
431.846	102.58
432.068	110.78
432.29	111.78
432.512	108.78
432.734	110.78
432.956	114.38
433.178	111.58
433.4	106.58
433.622	109.58
433.844	107.78
434.066	115.78
434.287	113.98
434.509	114.78
434.731	107.98
434.953	113.38
435.175	108.18
435.397	110.38
435.618	110.98
435.84	107.78
436.062	107.18
436.284	110.18
436.505	109.38
436.727	108.58
436.949	112.98
437.17	110.58
437.392	117.98
437.614	126.38
437.835	125.18
438.057	125.38
438.278	134.78
438.5	145.78
438.721	165.78
438.943	163.18
439.165	157.38
439.386	146.98
439.608	138.58
439.829	135.98
440.05	138.78
440.272	131.78
440.493	133.38
440.715	139.38
440.936	137.78
441.158	143.98
441.379	127.78
441.6	126.58
441.822	124.78
442.043	121.18
442.264	118.98
442.486	113.78
442.707	119.58
442.928	117.98
443.149	119.38
443.371	121.58
443.592	112.98
443.813	117.78
444.034	118.98
444.255	118.78
444.476	120.78
444.698	117.38
444.919	115.58
445.14	188.78
445.361	152.78
445.582	116.98
445.803	116.78
446.024	112.78
446.245	117.18
446.466	116.98
446.687	108.98
446.908	111.38
447.129	113.58
447.35	110.98
447.571	116.98
447.792	112.78
448.013	106.58
448.234	114.18
448.455	108.18
448.675	103.58
448.896	108.98
449.117	108.18
449.338	107.98
449.559	109.38
449.779	111.98
450	110.18
450.221	110.38
450.442	104.38
450.662	106.98
450.883	103.98
451.104	103.38
451.324	104.98
451.545	106.98
451.766	106.98
451.986	107.58
452.207	108.58
452.428	109.38
452.648	104.18
452.869	107.58
453.089	98.98
453.31	98.98
453.53	105.38
453.751	104.18
453.971	112.98
454.192	103.98
454.412	99.18
454.633	102.38
454.853	106.18
455.073	106.18
455.294	103.18
455.514	105.78
455.734	102.98
455.955	104.58
456.175	103.18
456.395	102.38
456.616	99.38
456.836	102.78
457.056	102.18
457.276	98.38
457.497	101.58
457.717	107.78
457.937	107.18
458.157	107.38
458.377	104.98
458.598	103.58
458.818	99.78
459.038	101.58
459.258	97.78
459.478	98.78
459.698	98.98
459.918	103.98
460.138	105.78
460.358	101.78
460.578	106.38
460.798	99.38
461.018	106.78
461.238	106.18
461.458	105.78
461.678	102.58
461.898	105.98
462.118	108.18
462.338	109.58
462.558	101.98
462.777	104.18
462.997	110.38
463.217	107.78
463.437	108.78
463.657	106.58
463.876	112.38
464.096	107.18
464.316	105.38
464.536	113.58
464.755	106.38
464.975	109.98
465.195	108.78
465.414	108.18
465.634	104.38
465.854	109.38
466.073	106.78
466.293	108.78
466.512	103.38
466.732	103.58
466.951	104.98
467.171	107.58
467.391	107.18
467.61	105.58
467.829	108.78
468.049	108.18
468.268	108.98
468.488	110.78
468.707	106.58
468.927	109.38
469.146	105.18
469.365	109.78
469.585	106.18
469.804	108.98
470.023	105.38
470.243	109.98
470.462	102.98
470.681	108.58
470.901	113.38
471.12	108.58
471.339	111.18
471.558	108.18
471.777	102.58
471.997	109.78
472.216	106.18
472.435	107.98
472.654	99.78
472.873	101.58
473.092	100.38
473.311	106.38
473.53	105.18
473.749	112.78
473.968	106.58
474.187	99.18
474.406	97.38
474.625	109.78
474.844	111.58
475.063	107.78
475.282	105.98
475.501	108.38
475.72	114.18
475.939	103.18
476.158	101.78
476.377	105.18
476.596	113.58
476.814	99.58
477.033	106.58
477.252	107.18
477.471	112.38
477.69	110.18
477.908	111.98
478.127	114.58
478.346	110.38
478.564	114.78
478.783	111.98
479.002	115.38
479.22	115.78
479.439	115.98
479.658	110.38
479.876	115.58
480.095	111.58
480.313	113.78
480.532	111.58
480.751	112.58
480.969	109.98
481.188	108.58
481.406	111.58
481.624	106.38
481.843	112.58
482.061	103.78
482.28	113.18
482.498	106.18
482.717	109.58
482.935	109.18
483.153	113.38
483.372	107.38
483.59	109.98
483.808	111.18
484.027	111.58
484.245	114.18
484.463	113.78
484.681	114.78
484.9	110.78
485.118	110.78
485.336	110.38
485.554	110.38
485.772	111.58
485.99	115.18
486.209	111.38
486.427	108.18
486.645	113.58
486.863	112.98
487.081	114.38
487.299	113.18
487.517	107.58
487.735	106.78
487.953	112.98
488.171	112.38
488.389	111.38
488.607	111.18
488.825	115.18
489.043	107.98
489.261	112.58
489.479	119.58
489.696	111.58
489.914	114.18
490.132	118.78
490.35	112.38
490.568	115.58
490.786	114.78
491.003	114.58
491.221	122.58
491.439	113.18
491.657	117.58
491.874	106.98
492.092	121.58
492.31	123.18
492.527	117.58
492.745	123.18
492.963	119.98
493.18	114.58
493.398	116.58
493.615	119.78
493.833	110.38
494.05	114.78
494.268	120.38
494.485	115.18
494.703	117.58
494.92	114.98
495.138	122.98
495.355	125.78
495.573	124.98
495.79	115.58
496.008	116.98
496.225	115.98
496.442	118.38
496.66	116.58
496.877	121.18
497.094	122.58
497.312	113.58
497.529	120.38
497.746	120.78
497.963	113.38
498.181	110.98
498.398	119.58
498.615	117.18
498.832	119.38
499.049	122.18
499.267	126.58
499.484	130.78
499.701	120.98
499.918	130.58
500.135	127.18
500.352	137.18
500.569	146.58
500.786	163.78
501.003	145.38
501.22	136.18
501.437	132.78
501.654	125.58
501.871	118.98
502.088	124.38
502.305	129.18
502.522	125.18
502.739	125.18
502.956	128.38
503.172	124.18
503.389	120.18
503.606	122.98
503.823	118.38
504.04	125.78
504.256	122.78
504.473	127.78
504.69	127.58
504.907	134.38
505.123	124.58
505.34	122.38
505.557	121.78
505.773	129.98
505.99	123.58
506.207	117.38
506.423	119.98
506.64	116.58
506.856	111.98
507.073	117.98
507.289	121.18
507.506	114.78
507.722	115.18
507.939	114.38
508.155	116.78
508.372	113.78
508.588	117.18
508.805	121.78
