Data from ZeroMicroDelayPb_HRD10591_00014.txt Node
Date: Mon Nov 24 14:25:59 EST 2025
User: Yrep
Spectrometer: HR+D1059
Trigger mode: 0
Integration Time (sec): 1.000000E-1
Scans to average: 5
Electric dark correction enabled: true
Nonlinearity correction enabled: false
Boxcar width: 0
XAxis mode: Wavelengths
Number of Pixels in Spectrum: 2048
>>>>>Begin Spectral Data<<<<<
223.165	-15.31
223.4	-15.31
223.635	-15.31
223.869	-22.11
224.104	-16.91
224.338	-7.51
224.573	-14.11
224.808	-16.31
225.042	-3.71
225.277	-5.51
225.511	-8.51
225.746	2.49
225.98	8.69
226.215	6.69
226.449	14.09
226.683	22.29
226.918	25.09
227.152	30.69
227.387	32.69
227.621	39.29
227.856	47.09
228.09	47.29
228.324	49.29
228.559	59.69
228.793	55.29
229.027	61.29
229.262	57.69
229.496	69.69
229.73	69.09
229.964	71.69
230.199	72.09
230.433	75.49
230.667	78.49
230.901	82.29
231.136	79.89
231.37	75.09
231.604	75.89
231.838	78.29
232.072	85.69
232.306	79.29
232.541	81.89
232.775	82.29
233.009	87.49
233.243	86.89
233.477	83.49
233.711	84.09
233.945	79.89
234.179	82.49
234.413	85.29
234.647	87.69
234.881	82.69
235.115	81.89
235.349	88.09
235.583	78.09
235.817	76.69
236.051	77.89
236.285	80.09
236.519	79.69
236.753	79.49
236.987	75.69
237.221	75.89
237.455	77.49
237.689	80.29
237.922	81.29
238.156	70.49
238.39	79.69
238.624	76.49
238.858	77.69
239.091	76.69
239.325	74.69
239.559	77.49
239.793	83.89
240.027	80.89
240.26	79.29
240.494	79.69
240.728	79.09
240.961	80.29
241.195	82.49
241.429	81.09
241.662	74.69
241.896	74.89
242.13	72.89
242.363	77.89
242.597	81.09
242.83	82.69
243.064	78.09
243.298	82.49
243.531	86.69
243.765	81.09
243.998	79.29
244.232	77.09
244.465	78.49
244.699	75.89
244.932	78.49
245.166	84.29
245.399	88.89
245.633	80.29
245.866	84.89
246.099	75.09
246.333	78.49
246.566	78.69
246.8	83.69
247.033	82.09
247.266	78.69
247.5	78.29
247.733	89.69
247.966	85.29
248.2	89.29
248.433	80.49
248.666	78.49
248.899	85.69
249.133	81.49
249.366	88.89
249.599	79.09
249.832	87.09
250.066	87.29
250.299	74.89
250.532	84.89
250.765	83.29
250.998	88.29
251.231	82.29
251.465	90.49
251.698	83.29
251.931	88.69
252.164	90.09
252.397	84.09
252.63	85.69
252.863	83.09
253.096	81.29
253.329	87.69
253.562	85.29
253.795	87.49
254.028	93.09
254.261	89.29
254.494	88.49
254.727	88.69
254.96	89.69
255.193	87.69
255.426	86.09
255.659	91.49
255.892	91.09
256.124	93.69
256.357	88.09
256.59	93.29
256.823	95.09
257.056	84.89
257.289	92.49
257.521	92.49
257.754	96.69
257.987	93.29
258.22	93.89
258.452	90.89
258.685	87.09
258.918	88.89
259.151	89.69
259.383	88.29
259.616	91.69
259.849	92.49
260.081	96.09
260.314	96.29
260.547	97.29
260.779	95.49
261.012	104.09
261.244	108.09
261.477	112.69
261.71	113.49
261.942	104.69
262.175	102.49
262.407	92.29
262.64	97.29
262.872	98.49
263.105	87.89
263.337	84.89
263.57	87.49
263.802	95.09
264.035	97.89
264.267	98.29
264.499	96.49
264.732	96.89
264.964	104.29
265.197	100.49
265.429	99.69
265.661	98.29
265.894	97.09
266.126	99.29
266.358	103.49
266.591	108.89
266.823	100.09
267.055	96.09
267.287	93.89
267.52	89.29
267.752	83.89
267.984	95.09
268.216	95.29
268.448	91.29
268.681	92.49
268.913	93.29
269.145	86.89
269.377	86.89
269.609	93.29
269.841	86.09
270.073	90.69
270.306	88.49
270.538	92.49
270.77	88.49
271.002	95.09
271.234	87.69
271.466	96.09
271.698	91.09
271.93	88.09
272.162	99.09
272.394	92.09
272.626	92.89
272.858	89.49
273.09	88.69
273.322	87.69
273.553	87.49
273.785	100.29
274.017	92.09
274.249	93.89
274.481	91.09
274.713	82.89
274.945	92.89
275.176	88.29
275.408	87.49
275.64	91.69
275.872	97.89
276.104	89.89
276.335	87.29
276.567	92.49
276.799	91.69
277.031	88.69
277.262	92.89
277.494	92.29
277.726	91.29
277.957	105.29
278.189	94.89
278.421	95.29
278.652	95.49
278.884	101.09
279.115	99.29
279.347	103.89
279.579	112.89
279.81	118.09
280.042	129.49
280.273	146.09
280.505	132.69
280.736	119.09
280.968	104.89
281.199	103.29
281.431	105.49
281.662	99.29
281.894	113.69
282.125	115.09
282.356	108.89
282.588	109.69
282.819	105.69
283.051	109.69
283.282	118.89
283.513	134.29
283.745	119.69
283.976	107.09
284.207	107.89
284.439	103.29
284.67	92.89
284.901	100.49
285.132	102.49
285.364	96.49
285.595	96.49
285.826	103.09
286.057	102.49
286.288	103.09
286.52	97.09
286.751	99.29
286.982	112.69
287.213	114.49
287.444	119.49
287.675	113.49
287.906	99.69
288.138	101.49
288.369	98.09
288.6	88.29
288.831	103.69
289.062	101.29
289.293	92.89
289.524	90.69
289.755	94.89
289.986	98.89
290.217	90.49
290.448	92.89
290.679	96.69
290.91	99.49
291.141	94.89
291.371	99.29
291.602	94.49
291.833	95.49
292.064	92.89
292.295	100.89
292.526	94.69
292.757	98.49
292.987	100.49
293.218	89.69
293.449	97.89
293.68	97.89
293.91	96.69
294.141	95.69
294.372	97.49
294.603	95.09
294.833	104.69
295.064	98.09
295.295	97.09
295.525	93.29
295.756	93.29
295.987	98.29
296.217	97.89
296.448	102.69
296.679	94.09
296.909	97.09
297.14	100.29
297.37	96.49
297.601	95.89
297.831	100.89
298.062	91.29
298.292	90.89
298.523	93.29
298.753	100.69
298.984	98.29
299.214	94.69
299.445	97.89
299.675	100.89
299.905	96.89
300.136	97.09
300.366	92.49
300.597	97.69
300.827	103.49
301.057	105.29
301.288	100.69
301.518	96.29
301.748	101.49
301.979	105.89
302.209	107.49
302.439	103.69
302.669	103.49
302.9	97.09
303.13	100.69
303.36	94.69
303.59	94.49
303.82	97.49
304.051	102.49
304.281	102.49
304.511	101.29
304.741	95.09
304.971	91.69
305.201	103.09
305.431	101.89
305.661	97.49
305.891	99.49
306.121	103.69
306.352	95.89
306.582	92.49
306.812	94.09
307.042	93.09
307.272	94.29
307.502	98.89
307.731	98.49
307.961	102.09
308.191	96.29
308.421	97.49
308.651	95.69
308.881	100.09
309.111	96.49
309.341	95.29
309.571	100.89
309.8	97.09
310.03	101.89
310.26	95.49
310.49	92.89
310.72	93.49
310.949	104.89
311.179	107.49
311.409	98.49
311.639	102.89
311.868	95.29
312.098	101.29
312.328	106.49
312.557	103.49
312.787	106.49
313.017	110.49
313.246	101.49
313.476	108.69
313.706	101.69
313.935	101.49
314.165	99.69
314.394	102.09
314.624	101.29
314.853	103.29
315.083	106.49
315.312	97.89
315.542	107.09
315.771	108.69
316.001	99.29
316.23	101.29
316.46	95.09
316.689	99.49
316.919	105.09
317.148	104.49
317.377	108.89
317.607	99.89
317.836	105.69
318.065	100.49
318.295	105.09
318.524	102.49
318.753	106.89
318.983	97.09
319.212	103.29
319.441	94.69
319.67	102.29
319.9	104.49
320.129	94.49
320.358	100.29
320.587	99.69
320.816	101.09
321.046	99.29
321.275	108.09
321.504	106.29
321.733	103.89
321.962	95.89
322.191	95.69
322.42	104.69
322.649	102.29
322.878	99.09
323.108	101.89
323.337	99.09
323.566	98.89
323.795	99.69
324.024	103.89
324.253	101.09
324.482	96.49
324.71	96.29
324.939	102.49
325.168	99.09
325.397	94.29
325.626	99.89
325.855	94.49
326.084	102.69
326.313	101.29
326.542	108.09
326.77	100.69
326.999	93.69
327.228	105.29
327.457	96.89
327.686	97.49
327.914	107.69
328.143	104.09
328.372	96.89
328.6	98.49
328.829	103.69
329.058	103.89
329.287	104.49
329.515	102.69
329.744	102.49
329.972	96.89
330.201	96.09
330.43	95.29
330.658	96.09
330.887	104.49
331.115	95.09
331.344	100.69
331.572	96.49
331.801	98.09
332.03	103.69
332.258	103.89
332.486	99.89
332.715	101.49
332.943	103.49
333.172	100.49
333.4	103.29
333.629	99.29
333.857	101.49
334.085	106.69
334.314	95.89
334.542	102.89
334.771	94.69
334.999	98.89
335.227	94.89
335.455	103.69
335.684	101.89
335.912	99.49
336.14	92.49
336.369	106.29
336.597	100.49
336.825	89.69
337.053	96.49
337.281	102.09
337.51	108.69
337.738	103.09
337.966	104.09
338.194	95.49
338.422	97.09
338.65	98.49
338.878	101.29
339.106	102.49
339.334	98.89
339.562	100.69
339.79	100.69
340.018	105.09
340.246	98.89
340.474	94.49
340.702	99.69
340.93	96.09
341.158	103.29
341.386	102.09
341.614	101.29
341.842	102.89
342.07	100.49
342.298	100.89
342.526	103.49
342.754	104.49
342.981	98.29
343.209	102.29
343.437	112.49
343.665	93.09
343.893	103.29
344.12	101.89
344.348	105.09
344.576	103.49
344.804	103.49
345.031	101.29
345.259	99.49
345.487	95.29
345.714	103.29
345.942	104.29
346.17	106.89
346.397	99.69
346.625	94.89
346.853	100.29
347.08	96.69
347.308	102.09
347.535	99.29
347.763	99.09
347.99	98.89
348.218	103.69
348.445	98.89
348.673	94.49
348.9	100.29
349.128	101.69
349.355	102.49
349.583	102.09
349.81	98.29
350.037	102.29
350.265	97.09
350.492	94.49
350.72	92.89
350.947	98.09
351.174	94.69
351.402	95.49
351.629	98.29
351.856	96.69
352.083	97.09
352.311	101.89
352.538	105.89
352.765	103.89
352.992	105.89
353.22	100.29
353.447	104.09
353.674	100.69
353.901	101.29
354.128	102.89
354.355	104.09
354.583	97.29
354.81	105.29
355.037	104.29
355.264	105.89
355.491	105.29
355.718	105.89
355.945	108.49
356.172	107.29
356.399	105.29
356.626	108.29
356.853	116.29
357.08	143.29
357.307	154.49
357.534	159.09
357.761	136.89
357.988	121.49
358.215	109.89
358.441	114.29
358.668	110.89
358.895	106.09
359.122	110.09
359.349	101.89
359.576	101.29
359.802	107.09
360.029	102.89
360.256	107.69
360.483	102.49
360.709	101.49
360.936	106.49
361.163	98.09
361.39	98.09
361.616	100.49
361.843	94.29
362.07	99.49
362.296	97.69
362.523	106.29
362.749	103.49
362.976	104.09
363.203	120.29
363.429	115.49
363.656	137.09
363.882	167.49
364.109	181.89
364.335	149.89
364.562	134.09
364.788	118.29
365.015	112.89
365.241	112.89
365.468	118.29
365.694	105.89
365.92	106.69
366.147	106.69
366.373	101.09
366.599	110.09
366.826	113.89
367.052	117.29
367.278	121.69
367.505	122.09
367.731	132.89
367.957	140.89
368.184	175.09
368.41	212.49
368.636	195.29
368.862	137.49
369.089	125.09
369.315	118.49
369.541	118.49
369.767	112.09
369.993	110.09
370.219	109.29
370.445	103.49
370.672	105.89
370.898	100.29
371.124	104.69
371.35	104.29
371.576	104.89
371.802	100.89
372.028	99.69
372.254	99.89
372.48	103.69
372.706	108.89
372.932	111.09
373.158	104.29
373.384	112.69
373.61	127.69
373.835	149.89
374.061	161.69
374.287	161.29
374.513	128.09
374.739	124.49
374.965	107.69
375.191	111.29
375.416	105.09
375.642	110.69
375.868	102.49
376.094	105.29
376.319	102.89
376.545	102.69
376.771	101.69
376.997	99.29
377.222	97.29
377.448	100.69
377.674	102.09
377.899	96.09
378.125	105.29
378.35	107.29
378.576	96.49
378.802	107.49
379.027	98.89
379.253	106.29
379.478	99.49
379.704	101.29
379.929	97.29
380.155	99.49
380.38	97.89
380.606	102.09
380.831	103.89
381.057	100.49
381.282	99.49
381.507	103.89
381.733	103.89
381.958	101.09
382.184	102.29
382.409	101.29
382.634	98.09
382.86	101.29
383.085	101.29
383.31	99.69
383.535	109.69
383.761	98.09
383.986	105.09
384.211	101.69
384.436	107.89
384.662	108.29
384.887	106.49
385.112	104.29
385.337	110.89
385.562	99.69
385.787	102.29
386.013	107.29
386.238	103.09
386.463	105.29
386.688	106.69
386.913	104.69
387.138	101.09
387.363	106.89
387.588	104.49
387.813	108.29
388.038	107.69
388.263	106.69
388.488	99.09
388.713	95.49
388.938	99.69
389.163	101.69
389.387	106.09
389.612	96.49
389.837	104.69
390.062	96.89
390.287	101.09
390.512	108.29
390.736	106.49
390.961	105.29
391.186	104.29
391.411	102.69
391.636	100.69
391.86	102.69
392.085	108.09
392.31	105.29
392.534	104.69
392.759	102.09
392.984	109.49
393.208	98.89
393.433	109.69
393.658	110.29
393.882	102.29
394.107	102.49
394.331	104.49
394.556	104.29
394.78	103.09
395.005	104.89
395.229	110.89
395.454	109.09
395.678	101.89
395.903	110.09
396.127	107.89
396.352	101.69
396.576	106.09
396.801	104.09
397.025	104.49
397.249	106.49
397.474	107.89
397.698	102.69
397.922	105.49
398.147	101.89
398.371	104.09
398.595	113.49
398.82	101.09
399.044	105.49
399.268	99.89
399.492	114.09
399.717	111.49
399.941	113.29
400.165	111.49
400.389	110.69
400.613	110.09
400.837	113.49
401.062	105.89
401.286	110.49
401.51	112.29
401.734	108.09
401.958	120.69
402.182	112.49
402.406	106.49
402.63	106.09
402.854	109.49
403.078	106.69
403.302	116.49
403.526	113.49
403.75	108.89
403.974	105.89
404.198	110.89
404.422	113.09
404.645	118.09
404.869	120.09
405.093	130.69
405.317	150.69
405.541	203.89
405.765	271.09
405.988	310.69
406.212	222.29
406.436	177.49
406.66	148.69
406.883	134.29
407.107	132.69
407.331	127.09
407.555	122.69
407.778	121.49
408.002	119.29
408.226	119.29
408.449	108.29
408.673	109.29
408.896	121.49
409.12	115.49
409.344	115.69
409.567	108.49
409.791	110.09
410.014	117.09
410.238	107.49
410.461	107.89
410.685	110.89
410.908	107.09
411.132	112.89
411.355	108.69
411.578	112.89
411.802	110.49
412.025	111.29
412.249	112.09
412.472	110.89
412.695	107.89
412.919	105.89
413.142	106.69
413.365	106.49
413.589	111.69
413.812	109.69
414.035	113.89
414.258	107.89
414.482	110.89
414.705	112.09
414.928	103.09
415.151	114.09
415.374	109.09
415.597	113.89
415.821	105.09
416.044	108.49
416.267	115.69
416.49	111.69
416.713	109.69
416.936	108.09
417.159	109.69
417.382	115.89
417.605	102.49
417.828	113.09
418.051	114.09
418.274	106.09
418.497	105.09
418.72	110.09
418.943	105.49
419.166	102.49
419.389	108.49
419.611	104.49
419.834	113.89
420.057	111.29
420.28	111.09
420.503	106.09
420.726	106.29
420.948	111.49
421.171	106.69
421.394	110.09
421.617	112.09
421.839	112.29
422.062	121.29
422.285	108.69
422.507	108.89
422.73	112.69
422.953	116.29
423.175	118.69
423.398	120.29
423.621	129.09
423.843	133.09
424.066	137.29
424.288	155.29
424.511	178.09
424.733	182.29
424.956	163.69
425.178	152.69
425.401	147.89
425.623	135.89
425.846	125.89
426.068	131.69
426.291	126.29
426.513	117.69
426.735	117.29
426.958	113.89
427.18	118.29
427.402	121.49
427.625	111.09
427.847	116.09
428.069	114.89
428.292	113.69
428.514	114.89
428.736	111.09
428.958	112.29
429.181	116.49
429.403	109.69
429.625	114.29
429.847	111.89
430.069	111.49
430.292	109.49
430.514	104.49
430.736	105.69
430.958	108.09
431.18	108.49
431.402	107.49
431.624	106.29
431.846	103.29
432.068	103.69
432.29	101.29
432.512	114.69
432.734	110.69
432.956	114.29
433.178	121.89
433.4	113.69
433.622	114.29
433.844	118.29
434.066	118.89
434.287	112.89
434.509	114.09
434.731	113.89
434.953	109.29
435.175	106.29
435.397	113.89
435.618	106.89
435.84	105.09
436.062	113.69
436.284	112.49
436.505	113.09
436.727	119.69
436.949	118.09
437.17	116.09
437.392	114.69
437.614	123.49
437.835	123.29
438.057	125.89
438.278	135.49
438.5	143.29
438.721	166.09
438.943	165.69
439.165	157.89
439.386	152.89
439.608	146.49
439.829	134.49
440.05	134.89
440.272	134.69
440.493	137.69
440.715	139.89
440.936	150.09
441.158	139.89
441.379	127.89
441.6	130.49
441.822	130.49
442.043	127.09
442.264	123.89
442.486	125.89
442.707	124.29
442.928	123.89
443.149	120.49
443.371	123.29
443.592	117.49
443.813	118.69
444.034	120.29
444.255	121.29
444.476	107.89
444.698	117.29
444.919	115.09
445.14	186.69
445.361	151.09
445.582	117.49
445.803	111.29
446.024	109.49
446.245	126.89
446.466	112.09
446.687	119.69
446.908	118.29
447.129	115.89
447.35	116.49
447.571	111.09
447.792	112.29
448.013	116.49
448.234	118.69
448.455	107.49
448.675	109.29
448.896	105.09
449.117	107.69
449.338	107.29
449.559	115.89
449.779	115.69
450	103.49
450.221	103.69
450.442	109.29
450.662	110.69
450.883	111.49
451.104	117.69
451.324	112.29
451.545	114.09
451.766	110.29
451.986	102.09
452.207	112.69
452.428	107.09
452.648	107.09
452.869	105.89
453.089	101.29
453.31	103.49
453.53	102.09
453.751	100.29
453.971	103.49
454.192	101.29
454.412	96.09
454.633	99.09
454.853	104.09
455.073	97.29
455.294	105.69
455.514	108.89
455.734	105.29
455.955	103.29
456.175	108.89
456.395	106.49
456.616	104.89
456.836	108.29
457.056	108.69
457.276	104.49
457.497	109.09
457.717	104.89
457.937	102.89
458.157	102.09
458.377	94.89
458.598	95.69
458.818	102.89
459.038	101.29
459.258	102.69
459.478	104.09
459.698	103.09
459.918	99.09
460.138	102.69
460.358	110.69
460.578	111.09
460.798	105.29
461.018	113.29
461.238	115.49
461.458	101.89
461.678	112.89
461.898	113.29
462.118	109.69
462.338	111.69
462.558	111.29
462.777	111.09
462.997	107.09
463.217	116.49
463.437	112.09
463.657	109.89
463.876	107.89
464.096	108.29
464.316	109.89
464.536	114.69
464.755	107.49
464.975	105.49
465.195	104.29
465.414	114.29
465.634	109.49
465.854	110.09
466.073	105.89
466.293	109.29
466.512	104.49
466.732	98.89
466.951	108.09
467.171	103.29
467.391	102.09
467.61	107.29
467.829	110.89
468.049	106.89
468.268	112.89
468.488	100.49
468.707	107.69
468.927	109.09
469.146	111.09
469.365	108.29
469.585	108.09
469.804	108.29
470.023	111.49
470.243	111.49
470.462	111.69
470.681	111.09
470.901	108.49
471.12	102.89
471.339	102.69
471.558	110.89
471.777	103.89
471.997	109.89
472.216	112.49
472.435	110.69
472.654	104.89
472.873	109.69
473.092	104.89
473.311	109.89
473.53	109.09
473.749	108.69
473.968	103.89
474.187	104.89
474.406	104.29
474.625	112.89
474.844	107.09
475.063	106.29
475.282	104.69
475.501	113.09
475.72	115.89
475.939	112.09
476.158	104.89
476.377	104.09
476.596	106.49
476.814	104.49
477.033	104.49
477.252	111.69
477.471	104.49
477.69	110.49
477.908	111.29
478.127	114.29
478.346	110.69
478.564	112.89
478.783	113.29
479.002	115.69
479.22	110.49
479.439	115.09
479.658	113.49
479.876	108.89
480.095	107.89
480.313	110.69
480.532	112.89
480.751	112.89
480.969	107.29
481.188	101.69
481.406	107.49
481.624	110.09
481.843	111.69
482.061	112.29
482.28	113.69
482.498	111.69
482.717	112.69
482.935	107.69
483.153	110.29
483.372	110.49
483.59	110.69
483.808	113.09
484.027	112.69
484.245	117.69
484.463	113.49
484.681	111.89
484.9	121.29
485.118	111.49
485.336	111.49
485.554	111.49
485.772	113.29
485.99	114.29
486.209	111.49
486.427	109.29
486.645	114.89
486.863	115.69
487.081	110.49
487.299	111.89
487.517	110.69
487.735	119.09
487.953	118.49
488.171	122.49
488.389	118.69
488.607	117.89
488.825	116.29
489.043	116.29
489.261	117.29
489.479	120.69
489.696	111.29
489.914	118.29
490.132	108.69
490.35	113.89
490.568	118.29
490.786	123.89
491.003	114.09
491.221	119.29
491.439	116.69
491.657	117.69
491.874	125.09
492.092	123.89
492.31	122.69
492.527	120.09
492.745	121.89
492.963	120.09
493.18	112.29
493.398	115.89
493.615	115.29
493.833	114.69
494.05	118.29
494.268	122.09
494.485	122.09
494.703	113.69
494.92	114.49
495.138	121.49
495.355	120.89
495.573	123.89
495.79	121.69
496.008	112.69
496.225	121.29
496.442	119.49
496.66	119.89
496.877	120.89
497.094	116.89
497.312	121.09
497.529	123.29
497.746	126.69
497.963	119.09
498.181	120.09
498.398	119.69
498.615	116.49
498.832	120.49
499.049	118.89
499.267	122.89
499.484	123.69
499.701	131.29
499.918	140.49
500.135	137.69
500.352	137.89
500.569	151.29
500.786	161.49
501.003	144.89
501.22	134.29
501.437	131.49
501.654	125.29
501.871	128.89
502.088	126.69
502.305	125.29
502.522	132.69
502.739	124.49
502.956	119.29
503.172	131.29
503.389	122.29
503.606	132.49
503.823	130.29
504.04	130.29
504.256	130.29
504.473	127.69
504.69	132.69
504.907	132.49
505.123	127.49
505.34	120.29
505.557	130.89
505.773	124.29
505.99	121.69
506.207	123.49
506.423	121.09
506.64	117.29
506.856	116.89
507.073	117.69
507.289	117.69
507.506	119.89
507.722	117.29
507.939	115.49
