Data from ZeroMicroDelayPb_HRD10591_00010.txt Node
Date: Mon Nov 24 14:25:57 EST 2025
User: Yrep
Spectrometer: HR+D1059
Trigger mode: 0
Integration Time (sec): 1.000000E-1
Scans to average: 5
Electric dark correction enabled: true
Nonlinearity correction enabled: false
Boxcar width: 0
XAxis mode: Wavelengths
Number of Pixels in Spectrum: 2048
>>>>>Begin Spectral Data<<<<<
223.165	-18.24
223.4	-18.24
223.635	-18.24
223.869	-20.04
224.104	-25.44
224.338	-13.24
224.573	-13.24
224.808	-19.64
225.042	-8.04
225.277	-4.24
225.511	-6.24
225.746	5.16
225.98	8.56
226.215	11.56
226.449	21.56
226.683	21.56
226.918	27.56
227.152	32.36
227.387	38.56
227.621	38.16
227.856	47.76
228.09	48.76
228.324	55.16
228.559	51.36
228.793	63.76
229.027	59.56
229.262	70.16
229.496	63.96
229.73	72.36
229.964	69.16
230.199	73.16
230.433	75.16
230.667	76.16
230.901	73.36
231.136	82.96
231.37	84.76
231.604	83.16
231.838	82.76
232.072	77.56
232.306	81.56
232.541	84.96
232.775	81.76
233.009	90.36
233.243	83.16
233.477	79.36
233.711	82.36
233.945	80.76
234.179	81.16
234.413	84.76
234.647	81.96
234.881	78.96
235.115	81.36
235.349	84.96
235.583	84.16
235.817	79.96
236.051	73.76
236.285	80.16
236.519	86.96
236.753	79.96
236.987	76.16
237.221	79.96
237.455	72.96
237.689	76.36
237.922	78.36
238.156	89.76
238.39	75.36
238.624	81.96
238.858	85.36
239.091	81.36
239.325	75.36
239.559	81.56
239.793	85.56
240.027	86.96
240.26	80.56
240.494	80.36
240.728	77.56
240.961	78.56
241.195	80.16
241.429	82.16
241.662	82.96
241.896	83.96
242.13	77.56
242.363	85.16
242.597	82.76
242.83	85.36
243.064	80.76
243.298	80.16
243.531	84.96
243.765	83.36
243.998	81.16
244.232	84.76
244.465	85.76
244.699	79.16
244.932	82.16
245.166	78.36
245.399	82.56
245.633	89.56
245.866	90.76
246.099	84.96
246.333	82.56
246.566	81.96
246.8	77.76
247.033	79.16
247.266	80.76
247.5	90.56
247.733	88.76
247.966	86.36
248.2	89.36
248.433	84.96
248.666	84.96
248.899	80.36
249.133	83.96
249.366	87.96
249.599	82.16
249.832	84.16
250.066	83.36
250.299	85.96
250.532	78.56
250.765	85.76
250.998	78.96
251.231	87.16
251.465	90.96
251.698	87.56
251.931	83.56
252.164	86.16
252.397	83.16
252.63	88.76
252.863	87.56
253.096	87.76
253.329	83.36
253.562	90.36
253.795	80.56
254.028	92.56
254.261	91.56
254.494	86.96
254.727	94.76
254.96	91.56
255.193	92.16
255.426	94.76
255.659	84.76
255.892	89.56
256.124	83.56
256.357	91.16
256.59	90.36
256.823	83.76
257.056	86.36
257.289	90.96
257.521	92.16
257.754	90.36
257.987	100.16
258.22	97.96
258.452	92.96
258.685	87.36
258.918	83.76
259.151	88.56
259.383	93.76
259.616	94.76
259.849	93.96
260.081	95.16
260.314	90.56
260.547	96.96
260.779	90.16
261.012	104.16
261.244	102.76
261.477	122.16
261.71	118.56
261.942	109.96
262.175	103.56
262.407	96.36
262.64	98.36
262.872	93.36
263.105	88.76
263.337	94.36
263.57	92.56
263.802	96.16
264.035	96.56
264.267	96.96
264.499	96.16
264.732	95.76
264.964	96.76
265.197	97.36
265.429	97.96
265.661	90.96
265.894	99.56
266.126	92.56
266.358	100.76
266.591	106.56
266.823	96.16
267.055	92.16
267.287	97.56
267.52	88.76
267.752	96.36
267.984	94.96
268.216	94.16
268.448	92.56
268.681	94.76
268.913	93.36
269.145	85.96
269.377	90.16
269.609	86.56
269.841	96.16
270.073	88.56
270.306	85.36
270.538	91.56
270.77	88.56
271.002	92.56
271.234	90.16
271.466	91.56
271.698	81.96
271.93	86.56
272.162	88.56
272.394	89.96
272.626	89.96
272.858	93.56
273.09	87.36
273.322	86.36
273.553	86.36
273.785	91.16
274.017	90.76
274.249	91.16
274.481	83.36
274.713	94.16
274.945	95.76
275.176	92.76
275.408	89.96
275.64	92.16
275.872	93.76
276.104	96.96
276.335	87.16
276.567	92.36
276.799	94.76
277.031	97.16
277.262	89.96
277.494	95.76
277.726	99.16
277.957	97.56
278.189	93.56
278.421	99.16
278.652	101.36
278.884	101.16
279.115	111.96
279.347	108.16
279.579	101.76
279.81	117.76
280.042	131.16
280.273	149.96
280.505	138.16
280.736	125.36
280.968	111.76
281.199	111.16
281.431	100.76
281.662	103.96
281.894	103.16
282.125	105.96
282.356	122.36
282.588	110.96
282.819	101.16
283.051	110.96
283.282	122.36
283.513	128.96
283.745	122.76
283.976	106.16
284.207	104.36
284.439	96.76
284.67	101.56
284.901	99.56
285.132	99.36
285.364	94.76
285.595	99.96
285.826	94.16
286.057	100.96
286.288	95.36
286.52	98.76
286.751	104.36
286.982	103.16
287.213	117.56
287.444	121.36
287.675	111.56
287.906	99.56
288.138	98.56
288.369	99.96
288.6	99.16
288.831	95.96
289.062	101.96
289.293	92.36
289.524	97.16
289.755	95.96
289.986	90.96
290.217	95.36
290.448	98.36
290.679	99.16
290.91	93.96
291.141	91.96
291.371	101.16
291.602	99.96
291.833	96.16
292.064	98.56
292.295	93.96
292.526	94.16
292.757	95.56
292.987	94.96
293.218	98.76
293.449	96.76
293.68	95.56
293.91	94.96
294.141	96.16
294.372	98.16
294.603	100.36
294.833	93.96
295.064	95.36
295.295	99.56
295.525	94.56
295.756	99.16
295.987	87.96
296.217	100.76
296.448	99.16
296.679	89.56
296.909	98.76
297.14	94.96
297.37	96.36
297.601	95.96
297.831	87.96
298.062	95.16
298.292	92.76
298.523	94.56
298.753	98.56
298.984	101.56
299.214	94.36
299.445	97.76
299.675	100.96
299.905	99.16
300.136	97.36
300.366	97.96
300.597	96.36
300.827	96.76
301.057	91.96
301.288	97.56
301.518	101.56
301.748	100.16
301.979	108.56
302.209	96.56
302.439	94.56
302.669	102.36
302.9	97.16
303.13	98.96
303.36	105.76
303.59	100.16
303.82	97.16
304.051	100.56
304.281	101.96
304.511	101.36
304.741	99.16
304.971	96.36
305.201	99.36
305.431	101.76
305.661	98.96
305.891	94.96
306.121	96.36
306.352	91.76
306.582	97.56
306.812	103.16
307.042	99.56
307.272	100.16
307.502	97.16
307.731	98.76
307.961	91.16
308.191	105.16
308.421	99.96
308.651	95.56
308.881	101.36
309.111	97.76
309.341	95.76
309.571	99.56
309.8	96.96
310.03	101.56
310.26	102.96
310.49	97.56
310.72	96.16
310.949	101.56
311.179	99.56
311.409	100.76
311.639	102.16
311.868	102.76
312.098	101.36
312.328	96.76
312.557	102.16
312.787	99.96
313.017	98.96
313.246	102.76
313.476	106.96
313.706	108.96
313.935	110.96
314.165	101.96
314.394	97.56
314.624	102.56
314.853	102.76
315.083	106.96
315.312	104.16
315.542	110.36
315.771	98.96
316.001	99.56
316.23	102.76
316.46	99.16
316.689	109.16
316.919	105.16
317.148	105.56
317.377	103.36
317.607	97.56
317.836	111.56
318.065	106.16
318.295	110.76
318.524	101.56
318.753	99.96
318.983	100.16
319.212	101.76
319.441	98.36
319.67	101.16
319.9	99.36
320.129	102.56
320.358	95.16
320.587	100.96
320.816	102.36
321.046	99.96
321.275	96.36
321.504	96.16
321.733	99.56
321.962	100.96
322.191	105.76
322.42	104.36
322.649	98.76
322.878	97.36
323.108	95.16
323.337	100.16
323.566	98.96
323.795	95.96
324.024	100.96
324.253	102.36
324.482	100.96
324.71	102.56
324.939	104.16
325.168	98.96
325.397	99.16
325.626	100.36
325.855	101.96
326.084	97.76
326.313	97.96
326.542	95.96
326.77	103.76
326.999	96.16
327.228	96.36
327.457	93.16
327.686	104.36
327.914	103.56
328.143	105.56
328.372	99.76
328.6	99.96
328.829	99.16
329.058	95.96
329.287	96.96
329.515	100.56
329.744	103.56
329.972	96.56
330.201	96.96
330.43	105.96
330.658	103.96
330.887	97.76
331.115	100.96
331.344	95.16
331.572	103.96
331.801	99.76
332.03	101.36
332.258	96.16
332.486	98.36
332.715	93.36
332.943	100.76
333.172	98.36
333.4	97.56
333.629	96.96
333.857	104.36
334.085	102.76
334.314	93.16
334.542	101.76
334.771	96.56
334.999	97.76
335.227	102.56
335.455	102.36
335.684	105.36
335.912	98.76
336.14	101.36
336.369	96.36
336.597	98.56
336.825	96.16
337.053	94.76
337.281	103.76
337.51	93.36
337.738	105.56
337.966	106.96
338.194	101.56
338.422	96.76
338.65	98.16
338.878	104.76
339.106	102.56
339.334	98.36
339.562	95.36
339.79	98.36
340.018	105.16
340.246	96.16
340.474	100.56
340.702	96.16
340.93	98.36
341.158	91.76
341.386	97.96
341.614	100.76
341.842	108.36
342.07	99.56
342.298	93.16
342.526	96.16
342.754	96.56
342.981	91.96
343.209	101.36
343.437	107.96
343.665	95.56
343.893	97.16
344.12	103.96
344.348	106.96
344.576	97.76
344.804	99.36
345.031	99.76
345.259	93.36
345.487	96.36
345.714	104.56
345.942	98.56
346.17	95.16
346.397	101.96
346.625	89.76
346.853	92.16
347.08	94.56
347.308	95.76
347.535	98.96
347.763	106.76
347.99	95.16
348.218	98.16
348.445	100.16
348.673	98.76
348.9	97.36
349.128	102.96
349.355	99.96
349.583	103.56
349.81	98.76
350.037	101.76
350.265	101.56
350.492	97.76
350.72	95.96
350.947	94.96
351.174	98.36
351.402	96.16
351.629	95.76
351.856	101.16
352.083	96.96
352.311	99.56
352.538	102.56
352.765	95.96
352.992	103.16
353.22	105.16
353.447	97.36
353.674	100.96
353.901	105.36
354.128	99.56
354.355	97.56
354.583	93.36
354.81	98.76
355.037	101.36
355.264	101.16
355.491	102.16
355.718	97.76
355.945	98.36
356.172	102.16
356.399	99.56
356.626	107.76
356.853	118.96
357.08	129.56
357.307	159.36
357.534	146.56
357.761	129.36
357.988	122.16
358.215	121.96
358.441	109.76
358.668	107.16
358.895	105.56
359.122	110.56
359.349	113.56
359.576	106.76
359.802	95.36
360.029	109.36
360.256	100.36
360.483	98.76
360.709	104.56
360.936	110.96
361.163	101.56
361.39	99.76
361.616	98.16
361.843	107.36
362.07	112.16
362.296	104.16
362.523	107.36
362.749	107.96
362.976	102.56
363.203	116.76
363.429	119.96
363.656	136.76
363.882	160.96
364.109	182.96
364.335	149.36
364.562	126.16
364.788	113.96
365.015	112.96
365.241	106.36
365.468	111.76
365.694	103.36
365.92	104.16
366.147	109.36
366.373	108.76
366.599	108.16
366.826	115.96
367.052	114.96
367.278	122.56
367.505	120.36
367.731	125.76
367.957	133.96
368.184	168.16
368.41	204.36
368.636	190.56
368.862	153.36
369.089	129.96
369.315	114.76
369.541	116.56
369.767	112.56
369.993	115.76
370.219	105.96
370.445	110.16
370.672	108.36
370.898	105.96
371.124	109.96
371.35	101.56
371.576	103.36
371.802	99.16
372.028	94.76
372.254	102.36
372.48	108.36
372.706	101.96
372.932	105.96
373.158	108.16
373.384	117.56
373.61	121.76
373.835	141.36
374.061	160.56
374.287	159.56
374.513	127.76
374.739	108.16
374.965	115.76
375.191	110.56
375.416	101.96
375.642	107.96
375.868	104.56
376.094	105.16
376.319	105.56
376.545	99.96
376.771	98.16
376.997	100.56
377.222	104.76
377.448	103.36
377.674	104.76
377.899	98.36
378.125	104.16
378.35	110.16
378.576	102.56
378.802	104.56
379.027	106.76
379.253	107.76
379.478	99.16
379.704	100.96
379.929	102.16
380.155	101.16
380.38	95.76
380.606	102.56
380.831	94.56
381.057	107.16
381.282	97.36
381.507	99.96
381.733	99.36
381.958	104.76
382.184	97.56
382.409	100.56
382.634	102.76
382.86	104.36
383.085	98.16
383.31	102.36
383.535	98.96
383.761	100.76
383.986	98.76
384.211	102.96
384.436	107.56
384.662	104.56
384.887	104.96
385.112	104.76
385.337	101.76
385.562	103.36
385.787	104.36
386.013	102.96
386.238	98.16
386.463	101.16
386.688	108.96
386.913	100.96
387.138	100.96
387.363	102.56
387.588	99.56
387.813	101.56
388.038	109.76
388.263	102.76
388.488	101.36
388.713	98.96
388.938	102.16
389.163	104.76
389.387	98.36
389.612	101.96
389.837	108.16
390.062	109.16
390.287	105.76
390.512	107.76
390.736	97.96
390.961	101.16
391.186	100.76
391.411	99.36
391.636	104.16
391.86	100.76
392.085	105.76
392.31	107.16
392.534	102.56
392.759	100.56
392.984	93.76
393.208	102.36
393.433	109.56
393.658	103.56
393.882	95.16
394.107	103.16
394.331	103.16
394.556	108.56
394.78	105.16
395.005	102.36
395.229	98.16
395.454	102.56
395.678	103.16
395.903	104.36
396.127	105.36
396.352	101.76
396.576	103.36
396.801	99.16
397.025	100.36
397.249	108.16
397.474	111.16
397.698	104.96
397.922	106.56
398.147	107.76
398.371	104.56
398.595	106.16
398.82	104.36
399.044	101.36
399.268	105.16
399.492	103.56
399.717	117.56
399.941	110.96
400.165	106.36
400.389	111.16
400.613	106.56
400.837	107.76
401.062	107.76
401.286	111.76
401.51	115.56
401.734	110.96
401.958	123.76
402.182	115.96
402.406	111.36
402.63	105.36
402.854	115.56
403.078	107.76
403.302	101.36
403.526	110.16
403.75	112.96
403.974	114.36
404.198	119.76
404.422	119.56
404.645	117.36
404.869	121.76
405.093	126.36
405.317	141.76
405.541	195.56
405.765	274.16
405.988	294.96
406.212	220.96
406.436	183.36
406.66	150.56
406.883	137.76
407.107	126.96
407.331	124.96
407.555	123.56
407.778	112.56
408.002	116.36
408.226	114.16
408.449	119.16
408.673	112.56
408.896	113.36
409.12	108.36
409.344	113.76
409.567	112.56
409.791	111.76
410.014	115.16
410.238	107.76
410.461	102.36
410.685	110.16
410.908	111.96
411.132	112.16
411.355	108.96
411.578	111.16
411.802	112.96
412.025	108.76
412.249	115.56
412.472	111.76
412.695	111.76
412.919	111.76
413.142	108.36
413.365	113.36
413.589	108.96
413.812	102.96
414.035	112.56
414.258	105.16
414.482	112.76
414.705	108.36
414.928	110.16
415.151	110.56
415.374	108.56
415.597	107.56
415.821	110.36
416.044	107.96
416.267	105.36
416.49	111.16
416.713	115.16
416.936	105.56
417.159	104.16
417.382	103.56
417.605	101.56
417.828	113.16
418.051	107.96
418.274	105.96
418.497	114.96
418.72	110.96
418.943	110.96
419.166	110.76
419.389	112.76
419.611	109.96
419.834	112.76
420.057	110.56
420.28	110.96
420.503	112.96
420.726	106.16
420.948	109.56
421.171	105.16
421.394	111.76
421.617	105.76
421.839	107.76
422.062	107.76
422.285	118.96
422.507	113.96
422.73	117.16
422.953	112.96
423.175	114.16
423.398	125.76
423.621	120.16
423.843	127.56
424.066	131.56
424.288	147.56
424.511	171.76
424.733	175.36
424.956	160.76
425.178	150.76
425.401	136.76
425.623	141.16
425.846	134.56
426.068	134.36
426.291	128.96
426.513	117.16
426.735	116.36
426.958	120.16
427.18	121.96
427.402	119.96
427.625	107.96
427.847	113.36
428.069	118.16
428.292	112.96
428.514	121.16
428.736	110.56
428.958	114.96
429.181	113.96
429.403	105.16
429.625	116.76
429.847	110.36
430.069	106.16
430.292	103.96
430.514	112.76
430.736	105.96
430.958	104.36
431.18	113.36
431.402	113.56
431.624	108.36
431.846	108.56
432.068	99.36
432.29	109.76
432.512	108.36
432.734	118.76
432.956	112.56
433.178	115.76
433.4	111.76
433.622	113.76
433.844	118.16
434.066	115.36
434.287	118.16
434.509	115.56
434.731	109.96
434.953	102.76
435.175	113.16
435.397	113.16
435.618	108.96
435.84	110.36
436.062	117.56
436.284	111.96
436.505	124.36
436.727	114.76
436.949	117.16
437.17	114.96
437.392	122.76
437.614	118.56
437.835	115.36
438.057	122.76
438.278	136.16
438.5	144.16
438.721	162.36
438.943	172.36
439.165	158.16
439.386	149.76
439.608	142.56
439.829	138.36
440.05	131.96
440.272	133.36
440.493	133.96
440.715	133.96
440.936	140.56
441.158	140.96
441.379	134.96
441.6	130.16
441.822	126.76
442.043	128.96
442.264	117.96
442.486	131.16
442.707	119.56
442.928	117.16
443.149	117.96
443.371	118.36
443.592	117.96
443.813	117.56
444.034	121.96
444.255	117.96
444.476	114.16
444.698	119.16
444.919	120.16
445.14	182.56
445.361	149.96
445.582	120.56
445.803	115.56
446.024	111.16
446.245	114.96
446.466	117.36
446.687	113.36
446.908	122.36
447.129	111.16
447.35	113.76
447.571	116.16
447.792	115.16
448.013	106.36
448.234	112.16
448.455	106.56
448.675	109.76
448.896	106.16
449.117	111.36
449.338	105.16
449.559	116.16
449.779	109.76
450	111.36
450.221	112.16
450.442	102.76
450.662	107.76
450.883	104.16
451.104	109.56
451.324	105.16
451.545	108.96
451.766	114.36
451.986	105.16
452.207	103.96
452.428	110.96
452.648	112.56
452.869	104.36
453.089	108.76
453.31	96.56
453.53	103.56
453.751	104.36
453.971	105.96
454.192	111.56
454.412	102.16
454.633	102.36
454.853	112.76
455.073	108.36
455.294	109.16
455.514	104.56
455.734	106.16
455.955	110.76
456.175	104.76
456.395	109.56
456.616	88.96
456.836	109.16
457.056	107.96
457.276	104.16
457.497	107.16
457.717	108.36
457.937	99.36
458.157	106.56
458.377	104.96
458.598	102.36
458.818	101.96
459.038	99.96
459.258	104.76
459.478	102.96
459.698	102.56
459.918	103.76
460.138	98.96
460.358	109.56
460.578	115.76
460.798	108.36
461.018	108.96
461.238	111.16
461.458	112.36
461.678	110.76
461.898	110.36
462.118	109.76
462.338	105.96
462.558	107.96
462.777	107.36
462.997	109.76
463.217	110.56
463.437	114.56
463.657	109.16
463.876	106.56
464.096	107.76
464.316	110.16
464.536	103.96
464.755	104.56
464.975	104.56
465.195	106.96
465.414	108.56
465.634	105.96
465.854	109.16
466.073	110.36
466.293	106.76
466.512	101.36
466.732	106.56
466.951	110.76
467.171	106.16
467.391	110.76
467.61	105.56
467.829	111.16
468.049	106.36
468.268	105.96
468.488	104.76
468.707	108.56
468.927	106.36
469.146	108.96
469.365	110.36
469.585	111.56
469.804	106.96
470.023	108.16
470.243	109.36
470.462	110.96
470.681	108.36
470.901	110.76
471.12	104.56
471.339	110.76
471.558	105.76
471.777	106.76
471.997	106.16
472.216	108.56
472.435	106.56
472.654	105.16
472.873	108.96
473.092	108.36
473.311	107.36
473.53	113.76
473.749	104.16
473.968	102.76
474.187	107.36
474.406	106.76
474.625	110.76
474.844	109.96
475.063	108.56
475.282	104.36
475.501	105.16
475.72	115.76
475.939	112.16
476.158	110.96
476.377	107.76
476.596	111.56
476.814	116.56
477.033	110.16
477.252	107.56
477.471	104.16
477.69	105.96
477.908	105.96
478.127	113.36
478.346	112.36
478.564	108.16
478.783	115.96
479.002	118.16
479.22	111.56
479.439	115.56
479.658	114.96
479.876	113.96
480.095	111.56
480.313	112.96
480.532	112.76
480.751	119.36
480.969	111.56
481.188	109.76
481.406	111.76
481.624	110.56
481.843	113.76
482.061	107.96
482.28	113.96
482.498	110.76
482.717	106.16
482.935	110.36
483.153	114.16
483.372	113.76
483.59	112.16
483.808	112.16
484.027	113.36
484.245	109.16
484.463	111.96
484.681	111.56
484.9	107.56
485.118	116.16
485.336	112.16
485.554	101.76
485.772	111.36
485.99	106.36
486.209	114.96
486.427	109.36
486.645	114.96
486.863	116.96
487.081	123.16
487.299	112.56
487.517	107.76
487.735	115.76
487.953	121.36
488.171	115.16
488.389	114.96
488.607	115.96
488.825	117.16
489.043	115.96
489.261	116.56
489.479	117.36
489.696	120.96
489.914	114.16
490.132	113.56
490.35	110.56
490.568	113.16
490.786	119.36
491.003	120.96
491.221	117.36
491.439	116.16
491.657	114.16
491.874	113.76
492.092	116.76
492.31	124.56
492.527	119.16
492.745	127.56
492.963	121.96
493.18	115.96
493.398	118.76
493.615	116.96
493.833	114.76
494.05	119.76
494.268	120.56
494.485	118.56
494.703	117.96
494.92	118.96
495.138	120.16
495.355	120.76
495.573	128.16
495.79	124.56
496.008	134.56
496.225	118.96
496.442	120.36
496.66	122.56
496.877	113.56
497.094	115.76
497.312	115.56
497.529	123.76
497.746	124.76
497.963	115.56
498.181	124.76
498.398	116.16
498.615	130.36
498.832	124.96
499.049	120.56
499.267	121.96
499.484	127.16
499.701	124.76
499.918	130.76
500.135	139.56
500.352	141.76
500.569	145.16
500.786	156.16
501.003	137.56
501.22	146.16
501.437	134.56
501.654	130.36
501.871	126.96
502.088	130.76
502.305	126.96
502.522	128.16
502.739	128.76
502.956	119.16
503.172	122.96
503.389	125.76
503.606	129.76
503.823	129.56
504.04	139.56
504.256	132.56
504.473	137.56
504.69	134.56
504.907	131.16
505.123	129.36
505.34	122.76
505.557	127.16
505.773	126.36
505.99	121.76
506.207	123.16
506.423	119.96
506.64	121.96
506.856	113.16
507.073	123.56
507.289	124.56
507.506	120.56
507.722	115.56
507.939	119.56
508.155	117.16
508.372	118.36
508.588	117.56
