Data from TestCu_HRD10591_00082.txt Node
Date: Thu Oct 05 14:06:02 EDT 2023
User: Yrep
Spectrometer: HR+D1059
Trigger mode: 1
Integration Time (sec): 1.000000E-1
Scans to average: 1
Electric dark correction enabled: true
Nonlinearity correction enabled: false
Boxcar width: 0
XAxis mode: Wavelengths
Number of Pixels in Spectrum: 2048
>>>>>Begin Spectral Data<<<<<
223.165	-6.69
223.4	-6.69
223.635	-6.69
223.869	-21.69
224.104	-8.69
224.338	-20.69
224.573	-6.69
224.808	-18.69
225.042	-19.69
225.277	-8.69
225.511	-7.69
225.746	16.31
225.98	6.31
226.215	11.31
226.449	18.31
226.683	14.31
226.918	19.31
227.152	33.31
227.387	25.31
227.621	41.31
227.856	54.31
228.09	71.31
228.324	54.31
228.559	72.31
228.793	70.31
229.027	108.31
229.262	117.31
229.496	134.31
229.73	173.31
229.964	156.31
230.199	101.31
230.433	125.31
230.667	114.31
230.901	110.31
231.136	90.31
231.37	129.31
231.604	111.31
231.838	128.31
232.072	112.31
232.306	122.31
232.541	110.31
232.775	121.31
233.009	120.31
233.243	108.31
233.477	110.31
233.711	110.31
233.945	114.31
234.179	105.31
234.413	111.31
234.647	115.31
234.881	103.31
235.115	118.31
235.349	105.31
235.583	123.31
235.817	119.31
236.051	139.31
236.285	120.31
236.519	144.31
236.753	146.31
236.987	184.31
237.221	239.31
237.455	224.31
237.689	144.31
237.922	144.31
238.156	132.31
238.39	130.31
238.624	128.31
238.858	123.31
239.091	110.31
239.325	141.31
239.559	122.31
239.793	127.31
240.027	129.31
240.26	164.31
240.494	155.31
240.728	161.31
240.961	145.31
241.195	126.31
241.429	140.31
241.662	123.31
241.896	129.31
242.13	130.31
242.363	136.31
242.597	147.31
242.83	146.31
243.064	149.31
243.298	151.31
243.531	138.31
243.765	131.31
243.998	130.31
244.232	143.31
244.465	136.31
244.699	153.31
244.932	142.31
245.166	158.31
245.399	151.31
245.633	161.31
245.866	154.31
246.099	139.31
246.333	153.31
246.566	147.31
246.8	155.31
247.033	160.31
247.266	161.31
247.5	161.31
247.733	160.31
247.966	166.31
248.2	165.31
248.433	168.31
248.666	174.31
248.899	200.31
249.133	201.31
249.366	205.31
249.599	182.31
249.832	172.31
250.066	179.31
250.299	178.31
250.532	202.31
250.765	210.31
250.998	227.31
251.231	220.31
251.465	188.31
251.698	194.31
251.931	181.31
252.164	166.31
252.397	187.31
252.63	190.31
252.863	205.31
253.096	217.31
253.329	207.31
253.562	219.31
253.795	196.31
254.028	206.31
254.261	219.31
254.494	240.31
254.727	270.31
254.96	257.31
255.193	224.31
255.426	216.31
255.659	209.31
255.892	200.31
256.124	191.31
256.357	209.31
256.59	170.31
256.823	189.31
257.056	198.31
257.289	209.31
257.521	219.31
257.754	179.31
257.987	180.31
258.22	190.31
258.452	188.31
258.685	189.31
258.918	195.31
259.151	206.31
259.383	196.31
259.616	212.31
259.849	223.31
260.081	245.31
260.314	246.31
260.547	241.31
260.779	204.31
261.012	201.31
261.244	204.31
261.477	228.31
261.71	222.31
261.942	245.31
262.175	241.31
262.407	226.31
262.64	213.31
262.872	201.31
263.105	206.31
263.337	209.31
263.57	227.31
263.802	208.31
264.035	219.31
264.267	202.31
264.499	215.31
264.732	225.31
264.964	206.31
265.197	217.31
265.429	215.31
265.661	210.31
265.894	228.31
266.126	222.31
266.358	213.31
266.591	238.31
266.823	240.31
267.055	216.31
267.287	241.31
267.52	234.31
267.752	234.31
267.984	231.31
268.216	223.31
268.448	235.31
268.681	247.31
268.913	264.31
269.145	266.31
269.377	278.31
269.609	264.31
269.841	290.31
270.073	301.31
270.306	330.31
270.538	306.31
270.77	282.31
271.002	297.31
271.234	296.31
271.466	324.31
271.698	304.31
271.93	295.31
272.162	319.31
272.394	282.31
272.626	278.31
272.858	262.31
273.09	269.31
273.322	250.31
273.553	267.31
273.785	268.31
274.017	272.31
274.249	291.31
274.481	283.31
274.713	270.31
274.945	265.31
275.176	273.31
275.408	256.31
275.64	266.31
275.872	292.31
276.104	282.31
276.335	288.31
276.567	314.31
276.799	350.31
277.031	364.31
277.262	345.31
277.494	315.31
277.726	308.31
277.957	274.31
278.189	282.31
278.421	270.31
278.652	270.31
278.884	266.31
279.115	276.31
279.347	282.31
279.579	282.31
279.81	272.31
280.042	280.31
280.273	279.31
280.505	292.31
280.736	276.31
280.968	273.31
281.199	302.31
281.431	301.31
281.662	291.31
281.894	300.31
282.125	321.31
282.356	352.31
282.588	366.31
282.819	343.31
283.051	308.31
283.282	310.31
283.513	309.31
283.745	321.31
283.976	317.31
284.207	278.31
284.439	308.31
284.67	302.31
284.901	298.31
285.132	304.31
285.364	308.31
285.595	303.31
285.826	313.31
286.057	305.31
286.288	320.31
286.52	314.31
286.751	325.31
286.982	316.31
287.213	312.31
287.444	317.31
287.675	332.31
287.906	350.31
288.138	362.31
288.369	357.31
288.6	331.31
288.831	317.31
289.062	335.31
289.293	330.31
289.524	329.31
289.755	315.31
289.986	331.31
290.217	327.31
290.448	322.31
290.679	331.31
290.91	322.31
291.141	328.31
291.371	326.31
291.602	319.31
291.833	338.31
292.064	326.31
292.295	343.31
292.526	340.31
292.757	318.31
292.987	335.31
293.218	332.31
293.449	326.31
293.68	339.31
293.91	344.31
294.141	334.31
294.372	337.31
294.603	334.31
294.833	347.31
295.064	345.31
295.295	334.31
295.525	362.31
295.756	363.31
295.987	395.31
296.217	410.31
296.448	373.31
296.679	362.31
296.909	352.31
297.14	344.31
297.37	378.31
297.601	360.31
297.831	346.31
298.062	363.31
298.292	352.31
298.523	376.31
298.753	387.31
298.984	386.31
299.214	383.31
299.445	373.31
299.675	376.31
299.905	386.31
300.136	354.31
300.366	375.31
300.597	384.31
300.827	389.31
301.057	401.31
301.288	405.31
301.518	399.31
301.748	378.31
301.979	415.31
302.209	416.31
302.439	390.31
302.669	406.31
302.9	430.31
303.13	400.31
303.36	410.31
303.59	409.31
303.82	427.31
304.051	418.31
304.281	409.31
304.511	410.31
304.741	385.31
304.971	386.31
305.201	380.31
305.431	400.31
305.661	404.31
305.891	403.31
306.121	414.31
306.352	426.31
306.582	412.31
306.812	403.31
307.042	403.31
307.272	402.31
307.502	417.31
307.731	400.31
307.961	398.31
308.191	399.31
308.421	389.31
308.651	408.31
308.881	420.31
309.111	440.31
309.341	426.31
309.571	448.31
309.8	442.31
310.03	485.31
310.26	471.31
310.49	484.31
310.72	528.31
310.949	528.31
311.179	495.31
311.409	483.31
311.639	476.31
311.868	462.31
312.098	478.31
312.328	511.31
312.557	560.31
312.787	547.31
313.017	520.31
313.246	483.31
313.476	468.31
313.706	482.31
313.935	492.31
314.165	561.31
314.394	531.31
314.624	509.31
314.853	486.31
315.083	469.31
315.312	456.31
315.542	463.31
315.771	451.31
316.001	456.31
316.23	447.31
316.46	451.31
316.689	494.31
316.919	462.31
317.148	485.31
317.377	498.31
317.607	489.31
317.836	482.31
318.065	464.31
318.295	466.31
318.524	460.31
318.753	453.31
318.983	460.31
319.212	472.31
319.441	515.31
319.67	475.31
319.9	470.31
320.129	480.31
320.358	499.31
320.587	487.31
320.816	516.31
321.046	502.31
321.275	501.31
321.504	501.31
321.733	522.31
321.962	552.31
322.191	569.31
322.42	591.31
322.649	600.31
322.878	628.31
323.108	670.31
323.337	722.31
323.566	756.31
323.795	864.31
324.024	1146.31
324.253	1949.31
324.482	3434.31
324.71	5011.31
324.939	4336.31
325.168	1910.31
325.397	942.31
325.626	727.31
325.855	658.31
326.084	673.31
326.313	714.31
326.542	787.31
326.77	1112.31
326.999	1860.31
327.228	2954.31
327.457	3617.31
327.686	2376.31
327.914	1140.31
328.143	882.31
328.372	815.31
328.6	824.31
328.829	820.31
329.058	889.31
329.287	808.31
329.515	660.31
329.744	642.31
329.972	649.31
330.201	711.31
330.43	802.31
330.658	905.31
330.887	931.31
331.115	791.31
331.344	686.31
331.572	662.31
331.801	706.31
332.03	676.31
332.258	623.31
332.486	619.31
332.715	634.31
332.943	628.31
333.172	659.31
333.4	674.31
333.629	694.31
333.857	696.31
334.085	663.31
334.314	654.31
334.542	628.31
334.771	652.31
334.999	669.31
335.227	635.31
335.455	619.31
335.684	619.31
335.912	611.31
336.14	645.31
336.369	658.31
336.597	645.31
336.825	622.31
337.053	596.31
337.281	622.31
337.51	606.31
337.738	613.31
337.966	625.31
338.194	625.31
338.422	604.31
338.65	568.31
338.878	588.31
339.106	594.31
339.334	594.31
339.562	593.31
339.79	574.31
340.018	568.31
340.246	598.31
340.474	583.31
340.702	591.31
340.93	582.31
341.158	597.31
341.386	611.31
341.614	593.31
341.842	571.31
342.07	556.31
342.298	572.31
342.526	543.31
342.754	562.31
342.981	556.31
343.209	565.31
343.437	596.31
343.665	614.31
343.893	635.31
344.12	642.31
344.348	608.31
344.576	610.31
344.804	643.31
345.031	658.31
345.259	630.31
345.487	616.31
345.714	593.31
345.942	560.31
346.17	543.31
346.397	574.31
346.625	571.31
346.853	563.31
347.08	578.31
347.308	611.31
347.535	617.31
347.763	596.31
347.99	594.31
348.218	628.31
348.445	615.31
348.673	591.31
348.9	550.31
349.128	555.31
349.355	544.31
349.583	538.31
349.81	552.31
350.037	576.31
350.265	539.31
350.492	547.31
350.72	566.31
350.947	590.31
351.174	615.31
351.402	612.31
351.629	571.31
351.856	613.31
352.083	612.31
352.311	632.31
352.538	649.31
352.765	628.31
352.992	599.31
353.22	586.31
353.447	590.31
353.674	569.31
353.901	548.31
354.128	539.31
354.355	531.31
354.583	540.31
354.81	533.31
355.037	526.31
355.264	506.31
355.491	548.31
355.718	535.31
355.945	517.31
356.172	522.31
356.399	520.31
356.626	543.31
356.853	523.31
357.08	548.31
357.307	523.31
357.534	522.31
357.761	532.31
357.988	535.31
358.215	565.31
358.441	538.31
358.668	506.31
358.895	547.31
359.122	558.31
359.349	586.31
359.576	625.31
359.802	715.31
360.029	743.31
360.256	697.31
360.483	626.31
360.709	575.31
360.936	581.31
361.163	595.31
361.39	591.31
361.616	602.31
361.843	587.31
362.07	617.31
362.296	596.31
362.523	593.31
362.749	577.31
362.976	579.31
363.203	548.31
363.429	567.31
363.656	568.31
363.882	563.31
364.109	556.31
364.335	579.31
364.562	552.31
364.788	560.31
365.015	560.31
365.241	578.31
365.468	579.31
365.694	589.31
365.92	588.31
366.147	558.31
366.373	572.31
366.599	557.31
366.826	558.31
367.052	547.31
367.278	560.31
367.505	559.31
367.731	566.31
367.957	553.31
368.184	580.31
368.41	629.31
368.636	623.31
368.862	611.31
369.089	561.31
369.315	587.31
369.541	603.31
369.767	583.31
369.993	557.31
370.219	581.31
370.445	563.31
370.672	560.31
370.898	582.31
371.124	579.31
371.35	584.31
371.576	585.31
371.802	561.31
372.028	576.31
372.254	591.31
372.48	578.31
372.706	584.31
372.932	598.31
373.158	586.31
373.384	568.31
373.61	569.31
373.835	589.31
374.061	604.31
374.287	594.31
374.513	603.31
374.739	614.31
374.965	616.31
375.191	612.31
375.416	602.31
375.642	598.31
375.868	582.31
376.094	576.31
376.319	587.31
376.545	589.31
376.771	572.31
376.997	587.31
377.222	581.31
377.448	576.31
377.674	557.31
377.899	568.31
378.125	567.31
378.35	573.31
378.576	545.31
378.802	566.31
379.027	538.31
379.253	583.31
379.478	580.31
379.704	583.31
379.929	596.31
380.155	584.31
380.38	597.31
380.606	599.31
380.831	563.31
381.057	599.31
381.282	592.31
381.507	565.31
381.733	597.31
381.958	585.31
382.184	614.31
382.409	604.31
382.634	616.31
382.86	622.31
383.085	595.31
383.31	618.31
383.535	656.31
383.761	641.31
383.986	653.31
384.211	651.31
384.436	645.31
384.662	648.31
384.887	674.31
385.112	633.31
385.337	643.31
385.562	675.31
385.787	698.31
386.013	706.31
386.238	704.31
386.463	678.31
386.688	663.31
386.913	671.31
387.138	660.31
387.363	660.31
387.588	657.31
387.813	645.31
388.038	684.31
388.263	675.31
388.488	680.31
388.713	688.31
388.938	665.31
389.163	651.31
389.387	655.31
389.612	634.31
389.837	670.31
390.062	659.31
390.287	670.31
390.512	645.31
390.736	686.31
390.961	698.31
391.186	718.31
391.411	690.31
391.636	715.31
391.86	730.31
392.085	750.31
392.31	727.31
392.534	702.31
392.759	699.31
392.984	704.31
393.208	693.31
393.433	686.31
393.658	697.31
393.882	710.31
394.107	685.31
394.331	696.31
394.556	701.31
394.78	702.31
395.005	711.31
395.229	720.31
395.454	746.31
395.678	735.31
395.903	774.31
396.127	747.31
396.352	753.31
396.576	731.31
396.801	707.31
397.025	713.31
397.249	744.31
397.474	754.31
397.698	758.31
397.922	769.31
398.147	766.31
398.371	807.31
398.595	808.31
398.82	833.31
399.044	923.31
399.268	1018.31
399.492	1097.31
399.717	1109.31
399.941	1074.31
400.165	1041.31
400.389	940.31
400.613	907.31
400.837	870.31
401.062	850.31
401.286	813.31
401.51	819.31
401.734	842.31
401.958	854.31
402.182	884.31
402.406	934.31
402.63	904.31
402.854	896.31
403.078	879.31
403.302	894.31
403.526	913.31
403.75	902.31
403.974	919.31
404.198	919.31
404.422	939.31
404.645	941.31
404.869	926.31
405.093	913.31
405.317	966.31
405.541	948.31
405.765	908.31
405.988	919.31
406.212	1032.31
406.436	1071.31
406.66	1017.31
406.883	984.31
407.107	1063.31
407.331	1104.31
407.555	1136.31
407.778	1107.31
408.002	1017.31
408.226	980.31
408.449	962.31
408.673	962.31
408.896	984.31
409.12	946.31
409.344	902.31
409.567	880.31
409.791	894.31
410.014	879.31
410.238	860.31
410.461	866.31
410.685	870.31
410.908	914.31
411.132	926.31
411.355	922.31
411.578	853.31
411.802	835.31
412.025	831.31
412.249	879.31
412.472	840.31
412.695	808.31
412.919	803.31
413.142	822.31
413.365	804.31
413.589	808.31
413.812	798.31
414.035	802.31
414.258	816.31
414.482	784.31
414.705	798.31
414.928	792.31
415.151	796.31
415.374	815.31
415.597	832.31
415.821	794.31
416.044	802.31
416.267	789.31
416.49	779.31
416.713	796.31
416.936	792.31
417.159	812.31
417.382	798.31
417.605	820.31
417.828	832.31
418.051	862.31
418.274	804.31
418.497	811.31
418.72	822.31
418.943	806.31
419.166	836.31
419.389	846.31
419.611	846.31
419.834	832.31
420.057	843.31
420.28	822.31
420.503	776.31
420.726	811.31
420.948	843.31
421.171	873.31
421.394	881.31
421.617	825.31
421.839	798.31
422.062	863.31
422.285	879.31
422.507	970.31
422.73	954.31
422.953	903.31
423.175	862.31
423.398	871.31
423.621	866.31
423.843	896.31
424.066	885.31
424.288	902.31
424.511	944.31
424.733	982.31
424.956	1049.31
425.178	999.31
425.401	968.31
425.623	976.31
425.846	836.31
426.068	872.31
426.291	835.31
426.513	836.31
426.735	895.31
426.958	969.31
427.18	1094.31
427.402	1279.31
427.625	1294.31
427.847	1006.31
428.069	858.31
428.292	801.31
428.514	760.31
428.736	762.31
428.958	749.31
429.181	750.31
429.403	750.31
429.625	828.31
429.847	827.31
430.069	887.31
430.292	819.31
430.514	753.31
430.736	734.31
430.958	737.31
431.18	708.31
431.402	709.31
431.624	741.31
431.846	722.31
432.068	701.31
432.29	746.31
432.512	734.31
432.734	757.31
432.956	758.31
433.178	759.31
433.4	734.31
433.622	745.31
433.844	770.31
434.066	738.31
434.287	754.31
434.509	786.31
434.731	785.31
434.953	805.31
435.175	840.31
435.397	853.31
435.618	867.31
435.84	975.31
436.062	1028.31
436.284	994.31
436.505	848.31
436.727	811.31
436.949	771.31
437.17	765.31
437.392	770.31
437.614	814.31
437.835	928.31
438.057	1046.31
438.278	1100.31
438.5	1092.31
438.721	1108.31
438.943	981.31
439.165	813.31
439.386	805.31
439.608	848.31
439.829	887.31
440.05	961.31
440.272	990.31
440.493	851.31
440.715	809.31
440.936	775.31
441.158	809.31
441.379	832.31
441.6	898.31
441.822	918.31
442.043	1005.31
442.264	1062.31
442.486	983.31
442.707	904.31
442.928	872.31
443.149	952.31
443.371	1035.31
443.592	1057.31
443.813	1113.31
444.034	1074.31
444.255	904.31
444.476	929.31
444.698	944.31
444.919	956.31
445.14	947.31
445.361	975.31
445.582	1065.31
445.803	1201.31
446.024	1235.31
446.245	1131.31
446.466	975.31
446.687	822.31
446.908	791.31
447.129	754.31
447.35	757.31
447.571	757.31
447.792	752.31
448.013	790.31
448.234	812.31
448.455	956.31
448.675	1070.31
448.896	1030.31
449.117	918.31
449.338	1019.31
449.559	1115.31
449.779	1059.31
450	827.31
450.221	731.31
450.442	745.31
450.662	783.31
450.883	835.31
451.104	828.31
451.324	764.31
451.545	702.31
451.766	694.31
451.986	686.31
452.207	660.31
452.428	695.31
452.648	708.31
452.869	725.31
453.089	727.31
453.31	714.31
453.53	698.31
453.751	690.31
453.971	735.31
454.192	744.31
454.412	656.31
454.633	660.31
454.853	654.31
455.073	708.31
455.294	759.31
455.514	805.31
455.734	673.31
455.955	633.31
456.175	635.31
456.395	615.31
456.616	617.31
456.836	607.31
457.056	633.31
457.276	595.31
457.497	629.31
457.717	640.31
457.937	643.31
458.157	643.31
458.377	698.31
458.598	785.31
458.818	962.31
459.038	997.31
459.258	900.31
459.478	771.31
459.698	737.31
459.918	756.31
460.138	771.31
460.358	777.31
460.578	781.31
460.798	776.31
461.018	781.31
461.238	774.31
461.458	793.31
461.678	787.31
461.898	792.31
462.118	789.31
462.338	843.31
462.558	888.31
462.777	871.31
462.997	910.31
463.217	976.31
463.437	912.31
463.657	889.31
463.876	852.31
464.096	874.31
464.316	929.31
464.536	920.31
464.755	907.31
464.975	982.31
465.195	1152.31
465.414	1088.31
465.634	831.31
465.854	778.31
466.073	752.31
466.293	699.31
466.512	700.31
466.732	709.31
466.951	710.31
467.171	709.31
467.391	742.31
467.61	784.31
467.829	750.31
468.049	706.31
468.268	682.31
468.488	678.31
468.707	648.31
468.927	668.31
469.146	662.31
469.365	706.31
469.585	684.31
469.804	747.31
470.023	764.31
470.243	762.31
470.462	806.31
470.681	808.31
470.901	755.31
471.12	718.31
471.339	716.31
471.558	708.31
471.777	727.31
471.997	673.31
472.216	688.31
472.435	660.31
472.654	643.31
472.873	652.31
473.092	676.31
473.311	679.31
473.53	675.31
473.749	701.31
473.968	816.31
474.187	916.31
474.406	812.31
474.625	715.31
474.844	681.31
475.063	696.31
475.282	694.31
475.501	679.31
475.72	689.31
475.939	686.31
476.158	701.31
476.377	698.31
476.596	723.31
476.814	730.31
477.033	743.31
477.252	734.31
477.471	743.31
477.69	764.31
477.908	744.31
478.127	773.31
478.346	767.31
478.564	775.31
478.783	784.31
479.002	843.31
479.22	857.31
479.439	858.31
479.658	878.31
479.876	866.31
480.095	892.31
480.313	908.31
480.532	866.31
480.751	865.31
480.969	845.31
481.188	830.31
481.406	835.31
481.624	814.31
481.843	786.31
482.061	786.31
482.28	775.31
482.498	754.31
482.717	750.31
482.935	763.31
483.153	774.31
483.372	802.31
483.59	767.31
483.808	770.31
484.027	749.31
484.245	786.31
484.463	811.31
484.681	796.31
484.9	799.31
485.118	828.31
485.336	788.31
485.554	802.31
485.772	807.31
485.99	783.31
486.209	811.31
486.427	832.31
486.645	873.31
486.863	912.31
487.081	876.31
487.299	859.31
487.517	854.31
487.735	836.31
487.953	862.31
488.171	816.31
488.389	828.31
488.607	815.31
488.825	812.31
489.043	806.31
489.261	850.31
489.479	845.31
489.696	827.31
489.914	837.31
490.132	852.31
490.35	865.31
490.568	860.31
490.786	893.31
491.003	936.31
491.221	973.31
491.439	951.31
491.657	946.31
491.874	960.31
492.092	974.31
492.31	982.31
492.527	972.31
492.745	968.31
492.963	972.31
493.18	991.31
493.398	969.31
493.615	978.31
493.833	1011.31
494.05	1010.31
494.268	983.31
494.485	960.31
494.703	959.31
494.92	969.31
495.138	946.31
495.355	988.31
495.573	996.31
495.79	992.31
496.008	977.31
496.225	979.31
496.442	976.31
496.66	1022.31
496.877	976.31
497.094	991.31
497.312	992.31
497.529	1057.31
497.746	1058.31
497.963	1062.31
498.181	1112.31
498.398	1178.31
498.615	1201.31
498.832	1210.31
499.049	1279.31
499.267	1374.31
499.484	1466.31
499.701	1565.31
499.918	1634.31
500.135	1787.31
500.352	1915.31
500.569	1903.31
500.786	1858.31
501.003	1760.31
501.22	1675.31
501.437	1582.31
501.654	1482.31
