Data from TestCu_HRD10591_00070.txt Node
Date: Thu Oct 05 14:05:50 EDT 2023
User: Yrep
Spectrometer: HR+D1059
Trigger mode: 1
Integration Time (sec): 1.000000E-1
Scans to average: 1
Electric dark correction enabled: true
Nonlinearity correction enabled: false
Boxcar width: 0
XAxis mode: Wavelengths
Number of Pixels in Spectrum: 2048
>>>>>Begin Spectral Data<<<<<
223.165	-24.88
223.4	-24.88
223.635	-24.88
223.869	-19.88
224.104	-22.88
224.338	-5.88
224.573	-22.88
224.808	-12.88
225.042	13.12
225.277	2.12
225.511	8.12
225.746	1.12
225.98	-2.88
226.215	11.12
226.449	20.12
226.683	8.12
226.918	13.12
227.152	35.12
227.387	41.12
227.621	41.12
227.856	43.12
228.09	51.12
228.324	48.12
228.559	56.12
228.793	56.12
229.027	103.12
229.262	112.12
229.496	142.12
229.73	150.12
229.964	150.12
230.199	112.12
230.433	114.12
230.667	115.12
230.901	120.12
231.136	96.12
231.37	111.12
231.604	129.12
231.838	110.12
232.072	106.12
232.306	100.12
232.541	94.12
232.775	112.12
233.009	110.12
233.243	112.12
233.477	133.12
233.711	112.12
233.945	110.12
234.179	108.12
234.413	118.12
234.647	127.12
234.881	116.12
235.115	125.12
235.349	118.12
235.583	107.12
235.817	123.12
236.051	123.12
236.285	133.12
236.519	134.12
236.753	149.12
236.987	164.12
237.221	230.12
237.455	238.12
237.689	159.12
237.922	127.12
238.156	127.12
238.39	130.12
238.624	120.12
238.858	131.12
239.091	135.12
239.325	115.12
239.559	111.12
239.793	150.12
240.027	136.12
240.26	150.12
240.494	164.12
240.728	151.12
240.961	136.12
241.195	139.12
241.429	144.12
241.662	129.12
241.896	121.12
242.13	131.12
242.363	135.12
242.597	141.12
242.83	135.12
243.064	139.12
243.298	149.12
243.531	130.12
243.765	125.12
243.998	129.12
244.232	145.12
244.465	143.12
244.699	142.12
244.932	156.12
245.166	142.12
245.399	152.12
245.633	134.12
245.866	137.12
246.099	139.12
246.333	145.12
246.566	156.12
246.8	148.12
247.033	148.12
247.266	151.12
247.5	160.12
247.733	157.12
247.966	163.12
248.2	170.12
248.433	171.12
248.666	185.12
248.899	184.12
249.133	201.12
249.366	189.12
249.599	196.12
249.832	183.12
250.066	164.12
250.299	189.12
250.532	181.12
250.765	206.12
250.998	216.12
251.231	192.12
251.465	170.12
251.698	176.12
251.931	177.12
252.164	177.12
252.397	179.12
252.63	195.12
252.863	199.12
253.096	213.12
253.329	208.12
253.562	193.12
253.795	211.12
254.028	201.12
254.261	215.12
254.494	256.12
254.727	275.12
254.96	258.12
255.193	227.12
255.426	193.12
255.659	193.12
255.892	190.12
256.124	194.12
256.357	196.12
256.59	191.12
256.823	184.12
257.056	202.12
257.289	180.12
257.521	190.12
257.754	195.12
257.987	208.12
258.22	212.12
258.452	189.12
258.685	193.12
258.918	207.12
259.151	183.12
259.383	205.12
259.616	211.12
259.849	214.12
260.081	243.12
260.314	235.12
260.547	223.12
260.779	217.12
261.012	208.12
261.244	203.12
261.477	213.12
261.71	224.12
261.942	234.12
262.175	264.12
262.407	216.12
262.64	213.12
262.872	194.12
263.105	204.12
263.337	206.12
263.57	195.12
263.802	198.12
264.035	207.12
264.267	197.12
264.499	200.12
264.732	211.12
264.964	191.12
265.197	216.12
265.429	200.12
265.661	231.12
265.894	197.12
266.126	193.12
266.358	224.12
266.591	225.12
266.823	239.12
267.055	214.12
267.287	240.12
267.52	222.12
267.752	219.12
267.984	237.12
268.216	227.12
268.448	248.12
268.681	237.12
268.913	273.12
269.145	272.12
269.377	290.12
269.609	263.12
269.841	253.12
270.073	302.12
270.306	291.12
270.538	323.12
270.77	296.12
271.002	278.12
271.234	294.12
271.466	322.12
271.698	321.12
271.93	325.12
272.162	308.12
272.394	292.12
272.626	290.12
272.858	266.12
273.09	261.12
273.322	254.12
273.553	247.12
273.785	256.12
274.017	270.12
274.249	247.12
274.481	269.12
274.713	277.12
274.945	269.12
275.176	249.12
275.408	288.12
275.64	265.12
275.872	263.12
276.104	289.12
276.335	294.12
276.567	321.12
276.799	354.12
277.031	353.12
277.262	322.12
277.494	317.12
277.726	287.12
277.957	285.12
278.189	268.12
278.421	279.12
278.652	275.12
278.884	277.12
279.115	268.12
279.347	276.12
279.579	285.12
279.81	267.12
280.042	286.12
280.273	283.12
280.505	267.12
280.736	285.12
280.968	277.12
281.199	279.12
281.431	280.12
281.662	285.12
281.894	296.12
282.125	310.12
282.356	343.12
282.588	380.12
282.819	324.12
283.051	286.12
283.282	290.12
283.513	278.12
283.745	295.12
283.976	304.12
284.207	300.12
284.439	290.12
284.67	313.12
284.901	291.12
285.132	297.12
285.364	282.12
285.595	303.12
285.826	315.12
286.057	311.12
286.288	303.12
286.52	289.12
286.751	293.12
286.982	303.12
287.213	306.12
287.444	317.12
287.675	335.12
287.906	334.12
288.138	359.12
288.369	331.12
288.6	334.12
288.831	341.12
289.062	322.12
289.293	320.12
289.524	322.12
289.755	295.12
289.986	317.12
290.217	322.12
290.448	313.12
290.679	332.12
290.91	330.12
291.141	298.12
291.371	317.12
291.602	320.12
291.833	335.12
292.064	327.12
292.295	338.12
292.526	315.12
292.757	315.12
292.987	323.12
293.218	330.12
293.449	341.12
293.68	334.12
293.91	333.12
294.141	325.12
294.372	344.12
294.603	323.12
294.833	334.12
295.064	341.12
295.295	338.12
295.525	326.12
295.756	361.12
295.987	392.12
296.217	415.12
296.448	381.12
296.679	333.12
296.909	336.12
297.14	364.12
297.37	356.12
297.601	355.12
297.831	364.12
298.062	353.12
298.292	370.12
298.523	342.12
298.753	349.12
298.984	369.12
299.214	372.12
299.445	379.12
299.675	376.12
299.905	371.12
300.136	352.12
300.366	363.12
300.597	389.12
300.827	390.12
301.057	406.12
301.288	414.12
301.518	405.12
301.748	388.12
301.979	403.12
302.209	406.12
302.439	412.12
302.669	398.12
302.9	382.12
303.13	403.12
303.36	389.12
303.59	416.12
303.82	421.12
304.051	400.12
304.281	390.12
304.511	387.12
304.741	388.12
304.971	388.12
305.201	384.12
305.431	390.12
305.661	389.12
305.891	389.12
306.121	393.12
306.352	398.12
306.582	395.12
306.812	394.12
307.042	385.12
307.272	391.12
307.502	401.12
307.731	406.12
307.961	390.12
308.191	385.12
308.421	407.12
308.651	421.12
308.881	406.12
309.111	421.12
309.341	416.12
309.571	437.12
309.8	455.12
310.03	477.12
310.26	475.12
310.49	482.12
310.72	488.12
310.949	499.12
311.179	497.12
311.409	472.12
311.639	470.12
311.868	476.12
312.098	485.12
312.328	496.12
312.557	524.12
312.787	524.12
313.017	491.12
313.246	468.12
313.476	470.12
313.706	470.12
313.935	499.12
314.165	534.12
314.394	530.12
314.624	519.12
314.853	465.12
315.083	485.12
315.312	451.12
315.542	471.12
315.771	463.12
316.001	442.12
316.23	454.12
316.46	467.12
316.689	454.12
316.919	491.12
317.148	511.12
317.377	495.12
317.607	484.12
317.836	479.12
318.065	447.12
318.295	444.12
318.524	452.12
318.753	461.12
318.983	439.12
319.212	460.12
319.441	490.12
319.67	491.12
319.9	464.12
320.129	458.12
320.358	475.12
320.587	488.12
320.816	506.12
321.046	509.12
321.275	488.12
321.504	508.12
321.733	516.12
321.962	511.12
322.191	564.12
322.42	581.12
322.649	595.12
322.878	596.12
323.108	636.12
323.337	689.12
323.566	744.12
323.795	853.12
324.024	1137.12
324.253	1963.12
324.482	3279.12
324.71	4888.12
324.939	4282.12
325.168	1873.12
325.397	905.12
325.626	679.12
325.855	646.12
326.084	651.12
326.313	722.12
326.542	791.12
326.77	1062.12
326.999	1782.12
327.228	2805.12
327.457	3649.12
327.686	2388.12
327.914	1119.12
328.143	857.12
328.372	813.12
328.6	797.12
328.829	850.12
329.058	853.12
329.287	786.12
329.515	655.12
329.744	607.12
329.972	614.12
330.201	685.12
330.43	801.12
330.658	910.12
330.887	911.12
331.115	738.12
331.344	663.12
331.572	684.12
331.801	680.12
332.03	646.12
332.258	630.12
332.486	607.12
332.715	635.12
332.943	630.12
333.172	653.12
333.4	660.12
333.629	677.12
333.857	683.12
334.085	640.12
334.314	659.12
334.542	625.12
334.771	648.12
334.999	668.12
335.227	630.12
335.455	631.12
335.684	604.12
335.912	608.12
336.14	611.12
336.369	636.12
336.597	644.12
336.825	621.12
337.053	604.12
337.281	584.12
337.51	594.12
337.738	590.12
337.966	616.12
338.194	626.12
338.422	595.12
338.65	583.12
338.878	572.12
339.106	565.12
339.334	580.12
339.562	553.12
339.79	581.12
340.018	587.12
340.246	581.12
340.474	594.12
340.702	552.12
340.93	551.12
341.158	568.12
341.386	583.12
341.614	587.12
341.842	594.12
342.07	572.12
342.298	564.12
342.526	566.12
342.754	555.12
342.981	565.12
343.209	585.12
343.437	590.12
343.665	621.12
343.893	640.12
344.12	622.12
344.348	618.12
344.576	596.12
344.804	627.12
345.031	641.12
345.259	607.12
345.487	581.12
345.714	569.12
345.942	560.12
346.17	560.12
346.397	553.12
346.625	539.12
346.853	569.12
347.08	552.12
347.308	595.12
347.535	583.12
347.763	583.12
347.99	599.12
348.218	614.12
348.445	587.12
348.673	575.12
348.9	560.12
349.128	555.12
349.355	543.12
349.583	526.12
349.81	529.12
350.037	538.12
350.265	560.12
350.492	545.12
350.72	557.12
350.947	588.12
351.174	600.12
351.402	604.12
351.629	593.12
351.856	599.12
352.083	600.12
352.311	637.12
352.538	627.12
352.765	595.12
352.992	597.12
353.22	564.12
353.447	546.12
353.674	557.12
353.901	537.12
354.128	558.12
354.355	541.12
354.583	537.12
354.81	539.12
355.037	512.12
355.264	519.12
355.491	544.12
355.718	517.12
355.945	524.12
356.172	502.12
356.399	518.12
356.626	509.12
356.853	529.12
357.08	516.12
357.307	502.12
357.534	519.12
357.761	517.12
357.988	535.12
358.215	534.12
358.441	545.12
358.668	515.12
358.895	535.12
359.122	555.12
359.349	579.12
359.576	640.12
359.802	701.12
360.029	735.12
360.256	697.12
360.483	607.12
360.709	568.12
360.936	583.12
361.163	607.12
361.39	618.12
361.616	595.12
361.843	595.12
362.07	595.12
362.296	599.12
362.523	594.12
362.749	597.12
362.976	588.12
363.203	577.12
363.429	540.12
363.656	559.12
363.882	565.12
364.109	540.12
364.335	541.12
364.562	557.12
364.788	563.12
365.015	562.12
365.241	563.12
365.468	577.12
365.694	585.12
365.92	565.12
366.147	555.12
366.373	552.12
366.599	547.12
366.826	548.12
367.052	548.12
367.278	556.12
367.505	541.12
367.731	548.12
367.957	572.12
368.184	582.12
368.41	604.12
368.636	608.12
368.862	583.12
369.089	564.12
369.315	558.12
369.541	569.12
369.767	557.12
369.993	562.12
370.219	572.12
370.445	569.12
370.672	561.12
370.898	563.12
371.124	563.12
371.35	575.12
371.576	564.12
371.802	559.12
372.028	554.12
372.254	572.12
372.48	579.12
372.706	584.12
372.932	586.12
373.158	601.12
373.384	555.12
373.61	567.12
373.835	551.12
374.061	584.12
374.287	598.12
374.513	610.12
374.739	607.12
374.965	599.12
375.191	598.12
375.416	588.12
375.642	587.12
375.868	587.12
376.094	568.12
376.319	576.12
376.545	567.12
376.771	565.12
376.997	588.12
377.222	569.12
377.448	565.12
377.674	581.12
377.899	568.12
378.125	579.12
378.35	575.12
378.576	568.12
378.802	567.12
379.027	552.12
379.253	581.12
379.478	551.12
379.704	561.12
379.929	580.12
380.155	584.12
380.38	594.12
380.606	579.12
380.831	572.12
381.057	558.12
381.282	579.12
381.507	589.12
381.733	582.12
381.958	586.12
382.184	593.12
382.409	605.12
382.634	632.12
382.86	603.12
383.085	611.12
383.31	600.12
383.535	615.12
383.761	627.12
383.986	633.12
384.211	639.12
384.436	652.12
384.662	645.12
384.887	664.12
385.112	642.12
385.337	683.12
385.562	662.12
385.787	671.12
386.013	725.12
386.238	700.12
386.463	693.12
386.688	679.12
386.913	662.12
387.138	669.12
387.363	662.12
387.588	659.12
387.813	655.12
388.038	647.12
388.263	653.12
388.488	683.12
388.713	661.12
388.938	662.12
389.163	656.12
389.387	661.12
389.612	646.12
389.837	648.12
390.062	633.12
390.287	637.12
390.512	651.12
390.736	669.12
390.961	671.12
391.186	664.12
391.411	696.12
391.636	704.12
391.86	733.12
392.085	723.12
392.31	711.12
392.534	719.12
392.759	688.12
392.984	701.12
393.208	693.12
393.433	707.12
393.658	696.12
393.882	678.12
394.107	697.12
394.331	708.12
394.556	727.12
394.78	709.12
395.005	714.12
395.229	717.12
395.454	734.12
395.678	743.12
395.903	724.12
396.127	751.12
396.352	743.12
396.576	709.12
396.801	711.12
397.025	724.12
397.249	733.12
397.474	743.12
397.698	746.12
397.922	769.12
398.147	778.12
398.371	800.12
398.595	825.12
398.82	838.12
399.044	900.12
399.268	1013.12
399.492	1095.12
399.717	1099.12
399.941	1072.12
400.165	994.12
400.389	943.12
400.613	863.12
400.837	874.12
401.062	838.12
401.286	810.12
401.51	856.12
401.734	832.12
401.958	869.12
402.182	881.12
402.406	913.12
402.63	897.12
402.854	893.12
403.078	882.12
403.302	911.12
403.526	909.12
403.75	926.12
403.974	913.12
404.198	911.12
404.422	956.12
404.645	911.12
404.869	924.12
405.093	916.12
405.317	907.12
405.541	943.12
405.765	908.12
405.988	941.12
406.212	1044.12
406.436	1071.12
406.66	1017.12
406.883	1039.12
407.107	1052.12
407.331	1108.12
407.555	1156.12
407.778	1055.12
408.002	982.12
408.226	917.12
408.449	947.12
408.673	964.12
408.896	959.12
409.12	947.12
409.344	899.12
409.567	853.12
409.791	877.12
410.014	885.12
410.238	875.12
410.461	863.12
410.685	897.12
410.908	892.12
411.132	917.12
411.355	924.12
411.578	851.12
411.802	834.12
412.025	823.12
412.249	839.12
412.472	840.12
412.695	829.12
412.919	811.12
413.142	801.12
413.365	807.12
413.589	778.12
413.812	770.12
414.035	772.12
414.258	819.12
414.482	795.12
414.705	795.12
414.928	775.12
415.151	807.12
415.374	804.12
415.597	783.12
415.821	757.12
416.044	775.12
416.267	774.12
416.49	753.12
416.713	788.12
416.936	801.12
417.159	791.12
417.382	795.12
417.605	793.12
417.828	809.12
418.051	841.12
418.274	811.12
418.497	809.12
418.72	835.12
418.943	811.12
419.166	825.12
419.389	873.12
419.611	844.12
419.834	841.12
420.057	834.12
420.28	761.12
420.503	781.12
420.726	815.12
420.948	863.12
421.171	899.12
421.394	863.12
421.617	830.12
421.839	817.12
422.062	851.12
422.285	875.12
422.507	941.12
422.73	967.12
422.953	910.12
423.175	893.12
423.398	870.12
423.621	873.12
423.843	860.12
424.066	878.12
424.288	886.12
424.511	931.12
424.733	999.12
424.956	1049.12
425.178	995.12
425.401	1016.12
425.623	942.12
425.846	838.12
426.068	833.12
426.291	831.12
426.513	838.12
426.735	864.12
426.958	979.12
427.18	1062.12
427.402	1230.12
427.625	1270.12
427.847	1001.12
428.069	835.12
428.292	802.12
428.514	760.12
428.736	736.12
428.958	710.12
429.181	718.12
429.403	735.12
429.625	771.12
429.847	807.12
430.069	856.12
430.292	801.12
430.514	754.12
430.736	725.12
430.958	704.12
431.18	719.12
431.402	721.12
431.624	732.12
431.846	742.12
432.068	723.12
432.29	731.12
432.512	711.12
432.734	761.12
432.956	758.12
433.178	776.12
433.4	746.12
433.622	743.12
433.844	735.12
434.066	732.12
434.287	731.12
434.509	790.12
434.731	799.12
434.953	831.12
435.175	808.12
435.397	807.12
435.618	886.12
435.84	916.12
436.062	1013.12
436.284	961.12
436.505	845.12
436.727	786.12
436.949	772.12
437.17	765.12
437.392	755.12
437.614	813.12
437.835	916.12
438.057	1027.12
438.278	1081.12
438.5	1045.12
438.721	1113.12
438.943	936.12
439.165	834.12
439.386	808.12
439.608	825.12
439.829	893.12
440.05	927.12
440.272	958.12
440.493	835.12
440.715	804.12
440.936	800.12
441.158	808.12
441.379	810.12
441.6	845.12
441.822	891.12
442.043	982.12
442.264	1017.12
442.486	958.12
442.707	873.12
442.928	891.12
443.149	959.12
443.371	988.12
443.592	1053.12
443.813	1117.12
444.034	1073.12
444.255	927.12
444.476	884.12
444.698	927.12
444.919	929.12
445.14	967.12
445.361	966.12
445.582	1045.12
445.803	1170.12
446.024	1231.12
446.245	1121.12
446.466	957.12
446.687	837.12
446.908	781.12
447.129	740.12
447.35	757.12
447.571	749.12
447.792	735.12
448.013	747.12
448.234	823.12
448.455	919.12
448.675	1024.12
448.896	1062.12
449.117	899.12
449.338	1001.12
449.559	1117.12
449.779	1028.12
450	785.12
450.221	745.12
450.442	753.12
450.662	773.12
450.883	795.12
451.104	817.12
451.324	744.12
451.545	705.12
451.766	694.12
451.986	687.12
452.207	689.12
452.428	663.12
452.648	693.12
452.869	723.12
453.089	722.12
453.31	707.12
453.53	672.12
453.751	706.12
453.971	711.12
454.192	737.12
454.412	701.12
454.633	657.12
454.853	663.12
455.073	691.12
455.294	762.12
455.514	785.12
455.734	694.12
455.955	607.12
456.175	614.12
456.395	612.12
456.616	609.12
456.836	609.12
457.056	608.12
457.276	585.12
457.497	629.12
457.717	616.12
457.937	653.12
458.157	657.12
458.377	678.12
458.598	791.12
458.818	989.12
459.038	1029.12
459.258	857.12
459.478	781.12
459.698	767.12
459.918	753.12
460.138	790.12
460.358	818.12
460.578	791.12
460.798	779.12
461.018	803.12
461.238	766.12
461.458	784.12
461.678	791.12
461.898	815.12
462.118	826.12
462.338	844.12
462.558	842.12
462.777	873.12
462.997	939.12
463.217	955.12
463.437	926.12
463.657	865.12
463.876	876.12
464.096	888.12
464.316	912.12
464.536	907.12
464.755	891.12
464.975	976.12
465.195	1178.12
465.414	1067.12
465.634	840.12
465.854	766.12
466.073	743.12
466.293	710.12
466.512	685.12
466.732	667.12
466.951	695.12
467.171	688.12
467.391	754.12
467.61	750.12
467.829	711.12
468.049	687.12
468.268	676.12
468.488	667.12
468.707	664.12
468.927	660.12
469.146	652.12
469.365	688.12
469.585	687.12
469.804	745.12
470.023	740.12
470.243	756.12
470.462	772.12
470.681	795.12
470.901	725.12
471.12	699.12
471.339	713.12
471.558	701.12
471.777	671.12
471.997	657.12
472.216	649.12
472.435	626.12
472.654	638.12
472.873	653.12
473.092	648.12
473.311	667.12
473.53	659.12
473.749	711.12
473.968	807.12
474.187	904.12
474.406	764.12
474.625	697.12
474.844	668.12
475.063	647.12
475.282	656.12
475.501	655.12
475.72	661.12
475.939	648.12
476.158	688.12
476.377	721.12
476.596	710.12
476.814	709.12
477.033	735.12
477.252	718.12
477.471	749.12
477.69	766.12
477.908	761.12
478.127	780.12
478.346	788.12
478.564	772.12
478.783	788.12
479.002	818.12
479.22	835.12
479.439	875.12
479.658	879.12
479.876	872.12
480.095	912.12
480.313	922.12
480.532	865.12
480.751	869.12
480.969	846.12
481.188	825.12
481.406	805.12
481.624	778.12
481.843	786.12
482.061	774.12
482.28	775.12
482.498	741.12
482.717	752.12
482.935	778.12
483.153	777.12
483.372	763.12
483.59	798.12
483.808	731.12
484.027	793.12
484.245	783.12
484.463	807.12
484.681	800.12
484.9	793.12
485.118	792.12
485.336	788.12
485.554	783.12
485.772	825.12
485.99	827.12
486.209	795.12
486.427	828.12
486.645	845.12
486.863	879.12
487.081	847.12
487.299	831.12
487.517	824.12
487.735	843.12
487.953	835.12
488.171	825.12
488.389	832.12
488.607	822.12
488.825	826.12
489.043	807.12
489.261	842.12
489.479	803.12
489.696	813.12
489.914	821.12
490.132	841.12
490.35	860.12
490.568	867.12
490.786	879.12
491.003	898.12
491.221	956.12
491.439	934.12
491.657	948.12
491.874	975.12
492.092	946.12
492.31	968.12
492.527	924.12
492.745	930.12
492.963	971.12
493.18	948.12
493.398	973.12
493.615	994.12
493.833	1003.12
494.05	977.12
494.268	961.12
494.485	979.12
494.703	949.12
494.92	952.12
495.138	954.12
495.355	954.12
495.573	978.12
495.79	984.12
496.008	961.12
496.225	990.12
496.442	949.12
496.66	958.12
496.877	988.12
497.094	1033.12
497.312	1017.12
497.529	1033.12
497.746	1043.12
497.963	1084.12
498.181	1113.12
498.398	1135.12
498.615	1208.12
498.832	1249.12
499.049	1255.12
499.267	1349.12
499.484	1447.12
499.701	1567.12
499.918	1657.12
500.135	1778.12
500.352	1949.12
500.569	1925.12
500.786	1833.12
501.003	1769.12
501.22	1609.12
501.437	1557.12
501.654	1483.12
