Data from TestCu_HRD10591_00014.txt Node
Date: Thu Oct 05 14:04:55 EDT 2023
User: Yrep
Spectrometer: HR+D1059
Trigger mode: 1
Integration Time (sec): 1.000000E-1
Scans to average: 1
Electric dark correction enabled: true
Nonlinearity correction enabled: false
Boxcar width: 0
XAxis mode: Wavelengths
Number of Pixels in Spectrum: 2048
>>>>>Begin Spectral Data<<<<<
223.165	-11.56
223.4	-11.56
223.635	-11.56
223.869	-12.56
224.104	-8.56
224.338	-12.56
224.573	-12.56
224.808	-8.56
225.042	-7.56
225.277	-15.56
225.511	-10.56
225.746	10.44
225.98	-6.56
226.215	17.44
226.449	17.44
226.683	20.44
226.918	13.44
227.152	27.44
227.387	36.44
227.621	47.44
227.856	59.44
228.09	61.44
228.324	51.44
228.559	53.44
228.793	62.44
229.027	84.44
229.262	112.44
229.496	139.44
229.73	158.44
229.964	157.44
230.199	116.44
230.433	106.44
230.667	105.44
230.901	113.44
231.136	110.44
231.37	98.44
231.604	116.44
231.838	117.44
232.072	95.44
232.306	105.44
232.541	113.44
232.775	102.44
233.009	124.44
233.243	109.44
233.477	106.44
233.711	113.44
233.945	91.44
234.179	112.44
234.413	111.44
234.647	116.44
234.881	118.44
235.115	119.44
235.349	117.44
235.583	132.44
235.817	123.44
236.051	124.44
236.285	128.44
236.519	130.44
236.753	137.44
236.987	169.44
237.221	218.44
237.455	219.44
237.689	152.44
237.922	152.44
238.156	121.44
238.39	129.44
238.624	126.44
238.858	106.44
239.091	124.44
239.325	122.44
239.559	135.44
239.793	118.44
240.027	136.44
240.26	177.44
240.494	167.44
240.728	154.44
240.961	132.44
241.195	144.44
241.429	126.44
241.662	129.44
241.896	131.44
242.13	116.44
242.363	125.44
242.597	134.44
242.83	144.44
243.064	125.44
243.298	130.44
243.531	113.44
243.765	123.44
243.998	135.44
244.232	144.44
244.465	144.44
244.699	140.44
244.932	132.44
245.166	138.44
245.399	152.44
245.633	137.44
245.866	140.44
246.099	141.44
246.333	140.44
246.566	142.44
246.8	161.44
247.033	143.44
247.266	154.44
247.5	154.44
247.733	165.44
247.966	153.44
248.2	161.44
248.433	164.44
248.666	176.44
248.899	189.44
249.133	194.44
249.366	204.44
249.599	196.44
249.832	184.44
250.066	173.44
250.299	174.44
250.532	186.44
250.765	201.44
250.998	202.44
251.231	193.44
251.465	175.44
251.698	180.44
251.931	172.44
252.164	172.44
252.397	186.44
252.63	189.44
252.863	208.44
253.096	218.44
253.329	210.44
253.562	224.44
253.795	196.44
254.028	219.44
254.261	209.44
254.494	259.44
254.727	278.44
254.96	253.44
255.193	219.44
255.426	205.44
255.659	204.44
255.892	185.44
256.124	182.44
256.357	176.44
256.59	169.44
256.823	193.44
257.056	188.44
257.289	206.44
257.521	185.44
257.754	203.44
257.987	187.44
258.22	204.44
258.452	193.44
258.685	192.44
258.918	188.44
259.151	199.44
259.383	237.44
259.616	211.44
259.849	242.44
260.081	255.44
260.314	258.44
260.547	217.44
260.779	225.44
261.012	206.44
261.244	215.44
261.477	204.44
261.71	232.44
261.942	260.44
262.175	260.44
262.407	232.44
262.64	220.44
262.872	209.44
263.105	200.44
263.337	210.44
263.57	204.44
263.802	196.44
264.035	212.44
264.267	200.44
264.499	205.44
264.732	204.44
264.964	216.44
265.197	209.44
265.429	209.44
265.661	220.44
265.894	222.44
266.126	202.44
266.358	227.44
266.591	236.44
266.823	237.44
267.055	222.44
267.287	221.44
267.52	239.44
267.752	221.44
267.984	224.44
268.216	235.44
268.448	247.44
268.681	261.44
268.913	283.44
269.145	282.44
269.377	279.44
269.609	262.44
269.841	274.44
270.073	297.44
270.306	319.44
270.538	309.44
270.77	294.44
271.002	275.44
271.234	284.44
271.466	315.44
271.698	313.44
271.93	332.44
272.162	305.44
272.394	283.44
272.626	286.44
272.858	275.44
273.09	245.44
273.322	255.44
273.553	254.44
273.785	267.44
274.017	263.44
274.249	274.44
274.481	288.44
274.713	268.44
274.945	298.44
275.176	275.44
275.408	267.44
275.64	258.44
275.872	257.44
276.104	280.44
276.335	295.44
276.567	326.44
276.799	356.44
277.031	356.44
277.262	334.44
277.494	291.44
277.726	285.44
277.957	274.44
278.189	270.44
278.421	266.44
278.652	286.44
278.884	298.44
279.115	278.44
279.347	261.44
279.579	282.44
279.81	288.44
280.042	268.44
280.273	277.44
280.505	276.44
280.736	282.44
280.968	290.44
281.199	286.44
281.431	290.44
281.662	284.44
281.894	282.44
282.125	310.44
282.356	344.44
282.588	381.44
282.819	338.44
283.051	304.44
283.282	314.44
283.513	300.44
283.745	297.44
283.976	300.44
284.207	313.44
284.439	297.44
284.67	314.44
284.901	317.44
285.132	288.44
285.364	300.44
285.595	296.44
285.826	293.44
286.057	324.44
286.288	302.44
286.52	294.44
286.751	320.44
286.982	338.44
287.213	311.44
287.444	310.44
287.675	339.44
287.906	365.44
288.138	326.44
288.369	360.44
288.6	340.44
288.831	321.44
289.062	328.44
289.293	330.44
289.524	326.44
289.755	319.44
289.986	307.44
290.217	324.44
290.448	310.44
290.679	304.44
290.91	319.44
291.141	314.44
291.371	315.44
291.602	333.44
291.833	332.44
292.064	353.44
292.295	336.44
292.526	326.44
292.757	345.44
292.987	327.44
293.218	308.44
293.449	341.44
293.68	322.44
293.91	344.44
294.141	328.44
294.372	357.44
294.603	344.44
294.833	337.44
295.064	348.44
295.295	354.44
295.525	328.44
295.756	374.44
295.987	395.44
296.217	435.44
296.448	387.44
296.679	354.44
296.909	342.44
297.14	323.44
297.37	373.44
297.601	351.44
297.831	352.44
298.062	367.44
298.292	356.44
298.523	370.44
298.753	383.44
298.984	373.44
299.214	370.44
299.445	366.44
299.675	373.44
299.905	374.44
300.136	364.44
300.366	378.44
300.597	371.44
300.827	408.44
301.057	431.44
301.288	397.44
301.518	412.44
301.748	396.44
301.979	403.44
302.209	408.44
302.439	389.44
302.669	399.44
302.9	383.44
303.13	391.44
303.36	401.44
303.59	408.44
303.82	416.44
304.051	401.44
304.281	394.44
304.511	396.44
304.741	374.44
304.971	385.44
305.201	369.44
305.431	376.44
305.661	386.44
305.891	392.44
306.121	395.44
306.352	413.44
306.582	406.44
306.812	405.44
307.042	397.44
307.272	398.44
307.502	394.44
307.731	394.44
307.961	396.44
308.191	405.44
308.421	401.44
308.651	401.44
308.881	420.44
309.111	425.44
309.341	433.44
309.571	457.44
309.8	469.44
310.03	482.44
310.26	477.44
310.49	480.44
310.72	521.44
310.949	525.44
311.179	494.44
311.409	469.44
311.639	478.44
311.868	462.44
312.098	475.44
312.328	485.44
312.557	534.44
312.787	543.44
313.017	500.44
313.246	460.44
313.476	481.44
313.706	497.44
313.935	500.44
314.165	522.44
314.394	534.44
314.624	502.44
314.853	494.44
315.083	468.44
315.312	464.44
315.542	451.44
315.771	457.44
316.001	459.44
316.23	455.44
316.46	451.44
316.689	499.44
316.919	492.44
317.148	490.44
317.377	518.44
317.607	479.44
317.836	477.44
318.065	461.44
318.295	464.44
318.524	472.44
318.753	475.44
318.983	456.44
319.212	477.44
319.441	504.44
319.67	506.44
319.9	457.44
320.129	477.44
320.358	488.44
320.587	484.44
320.816	519.44
321.046	513.44
321.275	507.44
321.504	512.44
321.733	489.44
321.962	545.44
322.191	578.44
322.42	573.44
322.649	631.44
322.878	641.44
323.108	636.44
323.337	704.44
323.566	774.44
323.795	865.44
324.024	1200.44
324.253	2019.44
324.482	3520.44
324.71	5244.44
324.939	4729.44
325.168	2038.44
325.397	987.44
325.626	731.44
325.855	680.44
326.084	683.44
326.313	726.44
326.542	833.44
326.77	1150.44
326.999	1903.44
327.228	3075.44
327.457	3920.44
327.686	2575.44
327.914	1181.44
328.143	914.44
328.372	845.44
328.6	784.44
328.829	822.44
329.058	864.44
329.287	805.44
329.515	710.44
329.744	650.44
329.972	632.44
330.201	691.44
330.43	778.44
330.658	953.44
330.887	969.44
331.115	831.44
331.344	688.44
331.572	672.44
331.801	699.44
332.03	679.44
332.258	607.44
332.486	608.44
332.715	640.44
332.943	642.44
333.172	640.44
333.4	658.44
333.629	670.44
333.857	672.44
334.085	653.44
334.314	648.44
334.542	659.44
334.771	646.44
334.999	651.44
335.227	644.44
335.455	620.44
335.684	608.44
335.912	626.44
336.14	630.44
336.369	646.44
336.597	667.44
336.825	627.44
337.053	581.44
337.281	587.44
337.51	622.44
337.738	621.44
337.966	635.44
338.194	633.44
338.422	604.44
338.65	595.44
338.878	582.44
339.106	543.44
339.334	580.44
339.562	575.44
339.79	559.44
340.018	577.44
340.246	595.44
340.474	581.44
340.702	551.44
340.93	574.44
341.158	580.44
341.386	611.44
341.614	598.44
341.842	594.44
342.07	563.44
342.298	587.44
342.526	563.44
342.754	548.44
342.981	549.44
343.209	548.44
343.437	616.44
343.665	618.44
343.893	643.44
344.12	633.44
344.348	611.44
344.576	626.44
344.804	616.44
345.031	645.44
345.259	639.44
345.487	607.44
345.714	589.44
345.942	596.44
346.17	556.44
346.397	555.44
346.625	577.44
346.853	574.44
347.08	561.44
347.308	565.44
347.535	600.44
347.763	602.44
347.99	579.44
348.218	610.44
348.445	627.44
348.673	601.44
348.9	550.44
349.128	563.44
349.355	542.44
349.583	544.44
349.81	539.44
350.037	552.44
350.265	540.44
350.492	554.44
350.72	536.44
350.947	597.44
351.174	605.44
351.402	584.44
351.629	592.44
351.856	624.44
352.083	641.44
352.311	640.44
352.538	615.44
352.765	627.44
352.992	580.44
353.22	587.44
353.447	560.44
353.674	536.44
353.901	539.44
354.128	546.44
354.355	539.44
354.583	533.44
354.81	529.44
355.037	529.44
355.264	519.44
355.491	526.44
355.718	536.44
355.945	520.44
356.172	528.44
356.399	514.44
356.626	522.44
356.853	549.44
357.08	538.44
357.307	517.44
357.534	538.44
357.761	511.44
357.988	515.44
358.215	535.44
358.441	550.44
358.668	530.44
358.895	536.44
359.122	574.44
359.349	595.44
359.576	633.44
359.802	700.44
360.029	750.44
360.256	710.44
360.483	619.44
360.709	596.44
360.936	617.44
361.163	604.44
361.39	612.44
361.616	588.44
361.843	622.44
362.07	610.44
362.296	605.44
362.523	598.44
362.749	598.44
362.976	561.44
363.203	563.44
363.429	585.44
363.656	546.44
363.882	556.44
364.109	552.44
364.335	569.44
364.562	569.44
364.788	574.44
365.015	601.44
365.241	592.44
365.468	581.44
365.694	589.44
365.92	582.44
366.147	561.44
366.373	571.44
366.599	556.44
366.826	547.44
367.052	564.44
367.278	532.44
367.505	556.44
367.731	568.44
367.957	564.44
368.184	591.44
368.41	605.44
368.636	606.44
368.862	596.44
369.089	598.44
369.315	569.44
369.541	588.44
369.767	574.44
369.993	559.44
370.219	572.44
370.445	562.44
370.672	572.44
370.898	592.44
371.124	582.44
371.35	587.44
371.576	564.44
371.802	576.44
372.028	569.44
372.254	572.44
372.48	568.44
372.706	598.44
372.932	575.44
373.158	592.44
373.384	576.44
373.61	572.44
373.835	577.44
374.061	595.44
374.287	614.44
374.513	602.44
374.739	621.44
374.965	634.44
375.191	599.44
375.416	600.44
375.642	587.44
375.868	603.44
376.094	590.44
376.319	580.44
376.545	580.44
376.771	577.44
376.997	578.44
377.222	595.44
377.448	562.44
377.674	554.44
377.899	569.44
378.125	551.44
378.35	583.44
378.576	576.44
378.802	552.44
379.027	555.44
379.253	572.44
379.478	576.44
379.704	577.44
379.929	580.44
380.155	570.44
380.38	586.44
380.606	594.44
380.831	594.44
381.057	588.44
381.282	577.44
381.507	567.44
381.733	579.44
381.958	605.44
382.184	616.44
382.409	636.44
382.634	618.44
382.86	606.44
383.085	611.44
383.31	597.44
383.535	619.44
383.761	625.44
383.986	636.44
384.211	634.44
384.436	648.44
384.662	644.44
384.887	654.44
385.112	659.44
385.337	653.44
385.562	677.44
385.787	675.44
386.013	701.44
386.238	720.44
386.463	653.44
386.688	673.44
386.913	670.44
387.138	659.44
387.363	659.44
387.588	642.44
387.813	685.44
388.038	656.44
388.263	667.44
388.488	692.44
388.713	682.44
388.938	664.44
389.163	654.44
389.387	646.44
389.612	644.44
389.837	657.44
390.062	671.44
390.287	659.44
390.512	654.44
390.736	681.44
390.961	686.44
391.186	680.44
391.411	703.44
391.636	678.44
391.86	717.44
392.085	736.44
392.31	704.44
392.534	700.44
392.759	691.44
392.984	657.44
393.208	707.44
393.433	722.44
393.658	690.44
393.882	686.44
394.107	698.44
394.331	709.44
394.556	712.44
394.78	713.44
395.005	701.44
395.229	731.44
395.454	734.44
395.678	769.44
395.903	752.44
396.127	752.44
396.352	712.44
396.576	699.44
396.801	711.44
397.025	705.44
397.249	748.44
397.474	744.44
397.698	728.44
397.922	792.44
398.147	760.44
398.371	803.44
398.595	815.44
398.82	821.44
399.044	925.44
399.268	996.44
399.492	1081.44
399.717	1102.44
399.941	1054.44
400.165	1018.44
400.389	963.44
400.613	864.44
400.837	834.44
401.062	835.44
401.286	840.44
401.51	852.44
401.734	822.44
401.958	868.44
402.182	900.44
402.406	945.44
402.63	901.44
402.854	863.44
403.078	868.44
403.302	886.44
403.526	884.44
403.75	900.44
403.974	905.44
404.198	921.44
404.422	917.44
404.645	920.44
404.869	933.44
405.093	933.44
405.317	949.44
405.541	918.44
405.765	929.44
405.988	961.44
406.212	1039.44
406.436	1101.44
406.66	1024.44
406.883	1027.44
407.107	1063.44
407.331	1101.44
407.555	1149.44
407.778	1096.44
408.002	976.44
408.226	939.44
408.449	950.44
408.673	988.44
408.896	950.44
409.12	964.44
409.344	926.44
409.567	892.44
409.791	870.44
410.014	859.44
410.238	863.44
410.461	850.44
410.685	878.44
410.908	897.44
411.132	916.44
411.355	943.44
411.578	857.44
411.802	832.44
412.025	825.44
412.249	822.44
412.472	818.44
412.695	817.44
412.919	787.44
413.142	799.44
413.365	800.44
413.589	795.44
413.812	794.44
414.035	781.44
414.258	786.44
414.482	754.44
414.705	790.44
414.928	811.44
415.151	770.44
415.374	773.44
415.597	820.44
415.821	768.44
416.044	774.44
416.267	808.44
416.49	771.44
416.713	786.44
416.936	789.44
417.159	806.44
417.382	797.44
417.605	801.44
417.828	833.44
418.051	841.44
418.274	792.44
418.497	810.44
418.72	808.44
418.943	818.44
419.166	813.44
419.389	858.44
419.611	842.44
419.834	816.44
420.057	823.44
420.28	802.44
420.503	819.44
420.726	816.44
420.948	848.44
421.171	888.44
421.394	899.44
421.617	821.44
421.839	800.44
422.062	833.44
422.285	865.44
422.507	933.44
422.73	991.44
422.953	900.44
423.175	869.44
423.398	877.44
423.621	883.44
423.843	876.44
424.066	897.44
424.288	909.44
424.511	970.44
424.733	1011.44
424.956	1058.44
425.178	1016.44
425.401	979.44
425.623	932.44
425.846	834.44
426.068	834.44
426.291	828.44
426.513	832.44
426.735	856.44
426.958	971.44
427.18	1095.44
427.402	1269.44
427.625	1288.44
427.847	1030.44
428.069	863.44
428.292	792.44
428.514	773.44
428.736	762.44
428.958	769.44
429.181	748.44
429.403	758.44
429.625	762.44
429.847	837.44
430.069	863.44
430.292	808.44
430.514	721.44
430.736	728.44
430.958	722.44
431.18	740.44
431.402	690.44
431.624	734.44
431.846	709.44
432.068	717.44
432.29	740.44
432.512	736.44
432.734	746.44
432.956	726.44
433.178	763.44
433.4	757.44
433.622	738.44
433.844	747.44
434.066	764.44
434.287	729.44
434.509	773.44
434.731	798.44
434.953	818.44
435.175	834.44
435.397	849.44
435.618	842.44
435.84	967.44
436.062	1037.44
436.284	985.44
436.505	870.44
436.727	780.44
436.949	778.44
437.17	761.44
437.392	771.44
437.614	824.44
437.835	948.44
438.057	1032.44
438.278	1109.44
438.5	1103.44
438.721	1133.44
438.943	971.44
439.165	835.44
439.386	800.44
439.608	857.44
439.829	860.44
440.05	981.44
440.272	992.44
440.493	836.44
440.715	798.44
440.936	790.44
441.158	777.44
441.379	814.44
441.6	869.44
441.822	908.44
442.043	970.44
442.264	1054.44
442.486	996.44
442.707	878.44
442.928	905.44
443.149	949.44
443.371	995.44
443.592	1066.44
443.813	1125.44
444.034	1044.44
444.255	970.44
444.476	915.44
444.698	912.44
444.919	949.44
445.14	994.44
445.361	970.44
445.582	1045.44
445.803	1212.44
446.024	1253.44
446.245	1145.44
446.466	982.44
446.687	824.44
446.908	789.44
447.129	762.44
447.35	749.44
447.571	744.44
447.792	755.44
448.013	801.44
448.234	820.44
448.455	937.44
448.675	1058.44
448.896	1014.44
449.117	885.44
449.338	994.44
449.559	1121.44
449.779	1092.44
450	851.44
450.221	784.44
450.442	756.44
450.662	766.44
450.883	817.44
451.104	834.44
451.324	770.44
451.545	716.44
451.766	701.44
451.986	683.44
452.207	682.44
452.428	673.44
452.648	694.44
452.869	726.44
453.089	719.44
453.31	738.44
453.53	682.44
453.751	685.44
453.971	722.44
454.192	733.44
454.412	668.44
454.633	679.44
454.853	644.44
455.073	675.44
455.294	757.44
455.514	794.44
455.734	702.44
455.955	631.44
456.175	614.44
456.395	623.44
456.616	621.44
456.836	605.44
457.056	609.44
457.276	589.44
457.497	624.44
457.717	624.44
457.937	626.44
458.157	668.44
458.377	700.44
458.598	785.44
458.818	1013.44
459.038	1025.44
459.258	926.44
459.478	771.44
459.698	757.44
459.918	728.44
460.138	769.44
460.358	774.44
460.578	804.44
460.798	799.44
461.018	810.44
461.238	777.44
461.458	783.44
461.678	784.44
461.898	786.44
462.118	788.44
462.338	843.44
462.558	864.44
462.777	872.44
462.997	911.44
463.217	957.44
463.437	906.44
463.657	898.44
463.876	877.44
464.096	864.44
464.316	893.44
464.536	921.44
464.755	917.44
464.975	979.44
465.195	1192.44
465.414	1094.44
465.634	854.44
465.854	763.44
466.073	742.44
466.293	708.44
466.512	716.44
466.732	719.44
466.951	684.44
467.171	714.44
467.391	710.44
467.61	773.44
467.829	740.44
468.049	705.44
468.268	699.44
468.488	666.44
468.707	693.44
468.927	673.44
469.146	672.44
469.365	693.44
469.585	668.44
469.804	757.44
470.023	765.44
470.243	768.44
470.462	789.44
470.681	790.44
470.901	743.44
471.12	677.44
471.339	738.44
471.558	703.44
471.777	697.44
471.997	656.44
472.216	656.44
472.435	667.44
472.654	637.44
472.873	643.44
473.092	656.44
473.311	657.44
473.53	660.44
473.749	688.44
473.968	818.44
474.187	924.44
474.406	809.44
474.625	704.44
474.844	676.44
475.063	666.44
475.282	660.44
475.501	661.44
475.72	690.44
475.939	712.44
476.158	667.44
476.377	683.44
476.596	702.44
476.814	714.44
477.033	710.44
477.252	712.44
477.471	730.44
477.69	736.44
477.908	763.44
478.127	761.44
478.346	771.44
478.564	787.44
478.783	808.44
479.002	807.44
479.22	858.44
479.439	884.44
479.658	862.44
479.876	869.44
480.095	863.44
480.313	904.44
480.532	858.44
480.751	857.44
480.969	847.44
481.188	818.44
481.406	831.44
481.624	787.44
481.843	781.44
482.061	768.44
482.28	758.44
482.498	763.44
482.717	750.44
482.935	755.44
483.153	766.44
483.372	777.44
483.59	761.44
483.808	776.44
484.027	764.44
484.245	755.44
484.463	779.44
484.681	811.44
484.9	805.44
485.118	811.44
485.336	836.44
485.554	817.44
485.772	834.44
485.99	817.44
486.209	821.44
486.427	829.44
486.645	854.44
486.863	888.44
487.081	844.44
487.299	819.44
487.517	846.44
487.735	836.44
487.953	860.44
488.171	845.44
488.389	818.44
488.607	830.44
488.825	826.44
489.043	809.44
489.261	815.44
489.479	820.44
489.696	832.44
489.914	838.44
490.132	851.44
490.35	845.44
490.568	890.44
490.786	910.44
491.003	902.44
491.221	922.44
491.439	972.44
491.657	930.44
491.874	973.44
492.092	964.44
492.31	988.44
492.527	973.44
492.745	994.44
492.963	972.44
493.18	988.44
493.398	1002.44
493.615	996.44
493.833	994.44
494.05	969.44
494.268	965.44
494.485	965.44
494.703	961.44
494.92	994.44
495.138	992.44
495.355	990.44
495.573	980.44
495.79	986.44
496.008	996.44
496.225	971.44
496.442	989.44
496.66	994.44
496.877	988.44
497.094	957.44
497.312	1008.44
497.529	1022.44
497.746	1070.44
497.963	1057.44
498.181	1103.44
498.398	1146.44
498.615	1208.44
498.832	1245.44
499.049	1296.44
499.267	1349.44
499.484	1469.44
499.701	1555.44
499.918	1612.44
500.135	1813.44
500.352	1915.44
500.569	1924.44
500.786	1878.44
501.003	1761.44
501.22	1638.44
501.437	1573.44
501.654	1485.44
