Data from TestCu_HRD10591_00032.txt Node
Date: Thu Oct 05 14:05:13 EDT 2023
User: Yrep
Spectrometer: HR+D1059
Trigger mode: 1
Integration Time (sec): 1.000000E-1
Scans to average: 1
Electric dark correction enabled: true
Nonlinearity correction enabled: false
Boxcar width: 0
XAxis mode: Wavelengths
Number of Pixels in Spectrum: 2048
>>>>>Begin Spectral Data<<<<<
223.165	-20.69
223.4	-20.69
223.635	-20.69
223.869	-26.69
224.104	-28.69
224.338	-16.69
224.573	-19.69
224.808	-9.69
225.042	-6.69
225.277	-7.69
225.511	2.31
225.746	18.31
225.98	-0.69
226.215	19.31
226.449	25.31
226.683	14.31
226.918	25.31
227.152	32.31
227.387	34.31
227.621	34.31
227.856	44.31
228.09	39.31
228.324	50.31
228.559	46.31
228.793	68.31
229.027	113.31
229.262	123.31
229.496	141.31
229.73	156.31
229.964	160.31
230.199	95.31
230.433	99.31
230.667	105.31
230.901	112.31
231.136	116.31
231.37	122.31
231.604	113.31
231.838	108.31
232.072	119.31
232.306	104.31
232.541	116.31
232.775	114.31
233.009	125.31
233.243	112.31
233.477	121.31
233.711	114.31
233.945	108.31
234.179	122.31
234.413	114.31
234.647	115.31
234.881	117.31
235.115	104.31
235.349	115.31
235.583	121.31
235.817	133.31
236.051	125.31
236.285	125.31
236.519	140.31
236.753	146.31
236.987	168.31
237.221	215.31
237.455	225.31
237.689	155.31
237.922	137.31
238.156	129.31
238.39	127.31
238.624	127.31
238.858	135.31
239.091	113.31
239.325	121.31
239.559	148.31
239.793	143.31
240.027	138.31
240.26	153.31
240.494	158.31
240.728	155.31
240.961	148.31
241.195	124.31
241.429	116.31
241.662	130.31
241.896	141.31
242.13	112.31
242.363	119.31
242.597	134.31
242.83	133.31
243.064	130.31
243.298	130.31
243.531	139.31
243.765	138.31
243.998	130.31
244.232	135.31
244.465	128.31
244.699	131.31
244.932	145.31
245.166	145.31
245.399	132.31
245.633	133.31
245.866	156.31
246.099	156.31
246.333	126.31
246.566	150.31
246.8	150.31
247.033	144.31
247.266	141.31
247.5	149.31
247.733	169.31
247.966	167.31
248.2	175.31
248.433	174.31
248.666	190.31
248.899	194.31
249.133	195.31
249.366	215.31
249.599	195.31
249.832	170.31
250.066	181.31
250.299	159.31
250.532	183.31
250.765	211.31
250.998	217.31
251.231	205.31
251.465	193.31
251.698	174.31
251.931	171.31
252.164	189.31
252.397	183.31
252.63	185.31
252.863	204.31
253.096	213.31
253.329	192.31
253.562	195.31
253.795	206.31
254.028	203.31
254.261	213.31
254.494	246.31
254.727	273.31
254.96	257.31
255.193	231.31
255.426	198.31
255.659	199.31
255.892	179.31
256.124	203.31
256.357	181.31
256.59	191.31
256.823	200.31
257.056	178.31
257.289	213.31
257.521	200.31
257.754	199.31
257.987	201.31
258.22	190.31
258.452	198.31
258.685	201.31
258.918	194.31
259.151	197.31
259.383	222.31
259.616	227.31
259.849	231.31
260.081	242.31
260.314	266.31
260.547	226.31
260.779	226.31
261.012	237.31
261.244	211.31
261.477	233.31
261.71	235.31
261.942	269.31
262.175	250.31
262.407	241.31
262.64	213.31
262.872	221.31
263.105	210.31
263.337	197.31
263.57	221.31
263.802	212.31
264.035	214.31
264.267	213.31
264.499	211.31
264.732	209.31
264.964	221.31
265.197	212.31
265.429	217.31
265.661	222.31
265.894	221.31
266.126	225.31
266.358	227.31
266.591	227.31
266.823	234.31
267.055	217.31
267.287	213.31
267.52	228.31
267.752	229.31
267.984	219.31
268.216	236.31
268.448	221.31
268.681	246.31
268.913	271.31
269.145	277.31
269.377	288.31
269.609	266.31
269.841	265.31
270.073	293.31
270.306	325.31
270.538	316.31
270.77	304.31
271.002	281.31
271.234	292.31
271.466	324.31
271.698	330.31
271.93	317.31
272.162	322.31
272.394	295.31
272.626	300.31
272.858	267.31
273.09	251.31
273.322	268.31
273.553	256.31
273.785	259.31
274.017	258.31
274.249	256.31
274.481	265.31
274.713	291.31
274.945	283.31
275.176	266.31
275.408	256.31
275.64	267.31
275.872	287.31
276.104	287.31
276.335	289.31
276.567	331.31
276.799	355.31
277.031	361.31
277.262	340.31
277.494	314.31
277.726	289.31
277.957	303.31
278.189	274.31
278.421	270.31
278.652	265.31
278.884	272.31
279.115	271.31
279.347	271.31
279.579	283.31
279.81	260.31
280.042	270.31
280.273	277.31
280.505	288.31
280.736	275.31
280.968	288.31
281.199	269.31
281.431	283.31
281.662	289.31
281.894	309.31
282.125	319.31
282.356	342.31
282.588	383.31
282.819	363.31
283.051	313.31
283.282	308.31
283.513	309.31
283.745	322.31
283.976	305.31
284.207	294.31
284.439	303.31
284.67	302.31
284.901	326.31
285.132	301.31
285.364	305.31
285.595	292.31
285.826	304.31
286.057	327.31
286.288	294.31
286.52	309.31
286.751	332.31
286.982	327.31
287.213	319.31
287.444	334.31
287.675	324.31
287.906	334.31
288.138	343.31
288.369	329.31
288.6	323.31
288.831	322.31
289.062	325.31
289.293	324.31
289.524	342.31
289.755	320.31
289.986	327.31
290.217	318.31
290.448	337.31
290.679	326.31
290.91	330.31
291.141	348.31
291.371	320.31
291.602	322.31
291.833	325.31
292.064	330.31
292.295	345.31
292.526	329.31
292.757	340.31
292.987	342.31
293.218	342.31
293.449	362.31
293.68	323.31
293.91	329.31
294.141	353.31
294.372	326.31
294.603	348.31
294.833	342.31
295.064	334.31
295.295	356.31
295.525	368.31
295.756	366.31
295.987	417.31
296.217	433.31
296.448	383.31
296.679	367.31
296.909	356.31
297.14	342.31
297.37	365.31
297.601	349.31
297.831	398.31
298.062	377.31
298.292	371.31
298.523	366.31
298.753	355.31
298.984	372.31
299.214	376.31
299.445	368.31
299.675	367.31
299.905	371.31
300.136	352.31
300.366	373.31
300.597	392.31
300.827	413.31
301.057	411.31
301.288	427.31
301.518	395.31
301.748	380.31
301.979	419.31
302.209	406.31
302.439	396.31
302.669	402.31
302.9	393.31
303.13	425.31
303.36	412.31
303.59	413.31
303.82	438.31
304.051	387.31
304.281	400.31
304.511	389.31
304.741	406.31
304.971	389.31
305.201	409.31
305.431	397.31
305.661	397.31
305.891	404.31
306.121	401.31
306.352	432.31
306.582	414.31
306.812	384.31
307.042	389.31
307.272	402.31
307.502	405.31
307.731	419.31
307.961	418.31
308.191	411.31
308.421	403.31
308.651	416.31
308.881	431.31
309.111	435.31
309.341	432.31
309.571	445.31
309.8	452.31
310.03	491.31
310.26	477.31
310.49	478.31
310.72	517.31
310.949	525.31
311.179	501.31
311.409	454.31
311.639	472.31
311.868	477.31
312.098	495.31
312.328	512.31
312.557	534.31
312.787	553.31
313.017	506.31
313.246	475.31
313.476	467.31
313.706	505.31
313.935	519.31
314.165	544.31
314.394	531.31
314.624	516.31
314.853	478.31
315.083	455.31
315.312	465.31
315.542	456.31
315.771	468.31
316.001	453.31
316.23	454.31
316.46	467.31
316.689	485.31
316.919	507.31
317.148	506.31
317.377	512.31
317.607	511.31
317.836	468.31
318.065	480.31
318.295	486.31
318.524	461.31
318.753	468.31
318.983	499.31
319.212	466.31
319.441	504.31
319.67	498.31
319.9	475.31
320.129	481.31
320.358	489.31
320.587	530.31
320.816	509.31
321.046	513.31
321.275	498.31
321.504	495.31
321.733	531.31
321.962	541.31
322.191	575.31
322.42	592.31
322.649	605.31
322.878	651.31
323.108	669.31
323.337	725.31
323.566	801.31
323.795	874.31
324.024	1158.31
324.253	2039.31
324.482	3437.31
324.71	5067.31
324.939	4445.31
325.168	1946.31
325.397	955.31
325.626	736.31
325.855	697.31
326.084	693.31
326.313	723.31
326.542	841.31
326.77	1165.31
326.999	1858.31
327.228	2950.31
327.457	3716.31
327.686	2395.31
327.914	1159.31
328.143	898.31
328.372	822.31
328.6	794.31
328.829	868.31
329.058	871.31
329.287	802.31
329.515	687.31
329.744	627.31
329.972	657.31
330.201	703.31
330.43	799.31
330.658	937.31
330.887	935.31
331.115	802.31
331.344	671.31
331.572	669.31
331.801	708.31
332.03	674.31
332.258	624.31
332.486	612.31
332.715	631.31
332.943	641.31
333.172	667.31
333.4	669.31
333.629	672.31
333.857	693.31
334.085	663.31
334.314	666.31
334.542	641.31
334.771	665.31
334.999	647.31
335.227	626.31
335.455	637.31
335.684	647.31
335.912	644.31
336.14	625.31
336.369	640.31
336.597	650.31
336.825	641.31
337.053	604.31
337.281	628.31
337.51	620.31
337.738	630.31
337.966	637.31
338.194	635.31
338.422	626.31
338.65	585.31
338.878	586.31
339.106	581.31
339.334	562.31
339.562	593.31
339.79	576.31
340.018	581.31
340.246	611.31
340.474	586.31
340.702	597.31
340.93	588.31
341.158	589.31
341.386	607.31
341.614	593.31
341.842	574.31
342.07	573.31
342.298	594.31
342.526	567.31
342.754	571.31
342.981	550.31
343.209	574.31
343.437	607.31
343.665	639.31
343.893	635.31
344.12	635.31
344.348	632.31
344.576	631.31
344.804	641.31
345.031	662.31
345.259	650.31
345.487	644.31
345.714	598.31
345.942	582.31
346.17	593.31
346.397	579.31
346.625	568.31
346.853	580.31
347.08	593.31
347.308	593.31
347.535	622.31
347.763	598.31
347.99	619.31
348.218	656.31
348.445	618.31
348.673	595.31
348.9	562.31
349.128	540.31
349.355	547.31
349.583	518.31
349.81	539.31
350.037	539.31
350.265	529.31
350.492	539.31
350.72	581.31
350.947	587.31
351.174	635.31
351.402	600.31
351.629	583.31
351.856	606.31
352.083	641.31
352.311	647.31
352.538	644.31
352.765	622.31
352.992	603.31
353.22	587.31
353.447	567.31
353.674	551.31
353.901	559.31
354.128	549.31
354.355	549.31
354.583	525.31
354.81	537.31
355.037	510.31
355.264	540.31
355.491	506.31
355.718	525.31
355.945	525.31
356.172	524.31
356.399	529.31
356.626	524.31
356.853	509.31
357.08	533.31
357.307	555.31
357.534	541.31
357.761	531.31
357.988	537.31
358.215	549.31
358.441	549.31
358.668	562.31
358.895	531.31
359.122	564.31
359.349	571.31
359.576	621.31
359.802	727.31
360.029	761.31
360.256	729.31
360.483	616.31
360.709	622.31
360.936	599.31
361.163	621.31
361.39	614.31
361.616	610.31
361.843	635.31
362.07	618.31
362.296	603.31
362.523	597.31
362.749	583.31
362.976	578.31
363.203	581.31
363.429	569.31
363.656	571.31
363.882	556.31
364.109	564.31
364.335	562.31
364.562	565.31
364.788	572.31
365.015	579.31
365.241	575.31
365.468	609.31
365.694	601.31
365.92	590.31
366.147	582.31
366.373	583.31
366.599	541.31
366.826	549.31
367.052	560.31
367.278	574.31
367.505	564.31
367.731	559.31
367.957	590.31
368.184	574.31
368.41	634.31
368.636	628.31
368.862	592.31
369.089	582.31
369.315	568.31
369.541	588.31
369.767	572.31
369.993	596.31
370.219	582.31
370.445	574.31
370.672	578.31
370.898	582.31
371.124	601.31
371.35	580.31
371.576	575.31
371.802	569.31
372.028	575.31
372.254	570.31
372.48	576.31
372.706	589.31
372.932	590.31
373.158	589.31
373.384	588.31
373.61	587.31
373.835	581.31
374.061	598.31
374.287	586.31
374.513	609.31
374.739	610.31
374.965	606.31
375.191	607.31
375.416	609.31
375.642	595.31
375.868	601.31
376.094	557.31
376.319	605.31
376.545	588.31
376.771	580.31
376.997	581.31
377.222	570.31
377.448	565.31
377.674	580.31
377.899	589.31
378.125	557.31
378.35	594.31
378.576	572.31
378.802	599.31
379.027	562.31
379.253	579.31
379.478	571.31
379.704	602.31
379.929	589.31
380.155	587.31
380.38	581.31
380.606	602.31
380.831	591.31
381.057	599.31
381.282	583.31
381.507	574.31
381.733	599.31
381.958	597.31
382.184	610.31
382.409	599.31
382.634	617.31
382.86	591.31
383.085	597.31
383.31	620.31
383.535	647.31
383.761	643.31
383.986	639.31
384.211	643.31
384.436	667.31
384.662	666.31
384.887	681.31
385.112	691.31
385.337	646.31
385.562	656.31
385.787	729.31
386.013	752.31
386.238	677.31
386.463	672.31
386.688	692.31
386.913	670.31
387.138	648.31
387.363	657.31
387.588	689.31
387.813	676.31
388.038	683.31
388.263	663.31
388.488	693.31
388.713	669.31
388.938	639.31
389.163	677.31
389.387	671.31
389.612	660.31
389.837	677.31
390.062	687.31
390.287	693.31
390.512	674.31
390.736	679.31
390.961	687.31
391.186	686.31
391.411	702.31
391.636	728.31
391.86	713.31
392.085	708.31
392.31	717.31
392.534	703.31
392.759	726.31
392.984	717.31
393.208	718.31
393.433	707.31
393.658	699.31
393.882	713.31
394.107	703.31
394.331	718.31
394.556	690.31
394.78	720.31
395.005	741.31
395.229	726.31
395.454	737.31
395.678	723.31
395.903	737.31
396.127	733.31
396.352	726.31
396.576	714.31
396.801	731.31
397.025	717.31
397.249	732.31
397.474	758.31
397.698	761.31
397.922	769.31
398.147	779.31
398.371	791.31
398.595	803.31
398.82	851.31
399.044	925.31
399.268	1019.31
399.492	1102.31
399.717	1127.31
399.941	1050.31
400.165	1047.31
400.389	965.31
400.613	905.31
400.837	863.31
401.062	834.31
401.286	826.31
401.51	823.31
401.734	833.31
401.958	902.31
402.182	909.31
402.406	941.31
402.63	912.31
402.854	881.31
403.078	890.31
403.302	895.31
403.526	946.31
403.75	935.31
403.974	938.31
404.198	942.31
404.422	950.31
404.645	916.31
404.869	912.31
405.093	926.31
405.317	951.31
405.541	957.31
405.765	908.31
405.988	970.31
406.212	1044.31
406.436	1102.31
406.66	1085.31
406.883	998.31
407.107	1063.31
407.331	1151.31
407.555	1144.31
407.778	1088.31
408.002	998.31
408.226	951.31
408.449	942.31
408.673	970.31
408.896	964.31
409.12	948.31
409.344	917.31
409.567	890.31
409.791	884.31
410.014	895.31
410.238	882.31
410.461	860.31
410.685	895.31
410.908	905.31
411.132	909.31
411.355	895.31
411.578	864.31
411.802	837.31
412.025	851.31
412.249	847.31
412.472	841.31
412.695	824.31
412.919	810.31
413.142	807.31
413.365	810.31
413.589	799.31
413.812	813.31
414.035	804.31
414.258	799.31
414.482	797.31
414.705	806.31
414.928	804.31
415.151	816.31
415.374	800.31
415.597	797.31
415.821	782.31
416.044	785.31
416.267	782.31
416.49	775.31
416.713	776.31
416.936	782.31
417.159	800.31
417.382	835.31
417.605	812.31
417.828	829.31
418.051	822.31
418.274	822.31
418.497	801.31
418.72	817.31
418.943	813.31
419.166	844.31
419.389	831.31
419.611	851.31
419.834	878.31
420.057	805.31
420.28	825.31
420.503	820.31
420.726	843.31
420.948	858.31
421.171	881.31
421.394	870.31
421.617	827.31
421.839	823.31
422.062	841.31
422.285	901.31
422.507	976.31
422.73	965.31
422.953	888.31
423.175	860.31
423.398	866.31
423.621	854.31
423.843	882.31
424.066	871.31
424.288	878.31
424.511	941.31
424.733	1007.31
424.956	1051.31
425.178	982.31
425.401	999.31
425.623	950.31
425.846	859.31
426.068	846.31
426.291	835.31
426.513	822.31
426.735	877.31
426.958	1014.31
427.18	1115.31
427.402	1267.31
427.625	1307.31
427.847	1050.31
428.069	825.31
428.292	827.31
428.514	776.31
428.736	741.31
428.958	750.31
429.181	754.31
429.403	788.31
429.625	780.31
429.847	842.31
430.069	878.31
430.292	806.31
430.514	743.31
430.736	733.31
430.958	731.31
431.18	727.31
431.402	715.31
431.624	734.31
431.846	734.31
432.068	754.31
432.29	711.31
432.512	743.31
432.734	765.31
432.956	734.31
433.178	757.31
433.4	778.31
433.622	735.31
433.844	781.31
434.066	771.31
434.287	741.31
434.509	785.31
434.731	781.31
434.953	833.31
435.175	833.31
435.397	820.31
435.618	870.31
435.84	975.31
436.062	1044.31
436.284	988.31
436.505	854.31
436.727	815.31
436.949	757.31
437.17	780.31
437.392	784.31
437.614	835.31
437.835	950.31
438.057	1054.31
438.278	1089.31
438.5	1090.31
438.721	1133.31
438.943	979.31
439.165	833.31
439.386	818.31
439.608	843.31
439.829	901.31
440.05	984.31
440.272	1010.31
440.493	857.31
440.715	796.31
440.936	778.31
441.158	812.31
441.379	846.31
441.6	893.31
441.822	916.31
442.043	989.31
442.264	1045.31
442.486	971.31
442.707	915.31
442.928	918.31
443.149	944.31
443.371	1005.31
443.592	1069.31
443.813	1129.31
444.034	1063.31
444.255	939.31
444.476	904.31
444.698	906.31
444.919	934.31
445.14	991.31
445.361	974.31
445.582	1081.31
445.803	1211.31
446.024	1279.31
446.245	1119.31
446.466	978.31
446.687	839.31
446.908	798.31
447.129	767.31
447.35	764.31
447.571	746.31
447.792	760.31
448.013	800.31
448.234	864.31
448.455	935.31
448.675	1070.31
448.896	1037.31
449.117	875.31
449.338	1022.31
449.559	1172.31
449.779	1089.31
450	835.31
450.221	742.31
450.442	756.31
450.662	786.31
450.883	858.31
451.104	847.31
451.324	766.31
451.545	709.31
451.766	693.31
451.986	672.31
452.207	681.31
452.428	700.31
452.648	717.31
452.869	709.31
453.089	727.31
453.31	723.31
453.53	699.31
453.751	665.31
453.971	722.31
454.192	754.31
454.412	702.31
454.633	678.31
454.853	663.31
455.073	676.31
455.294	755.31
455.514	784.31
455.734	687.31
455.955	638.31
456.175	642.31
456.395	621.31
456.616	613.31
456.836	609.31
457.056	626.31
457.276	629.31
457.497	640.31
457.717	618.31
457.937	607.31
458.157	658.31
458.377	711.31
458.598	827.31
458.818	1025.31
459.038	1052.31
459.258	911.31
459.478	804.31
459.698	735.31
459.918	767.31
460.138	786.31
460.358	831.31
460.578	784.31
460.798	801.31
461.018	804.31
461.238	776.31
461.458	777.31
461.678	807.31
461.898	807.31
462.118	820.31
462.338	852.31
462.558	871.31
462.777	897.31
462.997	950.31
463.217	964.31
463.437	955.31
463.657	876.31
463.876	881.31
464.096	906.31
464.316	915.31
464.536	931.31
464.755	914.31
464.975	975.31
465.195	1218.31
465.414	1087.31
465.634	849.31
465.854	753.31
466.073	737.31
466.293	724.31
466.512	689.31
466.732	693.31
466.951	695.31
467.171	704.31
467.391	748.31
467.61	791.31
467.829	708.31
468.049	703.31
468.268	676.31
468.488	667.31
468.707	685.31
468.927	681.31
469.146	664.31
469.365	681.31
469.585	685.31
469.804	707.31
470.023	788.31
470.243	749.31
470.462	766.31
470.681	810.31
470.901	765.31
471.12	729.31
471.339	693.31
471.558	706.31
471.777	692.31
471.997	678.31
472.216	671.31
472.435	649.31
472.654	630.31
472.873	660.31
473.092	638.31
473.311	662.31
473.53	688.31
473.749	723.31
473.968	809.31
474.187	914.31
474.406	784.31
474.625	681.31
474.844	679.31
475.063	647.31
475.282	666.31
475.501	697.31
475.72	700.31
475.939	685.31
476.158	695.31
476.377	702.31
476.596	689.31
476.814	743.31
477.033	729.31
477.252	730.31
477.471	757.31
477.69	779.31
477.908	743.31
478.127	778.31
478.346	796.31
478.564	784.31
478.783	810.31
479.002	819.31
479.22	841.31
479.439	902.31
479.658	908.31
479.876	874.31
480.095	911.31
480.313	916.31
480.532	877.31
480.751	864.31
480.969	843.31
481.188	836.31
481.406	816.31
481.624	814.31
481.843	793.31
482.061	768.31
482.28	773.31
482.498	776.31
482.717	788.31
482.935	773.31
483.153	780.31
483.372	800.31
483.59	777.31
483.808	767.31
484.027	772.31
484.245	791.31
484.463	794.31
484.681	807.31
484.9	804.31
485.118	806.31
485.336	822.31
485.554	805.31
485.772	808.31
485.99	821.31
486.209	828.31
486.427	850.31
486.645	890.31
486.863	908.31
487.081	866.31
487.299	838.31
487.517	827.31
487.735	823.31
487.953	854.31
488.171	852.31
488.389	816.31
488.607	853.31
488.825	830.31
489.043	813.31
489.261	823.31
489.479	812.31
489.696	853.31
489.914	831.31
490.132	856.31
490.35	879.31
490.568	909.31
490.786	871.31
491.003	928.31
491.221	943.31
491.439	974.31
491.657	979.31
491.874	986.31
492.092	982.31
492.31	961.31
492.527	969.31
492.745	990.31
492.963	962.31
493.18	1004.31
493.398	1007.31
493.615	1012.31
493.833	1002.31
494.05	975.31
494.268	989.31
494.485	953.31
494.703	1007.31
494.92	972.31
495.138	972.31
495.355	986.31
495.573	1012.31
495.79	1001.31
496.008	1007.31
496.225	967.31
496.442	998.31
496.66	972.31
496.877	1021.31
497.094	1014.31
497.312	1044.31
497.529	1020.31
497.746	1082.31
497.963	1057.31
498.181	1114.31
498.398	1141.31
498.615	1202.31
498.832	1230.31
499.049	1321.31
499.267	1351.31
499.484	1456.31
499.701	1561.31
499.918	1657.31
500.135	1811.31
500.352	1949.31
500.569	1945.31
500.786	1877.31
501.003	1771.31
501.22	1695.31
501.437	1612.31
501.654	1509.31
