Data from TestCu_HRD10591_00061.txt Node
Date: Thu Oct 05 14:05:41 EDT 2023
User: Yrep
Spectrometer: HR+D1059
Trigger mode: 1
Integration Time (sec): 1.000000E-1
Scans to average: 1
Electric dark correction enabled: true
Nonlinearity correction enabled: false
Boxcar width: 0
XAxis mode: Wavelengths
Number of Pixels in Spectrum: 2048
>>>>>Begin Spectral Data<<<<<
223.165	-28.62
223.4	-28.62
223.635	-28.62
223.869	-25.62
224.104	-12.62
224.338	-2.62
224.573	-19.62
224.808	-23.62
225.042	-20.62
225.277	-13.62
225.511	-0.62
225.746	3.38
225.98	5.38
226.215	15.38
226.449	21.38
226.683	36.38
226.918	29.38
227.152	36.38
227.387	31.38
227.621	41.38
227.856	40.38
228.09	35.38
228.324	48.38
228.559	57.38
228.793	65.38
229.027	108.38
229.262	128.38
229.496	130.38
229.73	172.38
229.964	161.38
230.199	120.38
230.433	114.38
230.667	114.38
230.901	121.38
231.136	103.38
231.37	108.38
231.604	113.38
231.838	115.38
232.072	112.38
232.306	106.38
232.541	109.38
232.775	101.38
233.009	110.38
233.243	118.38
233.477	112.38
233.711	126.38
233.945	105.38
234.179	116.38
234.413	103.38
234.647	121.38
234.881	110.38
235.115	118.38
235.349	122.38
235.583	129.38
235.817	113.38
236.051	121.38
236.285	116.38
236.519	126.38
236.753	137.38
236.987	182.38
237.221	209.38
237.455	236.38
237.689	150.38
237.922	127.38
238.156	126.38
238.39	118.38
238.624	124.38
238.858	115.38
239.091	130.38
239.325	125.38
239.559	123.38
239.793	147.38
240.027	149.38
240.26	141.38
240.494	148.38
240.728	140.38
240.961	140.38
241.195	132.38
241.429	131.38
241.662	126.38
241.896	123.38
242.13	124.38
242.363	139.38
242.597	134.38
242.83	132.38
243.064	133.38
243.298	135.38
243.531	139.38
243.765	120.38
243.998	136.38
244.232	133.38
244.465	139.38
244.699	148.38
244.932	142.38
245.166	134.38
245.399	149.38
245.633	147.38
245.866	135.38
246.099	144.38
246.333	131.38
246.566	160.38
246.8	142.38
247.033	159.38
247.266	143.38
247.5	159.38
247.733	178.38
247.966	155.38
248.2	140.38
248.433	161.38
248.666	181.38
248.899	196.38
249.133	190.38
249.366	205.38
249.599	198.38
249.832	162.38
250.066	173.38
250.299	171.38
250.532	182.38
250.765	208.38
250.998	206.38
251.231	206.38
251.465	180.38
251.698	186.38
251.931	173.38
252.164	179.38
252.397	177.38
252.63	188.38
252.863	191.38
253.096	212.38
253.329	215.38
253.562	208.38
253.795	191.38
254.028	202.38
254.261	211.38
254.494	241.38
254.727	263.38
254.96	241.38
255.193	222.38
255.426	212.38
255.659	203.38
255.892	188.38
256.124	191.38
256.357	189.38
256.59	182.38
256.823	191.38
257.056	198.38
257.289	181.38
257.521	187.38
257.754	182.38
257.987	181.38
258.22	189.38
258.452	191.38
258.685	199.38
258.918	206.38
259.151	201.38
259.383	217.38
259.616	211.38
259.849	229.38
260.081	252.38
260.314	257.38
260.547	241.38
260.779	212.38
261.012	221.38
261.244	208.38
261.477	219.38
261.71	223.38
261.942	259.38
262.175	255.38
262.407	213.38
262.64	213.38
262.872	211.38
263.105	194.38
263.337	221.38
263.57	205.38
263.802	209.38
264.035	202.38
264.267	212.38
264.499	223.38
264.732	207.38
264.964	205.38
265.197	214.38
265.429	214.38
265.661	219.38
265.894	221.38
266.126	222.38
266.358	209.38
266.591	228.38
266.823	235.38
267.055	240.38
267.287	230.38
267.52	232.38
267.752	223.38
267.984	227.38
268.216	238.38
268.448	242.38
268.681	235.38
268.913	256.38
269.145	283.38
269.377	274.38
269.609	289.38
269.841	274.38
270.073	308.38
270.306	321.38
270.538	321.38
270.77	284.38
271.002	275.38
271.234	297.38
271.466	311.38
271.698	331.38
271.93	328.38
272.162	310.38
272.394	305.38
272.626	296.38
272.858	277.38
273.09	271.38
273.322	261.38
273.553	256.38
273.785	250.38
274.017	259.38
274.249	271.38
274.481	269.38
274.713	262.38
274.945	273.38
275.176	280.38
275.408	267.38
275.64	275.38
275.872	257.38
276.104	282.38
276.335	293.38
276.567	307.38
276.799	340.38
277.031	387.38
277.262	341.38
277.494	317.38
277.726	300.38
277.957	266.38
278.189	275.38
278.421	282.38
278.652	289.38
278.884	275.38
279.115	259.38
279.347	277.38
279.579	289.38
279.81	278.38
280.042	284.38
280.273	284.38
280.505	294.38
280.736	289.38
280.968	299.38
281.199	298.38
281.431	287.38
281.662	285.38
281.894	293.38
282.125	322.38
282.356	349.38
282.588	373.38
282.819	340.38
283.051	311.38
283.282	300.38
283.513	299.38
283.745	303.38
283.976	306.38
284.207	309.38
284.439	307.38
284.67	318.38
284.901	297.38
285.132	289.38
285.364	301.38
285.595	308.38
285.826	304.38
286.057	299.38
286.288	317.38
286.52	306.38
286.751	293.38
286.982	304.38
287.213	322.38
287.444	327.38
287.675	330.38
287.906	339.38
288.138	338.38
288.369	327.38
288.6	339.38
288.831	331.38
289.062	324.38
289.293	317.38
289.524	322.38
289.755	319.38
289.986	330.38
290.217	307.38
290.448	321.38
290.679	311.38
290.91	321.38
291.141	334.38
291.371	331.38
291.602	329.38
291.833	310.38
292.064	329.38
292.295	343.38
292.526	351.38
292.757	351.38
292.987	352.38
293.218	328.38
293.449	338.38
293.68	337.38
293.91	332.38
294.141	324.38
294.372	345.38
294.603	328.38
294.833	347.38
295.064	331.38
295.295	329.38
295.525	349.38
295.756	387.38
295.987	385.38
296.217	421.38
296.448	368.38
296.679	334.38
296.909	353.38
297.14	354.38
297.37	354.38
297.601	362.38
297.831	345.38
298.062	349.38
298.292	362.38
298.523	383.38
298.753	368.38
298.984	370.38
299.214	362.38
299.445	379.38
299.675	387.38
299.905	375.38
300.136	368.38
300.366	395.38
300.597	386.38
300.827	406.38
301.057	413.38
301.288	396.38
301.518	383.38
301.748	382.38
301.979	413.38
302.209	403.38
302.439	405.38
302.669	398.38
302.9	394.38
303.13	399.38
303.36	409.38
303.59	410.38
303.82	393.38
304.051	395.38
304.281	409.38
304.511	397.38
304.741	409.38
304.971	380.38
305.201	372.38
305.431	389.38
305.661	396.38
305.891	385.38
306.121	402.38
306.352	423.38
306.582	402.38
306.812	423.38
307.042	405.38
307.272	388.38
307.502	394.38
307.731	394.38
307.961	403.38
308.191	377.38
308.421	414.38
308.651	419.38
308.881	415.38
309.111	425.38
309.341	428.38
309.571	447.38
309.8	467.38
310.03	479.38
310.26	480.38
310.49	484.38
310.72	508.38
310.949	518.38
311.179	495.38
311.409	451.38
311.639	463.38
311.868	491.38
312.098	492.38
312.328	529.38
312.557	535.38
312.787	523.38
313.017	508.38
313.246	483.38
313.476	473.38
313.706	487.38
313.935	509.38
314.165	527.38
314.394	502.38
314.624	523.38
314.853	499.38
315.083	486.38
315.312	461.38
315.542	471.38
315.771	462.38
316.001	461.38
316.23	450.38
316.46	462.38
316.689	468.38
316.919	495.38
317.148	497.38
317.377	483.38
317.607	475.38
317.836	484.38
318.065	483.38
318.295	467.38
318.524	455.38
318.753	444.38
318.983	468.38
319.212	492.38
319.441	493.38
319.67	487.38
319.9	457.38
320.129	466.38
320.358	449.38
320.587	490.38
320.816	518.38
321.046	526.38
321.275	520.38
321.504	495.38
321.733	496.38
321.962	537.38
322.191	551.38
322.42	594.38
322.649	617.38
322.878	634.38
323.108	654.38
323.337	719.38
323.566	783.38
323.795	870.38
324.024	1143.38
324.253	2003.38
324.482	3457.38
324.71	5118.38
324.939	4485.38
325.168	1947.38
325.397	947.38
325.626	739.38
325.855	689.38
326.084	698.38
326.313	733.38
326.542	782.38
326.77	1117.38
326.999	1819.38
327.228	2941.38
327.457	3735.38
327.686	2459.38
327.914	1166.38
328.143	914.38
328.372	814.38
328.6	812.38
328.829	839.38
329.058	877.38
329.287	799.38
329.515	698.38
329.744	628.38
329.972	661.38
330.201	697.38
330.43	797.38
330.658	909.38
330.887	926.38
331.115	762.38
331.344	673.38
331.572	685.38
331.801	685.38
332.03	656.38
332.258	627.38
332.486	617.38
332.715	621.38
332.943	641.38
333.172	679.38
333.4	666.38
333.629	674.38
333.857	664.38
334.085	643.38
334.314	661.38
334.542	637.38
334.771	665.38
334.999	641.38
335.227	634.38
335.455	639.38
335.684	624.38
335.912	619.38
336.14	617.38
336.369	629.38
336.597	663.38
336.825	620.38
337.053	619.38
337.281	600.38
337.51	621.38
337.738	615.38
337.966	635.38
338.194	628.38
338.422	598.38
338.65	584.38
338.878	598.38
339.106	580.38
339.334	581.38
339.562	578.38
339.79	588.38
340.018	590.38
340.246	582.38
340.474	596.38
340.702	568.38
340.93	581.38
341.158	601.38
341.386	581.38
341.614	607.38
341.842	574.38
342.07	592.38
342.298	555.38
342.526	548.38
342.754	573.38
342.981	575.38
343.209	579.38
343.437	594.38
343.665	621.38
343.893	629.38
344.12	635.38
344.348	623.38
344.576	621.38
344.804	648.38
345.031	639.38
345.259	634.38
345.487	619.38
345.714	580.38
345.942	568.38
346.17	571.38
346.397	555.38
346.625	569.38
346.853	578.38
347.08	573.38
347.308	567.38
347.535	577.38
347.763	603.38
347.99	617.38
348.218	598.38
348.445	622.38
348.673	584.38
348.9	553.38
349.128	549.38
349.355	523.38
349.583	565.38
349.81	551.38
350.037	564.38
350.265	550.38
350.492	547.38
350.72	575.38
350.947	589.38
351.174	630.38
351.402	625.38
351.629	581.38
351.856	606.38
352.083	623.38
352.311	661.38
352.538	642.38
352.765	615.38
352.992	588.38
353.22	593.38
353.447	598.38
353.674	546.38
353.901	538.38
354.128	533.38
354.355	548.38
354.583	547.38
354.81	551.38
355.037	534.38
355.264	523.38
355.491	519.38
355.718	513.38
355.945	522.38
356.172	527.38
356.399	522.38
356.626	523.38
356.853	528.38
357.08	525.38
357.307	525.38
357.534	504.38
357.761	535.38
357.988	504.38
358.215	518.38
358.441	532.38
358.668	516.38
358.895	545.38
359.122	563.38
359.349	593.38
359.576	647.38
359.802	710.38
360.029	775.38
360.256	703.38
360.483	608.38
360.709	573.38
360.936	606.38
361.163	608.38
361.39	602.38
361.616	597.38
361.843	599.38
362.07	618.38
362.296	599.38
362.523	589.38
362.749	602.38
362.976	579.38
363.203	560.38
363.429	570.38
363.656	556.38
363.882	579.38
364.109	558.38
364.335	571.38
364.562	558.38
364.788	571.38
365.015	586.38
365.241	589.38
365.468	582.38
365.694	604.38
365.92	565.38
366.147	583.38
366.373	547.38
366.599	539.38
366.826	556.38
367.052	556.38
367.278	567.38
367.505	557.38
367.731	568.38
367.957	589.38
368.184	558.38
368.41	606.38
368.636	606.38
368.862	587.38
369.089	553.38
369.315	551.38
369.541	557.38
369.767	563.38
369.993	591.38
370.219	567.38
370.445	559.38
370.672	558.38
370.898	573.38
371.124	574.38
371.35	562.38
371.576	566.38
371.802	563.38
372.028	563.38
372.254	562.38
372.48	577.38
372.706	586.38
372.932	582.38
373.158	577.38
373.384	587.38
373.61	567.38
373.835	598.38
374.061	613.38
374.287	608.38
374.513	597.38
374.739	601.38
374.965	604.38
375.191	594.38
375.416	598.38
375.642	602.38
375.868	588.38
376.094	582.38
376.319	590.38
376.545	555.38
376.771	566.38
376.997	592.38
377.222	544.38
377.448	549.38
377.674	559.38
377.899	575.38
378.125	577.38
378.35	553.38
378.576	564.38
378.802	563.38
379.027	566.38
379.253	560.38
379.478	565.38
379.704	599.38
379.929	563.38
380.155	562.38
380.38	582.38
380.606	591.38
380.831	579.38
381.057	568.38
381.282	583.38
381.507	583.38
381.733	594.38
381.958	584.38
382.184	609.38
382.409	602.38
382.634	619.38
382.86	617.38
383.085	617.38
383.31	618.38
383.535	636.38
383.761	639.38
383.986	625.38
384.211	644.38
384.436	666.38
384.662	644.38
384.887	711.38
385.112	668.38
385.337	670.38
385.562	653.38
385.787	694.38
386.013	691.38
386.238	704.38
386.463	680.38
386.688	674.38
386.913	669.38
387.138	667.38
387.363	641.38
387.588	658.38
387.813	691.38
388.038	691.38
388.263	665.38
388.488	685.38
388.713	647.38
388.938	654.38
389.163	643.38
389.387	681.38
389.612	662.38
389.837	656.38
390.062	682.38
390.287	641.38
390.512	658.38
390.736	646.38
390.961	687.38
391.186	713.38
391.411	704.38
391.636	702.38
391.86	746.38
392.085	722.38
392.31	711.38
392.534	716.38
392.759	697.38
392.984	685.38
393.208	701.38
393.433	700.38
393.658	700.38
393.882	704.38
394.107	682.38
394.331	708.38
394.556	703.38
394.78	701.38
395.005	697.38
395.229	727.38
395.454	742.38
395.678	754.38
395.903	731.38
396.127	738.38
396.352	708.38
396.576	726.38
396.801	721.38
397.025	716.38
397.249	722.38
397.474	764.38
397.698	767.38
397.922	785.38
398.147	769.38
398.371	788.38
398.595	797.38
398.82	855.38
399.044	886.38
399.268	1003.38
399.492	1095.38
399.717	1130.38
399.941	1074.38
400.165	1005.38
400.389	967.38
400.613	889.38
400.837	873.38
401.062	831.38
401.286	827.38
401.51	835.38
401.734	820.38
401.958	848.38
402.182	910.38
402.406	927.38
402.63	882.38
402.854	893.38
403.078	865.38
403.302	897.38
403.526	931.38
403.75	927.38
403.974	925.38
404.198	909.38
404.422	939.38
404.645	928.38
404.869	948.38
405.093	965.38
405.317	926.38
405.541	911.38
405.765	922.38
405.988	942.38
406.212	1044.38
406.436	1091.38
406.66	1016.38
406.883	1024.38
407.107	1089.38
407.331	1097.38
407.555	1149.38
407.778	1090.38
408.002	1005.38
408.226	967.38
408.449	962.38
408.673	964.38
408.896	949.38
409.12	973.38
409.344	906.38
409.567	874.38
409.791	869.38
410.014	865.38
410.238	893.38
410.461	865.38
410.685	859.38
410.908	931.38
411.132	914.38
411.355	891.38
411.578	867.38
411.802	834.38
412.025	848.38
412.249	840.38
412.472	854.38
412.695	797.38
412.919	817.38
413.142	819.38
413.365	806.38
413.589	796.38
413.812	802.38
414.035	771.38
414.258	830.38
414.482	794.38
414.705	769.38
414.928	805.38
415.151	780.38
415.374	799.38
415.597	785.38
415.821	774.38
416.044	805.38
416.267	805.38
416.49	798.38
416.713	802.38
416.936	778.38
417.159	777.38
417.382	800.38
417.605	813.38
417.828	821.38
418.051	846.38
418.274	808.38
418.497	799.38
418.72	832.38
418.943	802.38
419.166	806.38
419.389	843.38
419.611	863.38
419.834	834.38
420.057	825.38
420.28	814.38
420.503	821.38
420.726	819.38
420.948	866.38
421.171	887.38
421.394	878.38
421.617	823.38
421.839	830.38
422.062	851.38
422.285	854.38
422.507	942.38
422.73	972.38
422.953	901.38
423.175	865.38
423.398	847.38
423.621	873.38
423.843	902.38
424.066	906.38
424.288	899.38
424.511	953.38
424.733	1027.38
424.956	1070.38
425.178	1043.38
425.401	999.38
425.623	950.38
425.846	831.38
426.068	849.38
426.291	839.38
426.513	821.38
426.735	859.38
426.958	979.38
427.18	1110.38
427.402	1267.38
427.625	1286.38
427.847	1014.38
428.069	832.38
428.292	799.38
428.514	775.38
428.736	757.38
428.958	745.38
429.181	741.38
429.403	748.38
429.625	786.38
429.847	827.38
430.069	867.38
430.292	809.38
430.514	747.38
430.736	739.38
430.958	750.38
431.18	703.38
431.402	735.38
431.624	716.38
431.846	741.38
432.068	721.38
432.29	739.38
432.512	728.38
432.734	746.38
432.956	762.38
433.178	737.38
433.4	758.38
433.622	748.38
433.844	747.38
434.066	762.38
434.287	757.38
434.509	759.38
434.731	806.38
434.953	807.38
435.175	837.38
435.397	847.38
435.618	894.38
435.84	964.38
436.062	1021.38
436.284	985.38
436.505	849.38
436.727	797.38
436.949	742.38
437.17	737.38
437.392	770.38
437.614	831.38
437.835	964.38
438.057	1037.38
438.278	1107.38
438.5	1069.38
438.721	1113.38
438.943	986.38
439.165	832.38
439.386	793.38
439.608	850.38
439.829	885.38
440.05	967.38
440.272	993.38
440.493	876.38
440.715	795.38
440.936	795.38
441.158	778.38
441.379	811.38
441.6	859.38
441.822	921.38
442.043	975.38
442.264	1073.38
442.486	994.38
442.707	875.38
442.928	916.38
443.149	985.38
443.371	997.38
443.592	1087.38
443.813	1106.38
444.034	1056.38
444.255	949.38
444.476	903.38
444.698	931.38
444.919	928.38
445.14	973.38
445.361	998.38
445.582	1053.38
445.803	1206.38
446.024	1269.38
446.245	1122.38
446.466	1009.38
446.687	831.38
446.908	790.38
447.129	773.38
447.35	767.38
447.571	758.38
447.792	734.38
448.013	766.38
448.234	834.38
448.455	927.38
448.675	1076.38
448.896	1076.38
449.117	909.38
449.338	1001.38
449.559	1133.38
449.779	1047.38
450	860.38
450.221	751.38
450.442	741.38
450.662	778.38
450.883	820.38
451.104	807.38
451.324	768.38
451.545	684.38
451.766	699.38
451.986	663.38
452.207	667.38
452.428	681.38
452.648	699.38
452.869	711.38
453.089	720.38
453.31	733.38
453.53	706.38
453.751	684.38
453.971	718.38
454.192	775.38
454.412	694.38
454.633	675.38
454.853	643.38
455.073	673.38
455.294	741.38
455.514	807.38
455.734	698.38
455.955	608.38
456.175	629.38
456.395	617.38
456.616	622.38
456.836	616.38
457.056	606.38
457.276	607.38
457.497	631.38
457.717	629.38
457.937	631.38
458.157	667.38
458.377	707.38
458.598	803.38
458.818	1015.38
459.038	1033.38
459.258	887.38
459.478	771.38
459.698	747.38
459.918	774.38
460.138	774.38
460.358	760.38
460.578	811.38
460.798	791.38
461.018	781.38
461.238	766.38
461.458	802.38
461.678	777.38
461.898	781.38
462.118	794.38
462.338	831.38
462.558	850.38
462.777	885.38
462.997	940.38
463.217	957.38
463.437	923.38
463.657	885.38
463.876	853.38
464.096	894.38
464.316	943.38
464.536	900.38
464.755	919.38
464.975	965.38
465.195	1203.38
465.414	1079.38
465.634	853.38
465.854	777.38
466.073	766.38
466.293	713.38
466.512	702.38
466.732	716.38
466.951	695.38
467.171	713.38
467.391	739.38
467.61	758.38
467.829	762.38
468.049	696.38
468.268	684.38
468.488	648.38
468.707	652.38
468.927	668.38
469.146	650.38
469.365	677.38
469.585	709.38
469.804	754.38
470.023	755.38
470.243	755.38
470.462	811.38
470.681	810.38
470.901	748.38
471.12	713.38
471.339	723.38
471.558	711.38
471.777	650.38
471.997	658.38
472.216	653.38
472.435	632.38
472.654	651.38
472.873	630.38
473.092	649.38
473.311	667.38
473.53	664.38
473.749	725.38
473.968	823.38
474.187	908.38
474.406	778.38
474.625	701.38
474.844	652.38
475.063	675.38
475.282	673.38
475.501	674.38
475.72	701.38
475.939	673.38
476.158	695.38
476.377	673.38
476.596	682.38
476.814	754.38
477.033	751.38
477.252	741.38
477.471	762.38
477.69	771.38
477.908	759.38
478.127	760.38
478.346	799.38
478.564	789.38
478.783	802.38
479.002	802.38
479.22	822.38
479.439	866.38
479.658	881.38
479.876	875.38
480.095	897.38
480.313	901.38
480.532	880.38
480.751	857.38
480.969	847.38
481.188	821.38
481.406	804.38
481.624	770.38
481.843	799.38
482.061	799.38
482.28	752.38
482.498	762.38
482.717	751.38
482.935	803.38
483.153	756.38
483.372	782.38
483.59	762.38
483.808	772.38
484.027	773.38
484.245	801.38
484.463	790.38
484.681	802.38
484.9	807.38
485.118	808.38
485.336	806.38
485.554	806.38
485.772	816.38
485.99	831.38
486.209	817.38
486.427	830.38
486.645	863.38
486.863	903.38
487.081	877.38
487.299	843.38
487.517	830.38
487.735	822.38
487.953	839.38
488.171	848.38
488.389	822.38
488.607	838.38
488.825	824.38
489.043	846.38
489.261	838.38
489.479	806.38
489.696	830.38
489.914	862.38
490.132	837.38
490.35	862.38
490.568	882.38
490.786	891.38
491.003	921.38
491.221	918.38
491.439	999.38
491.657	982.38
491.874	964.38
492.092	964.38
492.31	982.38
492.527	976.38
492.745	967.38
492.963	962.38
493.18	980.38
493.398	1014.38
493.615	980.38
493.833	978.38
494.05	1005.38
494.268	982.38
494.485	982.38
494.703	1010.38
494.92	983.38
495.138	989.38
495.355	976.38
495.573	1022.38
495.79	987.38
496.008	974.38
496.225	981.38
496.442	966.38
496.66	974.38
496.877	1030.38
497.094	1006.38
497.312	1034.38
497.529	1020.38
497.746	1087.38
497.963	1043.38
498.181	1083.38
498.398	1146.38
498.615	1209.38
498.832	1241.38
499.049	1303.38
499.267	1359.38
499.484	1458.38
499.701	1570.38
499.918	1672.38
500.135	1846.38
500.352	1922.38
500.569	1916.38
500.786	1870.38
501.003	1792.38
501.22	1622.38
501.437	1543.38
501.654	1481.38
