Data from TestCu_HRD10591_00010.txt Node
Date: Thu Oct 05 14:04:51 EDT 2023
User: Yrep
Spectrometer: HR+D1059
Trigger mode: 1
Integration Time (sec): 1.000000E-1
Scans to average: 1
Electric dark correction enabled: true
Nonlinearity correction enabled: false
Boxcar width: 0
XAxis mode: Wavelengths
Number of Pixels in Spectrum: 2048
>>>>>Begin Spectral Data<<<<<
223.165	-32.06
223.4	-32.06
223.635	-32.06
223.869	-19.06
224.104	-27.06
224.338	-11.06
224.573	-13.06
224.808	-10.06
225.042	-11.06
225.277	-13.06
225.511	8.94
225.746	8.94
225.98	13.94
226.215	13.94
226.449	13.94
226.683	14.94
226.918	36.94
227.152	24.94
227.387	37.94
227.621	55.94
227.856	37.94
228.09	40.94
228.324	47.94
228.559	56.94
228.793	75.94
229.027	109.94
229.262	118.94
229.496	138.94
229.73	164.94
229.964	162.94
230.199	125.94
230.433	115.94
230.667	100.94
230.901	112.94
231.136	101.94
231.37	107.94
231.604	114.94
231.838	106.94
232.072	117.94
232.306	117.94
232.541	120.94
232.775	122.94
233.009	107.94
233.243	110.94
233.477	100.94
233.711	117.94
233.945	127.94
234.179	112.94
234.413	125.94
234.647	122.94
234.881	100.94
235.115	119.94
235.349	106.94
235.583	118.94
235.817	134.94
236.051	132.94
236.285	127.94
236.519	139.94
236.753	150.94
236.987	188.94
237.221	225.94
237.455	245.94
237.689	147.94
237.922	129.94
238.156	134.94
238.39	124.94
238.624	129.94
238.858	108.94
239.091	129.94
239.325	136.94
239.559	129.94
239.793	132.94
240.027	158.94
240.26	145.94
240.494	152.94
240.728	168.94
240.961	158.94
241.195	138.94
241.429	147.94
241.662	133.94
241.896	140.94
242.13	126.94
242.363	141.94
242.597	141.94
242.83	131.94
243.064	120.94
243.298	122.94
243.531	144.94
243.765	147.94
243.998	119.94
244.232	139.94
244.465	143.94
244.699	137.94
244.932	131.94
245.166	148.94
245.399	129.94
245.633	137.94
245.866	131.94
246.099	153.94
246.333	149.94
246.566	154.94
246.8	160.94
247.033	142.94
247.266	158.94
247.5	147.94
247.733	163.94
247.966	170.94
248.2	168.94
248.433	153.94
248.666	189.94
248.899	195.94
249.133	198.94
249.366	215.94
249.599	188.94
249.832	190.94
250.066	172.94
250.299	180.94
250.532	186.94
250.765	204.94
250.998	213.94
251.231	212.94
251.465	180.94
251.698	179.94
251.931	185.94
252.164	206.94
252.397	192.94
252.63	196.94
252.863	206.94
253.096	215.94
253.329	210.94
253.562	212.94
253.795	196.94
254.028	209.94
254.261	225.94
254.494	238.94
254.727	265.94
254.96	254.94
255.193	220.94
255.426	201.94
255.659	192.94
255.892	176.94
256.124	209.94
256.357	203.94
256.59	201.94
256.823	196.94
257.056	211.94
257.289	189.94
257.521	201.94
257.754	204.94
257.987	197.94
258.22	200.94
258.452	210.94
258.685	208.94
258.918	195.94
259.151	212.94
259.383	210.94
259.616	218.94
259.849	228.94
260.081	253.94
260.314	253.94
260.547	235.94
260.779	213.94
261.012	197.94
261.244	220.94
261.477	216.94
261.71	231.94
261.942	246.94
262.175	259.94
262.407	215.94
262.64	208.94
262.872	224.94
263.105	198.94
263.337	226.94
263.57	220.94
263.802	227.94
264.035	204.94
264.267	228.94
264.499	210.94
264.732	228.94
264.964	216.94
265.197	216.94
265.429	210.94
265.661	212.94
265.894	215.94
266.126	209.94
266.358	225.94
266.591	231.94
266.823	238.94
267.055	235.94
267.287	236.94
267.52	218.94
267.752	229.94
267.984	232.94
268.216	232.94
268.448	238.94
268.681	242.94
268.913	274.94
269.145	278.94
269.377	289.94
269.609	267.94
269.841	263.94
270.073	272.94
270.306	346.94
270.538	313.94
270.77	302.94
271.002	283.94
271.234	297.94
271.466	309.94
271.698	324.94
271.93	306.94
272.162	305.94
272.394	300.94
272.626	292.94
272.858	279.94
273.09	274.94
273.322	265.94
273.553	242.94
273.785	280.94
274.017	267.94
274.249	270.94
274.481	273.94
274.713	251.94
274.945	281.94
275.176	282.94
275.408	284.94
275.64	256.94
275.872	277.94
276.104	274.94
276.335	302.94
276.567	302.94
276.799	341.94
277.031	351.94
277.262	339.94
277.494	318.94
277.726	308.94
277.957	265.94
278.189	292.94
278.421	280.94
278.652	278.94
278.884	276.94
279.115	279.94
279.347	284.94
279.579	268.94
279.81	272.94
280.042	294.94
280.273	267.94
280.505	276.94
280.736	300.94
280.968	304.94
281.199	291.94
281.431	281.94
281.662	291.94
281.894	287.94
282.125	326.94
282.356	355.94
282.588	336.94
282.819	328.94
283.051	306.94
283.282	282.94
283.513	306.94
283.745	299.94
283.976	310.94
284.207	294.94
284.439	297.94
284.67	312.94
284.901	296.94
285.132	308.94
285.364	299.94
285.595	306.94
285.826	313.94
286.057	311.94
286.288	288.94
286.52	309.94
286.751	298.94
286.982	308.94
287.213	330.94
287.444	311.94
287.675	324.94
287.906	361.94
288.138	348.94
288.369	361.94
288.6	336.94
288.831	328.94
289.062	319.94
289.293	324.94
289.524	328.94
289.755	313.94
289.986	336.94
290.217	325.94
290.448	310.94
290.679	326.94
290.91	312.94
291.141	320.94
291.371	333.94
291.602	344.94
291.833	317.94
292.064	333.94
292.295	315.94
292.526	335.94
292.757	316.94
292.987	329.94
293.218	314.94
293.449	316.94
293.68	336.94
293.91	323.94
294.141	331.94
294.372	351.94
294.603	344.94
294.833	346.94
295.064	332.94
295.295	338.94
295.525	357.94
295.756	401.94
295.987	400.94
296.217	426.94
296.448	386.94
296.679	337.94
296.909	346.94
297.14	352.94
297.37	374.94
297.601	363.94
297.831	370.94
298.062	368.94
298.292	353.94
298.523	371.94
298.753	358.94
298.984	381.94
299.214	376.94
299.445	397.94
299.675	367.94
299.905	374.94
300.136	371.94
300.366	381.94
300.597	382.94
300.827	398.94
301.057	405.94
301.288	438.94
301.518	408.94
301.748	415.94
301.979	430.94
302.209	392.94
302.439	418.94
302.669	403.94
302.9	404.94
303.13	395.94
303.36	420.94
303.59	420.94
303.82	399.94
304.051	405.94
304.281	385.94
304.511	401.94
304.741	380.94
304.971	379.94
305.201	412.94
305.431	396.94
305.661	391.94
305.891	400.94
306.121	401.94
306.352	425.94
306.582	425.94
306.812	421.94
307.042	422.94
307.272	409.94
307.502	400.94
307.731	404.94
307.961	397.94
308.191	412.94
308.421	409.94
308.651	400.94
308.881	420.94
309.111	426.94
309.341	436.94
309.571	450.94
309.8	456.94
310.03	484.94
310.26	481.94
310.49	480.94
310.72	513.94
310.949	527.94
311.179	521.94
311.409	488.94
311.639	480.94
311.868	486.94
312.098	490.94
312.328	503.94
312.557	548.94
312.787	552.94
313.017	515.94
313.246	467.94
313.476	461.94
313.706	482.94
313.935	503.94
314.165	536.94
314.394	550.94
314.624	530.94
314.853	485.94
315.083	476.94
315.312	454.94
315.542	452.94
315.771	459.94
316.001	472.94
316.23	472.94
316.46	465.94
316.689	484.94
316.919	505.94
317.148	497.94
317.377	462.94
317.607	493.94
317.836	470.94
318.065	444.94
318.295	477.94
318.524	464.94
318.753	473.94
318.983	496.94
319.212	490.94
319.441	506.94
319.67	514.94
319.9	479.94
320.129	468.94
320.358	493.94
320.587	489.94
320.816	517.94
321.046	500.94
321.275	502.94
321.504	511.94
321.733	551.94
321.962	545.94
322.191	581.94
322.42	612.94
322.649	606.94
322.878	641.94
323.108	656.94
323.337	718.94
323.566	757.94
323.795	841.94
324.024	1174.94
324.253	1949.94
324.482	3446.94
324.71	5048.94
324.939	4482.94
325.168	1966.94
325.397	946.94
325.626	713.94
325.855	654.94
326.084	666.94
326.313	709.94
326.542	832.94
326.77	1084.94
326.999	1833.94
327.228	2924.94
327.457	3708.94
327.686	2455.94
327.914	1168.94
328.143	889.94
328.372	840.94
328.6	798.94
328.829	844.94
329.058	867.94
329.287	817.94
329.515	703.94
329.744	653.94
329.972	648.94
330.201	729.94
330.43	814.94
330.658	949.94
330.887	936.94
331.115	781.94
331.344	674.94
331.572	673.94
331.801	717.94
332.03	670.94
332.258	619.94
332.486	624.94
332.715	636.94
332.943	631.94
333.172	671.94
333.4	672.94
333.629	692.94
333.857	695.94
334.085	685.94
334.314	663.94
334.542	652.94
334.771	665.94
334.999	666.94
335.227	660.94
335.455	623.94
335.684	633.94
335.912	643.94
336.14	635.94
336.369	642.94
336.597	668.94
336.825	644.94
337.053	641.94
337.281	632.94
337.51	614.94
337.738	617.94
337.966	639.94
338.194	621.94
338.422	639.94
338.65	597.94
338.878	621.94
339.106	580.94
339.334	574.94
339.562	561.94
339.79	570.94
340.018	588.94
340.246	607.94
340.474	618.94
340.702	584.94
340.93	578.94
341.158	594.94
341.386	608.94
341.614	604.94
341.842	583.94
342.07	586.94
342.298	586.94
342.526	577.94
342.754	576.94
342.981	555.94
343.209	581.94
343.437	617.94
343.665	621.94
343.893	653.94
344.12	641.94
344.348	636.94
344.576	606.94
344.804	624.94
345.031	616.94
345.259	620.94
345.487	609.94
345.714	586.94
345.942	560.94
346.17	564.94
346.397	576.94
346.625	562.94
346.853	559.94
347.08	592.94
347.308	606.94
347.535	612.94
347.763	625.94
347.99	604.94
348.218	642.94
348.445	628.94
348.673	587.94
348.9	579.94
349.128	593.94
349.355	540.94
349.583	552.94
349.81	558.94
350.037	546.94
350.265	541.94
350.492	555.94
350.72	558.94
350.947	592.94
351.174	621.94
351.402	603.94
351.629	585.94
351.856	610.94
352.083	641.94
352.311	647.94
352.538	646.94
352.765	627.94
352.992	624.94
353.22	587.94
353.447	570.94
353.674	552.94
353.901	532.94
354.128	542.94
354.355	570.94
354.583	547.94
354.81	538.94
355.037	526.94
355.264	546.94
355.491	531.94
355.718	519.94
355.945	507.94
356.172	542.94
356.399	516.94
356.626	534.94
356.853	552.94
357.08	545.94
357.307	505.94
357.534	527.94
357.761	556.94
357.988	526.94
358.215	548.94
358.441	558.94
358.668	550.94
358.895	554.94
359.122	558.94
359.349	581.94
359.576	645.94
359.802	722.94
360.029	742.94
360.256	721.94
360.483	632.94
360.709	602.94
360.936	616.94
361.163	646.94
361.39	619.94
361.616	612.94
361.843	602.94
362.07	620.94
362.296	607.94
362.523	586.94
362.749	593.94
362.976	618.94
363.203	588.94
363.429	549.94
363.656	578.94
363.882	572.94
364.109	570.94
364.335	592.94
364.562	558.94
364.788	565.94
365.015	563.94
365.241	604.94
365.468	574.94
365.694	603.94
365.92	576.94
366.147	570.94
366.373	554.94
366.599	547.94
366.826	558.94
367.052	553.94
367.278	576.94
367.505	555.94
367.731	554.94
367.957	587.94
368.184	597.94
368.41	629.94
368.636	612.94
368.862	617.94
369.089	574.94
369.315	580.94
369.541	558.94
369.767	587.94
369.993	570.94
370.219	596.94
370.445	570.94
370.672	572.94
370.898	585.94
371.124	570.94
371.35	595.94
371.576	596.94
371.802	573.94
372.028	576.94
372.254	558.94
372.48	581.94
372.706	588.94
372.932	596.94
373.158	572.94
373.384	604.94
373.61	572.94
373.835	585.94
374.061	582.94
374.287	609.94
374.513	621.94
374.739	610.94
374.965	640.94
375.191	608.94
375.416	620.94
375.642	614.94
375.868	604.94
376.094	581.94
376.319	567.94
376.545	602.94
376.771	588.94
376.997	579.94
377.222	596.94
377.448	582.94
377.674	585.94
377.899	550.94
378.125	568.94
378.35	567.94
378.576	562.94
378.802	552.94
379.027	570.94
379.253	586.94
379.478	595.94
379.704	592.94
379.929	579.94
380.155	592.94
380.38	565.94
380.606	602.94
380.831	604.94
381.057	614.94
381.282	604.94
381.507	591.94
381.733	589.94
381.958	622.94
382.184	604.94
382.409	585.94
382.634	600.94
382.86	629.94
383.085	614.94
383.31	597.94
383.535	640.94
383.761	635.94
383.986	636.94
384.211	652.94
384.436	653.94
384.662	683.94
384.887	655.94
385.112	660.94
385.337	670.94
385.562	688.94
385.787	709.94
386.013	727.94
386.238	708.94
386.463	704.94
386.688	696.94
386.913	680.94
387.138	677.94
387.363	659.94
387.588	684.94
387.813	654.94
388.038	685.94
388.263	695.94
388.488	689.94
388.713	690.94
388.938	685.94
389.163	671.94
389.387	676.94
389.612	659.94
389.837	673.94
390.062	678.94
390.287	693.94
390.512	681.94
390.736	681.94
390.961	699.94
391.186	719.94
391.411	702.94
391.636	732.94
391.86	728.94
392.085	758.94
392.31	741.94
392.534	728.94
392.759	698.94
392.984	703.94
393.208	692.94
393.433	688.94
393.658	701.94
393.882	669.94
394.107	721.94
394.331	705.94
394.556	696.94
394.78	720.94
395.005	718.94
395.229	730.94
395.454	753.94
395.678	763.94
395.903	748.94
396.127	745.94
396.352	743.94
396.576	714.94
396.801	715.94
397.025	748.94
397.249	726.94
397.474	752.94
397.698	752.94
397.922	787.94
398.147	786.94
398.371	794.94
398.595	808.94
398.82	879.94
399.044	941.94
399.268	1012.94
399.492	1115.94
399.717	1109.94
399.941	1105.94
400.165	1030.94
400.389	946.94
400.613	918.94
400.837	854.94
401.062	843.94
401.286	816.94
401.51	840.94
401.734	863.94
401.958	902.94
402.182	920.94
402.406	959.94
402.63	932.94
402.854	921.94
403.078	923.94
403.302	909.94
403.526	901.94
403.75	923.94
403.974	925.94
404.198	955.94
404.422	952.94
404.645	913.94
404.869	916.94
405.093	943.94
405.317	954.94
405.541	946.94
405.765	932.94
405.988	958.94
406.212	1048.94
406.436	1109.94
406.66	1042.94
406.883	1015.94
407.107	1116.94
407.331	1105.94
407.555	1164.94
407.778	1107.94
408.002	1004.94
408.226	972.94
408.449	958.94
408.673	994.94
408.896	988.94
409.12	1026.94
409.344	926.94
409.567	866.94
409.791	923.94
410.014	868.94
410.238	877.94
410.461	908.94
410.685	899.94
410.908	905.94
411.132	929.94
411.355	914.94
411.578	881.94
411.802	849.94
412.025	837.94
412.249	865.94
412.472	828.94
412.695	822.94
412.919	808.94
413.142	815.94
413.365	812.94
413.589	826.94
413.812	816.94
414.035	808.94
414.258	795.94
414.482	798.94
414.705	811.94
414.928	817.94
415.151	816.94
415.374	817.94
415.597	792.94
415.821	801.94
416.044	788.94
416.267	768.94
416.49	792.94
416.713	814.94
416.936	774.94
417.159	808.94
417.382	822.94
417.605	846.94
417.828	850.94
418.051	856.94
418.274	833.94
418.497	851.94
418.72	844.94
418.943	782.94
419.166	844.94
419.389	876.94
419.611	876.94
419.834	841.94
420.057	848.94
420.28	808.94
420.503	805.94
420.726	826.94
420.948	867.94
421.171	908.94
421.394	891.94
421.617	830.94
421.839	829.94
422.062	863.94
422.285	894.94
422.507	977.94
422.73	1007.94
422.953	898.94
423.175	867.94
423.398	879.94
423.621	883.94
423.843	924.94
424.066	890.94
424.288	874.94
424.511	983.94
424.733	1026.94
424.956	1068.94
425.178	1021.94
425.401	996.94
425.623	965.94
425.846	863.94
426.068	885.94
426.291	838.94
426.513	839.94
426.735	900.94
426.958	964.94
427.18	1128.94
427.402	1302.94
427.625	1330.94
427.847	1028.94
428.069	877.94
428.292	805.94
428.514	808.94
428.736	777.94
428.958	768.94
429.181	756.94
429.403	750.94
429.625	806.94
429.847	822.94
430.069	897.94
430.292	818.94
430.514	765.94
430.736	779.94
430.958	724.94
431.18	739.94
431.402	724.94
431.624	729.94
431.846	738.94
432.068	748.94
432.29	772.94
432.512	729.94
432.734	757.94
432.956	758.94
433.178	797.94
433.4	751.94
433.622	772.94
433.844	745.94
434.066	748.94
434.287	776.94
434.509	771.94
434.731	808.94
434.953	804.94
435.175	854.94
435.397	833.94
435.618	863.94
435.84	959.94
436.062	1049.94
436.284	983.94
436.505	834.94
436.727	828.94
436.949	788.94
437.17	775.94
437.392	756.94
437.614	850.94
437.835	961.94
438.057	1073.94
438.278	1099.94
438.5	1071.94
438.721	1129.94
438.943	976.94
439.165	856.94
439.386	830.94
439.608	837.94
439.829	902.94
440.05	986.94
440.272	998.94
440.493	857.94
440.715	802.94
440.936	793.94
441.158	801.94
441.379	799.94
441.6	877.94
441.822	896.94
442.043	980.94
442.264	1082.94
442.486	1020.94
442.707	932.94
442.928	917.94
443.149	958.94
443.371	1024.94
443.592	1068.94
443.813	1150.94
444.034	1105.94
444.255	985.94
444.476	922.94
444.698	969.94
444.919	959.94
445.14	1017.94
445.361	988.94
445.582	1086.94
445.803	1205.94
446.024	1282.94
446.245	1156.94
446.466	981.94
446.687	830.94
446.908	802.94
447.129	773.94
447.35	763.94
447.571	775.94
447.792	740.94
448.013	762.94
448.234	837.94
448.455	960.94
448.675	1078.94
448.896	1070.94
449.117	939.94
449.338	1002.94
449.559	1180.94
449.779	1091.94
450	865.94
450.221	776.94
450.442	748.94
450.662	798.94
450.883	845.94
451.104	866.94
451.324	782.94
451.545	747.94
451.766	714.94
451.986	714.94
452.207	690.94
452.428	690.94
452.648	717.94
452.869	714.94
453.089	721.94
453.31	720.94
453.53	699.94
453.751	695.94
453.971	720.94
454.192	771.94
454.412	691.94
454.633	695.94
454.853	665.94
455.073	675.94
455.294	753.94
455.514	786.94
455.734	689.94
455.955	646.94
456.175	640.94
456.395	632.94
456.616	636.94
456.836	604.94
457.056	617.94
457.276	614.94
457.497	635.94
457.717	653.94
457.937	642.94
458.157	653.94
458.377	706.94
458.598	823.94
458.818	1005.94
459.038	1058.94
459.258	936.94
459.478	800.94
459.698	782.94
459.918	781.94
460.138	809.94
460.358	803.94
460.578	780.94
460.798	806.94
461.018	816.94
461.238	782.94
461.458	802.94
461.678	787.94
461.898	800.94
462.118	832.94
462.338	831.94
462.558	882.94
462.777	933.94
462.997	955.94
463.217	974.94
463.437	925.94
463.657	896.94
463.876	917.94
464.096	905.94
464.316	920.94
464.536	888.94
464.755	914.94
464.975	998.94
465.195	1187.94
465.414	1117.94
465.634	838.94
465.854	780.94
466.073	766.94
466.293	745.94
466.512	706.94
466.732	740.94
466.951	731.94
467.171	700.94
467.391	735.94
467.61	786.94
467.829	760.94
468.049	708.94
468.268	690.94
468.488	666.94
468.707	685.94
468.927	692.94
469.146	685.94
469.365	685.94
469.585	722.94
469.804	736.94
470.023	760.94
470.243	763.94
470.462	801.94
470.681	820.94
470.901	758.94
471.12	747.94
471.339	708.94
471.558	706.94
471.777	700.94
471.997	678.94
472.216	652.94
472.435	696.94
472.654	659.94
472.873	636.94
473.092	635.94
473.311	664.94
473.53	692.94
473.749	732.94
473.968	814.94
474.187	946.94
474.406	825.94
474.625	706.94
474.844	689.94
475.063	650.94
475.282	684.94
475.501	652.94
475.72	704.94
475.939	693.94
476.158	707.94
476.377	700.94
476.596	712.94
476.814	735.94
477.033	749.94
477.252	738.94
477.471	740.94
477.69	782.94
477.908	769.94
478.127	802.94
478.346	773.94
478.564	796.94
478.783	814.94
479.002	817.94
479.22	814.94
479.439	880.94
479.658	876.94
479.876	900.94
480.095	917.94
480.313	954.94
480.532	888.94
480.751	860.94
480.969	863.94
481.188	816.94
481.406	791.94
481.624	811.94
481.843	780.94
482.061	776.94
482.28	768.94
482.498	768.94
482.717	787.94
482.935	769.94
483.153	766.94
483.372	804.94
483.59	794.94
483.808	792.94
484.027	802.94
484.245	808.94
484.463	814.94
484.681	814.94
484.9	820.94
485.118	822.94
485.336	826.94
485.554	822.94
485.772	828.94
485.99	822.94
486.209	817.94
486.427	837.94
486.645	883.94
486.863	903.94
487.081	887.94
487.299	860.94
487.517	849.94
487.735	874.94
487.953	844.94
488.171	856.94
488.389	836.94
488.607	840.94
488.825	861.94
489.043	818.94
489.261	844.94
489.479	822.94
489.696	874.94
489.914	847.94
490.132	858.94
490.35	864.94
490.568	885.94
490.786	907.94
491.003	934.94
491.221	956.94
491.439	961.94
491.657	960.94
491.874	986.94
492.092	975.94
492.31	1000.94
492.527	1013.94
492.745	988.94
492.963	984.94
493.18	1013.94
493.398	1008.94
493.615	986.94
493.833	986.94
494.05	995.94
494.268	977.94
494.485	969.94
494.703	978.94
494.92	961.94
495.138	952.94
495.355	1004.94
495.573	1025.94
495.79	1004.94
496.008	997.94
496.225	993.94
496.442	937.94
496.66	981.94
496.877	1026.94
497.094	1010.94
497.312	1032.94
497.529	1058.94
497.746	1072.94
497.963	1070.94
498.181	1134.94
498.398	1169.94
498.615	1220.94
498.832	1254.94
499.049	1301.94
499.267	1368.94
499.484	1489.94
499.701	1573.94
499.918	1706.94
500.135	1836.94
500.352	2004.94
500.569	1980.94
500.786	1895.94
501.003	1803.94
501.22	1700.94
501.437	1600.94
