Data from TestCu_HRD10591_00033.txt Node
Date: Thu Oct 05 14:05:14 EDT 2023
User: Yrep
Spectrometer: HR+D1059
Trigger mode: 1
Integration Time (sec): 1.000000E-1
Scans to average: 1
Electric dark correction enabled: true
Nonlinearity correction enabled: false
Boxcar width: 0
XAxis mode: Wavelengths
Number of Pixels in Spectrum: 2048
>>>>>Begin Spectral Data<<<<<
223.165	-16.69
223.4	-16.69
223.635	-16.69
223.869	-27.69
224.104	-17.69
224.338	-9.69
224.573	-21.69
224.808	-9.69
225.042	7.31
225.277	3.31
225.511	-17.69
225.746	5.31
225.98	22.31
226.215	0.31
226.449	20.31
226.683	8.31
226.918	24.31
227.152	29.31
227.387	24.31
227.621	39.31
227.856	53.31
228.09	55.31
228.324	47.31
228.559	61.31
228.793	66.31
229.027	77.31
229.262	125.31
229.496	148.31
229.73	161.31
229.964	168.31
230.199	131.31
230.433	118.31
230.667	143.31
230.901	122.31
231.136	110.31
231.37	116.31
231.604	112.31
231.838	114.31
232.072	108.31
232.306	115.31
232.541	115.31
232.775	104.31
233.009	118.31
233.243	113.31
233.477	120.31
233.711	110.31
233.945	121.31
234.179	128.31
234.413	121.31
234.647	103.31
234.881	105.31
235.115	132.31
235.349	108.31
235.583	124.31
235.817	148.31
236.051	113.31
236.285	127.31
236.519	139.31
236.753	154.31
236.987	181.31
237.221	223.31
237.455	238.31
237.689	167.31
237.922	144.31
238.156	106.31
238.39	126.31
238.624	118.31
238.858	114.31
239.091	124.31
239.325	113.31
239.559	126.31
239.793	133.31
240.027	160.31
240.26	172.31
240.494	168.31
240.728	166.31
240.961	142.31
241.195	139.31
241.429	140.31
241.662	129.31
241.896	135.31
242.13	140.31
242.363	127.31
242.597	127.31
242.83	131.31
243.064	140.31
243.298	130.31
243.531	138.31
243.765	142.31
243.998	127.31
244.232	145.31
244.465	148.31
244.699	140.31
244.932	141.31
245.166	143.31
245.399	157.31
245.633	149.31
245.866	150.31
246.099	159.31
246.333	152.31
246.566	149.31
246.8	158.31
247.033	158.31
247.266	149.31
247.5	168.31
247.733	177.31
247.966	162.31
248.2	168.31
248.433	174.31
248.666	189.31
248.899	194.31
249.133	206.31
249.366	208.31
249.599	195.31
249.832	170.31
250.066	177.31
250.299	164.31
250.532	192.31
250.765	214.31
250.998	218.31
251.231	197.31
251.465	180.31
251.698	192.31
251.931	178.31
252.164	213.31
252.397	200.31
252.63	207.31
252.863	221.31
253.096	230.31
253.329	224.31
253.562	208.31
253.795	188.31
254.028	199.31
254.261	239.31
254.494	266.31
254.727	285.31
254.96	259.31
255.193	235.31
255.426	189.31
255.659	192.31
255.892	202.31
256.124	198.31
256.357	194.31
256.59	197.31
256.823	198.31
257.056	190.31
257.289	199.31
257.521	191.31
257.754	203.31
257.987	205.31
258.22	203.31
258.452	201.31
258.685	208.31
258.918	211.31
259.151	213.31
259.383	221.31
259.616	221.31
259.849	221.31
260.081	260.31
260.314	262.31
260.547	236.31
260.779	213.31
261.012	208.31
261.244	223.31
261.477	231.31
261.71	248.31
261.942	261.31
262.175	262.31
262.407	233.31
262.64	218.31
262.872	214.31
263.105	227.31
263.337	215.31
263.57	214.31
263.802	215.31
264.035	218.31
264.267	218.31
264.499	215.31
264.732	226.31
264.964	204.31
265.197	206.31
265.429	214.31
265.661	215.31
265.894	218.31
266.126	238.31
266.358	220.31
266.591	225.31
266.823	241.31
267.055	228.31
267.287	223.31
267.52	226.31
267.752	234.31
267.984	232.31
268.216	246.31
268.448	258.31
268.681	249.31
268.913	271.31
269.145	292.31
269.377	285.31
269.609	298.31
269.841	273.31
270.073	306.31
270.306	343.31
270.538	332.31
270.77	275.31
271.002	306.31
271.234	310.31
271.466	333.31
271.698	320.31
271.93	341.31
272.162	326.31
272.394	324.31
272.626	290.31
272.858	277.31
273.09	300.31
273.322	284.31
273.553	263.31
273.785	254.31
274.017	248.31
274.249	277.31
274.481	268.31
274.713	287.31
274.945	285.31
275.176	302.31
275.408	283.31
275.64	291.31
275.872	298.31
276.104	290.31
276.335	312.31
276.567	316.31
276.799	355.31
277.031	386.31
277.262	359.31
277.494	311.31
277.726	304.31
277.957	297.31
278.189	300.31
278.421	294.31
278.652	283.31
278.884	268.31
279.115	278.31
279.347	271.31
279.579	268.31
279.81	283.31
280.042	269.31
280.273	270.31
280.505	293.31
280.736	290.31
280.968	310.31
281.199	297.31
281.431	292.31
281.662	290.31
281.894	304.31
282.125	318.31
282.356	362.31
282.588	366.31
282.819	345.31
283.051	319.31
283.282	313.31
283.513	312.31
283.745	316.31
283.976	298.31
284.207	328.31
284.439	321.31
284.67	306.31
284.901	323.31
285.132	310.31
285.364	320.31
285.595	332.31
285.826	314.31
286.057	315.31
286.288	309.31
286.52	311.31
286.751	304.31
286.982	330.31
287.213	328.31
287.444	319.31
287.675	342.31
287.906	353.31
288.138	354.31
288.369	350.31
288.6	351.31
288.831	336.31
289.062	357.31
289.293	350.31
289.524	322.31
289.755	336.31
289.986	333.31
290.217	332.31
290.448	321.31
290.679	320.31
290.91	336.31
291.141	318.31
291.371	334.31
291.602	319.31
291.833	323.31
292.064	346.31
292.295	368.31
292.526	346.31
292.757	322.31
292.987	347.31
293.218	330.31
293.449	356.31
293.68	339.31
293.91	335.31
294.141	341.31
294.372	348.31
294.603	329.31
294.833	363.31
295.064	358.31
295.295	364.31
295.525	362.31
295.756	364.31
295.987	413.31
296.217	432.31
296.448	402.31
296.679	376.31
296.909	371.31
297.14	374.31
297.37	365.31
297.601	366.31
297.831	382.31
298.062	381.31
298.292	388.31
298.523	384.31
298.753	380.31
298.984	355.31
299.214	402.31
299.445	397.31
299.675	397.31
299.905	394.31
300.136	395.31
300.366	381.31
300.597	387.31
300.827	432.31
301.057	411.31
301.288	429.31
301.518	411.31
301.748	396.31
301.979	418.31
302.209	392.31
302.439	430.31
302.669	407.31
302.9	406.31
303.13	412.31
303.36	406.31
303.59	413.31
303.82	416.31
304.051	407.31
304.281	400.31
304.511	372.31
304.741	410.31
304.971	402.31
305.201	413.31
305.431	401.31
305.661	397.31
305.891	386.31
306.121	380.31
306.352	418.31
306.582	441.31
306.812	398.31
307.042	423.31
307.272	401.31
307.502	393.31
307.731	413.31
307.961	425.31
308.191	420.31
308.421	411.31
308.651	431.31
308.881	423.31
309.111	425.31
309.341	459.31
309.571	461.31
309.8	472.31
310.03	476.31
310.26	488.31
310.49	511.31
310.72	517.31
310.949	550.31
311.179	508.31
311.409	484.31
311.639	500.31
311.868	464.31
312.098	503.31
312.328	525.31
312.557	566.31
312.787	572.31
313.017	501.31
313.246	510.31
313.476	494.31
313.706	486.31
313.935	531.31
314.165	552.31
314.394	546.31
314.624	523.31
314.853	502.31
315.083	477.31
315.312	465.31
315.542	462.31
315.771	496.31
316.001	468.31
316.23	458.31
316.46	476.31
316.689	497.31
316.919	514.31
317.148	514.31
317.377	493.31
317.607	502.31
317.836	480.31
318.065	464.31
318.295	461.31
318.524	479.31
318.753	474.31
318.983	503.31
319.212	507.31
319.441	512.31
319.67	508.31
319.9	479.31
320.129	466.31
320.358	496.31
320.587	494.31
320.816	544.31
321.046	528.31
321.275	516.31
321.504	517.31
321.733	535.31
321.962	567.31
322.191	588.31
322.42	615.31
322.649	648.31
322.878	656.31
323.108	669.31
323.337	764.31
323.566	802.31
323.795	923.31
324.024	1247.31
324.253	2108.31
324.482	3540.31
324.71	5399.31
324.939	4724.31
325.168	2064.31
325.397	1015.31
325.626	754.31
325.855	711.31
326.084	676.31
326.313	736.31
326.542	843.31
326.77	1159.31
326.999	1958.31
327.228	3116.31
327.457	3983.31
327.686	2644.31
327.914	1206.31
328.143	927.31
328.372	872.31
328.6	852.31
328.829	858.31
329.058	898.31
329.287	819.31
329.515	696.31
329.744	655.31
329.972	671.31
330.201	717.31
330.43	833.31
330.658	951.31
330.887	963.31
331.115	808.31
331.344	705.31
331.572	667.31
331.801	714.31
332.03	678.31
332.258	661.31
332.486	668.31
332.715	670.31
332.943	664.31
333.172	708.31
333.4	707.31
333.629	704.31
333.857	679.31
334.085	673.31
334.314	662.31
334.542	666.31
334.771	701.31
334.999	671.31
335.227	659.31
335.455	645.31
335.684	657.31
335.912	639.31
336.14	640.31
336.369	654.31
336.597	688.31
336.825	655.31
337.053	618.31
337.281	622.31
337.51	610.31
337.738	622.31
337.966	637.31
338.194	640.31
338.422	624.31
338.65	615.31
338.878	585.31
339.106	596.31
339.334	592.31
339.562	597.31
339.79	592.31
340.018	597.31
340.246	605.31
340.474	592.31
340.702	597.31
340.93	575.31
341.158	605.31
341.386	603.31
341.614	605.31
341.842	587.31
342.07	584.31
342.298	582.31
342.526	567.31
342.754	547.31
342.981	563.31
343.209	585.31
343.437	615.31
343.665	618.31
343.893	613.31
344.12	640.31
344.348	642.31
344.576	616.31
344.804	686.31
345.031	662.31
345.259	643.31
345.487	625.31
345.714	607.31
345.942	547.31
346.17	593.31
346.397	590.31
346.625	574.31
346.853	580.31
347.08	574.31
347.308	604.31
347.535	621.31
347.763	625.31
347.99	601.31
348.218	629.31
348.445	640.31
348.673	616.31
348.9	572.31
349.128	588.31
349.355	556.31
349.583	550.31
349.81	589.31
350.037	542.31
350.265	568.31
350.492	582.31
350.72	577.31
350.947	604.31
351.174	638.31
351.402	602.31
351.629	616.31
351.856	644.31
352.083	653.31
352.311	668.31
352.538	673.31
352.765	633.31
352.992	618.31
353.22	598.31
353.447	585.31
353.674	574.31
353.901	559.31
354.128	516.31
354.355	548.31
354.583	558.31
354.81	546.31
355.037	525.31
355.264	523.31
355.491	528.31
355.718	526.31
355.945	555.31
356.172	543.31
356.399	543.31
356.626	567.31
356.853	535.31
357.08	546.31
357.307	540.31
357.534	524.31
357.761	532.31
357.988	547.31
358.215	536.31
358.441	567.31
358.668	563.31
358.895	581.31
359.122	572.31
359.349	590.31
359.576	667.31
359.802	758.31
360.029	790.31
360.256	718.31
360.483	634.31
360.709	604.31
360.936	607.31
361.163	614.31
361.39	640.31
361.616	625.31
361.843	612.31
362.07	635.31
362.296	633.31
362.523	611.31
362.749	584.31
362.976	568.31
363.203	566.31
363.429	575.31
363.656	569.31
363.882	592.31
364.109	588.31
364.335	571.31
364.562	588.31
364.788	605.31
365.015	574.31
365.241	583.31
365.468	589.31
365.694	612.31
365.92	592.31
366.147	583.31
366.373	585.31
366.599	588.31
366.826	568.31
367.052	559.31
367.278	578.31
367.505	596.31
367.731	587.31
367.957	577.31
368.184	588.31
368.41	641.31
368.636	625.31
368.862	626.31
369.089	581.31
369.315	560.31
369.541	589.31
369.767	598.31
369.993	595.31
370.219	591.31
370.445	566.31
370.672	583.31
370.898	572.31
371.124	591.31
371.35	594.31
371.576	579.31
371.802	573.31
372.028	606.31
372.254	579.31
372.48	588.31
372.706	609.31
372.932	619.31
373.158	590.31
373.384	599.31
373.61	590.31
373.835	592.31
374.061	592.31
374.287	606.31
374.513	619.31
374.739	623.31
374.965	628.31
375.191	634.31
375.416	623.31
375.642	622.31
375.868	612.31
376.094	610.31
376.319	595.31
376.545	608.31
376.771	578.31
376.997	611.31
377.222	588.31
377.448	593.31
377.674	575.31
377.899	581.31
378.125	604.31
378.35	587.31
378.576	594.31
378.802	571.31
379.027	577.31
379.253	582.31
379.478	567.31
379.704	588.31
379.929	590.31
380.155	576.31
380.38	587.31
380.606	621.31
380.831	607.31
381.057	587.31
381.282	599.31
381.507	594.31
381.733	602.31
381.958	616.31
382.184	598.31
382.409	613.31
382.634	655.31
382.86	622.31
383.085	619.31
383.31	638.31
383.535	656.31
383.761	640.31
383.986	625.31
384.211	652.31
384.436	658.31
384.662	671.31
384.887	670.31
385.112	676.31
385.337	704.31
385.562	699.31
385.787	694.31
386.013	726.31
386.238	731.31
386.463	690.31
386.688	717.31
386.913	662.31
387.138	675.31
387.363	686.31
387.588	686.31
387.813	674.31
388.038	695.31
388.263	657.31
388.488	666.31
388.713	706.31
388.938	703.31
389.163	661.31
389.387	694.31
389.612	663.31
389.837	692.31
390.062	679.31
390.287	675.31
390.512	687.31
390.736	670.31
390.961	710.31
391.186	706.31
391.411	728.31
391.636	707.31
391.86	738.31
392.085	730.31
392.31	739.31
392.534	726.31
392.759	715.31
392.984	697.31
393.208	703.31
393.433	709.31
393.658	689.31
393.882	699.31
394.107	724.31
394.331	742.31
394.556	734.31
394.78	717.31
395.005	729.31
395.229	718.31
395.454	756.31
395.678	720.31
395.903	769.31
396.127	740.31
396.352	737.31
396.576	733.31
396.801	710.31
397.025	747.31
397.249	756.31
397.474	788.31
397.698	778.31
397.922	772.31
398.147	796.31
398.371	824.31
398.595	836.31
398.82	869.31
399.044	931.31
399.268	997.31
399.492	1100.31
399.717	1130.31
399.941	1065.31
400.165	1061.31
400.389	996.31
400.613	915.31
400.837	871.31
401.062	860.31
401.286	870.31
401.51	851.31
401.734	852.31
401.958	894.31
402.182	929.31
402.406	997.31
402.63	947.31
402.854	934.31
403.078	914.31
403.302	909.31
403.526	950.31
403.75	942.31
403.974	945.31
404.198	951.31
404.422	985.31
404.645	962.31
404.869	947.31
405.093	951.31
405.317	974.31
405.541	981.31
405.765	976.31
405.988	956.31
406.212	1065.31
406.436	1116.31
406.66	1053.31
406.883	1033.31
407.107	1092.31
407.331	1130.31
407.555	1173.31
407.778	1092.31
408.002	1037.31
408.226	978.31
408.449	970.31
408.673	989.31
408.896	1018.31
409.12	976.31
409.344	944.31
409.567	891.31
409.791	878.31
410.014	885.31
410.238	866.31
410.461	890.31
410.685	920.31
410.908	926.31
411.132	922.31
411.355	922.31
411.578	902.31
411.802	874.31
412.025	852.31
412.249	865.31
412.472	847.31
412.695	846.31
412.919	830.31
413.142	821.31
413.365	812.31
413.589	851.31
413.812	811.31
414.035	790.31
414.258	806.31
414.482	799.31
414.705	826.31
414.928	844.31
415.151	827.31
415.374	795.31
415.597	803.31
415.821	799.31
416.044	807.31
416.267	792.31
416.49	805.31
416.713	806.31
416.936	807.31
417.159	819.31
417.382	816.31
417.605	819.31
417.828	846.31
418.051	850.31
418.274	836.31
418.497	827.31
418.72	836.31
418.943	823.31
419.166	862.31
419.389	888.31
419.611	867.31
419.834	862.31
420.057	852.31
420.28	813.31
420.503	803.31
420.726	844.31
420.948	878.31
421.171	928.31
421.394	864.31
421.617	863.31
421.839	839.31
422.062	849.31
422.285	923.31
422.507	966.31
422.73	1026.31
422.953	901.31
423.175	882.31
423.398	892.31
423.621	914.31
423.843	936.31
424.066	886.31
424.288	900.31
424.511	956.31
424.733	988.31
424.956	1086.31
425.178	1031.31
425.401	1050.31
425.623	972.31
425.846	869.31
426.068	863.31
426.291	859.31
426.513	876.31
426.735	886.31
426.958	951.31
427.18	1113.31
427.402	1336.31
427.625	1343.31
427.847	1034.31
428.069	871.31
428.292	805.31
428.514	764.31
428.736	746.31
428.958	759.31
429.181	768.31
429.403	782.31
429.625	824.31
429.847	834.31
430.069	880.31
430.292	842.31
430.514	770.31
430.736	735.31
430.958	759.31
431.18	744.31
431.402	757.31
431.624	743.31
431.846	768.31
432.068	736.31
432.29	740.31
432.512	739.31
432.734	773.31
432.956	801.31
433.178	770.31
433.4	778.31
433.622	773.31
433.844	776.31
434.066	751.31
434.287	780.31
434.509	785.31
434.731	816.31
434.953	835.31
435.175	877.31
435.397	839.31
435.618	890.31
435.84	972.31
436.062	1059.31
436.284	1025.31
436.505	852.31
436.727	837.31
436.949	804.31
437.17	816.31
437.392	796.31
437.614	826.31
437.835	971.31
438.057	1073.31
438.278	1104.31
438.5	1124.31
438.721	1138.31
438.943	992.31
439.165	852.31
439.386	855.31
439.608	857.31
439.829	926.31
440.05	1004.31
440.272	1027.31
440.493	876.31
440.715	820.31
440.936	805.31
441.158	795.31
441.379	851.31
441.6	891.31
441.822	956.31
442.043	1026.31
442.264	1065.31
442.486	1017.31
442.707	906.31
442.928	916.31
443.149	1011.31
443.371	1030.31
443.592	1103.31
443.813	1171.31
444.034	1133.31
444.255	988.31
444.476	971.31
444.698	928.31
444.919	961.31
445.14	975.31
445.361	996.31
445.582	1095.31
445.803	1230.31
446.024	1287.31
446.245	1180.31
446.466	1024.31
446.687	830.31
446.908	806.31
447.129	791.31
447.35	775.31
447.571	758.31
447.792	785.31
448.013	791.31
448.234	861.31
448.455	986.31
448.675	1076.31
448.896	1081.31
449.117	924.31
449.338	1038.31
449.559	1148.31
449.779	1103.31
450	869.31
450.221	786.31
450.442	770.31
450.662	799.31
450.883	830.31
451.104	830.31
451.324	765.31
451.545	744.31
451.766	705.31
451.986	664.31
452.207	700.31
452.428	682.31
452.648	719.31
452.869	748.31
453.089	753.31
453.31	759.31
453.53	726.31
453.751	712.31
453.971	757.31
454.192	799.31
454.412	714.31
454.633	672.31
454.853	671.31
455.073	686.31
455.294	776.31
455.514	799.31
455.734	700.31
455.955	663.31
456.175	617.31
456.395	641.31
456.616	633.31
456.836	631.31
457.056	648.31
457.276	618.31
457.497	635.31
457.717	650.31
457.937	667.31
458.157	678.31
458.377	714.31
458.598	817.31
458.818	1060.31
459.038	1054.31
459.258	919.31
459.478	803.31
459.698	759.31
459.918	769.31
460.138	778.31
460.358	803.31
460.578	804.31
460.798	835.31
461.018	822.31
461.238	808.31
461.458	789.31
461.678	842.31
461.898	839.31
462.118	816.31
462.338	830.31
462.558	892.31
462.777	915.31
462.997	964.31
463.217	974.31
463.437	945.31
463.657	900.31
463.876	891.31
464.096	928.31
464.316	970.31
464.536	951.31
464.755	920.31
464.975	974.31
465.195	1201.31
465.414	1141.31
465.634	883.31
465.854	781.31
466.073	766.31
466.293	724.31
466.512	706.31
466.732	721.31
466.951	706.31
467.171	727.31
467.391	738.31
467.61	812.31
467.829	734.31
468.049	736.31
468.268	695.31
468.488	694.31
468.707	670.31
468.927	678.31
469.146	683.31
469.365	694.31
469.585	718.31
469.804	763.31
470.023	788.31
470.243	783.31
470.462	803.31
470.681	812.31
470.901	804.31
471.12	735.31
471.339	730.31
471.558	718.31
471.777	705.31
471.997	698.31
472.216	685.31
472.435	686.31
472.654	677.31
472.873	626.31
473.092	659.31
473.311	660.31
473.53	672.31
473.749	715.31
473.968	837.31
474.187	933.31
474.406	801.31
474.625	737.31
474.844	675.31
475.063	660.31
475.282	692.31
475.501	684.31
475.72	704.31
475.939	696.31
476.158	716.31
476.377	704.31
476.596	705.31
476.814	764.31
477.033	735.31
477.252	778.31
477.471	773.31
477.69	758.31
477.908	823.31
478.127	796.31
478.346	769.31
478.564	828.31
478.783	837.31
479.002	847.31
479.22	860.31
479.439	923.31
479.658	906.31
479.876	896.31
480.095	874.31
480.313	948.31
480.532	895.31
480.751	904.31
480.969	862.31
481.188	826.31
481.406	829.31
481.624	806.31
481.843	777.31
482.061	783.31
482.28	795.31
482.498	766.31
482.717	794.31
482.935	792.31
483.153	788.31
483.372	779.31
483.59	781.31
483.808	771.31
484.027	768.31
484.245	794.31
484.463	822.31
484.681	805.31
484.9	830.31
485.118	820.31
485.336	849.31
485.554	822.31
485.772	814.31
485.99	836.31
486.209	837.31
486.427	845.31
486.645	897.31
486.863	919.31
487.081	889.31
487.299	850.31
487.517	890.31
487.735	860.31
487.953	858.31
488.171	876.31
488.389	864.31
488.607	834.31
488.825	834.31
489.043	829.31
489.261	849.31
489.479	853.31
489.696	882.31
489.914	878.31
490.132	883.31
490.35	900.31
490.568	907.31
490.786	931.31
491.003	973.31
491.221	987.31
491.439	994.31
491.657	987.31
491.874	1007.31
492.092	1016.31
492.31	981.31
492.527	997.31
492.745	1023.31
492.963	1011.31
493.18	986.31
493.398	1022.31
493.615	1028.31
493.833	1052.31
494.05	1018.31
494.268	1021.31
494.485	987.31
494.703	1015.31
494.92	1000.31
495.138	1002.31
495.355	1007.31
495.573	1033.31
495.79	1031.31
496.008	1019.31
496.225	996.31
496.442	1006.31
496.66	1010.31
496.877	1020.31
497.094	1046.31
497.312	1039.31
497.529	1068.31
497.746	1086.31
497.963	1094.31
498.181	1154.31
498.398	1186.31
498.615	1248.31
498.832	1295.31
499.049	1323.31
499.267	1383.31
499.484	1497.31
499.701	1576.31
499.918	1679.31
500.135	1854.31
500.352	1983.31
500.569	1961.31
500.786	1950.31
501.003	1795.31
501.22	1662.31
501.437	1615.31
