Data from TestCu_HRD10591_00030.txt Node
Date: Thu Oct 05 14:05:11 EDT 2023
User: Yrep
Spectrometer: HR+D1059
Trigger mode: 1
Integration Time (sec): 1.000000E-1
Scans to average: 1
Electric dark correction enabled: true
Nonlinearity correction enabled: false
Boxcar width: 0
XAxis mode: Wavelengths
Number of Pixels in Spectrum: 2048
>>>>>Begin Spectral Data<<<<<
223.165	-22.69
223.4	-22.69
223.635	-22.69
223.869	-24.69
224.104	-18.69
224.338	-11.69
224.573	-8.69
224.808	-8.69
225.042	-15.69
225.277	2.31
225.511	-6.69
225.746	0.31
225.98	-1.69
226.215	11.31
226.449	17.31
226.683	22.31
226.918	28.31
227.152	37.31
227.387	34.31
227.621	35.31
227.856	47.31
228.09	53.31
228.324	51.31
228.559	61.31
228.793	54.31
229.027	88.31
229.262	116.31
229.496	135.31
229.73	153.31
229.964	169.31
230.199	128.31
230.433	120.31
230.667	111.31
230.901	98.31
231.136	108.31
231.37	109.31
231.604	111.31
231.838	104.31
232.072	100.31
232.306	120.31
232.541	115.31
232.775	113.31
233.009	105.31
233.243	113.31
233.477	110.31
233.711	115.31
233.945	127.31
234.179	116.31
234.413	103.31
234.647	131.31
234.881	107.31
235.115	117.31
235.349	125.31
235.583	132.31
235.817	127.31
236.051	142.31
236.285	135.31
236.519	136.31
236.753	147.31
236.987	184.31
237.221	226.31
237.455	203.31
237.689	143.31
237.922	139.31
238.156	128.31
238.39	117.31
238.624	127.31
238.858	131.31
239.091	125.31
239.325	124.31
239.559	140.31
239.793	145.31
240.027	148.31
240.26	160.31
240.494	168.31
240.728	151.31
240.961	136.31
241.195	131.31
241.429	135.31
241.662	124.31
241.896	122.31
242.13	135.31
242.363	131.31
242.597	117.31
242.83	140.31
243.064	120.31
243.298	124.31
243.531	127.31
243.765	142.31
243.998	143.31
244.232	135.31
244.465	153.31
244.699	145.31
244.932	139.31
245.166	140.31
245.399	136.31
245.633	141.31
245.866	138.31
246.099	146.31
246.333	136.31
246.566	160.31
246.8	168.31
247.033	157.31
247.266	151.31
247.5	167.31
247.733	144.31
247.966	153.31
248.2	173.31
248.433	168.31
248.666	181.31
248.899	189.31
249.133	204.31
249.366	209.31
249.599	191.31
249.832	175.31
250.066	152.31
250.299	165.31
250.532	200.31
250.765	212.31
250.998	229.31
251.231	201.31
251.465	199.31
251.698	190.31
251.931	182.31
252.164	172.31
252.397	184.31
252.63	198.31
252.863	197.31
253.096	227.31
253.329	223.31
253.562	201.31
253.795	197.31
254.028	199.31
254.261	204.31
254.494	238.31
254.727	265.31
254.96	258.31
255.193	220.31
255.426	192.31
255.659	190.31
255.892	207.31
256.124	198.31
256.357	208.31
256.59	196.31
256.823	199.31
257.056	200.31
257.289	209.31
257.521	196.31
257.754	189.31
257.987	195.31
258.22	208.31
258.452	199.31
258.685	193.31
258.918	197.31
259.151	215.31
259.383	215.31
259.616	220.31
259.849	219.31
260.081	246.31
260.314	253.31
260.547	231.31
260.779	210.31
261.012	219.31
261.244	221.31
261.477	228.31
261.71	238.31
261.942	255.31
262.175	269.31
262.407	245.31
262.64	216.31
262.872	205.31
263.105	222.31
263.337	204.31
263.57	233.31
263.802	225.31
264.035	209.31
264.267	216.31
264.499	205.31
264.732	223.31
264.964	217.31
265.197	211.31
265.429	216.31
265.661	231.31
265.894	223.31
266.126	200.31
266.358	225.31
266.591	241.31
266.823	219.31
267.055	239.31
267.287	226.31
267.52	246.31
267.752	229.31
267.984	244.31
268.216	230.31
268.448	248.31
268.681	246.31
268.913	267.31
269.145	293.31
269.377	287.31
269.609	270.31
269.841	275.31
270.073	289.31
270.306	305.31
270.538	314.31
270.77	297.31
271.002	289.31
271.234	308.31
271.466	331.31
271.698	318.31
271.93	327.31
272.162	314.31
272.394	297.31
272.626	279.31
272.858	268.31
273.09	259.31
273.322	267.31
273.553	275.31
273.785	260.31
274.017	260.31
274.249	260.31
274.481	283.31
274.713	287.31
274.945	265.31
275.176	268.31
275.408	289.31
275.64	279.31
275.872	274.31
276.104	285.31
276.335	283.31
276.567	308.31
276.799	330.31
277.031	371.31
277.262	335.31
277.494	299.31
277.726	306.31
277.957	293.31
278.189	293.31
278.421	286.31
278.652	285.31
278.884	292.31
279.115	295.31
279.347	269.31
279.579	277.31
279.81	298.31
280.042	259.31
280.273	291.31
280.505	279.31
280.736	279.31
280.968	273.31
281.199	273.31
281.431	275.31
281.662	293.31
281.894	297.31
282.125	313.31
282.356	340.31
282.588	354.31
282.819	345.31
283.051	286.31
283.282	305.31
283.513	299.31
283.745	318.31
283.976	302.31
284.207	296.31
284.439	310.31
284.67	305.31
284.901	309.31
285.132	292.31
285.364	299.31
285.595	305.31
285.826	314.31
286.057	319.31
286.288	310.31
286.52	309.31
286.751	306.31
286.982	297.31
287.213	330.31
287.444	335.31
287.675	366.31
287.906	357.31
288.138	329.31
288.369	348.31
288.6	336.31
288.831	338.31
289.062	331.31
289.293	326.31
289.524	328.31
289.755	312.31
289.986	327.31
290.217	342.31
290.448	334.31
290.679	337.31
290.91	320.31
291.141	340.31
291.371	320.31
291.602	333.31
291.833	344.31
292.064	327.31
292.295	347.31
292.526	340.31
292.757	338.31
292.987	315.31
293.218	340.31
293.449	333.31
293.68	343.31
293.91	341.31
294.141	350.31
294.372	332.31
294.603	329.31
294.833	333.31
295.064	335.31
295.295	341.31
295.525	349.31
295.756	375.31
295.987	401.31
296.217	435.31
296.448	395.31
296.679	351.31
296.909	358.31
297.14	355.31
297.37	338.31
297.601	384.31
297.831	388.31
298.062	366.31
298.292	371.31
298.523	380.31
298.753	371.31
298.984	380.31
299.214	373.31
299.445	374.31
299.675	380.31
299.905	374.31
300.136	377.31
300.366	381.31
300.597	374.31
300.827	382.31
301.057	407.31
301.288	402.31
301.518	405.31
301.748	398.31
301.979	409.31
302.209	431.31
302.439	415.31
302.669	417.31
302.9	379.31
303.13	392.31
303.36	424.31
303.59	434.31
303.82	414.31
304.051	407.31
304.281	383.31
304.511	403.31
304.741	411.31
304.971	404.31
305.201	414.31
305.431	391.31
305.661	409.31
305.891	414.31
306.121	427.31
306.352	431.31
306.582	422.31
306.812	385.31
307.042	416.31
307.272	423.31
307.502	425.31
307.731	397.31
307.961	402.31
308.191	404.31
308.421	404.31
308.651	408.31
308.881	416.31
309.111	403.31
309.341	440.31
309.571	433.31
309.8	456.31
310.03	465.31
310.26	503.31
310.49	473.31
310.72	528.31
310.949	541.31
311.179	501.31
311.409	469.31
311.639	469.31
311.868	482.31
312.098	510.31
312.328	536.31
312.557	559.31
312.787	564.31
313.017	517.31
313.246	491.31
313.476	473.31
313.706	498.31
313.935	514.31
314.165	546.31
314.394	527.31
314.624	510.31
314.853	499.31
315.083	501.31
315.312	466.31
315.542	470.31
315.771	439.31
316.001	458.31
316.23	473.31
316.46	470.31
316.689	461.31
316.919	485.31
317.148	489.31
317.377	505.31
317.607	476.31
317.836	466.31
318.065	482.31
318.295	478.31
318.524	453.31
318.753	475.31
318.983	494.31
319.212	508.31
319.441	495.31
319.67	497.31
319.9	459.31
320.129	466.31
320.358	478.31
320.587	483.31
320.816	503.31
321.046	503.31
321.275	526.31
321.504	504.31
321.733	506.31
321.962	536.31
322.191	583.31
322.42	597.31
322.649	621.31
322.878	644.31
323.108	642.31
323.337	703.31
323.566	773.31
323.795	848.31
324.024	1156.31
324.253	1915.31
324.482	3281.31
324.71	4963.31
324.939	4280.31
325.168	1916.31
325.397	948.31
325.626	740.31
325.855	678.31
326.084	669.31
326.313	676.31
326.542	804.31
326.77	1110.31
326.999	1811.31
327.228	2891.31
327.457	3697.31
327.686	2371.31
327.914	1109.31
328.143	867.31
328.372	819.31
328.6	796.31
328.829	818.31
329.058	868.31
329.287	819.31
329.515	699.31
329.744	645.31
329.972	624.31
330.201	689.31
330.43	807.31
330.658	915.31
330.887	952.31
331.115	779.31
331.344	687.31
331.572	723.31
331.801	692.31
332.03	673.31
332.258	645.31
332.486	616.31
332.715	640.31
332.943	664.31
333.172	658.31
333.4	679.31
333.629	691.31
333.857	698.31
334.085	676.31
334.314	638.31
334.542	659.31
334.771	670.31
334.999	661.31
335.227	640.31
335.455	639.31
335.684	663.31
335.912	616.31
336.14	637.31
336.369	653.31
336.597	670.31
336.825	667.31
337.053	623.31
337.281	605.31
337.51	601.31
337.738	616.31
337.966	612.31
338.194	649.31
338.422	592.31
338.65	585.31
338.878	598.31
339.106	583.31
339.334	587.31
339.562	603.31
339.79	571.31
340.018	606.31
340.246	599.31
340.474	601.31
340.702	585.31
340.93	587.31
341.158	591.31
341.386	590.31
341.614	589.31
341.842	594.31
342.07	601.31
342.298	581.31
342.526	548.31
342.754	583.31
342.981	580.31
343.209	558.31
343.437	607.31
343.665	637.31
343.893	656.31
344.12	648.31
344.348	615.31
344.576	629.31
344.804	653.31
345.031	662.31
345.259	630.31
345.487	613.31
345.714	592.31
345.942	567.31
346.17	568.31
346.397	583.31
346.625	559.31
346.853	581.31
347.08	589.31
347.308	624.31
347.535	614.31
347.763	617.31
347.99	589.31
348.218	622.31
348.445	635.31
348.673	592.31
348.9	575.31
349.128	547.31
349.355	553.31
349.583	565.31
349.81	546.31
350.037	562.31
350.265	567.31
350.492	535.31
350.72	575.31
350.947	591.31
351.174	640.31
351.402	607.31
351.629	585.31
351.856	632.31
352.083	637.31
352.311	632.31
352.538	632.31
352.765	620.31
352.992	605.31
353.22	568.31
353.447	585.31
353.674	562.31
353.901	539.31
354.128	543.31
354.355	552.31
354.583	547.31
354.81	533.31
355.037	527.31
355.264	532.31
355.491	536.31
355.718	526.31
355.945	528.31
356.172	534.31
356.399	537.31
356.626	546.31
356.853	547.31
357.08	519.31
357.307	542.31
357.534	518.31
357.761	535.31
357.988	524.31
358.215	553.31
358.441	541.31
358.668	553.31
358.895	543.31
359.122	584.31
359.349	592.31
359.576	644.31
359.802	725.31
360.029	742.31
360.256	701.31
360.483	642.31
360.709	593.31
360.936	585.31
361.163	606.31
361.39	623.31
361.616	634.31
361.843	621.31
362.07	613.31
362.296	608.31
362.523	591.31
362.749	588.31
362.976	567.31
363.203	581.31
363.429	585.31
363.656	563.31
363.882	548.31
364.109	582.31
364.335	557.31
364.562	565.31
364.788	575.31
365.015	581.31
365.241	585.31
365.468	615.31
365.694	619.31
365.92	584.31
366.147	572.31
366.373	572.31
366.599	576.31
366.826	539.31
367.052	563.31
367.278	586.31
367.505	581.31
367.731	569.31
367.957	570.31
368.184	599.31
368.41	616.31
368.636	627.31
368.862	609.31
369.089	579.31
369.315	544.31
369.541	595.31
369.767	595.31
369.993	585.31
370.219	583.31
370.445	557.31
370.672	603.31
370.898	564.31
371.124	592.31
371.35	593.31
371.576	577.31
371.802	582.31
372.028	564.31
372.254	598.31
372.48	592.31
372.706	615.31
372.932	603.31
373.158	603.31
373.384	581.31
373.61	582.31
373.835	601.31
374.061	609.31
374.287	613.31
374.513	615.31
374.739	614.31
374.965	617.31
375.191	631.31
375.416	606.31
375.642	610.31
375.868	591.31
376.094	600.31
376.319	567.31
376.545	595.31
376.771	573.31
376.997	596.31
377.222	593.31
377.448	598.31
377.674	551.31
377.899	591.31
378.125	567.31
378.35	584.31
378.576	589.31
378.802	568.31
379.027	583.31
379.253	576.31
379.478	587.31
379.704	581.31
379.929	619.31
380.155	589.31
380.38	587.31
380.606	578.31
380.831	616.31
381.057	583.31
381.282	576.31
381.507	608.31
381.733	619.31
381.958	591.31
382.184	621.31
382.409	614.31
382.634	614.31
382.86	607.31
383.085	619.31
383.31	638.31
383.535	661.31
383.761	674.31
383.986	649.31
384.211	667.31
384.436	698.31
384.662	659.31
384.887	667.31
385.112	679.31
385.337	684.31
385.562	671.31
385.787	708.31
386.013	743.31
386.238	722.31
386.463	712.31
386.688	696.31
386.913	681.31
387.138	665.31
387.363	683.31
387.588	657.31
387.813	685.31
388.038	681.31
388.263	687.31
388.488	660.31
388.713	664.31
388.938	695.31
389.163	683.31
389.387	676.31
389.612	679.31
389.837	657.31
390.062	687.31
390.287	709.31
390.512	649.31
390.736	660.31
390.961	683.31
391.186	717.31
391.411	730.31
391.636	716.31
391.86	755.31
392.085	737.31
392.31	736.31
392.534	756.31
392.759	707.31
392.984	715.31
393.208	713.31
393.433	713.31
393.658	716.31
393.882	701.31
394.107	685.31
394.331	711.31
394.556	721.31
394.78	718.31
395.005	706.31
395.229	734.31
395.454	762.31
395.678	769.31
395.903	779.31
396.127	754.31
396.352	745.31
396.576	737.31
396.801	755.31
397.025	745.31
397.249	762.31
397.474	762.31
397.698	749.31
397.922	798.31
398.147	769.31
398.371	817.31
398.595	830.31
398.82	876.31
399.044	943.31
399.268	1024.31
399.492	1147.31
399.717	1186.31
399.941	1103.31
400.165	1044.31
400.389	992.31
400.613	919.31
400.837	863.31
401.062	857.31
401.286	854.31
401.51	819.31
401.734	855.31
401.958	871.31
402.182	912.31
402.406	930.31
402.63	920.31
402.854	904.31
403.078	900.31
403.302	901.31
403.526	920.31
403.75	927.31
403.974	945.31
404.198	929.31
404.422	946.31
404.645	927.31
404.869	957.31
405.093	957.31
405.317	938.31
405.541	953.31
405.765	948.31
405.988	989.31
406.212	1049.31
406.436	1083.31
406.66	1035.31
406.883	1059.31
407.107	1092.31
407.331	1140.31
407.555	1163.31
407.778	1112.31
408.002	1012.31
408.226	980.31
408.449	979.31
408.673	996.31
408.896	962.31
409.12	959.31
409.344	921.31
409.567	890.31
409.791	894.31
410.014	874.31
410.238	886.31
410.461	875.31
410.685	908.31
410.908	925.31
411.132	967.31
411.355	908.31
411.578	879.31
411.802	861.31
412.025	847.31
412.249	835.31
412.472	855.31
412.695	792.31
412.919	831.31
413.142	809.31
413.365	818.31
413.589	814.31
413.812	809.31
414.035	820.31
414.258	813.31
414.482	805.31
414.705	819.31
414.928	821.31
415.151	813.31
415.374	798.31
415.597	809.31
415.821	815.31
416.044	783.31
416.267	804.31
416.49	796.31
416.713	788.31
416.936	789.31
417.159	815.31
417.382	805.31
417.605	825.31
417.828	841.31
418.051	871.31
418.274	836.31
418.497	831.31
418.72	832.31
418.943	826.31
419.166	852.31
419.389	891.31
419.611	889.31
419.834	825.31
420.057	835.31
420.28	833.31
420.503	805.31
420.726	858.31
420.948	842.31
421.171	922.31
421.394	878.31
421.617	828.31
421.839	827.31
422.062	886.31
422.285	889.31
422.507	987.31
422.73	1019.31
422.953	911.31
423.175	892.31
423.398	884.31
423.621	856.31
423.843	918.31
424.066	910.31
424.288	918.31
424.511	978.31
424.733	1039.31
424.956	1049.31
425.178	1040.31
425.401	998.31
425.623	955.31
425.846	865.31
426.068	849.31
426.291	843.31
426.513	848.31
426.735	884.31
426.958	990.31
427.18	1078.31
427.402	1283.31
427.625	1297.31
427.847	1011.31
428.069	855.31
428.292	814.31
428.514	753.31
428.736	772.31
428.958	755.31
429.181	768.31
429.403	761.31
429.625	797.31
429.847	847.31
430.069	895.31
430.292	825.31
430.514	787.31
430.736	749.31
430.958	753.31
431.18	739.31
431.402	737.31
431.624	718.31
431.846	747.31
432.068	739.31
432.29	746.31
432.512	748.31
432.734	754.31
432.956	748.31
433.178	767.31
433.4	764.31
433.622	747.31
433.844	735.31
434.066	773.31
434.287	785.31
434.509	779.31
434.731	809.31
434.953	817.31
435.175	813.31
435.397	865.31
435.618	872.31
435.84	975.31
436.062	1039.31
436.284	995.31
436.505	845.31
436.727	815.31
436.949	788.31
437.17	774.31
437.392	772.31
437.614	795.31
437.835	943.31
438.057	1063.31
438.278	1091.31
438.5	1080.31
438.721	1141.31
438.943	995.31
439.165	847.31
439.386	832.31
439.608	849.31
439.829	885.31
440.05	982.31
440.272	999.31
440.493	845.31
440.715	807.31
440.936	803.31
441.158	830.31
441.379	791.31
441.6	879.31
441.822	930.31
442.043	996.31
442.264	1061.31
442.486	999.31
442.707	883.31
442.928	904.31
443.149	982.31
443.371	1002.31
443.592	1081.31
443.813	1159.31
444.034	1082.31
444.255	965.31
444.476	917.31
444.698	952.31
444.919	965.31
445.14	1001.31
445.361	998.31
445.582	1062.31
445.803	1209.31
446.024	1241.31
446.245	1143.31
446.466	1025.31
446.687	850.31
446.908	831.31
447.129	773.31
447.35	751.31
447.571	739.31
447.792	747.31
448.013	812.31
448.234	855.31
448.455	941.31
448.675	1091.31
448.896	1059.31
449.117	924.31
449.338	1030.31
449.559	1132.31
449.779	1053.31
450	852.31
450.221	773.31
450.442	773.31
450.662	775.31
450.883	819.31
451.104	821.31
451.324	754.31
451.545	723.31
451.766	696.31
451.986	669.31
452.207	683.31
452.428	689.31
452.648	738.31
452.869	731.31
453.089	727.31
453.31	718.31
453.53	675.31
453.751	711.31
453.971	722.31
454.192	765.31
454.412	703.31
454.633	671.31
454.853	652.31
455.073	700.31
455.294	777.31
455.514	819.31
455.734	731.31
455.955	659.31
456.175	647.31
456.395	621.31
456.616	615.31
456.836	612.31
457.056	628.31
457.276	603.31
457.497	634.31
457.717	639.31
457.937	645.31
458.157	679.31
458.377	679.31
458.598	796.31
458.818	999.31
459.038	1019.31
459.258	884.31
459.478	808.31
459.698	768.31
459.918	768.31
460.138	772.31
460.358	830.31
460.578	787.31
460.798	819.31
461.018	831.31
461.238	829.31
461.458	795.31
461.678	793.31
461.898	797.31
462.118	808.31
462.338	850.31
462.558	856.31
462.777	905.31
462.997	979.31
463.217	976.31
463.437	964.31
463.657	896.31
463.876	880.31
464.096	918.31
464.316	904.31
464.536	918.31
464.755	929.31
464.975	979.31
465.195	1174.31
465.414	1099.31
465.634	849.31
465.854	763.31
466.073	775.31
466.293	733.31
466.512	707.31
466.732	746.31
466.951	725.31
467.171	707.31
467.391	764.31
467.61	770.31
467.829	737.31
468.049	699.31
468.268	691.31
468.488	693.31
468.707	697.31
468.927	686.31
469.146	681.31
469.365	695.31
469.585	698.31
469.804	756.31
470.023	775.31
470.243	761.31
470.462	801.31
470.681	818.31
470.901	747.31
471.12	729.31
471.339	728.31
471.558	720.31
471.777	712.31
471.997	693.31
472.216	692.31
472.435	648.31
472.654	685.31
472.873	685.31
473.092	691.31
473.311	680.31
473.53	700.31
473.749	716.31
473.968	799.31
474.187	916.31
474.406	792.31
474.625	710.31
474.844	672.31
475.063	668.31
475.282	697.31
475.501	688.31
475.72	719.31
475.939	691.31
476.158	695.31
476.377	702.31
476.596	710.31
476.814	737.31
477.033	759.31
477.252	733.31
477.471	745.31
477.69	757.31
477.908	771.31
478.127	783.31
478.346	806.31
478.564	819.31
478.783	817.31
479.002	868.31
479.22	826.31
479.439	875.31
479.658	893.31
479.876	885.31
480.095	900.31
480.313	926.31
480.532	900.31
480.751	867.31
480.969	850.31
481.188	822.31
481.406	821.31
481.624	805.31
481.843	783.31
482.061	770.31
482.28	789.31
482.498	786.31
482.717	755.31
482.935	770.31
483.153	770.31
483.372	810.31
483.59	789.31
483.808	798.31
484.027	797.31
484.245	793.31
484.463	783.31
484.681	815.31
484.9	838.31
485.118	842.31
485.336	825.31
485.554	800.31
485.772	826.31
485.99	846.31
486.209	835.31
486.427	881.31
486.645	905.31
486.863	901.31
487.081	878.31
487.299	857.31
487.517	845.31
487.735	849.31
487.953	865.31
488.171	861.31
488.389	831.31
488.607	864.31
488.825	825.31
489.043	845.31
489.261	830.31
489.479	851.31
489.696	848.31
489.914	824.31
490.132	885.31
490.35	865.31
490.568	917.31
490.786	913.31
491.003	961.31
491.221	975.31
491.439	980.31
491.657	981.31
491.874	979.31
492.092	999.31
492.31	992.31
492.527	976.31
492.745	991.31
492.963	1005.31
493.18	1016.31
493.398	1033.31
493.615	1006.31
493.833	1026.31
494.05	994.31
494.268	999.31
494.485	980.31
494.703	975.31
494.92	975.31
495.138	1007.31
495.355	1010.31
495.573	1000.31
495.79	991.31
496.008	977.31
496.225	975.31
496.442	993.31
496.66	1023.31
496.877	990.31
497.094	1012.31
497.312	1023.31
497.529	1046.31
497.746	1071.31
497.963	1102.31
498.181	1137.31
498.398	1173.31
498.615	1204.31
498.832	1288.31
499.049	1304.31
499.267	1415.31
499.484	1512.31
499.701	1601.31
499.918	1667.31
500.135	1883.31
500.352	1976.31
500.569	1913.31
500.786	1932.31
501.003	1829.31
501.22	1648.31
501.437	1610.31
