Data from TestCu_HRD10591_00013.txt Node
Date: Thu Oct 05 14:04:54 EDT 2023
User: Yrep
Spectrometer: HR+D1059
Trigger mode: 1
Integration Time (sec): 1.000000E-1
Scans to average: 1
Electric dark correction enabled: true
Nonlinearity correction enabled: false
Boxcar width: 0
XAxis mode: Wavelengths
Number of Pixels in Spectrum: 2048
>>>>>Begin Spectral Data<<<<<
223.165	-22.19
223.4	-22.19
223.635	-22.19
223.869	-13.19
224.104	-22.19
224.338	2.81
224.573	-22.19
224.808	-24.19
225.042	-3.19
225.277	0.81
225.511	3.81
225.746	10.81
225.98	10.81
226.215	6.81
226.449	5.81
226.683	18.81
226.918	28.81
227.152	17.81
227.387	34.81
227.621	53.81
227.856	47.81
228.09	34.81
228.324	47.81
228.559	47.81
228.793	60.81
229.027	98.81
229.262	126.81
229.496	133.81
229.73	162.81
229.964	153.81
230.199	120.81
230.433	106.81
230.667	111.81
230.901	105.81
231.136	107.81
231.37	120.81
231.604	103.81
231.838	114.81
232.072	118.81
232.306	108.81
232.541	105.81
232.775	113.81
233.009	109.81
233.243	124.81
233.477	109.81
233.711	108.81
233.945	124.81
234.179	114.81
234.413	124.81
234.647	111.81
234.881	105.81
235.115	109.81
235.349	108.81
235.583	108.81
235.817	142.81
236.051	134.81
236.285	133.81
236.519	136.81
236.753	163.81
236.987	180.81
237.221	222.81
237.455	228.81
237.689	150.81
237.922	127.81
238.156	135.81
238.39	142.81
238.624	109.81
238.858	116.81
239.091	129.81
239.325	134.81
239.559	128.81
239.793	132.81
240.027	155.81
240.26	166.81
240.494	151.81
240.728	142.81
240.961	140.81
241.195	155.81
241.429	111.81
241.662	143.81
241.896	129.81
242.13	123.81
242.363	129.81
242.597	119.81
242.83	142.81
243.064	125.81
243.298	130.81
243.531	138.81
243.765	137.81
243.998	147.81
244.232	155.81
244.465	140.81
244.699	140.81
244.932	160.81
245.166	142.81
245.399	136.81
245.633	132.81
245.866	151.81
246.099	134.81
246.333	134.81
246.566	153.81
246.8	159.81
247.033	144.81
247.266	160.81
247.5	164.81
247.733	184.81
247.966	170.81
248.2	145.81
248.433	179.81
248.666	182.81
248.899	191.81
249.133	204.81
249.366	213.81
249.599	184.81
249.832	168.81
250.066	180.81
250.299	175.81
250.532	182.81
250.765	213.81
250.998	221.81
251.231	188.81
251.465	193.81
251.698	185.81
251.931	189.81
252.164	191.81
252.397	187.81
252.63	196.81
252.863	204.81
253.096	214.81
253.329	225.81
253.562	189.81
253.795	185.81
254.028	194.81
254.261	207.81
254.494	254.81
254.727	277.81
254.96	267.81
255.193	221.81
255.426	212.81
255.659	197.81
255.892	175.81
256.124	208.81
256.357	194.81
256.59	199.81
256.823	205.81
257.056	190.81
257.289	175.81
257.521	197.81
257.754	209.81
257.987	193.81
258.22	190.81
258.452	196.81
258.685	204.81
258.918	219.81
259.151	200.81
259.383	241.81
259.616	226.81
259.849	246.81
260.081	246.81
260.314	239.81
260.547	229.81
260.779	217.81
261.012	206.81
261.244	208.81
261.477	239.81
261.71	220.81
261.942	240.81
262.175	252.81
262.407	228.81
262.64	207.81
262.872	211.81
263.105	214.81
263.337	208.81
263.57	194.81
263.802	203.81
264.035	201.81
264.267	217.81
264.499	209.81
264.732	203.81
264.964	229.81
265.197	223.81
265.429	199.81
265.661	219.81
265.894	217.81
266.126	221.81
266.358	231.81
266.591	209.81
266.823	214.81
267.055	236.81
267.287	214.81
267.52	232.81
267.752	227.81
267.984	240.81
268.216	231.81
268.448	245.81
268.681	238.81
268.913	277.81
269.145	278.81
269.377	258.81
269.609	261.81
269.841	278.81
270.073	295.81
270.306	319.81
270.538	321.81
270.77	303.81
271.002	290.81
271.234	295.81
271.466	309.81
271.698	321.81
271.93	318.81
272.162	328.81
272.394	323.81
272.626	281.81
272.858	256.81
273.09	264.81
273.322	253.81
273.553	247.81
273.785	239.81
274.017	273.81
274.249	273.81
274.481	279.81
274.713	291.81
274.945	265.81
275.176	261.81
275.408	274.81
275.64	270.81
275.872	273.81
276.104	271.81
276.335	303.81
276.567	303.81
276.799	328.81
277.031	369.81
277.262	351.81
277.494	299.81
277.726	292.81
277.957	295.81
278.189	293.81
278.421	272.81
278.652	269.81
278.884	268.81
279.115	277.81
279.347	272.81
279.579	287.81
279.81	291.81
280.042	272.81
280.273	283.81
280.505	291.81
280.736	281.81
280.968	290.81
281.199	273.81
281.431	291.81
281.662	297.81
281.894	293.81
282.125	326.81
282.356	355.81
282.588	358.81
282.819	318.81
283.051	305.81
283.282	310.81
283.513	305.81
283.745	318.81
283.976	307.81
284.207	294.81
284.439	319.81
284.67	305.81
284.901	297.81
285.132	321.81
285.364	307.81
285.595	325.81
285.826	292.81
286.057	301.81
286.288	301.81
286.52	321.81
286.751	304.81
286.982	296.81
287.213	311.81
287.444	315.81
287.675	339.81
287.906	329.81
288.138	334.81
288.369	349.81
288.6	351.81
288.831	319.81
289.062	327.81
289.293	334.81
289.524	318.81
289.755	327.81
289.986	311.81
290.217	332.81
290.448	334.81
290.679	328.81
290.91	329.81
291.141	347.81
291.371	338.81
291.602	321.81
291.833	323.81
292.064	339.81
292.295	334.81
292.526	338.81
292.757	346.81
292.987	329.81
293.218	339.81
293.449	337.81
293.68	344.81
293.91	349.81
294.141	342.81
294.372	327.81
294.603	348.81
294.833	336.81
295.064	349.81
295.295	336.81
295.525	364.81
295.756	371.81
295.987	396.81
296.217	428.81
296.448	388.81
296.679	353.81
296.909	366.81
297.14	355.81
297.37	355.81
297.601	368.81
297.831	362.81
298.062	372.81
298.292	359.81
298.523	372.81
298.753	373.81
298.984	384.81
299.214	364.81
299.445	361.81
299.675	382.81
299.905	383.81
300.136	376.81
300.366	372.81
300.597	391.81
300.827	385.81
301.057	419.81
301.288	418.81
301.518	392.81
301.748	427.81
301.979	423.81
302.209	399.81
302.439	411.81
302.669	399.81
302.9	382.81
303.13	380.81
303.36	418.81
303.59	408.81
303.82	396.81
304.051	391.81
304.281	382.81
304.511	387.81
304.741	393.81
304.971	382.81
305.201	385.81
305.431	385.81
305.661	391.81
305.891	401.81
306.121	394.81
306.352	414.81
306.582	418.81
306.812	395.81
307.042	391.81
307.272	395.81
307.502	414.81
307.731	405.81
307.961	412.81
308.191	395.81
308.421	396.81
308.651	409.81
308.881	421.81
309.111	418.81
309.341	436.81
309.571	446.81
309.8	462.81
310.03	475.81
310.26	498.81
310.49	469.81
310.72	511.81
310.949	517.81
311.179	488.81
311.409	464.81
311.639	488.81
311.868	478.81
312.098	461.81
312.328	527.81
312.557	527.81
312.787	551.81
313.017	507.81
313.246	489.81
313.476	478.81
313.706	479.81
313.935	520.81
314.165	529.81
314.394	543.81
314.624	529.81
314.853	513.81
315.083	473.81
315.312	461.81
315.542	443.81
315.771	454.81
316.001	477.81
316.23	472.81
316.46	472.81
316.689	483.81
316.919	512.81
317.148	505.81
317.377	483.81
317.607	488.81
317.836	468.81
318.065	473.81
318.295	468.81
318.524	461.81
318.753	470.81
318.983	493.81
319.212	510.81
319.441	504.81
319.67	491.81
319.9	452.81
320.129	475.81
320.358	470.81
320.587	524.81
320.816	527.81
321.046	527.81
321.275	517.81
321.504	513.81
321.733	529.81
321.962	543.81
322.191	559.81
322.42	576.81
322.649	593.81
322.878	652.81
323.108	667.81
323.337	733.81
323.566	760.81
323.795	883.81
324.024	1143.81
324.253	1999.81
324.482	3388.81
324.71	5051.81
324.939	4345.81
325.168	1926.81
325.397	959.81
325.626	743.81
325.855	683.81
326.084	677.81
326.313	719.81
326.542	820.81
326.77	1099.81
326.999	1846.81
327.228	2947.81
327.457	3695.81
327.686	2380.81
327.914	1146.81
328.143	875.81
328.372	825.81
328.6	790.81
328.829	835.81
329.058	865.81
329.287	773.81
329.515	685.81
329.744	640.81
329.972	661.81
330.201	709.81
330.43	832.81
330.658	919.81
330.887	949.81
331.115	789.81
331.344	701.81
331.572	695.81
331.801	663.81
332.03	643.81
332.258	658.81
332.486	651.81
332.715	613.81
332.943	663.81
333.172	669.81
333.4	675.81
333.629	677.81
333.857	686.81
334.085	685.81
334.314	638.81
334.542	645.81
334.771	645.81
334.999	656.81
335.227	637.81
335.455	646.81
335.684	625.81
335.912	600.81
336.14	624.81
336.369	617.81
336.597	673.81
336.825	641.81
337.053	624.81
337.281	620.81
337.51	609.81
337.738	636.81
337.966	632.81
338.194	619.81
338.422	609.81
338.65	603.81
338.878	590.81
339.106	585.81
339.334	577.81
339.562	583.81
339.79	577.81
340.018	599.81
340.246	584.81
340.474	587.81
340.702	615.81
340.93	573.81
341.158	594.81
341.386	590.81
341.614	602.81
341.842	609.81
342.07	569.81
342.298	561.81
342.526	553.81
342.754	559.81
342.981	548.81
343.209	577.81
343.437	592.81
343.665	619.81
343.893	635.81
344.12	637.81
344.348	600.81
344.576	638.81
344.804	645.81
345.031	635.81
345.259	632.81
345.487	623.81
345.714	602.81
345.942	603.81
346.17	582.81
346.397	591.81
346.625	574.81
346.853	559.81
347.08	589.81
347.308	602.81
347.535	624.81
347.763	621.81
347.99	604.81
348.218	626.81
348.445	644.81
348.673	610.81
348.9	566.81
349.128	551.81
349.355	532.81
349.583	543.81
349.81	548.81
350.037	555.81
350.265	539.81
350.492	551.81
350.72	557.81
350.947	589.81
351.174	632.81
351.402	619.81
351.629	593.81
351.856	607.81
352.083	624.81
352.311	633.81
352.538	651.81
352.765	678.81
352.992	595.81
353.22	595.81
353.447	580.81
353.674	561.81
353.901	539.81
354.128	544.81
354.355	529.81
354.583	545.81
354.81	531.81
355.037	524.81
355.264	518.81
355.491	517.81
355.718	540.81
355.945	533.81
356.172	510.81
356.399	526.81
356.626	543.81
356.853	539.81
357.08	532.81
357.307	536.81
357.534	544.81
357.761	548.81
357.988	526.81
358.215	548.81
358.441	541.81
358.668	532.81
358.895	567.81
359.122	571.81
359.349	575.81
359.576	654.81
359.802	727.81
360.029	756.81
360.256	728.81
360.483	628.81
360.709	578.81
360.936	599.81
361.163	607.81
361.39	597.81
361.616	587.81
361.843	605.81
362.07	592.81
362.296	617.81
362.523	592.81
362.749	586.81
362.976	573.81
363.203	596.81
363.429	577.81
363.656	579.81
363.882	565.81
364.109	560.81
364.335	571.81
364.562	547.81
364.788	590.81
365.015	569.81
365.241	612.81
365.468	591.81
365.694	595.81
365.92	594.81
366.147	566.81
366.373	561.81
366.599	574.81
366.826	535.81
367.052	560.81
367.278	574.81
367.505	549.81
367.731	568.81
367.957	554.81
368.184	581.81
368.41	599.81
368.636	592.81
368.862	614.81
369.089	580.81
369.315	574.81
369.541	576.81
369.767	567.81
369.993	579.81
370.219	583.81
370.445	573.81
370.672	581.81
370.898	577.81
371.124	588.81
371.35	580.81
371.576	581.81
371.802	585.81
372.028	574.81
372.254	595.81
372.48	582.81
372.706	609.81
372.932	581.81
373.158	583.81
373.384	587.81
373.61	583.81
373.835	597.81
374.061	607.81
374.287	613.81
374.513	584.81
374.739	609.81
374.965	638.81
375.191	618.81
375.416	593.81
375.642	613.81
375.868	592.81
376.094	600.81
376.319	582.81
376.545	580.81
376.771	578.81
376.997	563.81
377.222	586.81
377.448	580.81
377.674	587.81
377.899	570.81
378.125	573.81
378.35	551.81
378.576	555.81
378.802	557.81
379.027	572.81
379.253	546.81
379.478	584.81
379.704	583.81
379.929	583.81
380.155	606.81
380.38	603.81
380.606	614.81
380.831	596.81
381.057	587.81
381.282	580.81
381.507	565.81
381.733	601.81
381.958	601.81
382.184	627.81
382.409	601.81
382.634	621.81
382.86	607.81
383.085	613.81
383.31	600.81
383.535	634.81
383.761	637.81
383.986	642.81
384.211	650.81
384.436	646.81
384.662	661.81
384.887	656.81
385.112	654.81
385.337	685.81
385.562	704.81
385.787	683.81
386.013	717.81
386.238	699.81
386.463	678.81
386.688	696.81
386.913	670.81
387.138	660.81
387.363	672.81
387.588	652.81
387.813	680.81
388.038	687.81
388.263	657.81
388.488	672.81
388.713	664.81
388.938	674.81
389.163	679.81
389.387	656.81
389.612	676.81
389.837	660.81
390.062	656.81
390.287	696.81
390.512	675.81
390.736	698.81
390.961	706.81
391.186	685.81
391.411	728.81
391.636	718.81
391.86	753.81
392.085	706.81
392.31	708.81
392.534	715.81
392.759	685.81
392.984	673.81
393.208	705.81
393.433	694.81
393.658	716.81
393.882	720.81
394.107	716.81
394.331	700.81
394.556	730.81
394.78	740.81
395.005	709.81
395.229	729.81
395.454	744.81
395.678	750.81
395.903	745.81
396.127	756.81
396.352	750.81
396.576	721.81
396.801	727.81
397.025	756.81
397.249	737.81
397.474	767.81
397.698	756.81
397.922	742.81
398.147	816.81
398.371	800.81
398.595	809.81
398.82	837.81
399.044	903.81
399.268	1009.81
399.492	1105.81
399.717	1151.81
399.941	1104.81
400.165	1020.81
400.389	976.81
400.613	928.81
400.837	879.81
401.062	840.81
401.286	862.81
401.51	838.81
401.734	845.81
401.958	861.81
402.182	897.81
402.406	943.81
402.63	905.81
402.854	888.81
403.078	898.81
403.302	919.81
403.526	903.81
403.75	923.81
403.974	907.81
404.198	913.81
404.422	944.81
404.645	912.81
404.869	936.81
405.093	953.81
405.317	947.81
405.541	935.81
405.765	964.81
405.988	963.81
406.212	1010.81
406.436	1086.81
406.66	1023.81
406.883	1022.81
407.107	1081.81
407.331	1134.81
407.555	1164.81
407.778	1099.81
408.002	1006.81
408.226	972.81
408.449	971.81
408.673	976.81
408.896	997.81
409.12	985.81
409.344	911.81
409.567	888.81
409.791	907.81
410.014	879.81
410.238	873.81
410.461	871.81
410.685	861.81
410.908	912.81
411.132	910.81
411.355	906.81
411.578	856.81
411.802	855.81
412.025	826.81
412.249	853.81
412.472	852.81
412.695	821.81
412.919	815.81
413.142	817.81
413.365	793.81
413.589	776.81
413.812	797.81
414.035	803.81
414.258	803.81
414.482	801.81
414.705	795.81
414.928	809.81
415.151	799.81
415.374	791.81
415.597	802.81
415.821	801.81
416.044	788.81
416.267	787.81
416.49	799.81
416.713	791.81
416.936	777.81
417.159	800.81
417.382	808.81
417.605	817.81
417.828	833.81
418.051	835.81
418.274	800.81
418.497	801.81
418.72	839.81
418.943	810.81
419.166	854.81
419.389	881.81
419.611	836.81
419.834	805.81
420.057	833.81
420.28	796.81
420.503	809.81
420.726	844.81
420.948	893.81
421.171	872.81
421.394	887.81
421.617	845.81
421.839	824.81
422.062	854.81
422.285	913.81
422.507	950.81
422.73	984.81
422.953	909.81
423.175	853.81
423.398	866.81
423.621	891.81
423.843	896.81
424.066	880.81
424.288	902.81
424.511	951.81
424.733	1017.81
424.956	1047.81
425.178	1020.81
425.401	991.81
425.623	959.81
425.846	864.81
426.068	849.81
426.291	841.81
426.513	848.81
426.735	880.81
426.958	999.81
427.18	1109.81
427.402	1251.81
427.625	1300.81
427.847	1024.81
428.069	888.81
428.292	797.81
428.514	797.81
428.736	767.81
428.958	768.81
429.181	741.81
429.403	739.81
429.625	801.81
429.847	846.81
430.069	867.81
430.292	821.81
430.514	742.81
430.736	747.81
430.958	751.81
431.18	709.81
431.402	741.81
431.624	735.81
431.846	709.81
432.068	713.81
432.29	721.81
432.512	723.81
432.734	743.81
432.956	780.81
433.178	760.81
433.4	748.81
433.622	755.81
433.844	756.81
434.066	751.81
434.287	753.81
434.509	784.81
434.731	808.81
434.953	806.81
435.175	843.81
435.397	845.81
435.618	891.81
435.84	969.81
436.062	1048.81
436.284	992.81
436.505	854.81
436.727	812.81
436.949	763.81
437.17	759.81
437.392	781.81
437.614	842.81
437.835	941.81
438.057	1044.81
438.278	1065.81
438.5	1071.81
438.721	1125.81
438.943	947.81
439.165	849.81
439.386	808.81
439.608	826.81
439.829	910.81
440.05	982.81
440.272	976.81
440.493	824.81
440.715	812.81
440.936	811.81
441.158	820.81
441.379	834.81
441.6	860.81
441.822	915.81
442.043	985.81
442.264	1045.81
442.486	984.81
442.707	880.81
442.928	917.81
443.149	973.81
443.371	1025.81
443.592	1058.81
443.813	1145.81
444.034	1073.81
444.255	941.81
444.476	933.81
444.698	951.81
444.919	963.81
445.14	996.81
445.361	949.81
445.582	1057.81
445.803	1198.81
446.024	1229.81
446.245	1123.81
446.466	973.81
446.687	845.81
446.908	782.81
447.129	756.81
447.35	759.81
447.571	737.81
447.792	722.81
448.013	772.81
448.234	835.81
448.455	948.81
448.675	1045.81
448.896	1049.81
449.117	920.81
449.338	989.81
449.559	1113.81
449.779	1011.81
450	823.81
450.221	753.81
450.442	722.81
450.662	776.81
450.883	789.81
451.104	817.81
451.324	767.81
451.545	728.81
451.766	700.81
451.986	668.81
452.207	672.81
452.428	677.81
452.648	703.81
452.869	717.81
453.089	745.81
453.31	728.81
453.53	691.81
453.751	696.81
453.971	746.81
454.192	751.81
454.412	701.81
454.633	679.81
454.853	649.81
455.073	685.81
455.294	743.81
455.514	791.81
455.734	711.81
455.955	635.81
456.175	629.81
456.395	633.81
456.616	625.81
456.836	627.81
457.056	636.81
457.276	571.81
457.497	641.81
457.717	632.81
457.937	658.81
458.157	659.81
458.377	683.81
458.598	820.81
458.818	977.81
459.038	1027.81
459.258	870.81
459.478	801.81
459.698	736.81
459.918	757.81
460.138	774.81
460.358	777.81
460.578	797.81
460.798	813.81
461.018	829.81
461.238	791.81
461.458	801.81
461.678	774.81
461.898	805.81
462.118	823.81
462.338	857.81
462.558	871.81
462.777	898.81
462.997	947.81
463.217	1000.81
463.437	952.81
463.657	888.81
463.876	884.81
464.096	911.81
464.316	897.81
464.536	923.81
464.755	911.81
464.975	953.81
465.195	1194.81
465.414	1091.81
465.634	856.81
465.854	779.81
466.073	754.81
466.293	724.81
466.512	723.81
466.732	681.81
466.951	712.81
467.171	715.81
467.391	751.81
467.61	775.81
467.829	739.81
468.049	714.81
468.268	663.81
468.488	675.81
468.707	658.81
468.927	676.81
469.146	683.81
469.365	687.81
469.585	675.81
469.804	748.81
470.023	721.81
470.243	765.81
470.462	771.81
470.681	819.81
470.901	721.81
471.12	711.81
471.339	705.81
471.558	713.81
471.777	680.81
471.997	679.81
472.216	648.81
472.435	669.81
472.654	650.81
472.873	661.81
473.092	651.81
473.311	643.81
473.53	664.81
473.749	715.81
473.968	820.81
474.187	897.81
474.406	782.81
474.625	691.81
474.844	677.81
475.063	700.81
475.282	679.81
475.501	695.81
475.72	686.81
475.939	680.81
476.158	690.81
476.377	689.81
476.596	700.81
476.814	710.81
477.033	736.81
477.252	729.81
477.471	749.81
477.69	747.81
477.908	780.81
478.127	782.81
478.346	785.81
478.564	791.81
478.783	805.81
479.002	801.81
479.22	839.81
479.439	884.81
479.658	885.81
479.876	876.81
480.095	890.81
480.313	900.81
480.532	886.81
480.751	875.81
480.969	855.81
481.188	843.81
481.406	823.81
481.624	797.81
481.843	820.81
482.061	779.81
482.28	745.81
482.498	779.81
482.717	761.81
482.935	785.81
483.153	776.81
483.372	797.81
483.59	773.81
483.808	763.81
484.027	787.81
484.245	777.81
484.463	785.81
484.681	800.81
484.9	797.81
485.118	823.81
485.336	821.81
485.554	823.81
485.772	833.81
485.99	840.81
486.209	836.81
486.427	841.81
486.645	904.81
486.863	867.81
487.081	849.81
487.299	831.81
487.517	857.81
487.735	849.81
487.953	846.81
488.171	824.81
488.389	852.81
488.607	830.81
488.825	845.81
489.043	832.81
489.261	815.81
489.479	826.81
489.696	844.81
489.914	852.81
490.132	865.81
490.35	886.81
490.568	888.81
490.786	888.81
491.003	948.81
491.221	971.81
491.439	965.81
491.657	948.81
491.874	971.81
492.092	978.81
492.31	981.81
492.527	992.81
492.745	974.81
492.963	988.81
493.18	979.81
493.398	990.81
493.615	1000.81
493.833	997.81
494.05	977.81
494.268	1005.81
494.485	971.81
494.703	962.81
494.92	998.81
495.138	984.81
495.355	985.81
495.573	997.81
495.79	992.81
496.008	1000.81
496.225	997.81
496.442	965.81
496.66	973.81
496.877	1027.81
497.094	1015.81
497.312	1017.81
497.529	1036.81
497.746	1045.81
497.963	1074.81
498.181	1125.81
498.398	1149.81
498.615	1196.81
498.832	1261.81
499.049	1323.81
499.267	1376.81
499.484	1446.81
499.701	1558.81
499.918	1660.81
500.135	1779.81
500.352	1911.81
500.569	1919.81
500.786	1865.81
501.003	1758.81
501.22	1659.81
501.437	1542.81
501.654	1485.81
