Data from TestCu_HRD10591_00069.txt Node
Date: Thu Oct 05 14:05:49 EDT 2023
User: Yrep
Spectrometer: HR+D1059
Trigger mode: 1
Integration Time (sec): 1.000000E-1
Scans to average: 1
Electric dark correction enabled: true
Nonlinearity correction enabled: false
Boxcar width: 0
XAxis mode: Wavelengths
Number of Pixels in Spectrum: 2048
>>>>>Begin Spectral Data<<<<<
223.165	-11.56
223.4	-11.56
223.635	-11.56
223.869	-21.56
224.104	-12.56
224.338	-9.56
224.573	-13.56
224.808	-7.56
225.042	5.44
225.277	-10.56
225.511	-0.56
225.746	-7.56
225.98	-8.56
226.215	14.44
226.449	22.44
226.683	21.44
226.918	11.44
227.152	28.44
227.387	40.44
227.621	46.44
227.856	48.44
228.09	51.44
228.324	63.44
228.559	67.44
228.793	80.44
229.027	111.44
229.262	108.44
229.496	141.44
229.73	170.44
229.964	147.44
230.199	137.44
230.433	114.44
230.667	129.44
230.901	95.44
231.136	99.44
231.37	121.44
231.604	118.44
231.838	123.44
232.072	111.44
232.306	112.44
232.541	98.44
232.775	114.44
233.009	119.44
233.243	107.44
233.477	114.44
233.711	112.44
233.945	107.44
234.179	106.44
234.413	114.44
234.647	117.44
234.881	122.44
235.115	110.44
235.349	124.44
235.583	133.44
235.817	132.44
236.051	113.44
236.285	120.44
236.519	136.44
236.753	149.44
236.987	177.44
237.221	247.44
237.455	212.44
237.689	141.44
237.922	116.44
238.156	135.44
238.39	132.44
238.624	107.44
238.858	126.44
239.091	132.44
239.325	139.44
239.559	138.44
239.793	135.44
240.027	134.44
240.26	166.44
240.494	173.44
240.728	140.44
240.961	137.44
241.195	113.44
241.429	132.44
241.662	135.44
241.896	117.44
242.13	129.44
242.363	134.44
242.597	143.44
242.83	142.44
243.064	126.44
243.298	127.44
243.531	127.44
243.765	131.44
243.998	122.44
244.232	144.44
244.465	143.44
244.699	144.44
244.932	159.44
245.166	132.44
245.399	142.44
245.633	143.44
245.866	140.44
246.099	152.44
246.333	145.44
246.566	144.44
246.8	156.44
247.033	162.44
247.266	158.44
247.5	175.44
247.733	172.44
247.966	157.44
248.2	150.44
248.433	159.44
248.666	178.44
248.899	180.44
249.133	203.44
249.366	220.44
249.599	184.44
249.832	166.44
250.066	171.44
250.299	170.44
250.532	181.44
250.765	190.44
250.998	204.44
251.231	189.44
251.465	195.44
251.698	183.44
251.931	186.44
252.164	180.44
252.397	192.44
252.63	192.44
252.863	199.44
253.096	218.44
253.329	222.44
253.562	211.44
253.795	218.44
254.028	209.44
254.261	219.44
254.494	243.44
254.727	277.44
254.96	264.44
255.193	238.44
255.426	204.44
255.659	194.44
255.892	190.44
256.124	199.44
256.357	186.44
256.59	185.44
256.823	174.44
257.056	179.44
257.289	192.44
257.521	200.44
257.754	187.44
257.987	185.44
258.22	209.44
258.452	189.44
258.685	183.44
258.918	202.44
259.151	214.44
259.383	220.44
259.616	211.44
259.849	224.44
260.081	246.44
260.314	237.44
260.547	228.44
260.779	234.44
261.012	216.44
261.244	205.44
261.477	233.44
261.71	218.44
261.942	255.44
262.175	250.44
262.407	226.44
262.64	235.44
262.872	239.44
263.105	205.44
263.337	210.44
263.57	206.44
263.802	220.44
264.035	207.44
264.267	207.44
264.499	211.44
264.732	205.44
264.964	210.44
265.197	212.44
265.429	224.44
265.661	238.44
265.894	213.44
266.126	218.44
266.358	220.44
266.591	226.44
266.823	220.44
267.055	237.44
267.287	234.44
267.52	230.44
267.752	240.44
267.984	229.44
268.216	234.44
268.448	249.44
268.681	245.44
268.913	283.44
269.145	290.44
269.377	278.44
269.609	270.44
269.841	270.44
270.073	289.44
270.306	327.44
270.538	317.44
270.77	284.44
271.002	293.44
271.234	309.44
271.466	310.44
271.698	334.44
271.93	325.44
272.162	324.44
272.394	305.44
272.626	277.44
272.858	264.44
273.09	265.44
273.322	271.44
273.553	255.44
273.785	265.44
274.017	263.44
274.249	289.44
274.481	270.44
274.713	271.44
274.945	273.44
275.176	274.44
275.408	291.44
275.64	270.44
275.872	262.44
276.104	283.44
276.335	288.44
276.567	324.44
276.799	347.44
277.031	358.44
277.262	326.44
277.494	297.44
277.726	286.44
277.957	297.44
278.189	287.44
278.421	280.44
278.652	263.44
278.884	282.44
279.115	282.44
279.347	267.44
279.579	286.44
279.81	286.44
280.042	279.44
280.273	280.44
280.505	285.44
280.736	288.44
280.968	286.44
281.199	276.44
281.431	286.44
281.662	306.44
281.894	307.44
282.125	301.44
282.356	342.44
282.588	346.44
282.819	347.44
283.051	308.44
283.282	296.44
283.513	290.44
283.745	325.44
283.976	309.44
284.207	296.44
284.439	307.44
284.67	296.44
284.901	314.44
285.132	312.44
285.364	292.44
285.595	311.44
285.826	306.44
286.057	322.44
286.288	296.44
286.52	304.44
286.751	306.44
286.982	302.44
287.213	277.44
287.444	316.44
287.675	332.44
287.906	324.44
288.138	337.44
288.369	329.44
288.6	353.44
288.831	338.44
289.062	336.44
289.293	325.44
289.524	320.44
289.755	311.44
289.986	342.44
290.217	316.44
290.448	289.44
290.679	322.44
290.91	327.44
291.141	336.44
291.371	333.44
291.602	323.44
291.833	333.44
292.064	325.44
292.295	343.44
292.526	346.44
292.757	336.44
292.987	327.44
293.218	339.44
293.449	323.44
293.68	341.44
293.91	345.44
294.141	353.44
294.372	348.44
294.603	329.44
294.833	346.44
295.064	337.44
295.295	350.44
295.525	374.44
295.756	380.44
295.987	411.44
296.217	428.44
296.448	395.44
296.679	339.44
296.909	343.44
297.14	324.44
297.37	366.44
297.601	368.44
297.831	357.44
298.062	359.44
298.292	367.44
298.523	362.44
298.753	375.44
298.984	369.44
299.214	383.44
299.445	392.44
299.675	374.44
299.905	374.44
300.136	377.44
300.366	387.44
300.597	400.44
300.827	412.44
301.057	397.44
301.288	426.44
301.518	415.44
301.748	399.44
301.979	438.44
302.209	398.44
302.439	420.44
302.669	398.44
302.9	422.44
303.13	374.44
303.36	400.44
303.59	414.44
303.82	423.44
304.051	420.44
304.281	422.44
304.511	388.44
304.741	400.44
304.971	385.44
305.201	375.44
305.431	413.44
305.661	395.44
305.891	384.44
306.121	394.44
306.352	415.44
306.582	423.44
306.812	398.44
307.042	401.44
307.272	384.44
307.502	411.44
307.731	396.44
307.961	406.44
308.191	388.44
308.421	388.44
308.651	396.44
308.881	411.44
309.111	432.44
309.341	428.44
309.571	477.44
309.8	451.44
310.03	494.44
310.26	482.44
310.49	474.44
310.72	507.44
310.949	528.44
311.179	483.44
311.409	460.44
311.639	480.44
311.868	480.44
312.098	486.44
312.328	496.44
312.557	544.44
312.787	558.44
313.017	507.44
313.246	476.44
313.476	461.44
313.706	506.44
313.935	525.44
314.165	538.44
314.394	529.44
314.624	486.44
314.853	508.44
315.083	486.44
315.312	471.44
315.542	448.44
315.771	458.44
316.001	476.44
316.23	468.44
316.46	464.44
316.689	468.44
316.919	499.44
317.148	495.44
317.377	487.44
317.607	480.44
317.836	481.44
318.065	470.44
318.295	460.44
318.524	488.44
318.753	456.44
318.983	475.44
319.212	502.44
319.441	510.44
319.67	502.44
319.9	467.44
320.129	470.44
320.358	488.44
320.587	486.44
320.816	525.44
321.046	513.44
321.275	502.44
321.504	511.44
321.733	550.44
321.962	560.44
322.191	555.44
322.42	583.44
322.649	596.44
322.878	621.44
323.108	664.44
323.337	730.44
323.566	772.44
323.795	908.44
324.024	1170.44
324.253	2058.44
324.482	3501.44
324.71	5286.44
324.939	4789.44
325.168	2065.44
325.397	949.44
325.626	720.44
325.855	677.44
326.084	678.44
326.313	714.44
326.542	828.44
326.77	1092.44
326.999	1861.44
327.228	2986.44
327.457	3918.44
327.686	2592.44
327.914	1184.44
328.143	889.44
328.372	831.44
328.6	774.44
328.829	837.44
329.058	867.44
329.287	802.44
329.515	688.44
329.744	619.44
329.972	636.44
330.201	720.44
330.43	786.44
330.658	940.44
330.887	939.44
331.115	781.44
331.344	699.44
331.572	699.44
331.801	709.44
332.03	662.44
332.258	646.44
332.486	616.44
332.715	636.44
332.943	647.44
333.172	635.44
333.4	682.44
333.629	670.44
333.857	704.44
334.085	637.44
334.314	661.44
334.542	631.44
334.771	683.44
334.999	677.44
335.227	656.44
335.455	616.44
335.684	623.44
335.912	617.44
336.14	640.44
336.369	653.44
336.597	654.44
336.825	623.44
337.053	588.44
337.281	591.44
337.51	603.44
337.738	625.44
337.966	610.44
338.194	630.44
338.422	597.44
338.65	607.44
338.878	589.44
339.106	589.44
339.334	609.44
339.562	571.44
339.79	604.44
340.018	568.44
340.246	607.44
340.474	594.44
340.702	602.44
340.93	573.44
341.158	558.44
341.386	580.44
341.614	602.44
341.842	588.44
342.07	569.44
342.298	572.44
342.526	577.44
342.754	551.44
342.981	558.44
343.209	580.44
343.437	602.44
343.665	643.44
343.893	655.44
344.12	636.44
344.348	622.44
344.576	624.44
344.804	624.44
345.031	666.44
345.259	653.44
345.487	597.44
345.714	587.44
345.942	586.44
346.17	553.44
346.397	555.44
346.625	571.44
346.853	557.44
347.08	565.44
347.308	587.44
347.535	620.44
347.763	614.44
347.99	612.44
348.218	620.44
348.445	644.44
348.673	602.44
348.9	564.44
349.128	550.44
349.355	534.44
349.583	558.44
349.81	558.44
350.037	533.44
350.265	546.44
350.492	532.44
350.72	559.44
350.947	590.44
351.174	628.44
351.402	613.44
351.629	591.44
351.856	598.44
352.083	619.44
352.311	649.44
352.538	651.44
352.765	611.44
352.992	600.44
353.22	589.44
353.447	590.44
353.674	545.44
353.901	548.44
354.128	560.44
354.355	538.44
354.583	541.44
354.81	539.44
355.037	542.44
355.264	523.44
355.491	525.44
355.718	513.44
355.945	534.44
356.172	539.44
356.399	531.44
356.626	530.44
356.853	548.44
357.08	528.44
357.307	536.44
357.534	535.44
357.761	527.44
357.988	551.44
358.215	554.44
358.441	539.44
358.668	550.44
358.895	546.44
359.122	565.44
359.349	591.44
359.576	653.44
359.802	737.44
360.029	767.44
360.256	718.44
360.483	646.44
360.709	587.44
360.936	586.44
361.163	591.44
361.39	599.44
361.616	595.44
361.843	611.44
362.07	610.44
362.296	607.44
362.523	593.44
362.749	608.44
362.976	576.44
363.203	564.44
363.429	556.44
363.656	567.44
363.882	549.44
364.109	568.44
364.335	579.44
364.562	586.44
364.788	580.44
365.015	595.44
365.241	583.44
365.468	604.44
365.694	584.44
365.92	581.44
366.147	575.44
366.373	566.44
366.599	557.44
366.826	542.44
367.052	554.44
367.278	577.44
367.505	560.44
367.731	588.44
367.957	551.44
368.184	566.44
368.41	597.44
368.636	623.44
368.862	594.44
369.089	580.44
369.315	585.44
369.541	559.44
369.767	599.44
369.993	598.44
370.219	583.44
370.445	575.44
370.672	561.44
370.898	572.44
371.124	558.44
371.35	588.44
371.576	567.44
371.802	587.44
372.028	575.44
372.254	560.44
372.48	586.44
372.706	580.44
372.932	592.44
373.158	578.44
373.384	609.44
373.61	582.44
373.835	595.44
374.061	606.44
374.287	604.44
374.513	604.44
374.739	605.44
374.965	614.44
375.191	612.44
375.416	607.44
375.642	581.44
375.868	632.44
376.094	598.44
376.319	607.44
376.545	623.44
376.771	584.44
376.997	572.44
377.222	574.44
377.448	589.44
377.674	568.44
377.899	563.44
378.125	561.44
378.35	574.44
378.576	556.44
378.802	556.44
379.027	568.44
379.253	573.44
379.478	560.44
379.704	573.44
379.929	583.44
380.155	578.44
380.38	574.44
380.606	613.44
380.831	559.44
381.057	603.44
381.282	583.44
381.507	589.44
381.733	576.44
381.958	609.44
382.184	600.44
382.409	602.44
382.634	610.44
382.86	601.44
383.085	594.44
383.31	606.44
383.535	615.44
383.761	644.44
383.986	657.44
384.211	656.44
384.436	671.44
384.662	671.44
384.887	649.44
385.112	646.44
385.337	666.44
385.562	674.44
385.787	688.44
386.013	741.44
386.238	741.44
386.463	676.44
386.688	699.44
386.913	662.44
387.138	690.44
387.363	663.44
387.588	662.44
387.813	671.44
388.038	670.44
388.263	693.44
388.488	664.44
388.713	674.44
388.938	676.44
389.163	648.44
389.387	677.44
389.612	664.44
389.837	664.44
390.062	651.44
390.287	652.44
390.512	662.44
390.736	669.44
390.961	701.44
391.186	692.44
391.411	717.44
391.636	721.44
391.86	738.44
392.085	722.44
392.31	731.44
392.534	715.44
392.759	723.44
392.984	699.44
393.208	701.44
393.433	698.44
393.658	667.44
393.882	704.44
394.107	698.44
394.331	712.44
394.556	727.44
394.78	720.44
395.005	719.44
395.229	725.44
395.454	706.44
395.678	744.44
395.903	735.44
396.127	741.44
396.352	732.44
396.576	717.44
396.801	709.44
397.025	726.44
397.249	747.44
397.474	749.44
397.698	744.44
397.922	779.44
398.147	790.44
398.371	783.44
398.595	824.44
398.82	875.44
399.044	932.44
399.268	1034.44
399.492	1059.44
399.717	1124.44
399.941	1083.44
400.165	1032.44
400.389	954.44
400.613	872.44
400.837	862.44
401.062	836.44
401.286	825.44
401.51	837.44
401.734	828.44
401.958	867.44
402.182	902.44
402.406	970.44
402.63	904.44
402.854	902.44
403.078	890.44
403.302	902.44
403.526	934.44
403.75	895.44
403.974	900.44
404.198	942.44
404.422	918.44
404.645	937.44
404.869	922.44
405.093	932.44
405.317	953.44
405.541	933.44
405.765	939.44
405.988	958.44
406.212	1064.44
406.436	1118.44
406.66	1080.44
406.883	1043.44
407.107	1046.44
407.331	1107.44
407.555	1154.44
407.778	1102.44
408.002	1047.44
408.226	971.44
408.449	974.44
408.673	974.44
408.896	977.44
409.12	970.44
409.344	932.44
409.567	871.44
409.791	892.44
410.014	867.44
410.238	880.44
410.461	882.44
410.685	890.44
410.908	925.44
411.132	926.44
411.355	898.44
411.578	858.44
411.802	862.44
412.025	850.44
412.249	832.44
412.472	849.44
412.695	812.44
412.919	812.44
413.142	804.44
413.365	809.44
413.589	799.44
413.812	781.44
414.035	777.44
414.258	810.44
414.482	808.44
414.705	785.44
414.928	812.44
415.151	770.44
415.374	814.44
415.597	806.44
415.821	794.44
416.044	785.44
416.267	799.44
416.49	783.44
416.713	789.44
416.936	797.44
417.159	796.44
417.382	816.44
417.605	839.44
417.828	853.44
418.051	836.44
418.274	808.44
418.497	801.44
418.72	833.44
418.943	816.44
419.166	848.44
419.389	881.44
419.611	860.44
419.834	867.44
420.057	873.44
420.28	820.44
420.503	820.44
420.726	830.44
420.948	871.44
421.171	884.44
421.394	863.44
421.617	803.44
421.839	820.44
422.062	862.44
422.285	892.44
422.507	972.44
422.73	1015.44
422.953	937.44
423.175	856.44
423.398	905.44
423.621	890.44
423.843	899.44
424.066	922.44
424.288	902.44
424.511	977.44
424.733	996.44
424.956	1036.44
425.178	1026.44
425.401	1016.44
425.623	950.44
425.846	850.44
426.068	844.44
426.291	808.44
426.513	859.44
426.735	899.44
426.958	966.44
427.18	1131.44
427.402	1252.44
427.625	1306.44
427.847	1005.44
428.069	866.44
428.292	807.44
428.514	792.44
428.736	756.44
428.958	776.44
429.181	747.44
429.403	760.44
429.625	789.44
429.847	838.44
430.069	880.44
430.292	807.44
430.514	742.44
430.736	745.44
430.958	743.44
431.18	718.44
431.402	730.44
431.624	707.44
431.846	720.44
432.068	744.44
432.29	737.44
432.512	738.44
432.734	733.44
432.956	773.44
433.178	775.44
433.4	778.44
433.622	745.44
433.844	736.44
434.066	758.44
434.287	750.44
434.509	816.44
434.731	808.44
434.953	815.44
435.175	838.44
435.397	816.44
435.618	869.44
435.84	971.44
436.062	1084.44
436.284	1019.44
436.505	846.44
436.727	824.44
436.949	751.44
437.17	763.44
437.392	767.44
437.614	804.44
437.835	958.44
438.057	1099.44
438.278	1078.44
438.5	1068.44
438.721	1139.44
438.943	963.44
439.165	855.44
439.386	829.44
439.608	856.44
439.829	914.44
440.05	974.44
440.272	1021.44
440.493	880.44
440.715	810.44
440.936	830.44
441.158	819.44
441.379	806.44
441.6	888.44
441.822	889.44
442.043	1006.44
442.264	1080.44
442.486	962.44
442.707	891.44
442.928	907.44
443.149	965.44
443.371	1029.44
443.592	1066.44
443.813	1168.44
444.034	1105.44
444.255	974.44
444.476	933.44
444.698	944.44
444.919	963.44
445.14	981.44
445.361	1009.44
445.582	1068.44
445.803	1221.44
446.024	1262.44
446.245	1144.44
446.466	986.44
446.687	842.44
446.908	787.44
447.129	766.44
447.35	746.44
447.571	756.44
447.792	764.44
448.013	780.44
448.234	846.44
448.455	956.44
448.675	1092.44
448.896	1064.44
449.117	890.44
449.338	1011.44
449.559	1162.44
449.779	1096.44
450	828.44
450.221	782.44
450.442	764.44
450.662	769.44
450.883	814.44
451.104	821.44
451.324	738.44
451.545	714.44
451.766	666.44
451.986	703.44
452.207	693.44
452.428	692.44
452.648	713.44
452.869	710.44
453.089	716.44
453.31	722.44
453.53	715.44
453.751	722.44
453.971	740.44
454.192	770.44
454.412	690.44
454.633	658.44
454.853	670.44
455.073	690.44
455.294	757.44
455.514	815.44
455.734	723.44
455.955	646.44
456.175	638.44
456.395	637.44
456.616	635.44
456.836	625.44
457.056	616.44
457.276	604.44
457.497	629.44
457.717	645.44
457.937	645.44
458.157	651.44
458.377	697.44
458.598	808.44
458.818	1019.44
459.038	1052.44
459.258	882.44
459.478	780.44
459.698	754.44
459.918	780.44
460.138	784.44
460.358	797.44
460.578	802.44
460.798	807.44
461.018	806.44
461.238	786.44
461.458	784.44
461.678	802.44
461.898	814.44
462.118	812.44
462.338	871.44
462.558	859.44
462.777	881.44
462.997	941.44
463.217	997.44
463.437	912.44
463.657	898.44
463.876	886.44
464.096	928.44
464.316	897.44
464.536	908.44
464.755	924.44
464.975	967.44
465.195	1186.44
465.414	1101.44
465.634	871.44
465.854	773.44
466.073	732.44
466.293	757.44
466.512	706.44
466.732	702.44
466.951	695.44
467.171	706.44
467.391	735.44
467.61	782.44
467.829	748.44
468.049	677.44
468.268	688.44
468.488	653.44
468.707	658.44
468.927	695.44
469.146	669.44
469.365	698.44
469.585	705.44
469.804	728.44
470.023	759.44
470.243	752.44
470.462	787.44
470.681	826.44
470.901	760.44
471.12	708.44
471.339	710.44
471.558	712.44
471.777	692.44
471.997	664.44
472.216	662.44
472.435	662.44
472.654	643.44
472.873	666.44
473.092	656.44
473.311	658.44
473.53	660.44
473.749	709.44
473.968	819.44
474.187	926.44
474.406	803.44
474.625	686.44
474.844	684.44
475.063	676.44
475.282	689.44
475.501	708.44
475.72	679.44
475.939	692.44
476.158	717.44
476.377	698.44
476.596	694.44
476.814	737.44
477.033	737.44
477.252	750.44
477.471	724.44
477.69	764.44
477.908	752.44
478.127	766.44
478.346	783.44
478.564	809.44
478.783	797.44
479.002	841.44
479.22	812.44
479.439	867.44
479.658	894.44
479.876	858.44
480.095	883.44
480.313	932.44
480.532	878.44
480.751	874.44
480.969	863.44
481.188	836.44
481.406	828.44
481.624	797.44
481.843	792.44
482.061	794.44
482.28	762.44
482.498	773.44
482.717	736.44
482.935	768.44
483.153	786.44
483.372	789.44
483.59	779.44
483.808	816.44
484.027	790.44
484.245	788.44
484.463	831.44
484.681	829.44
484.9	807.44
485.118	820.44
485.336	804.44
485.554	829.44
485.772	812.44
485.99	836.44
486.209	832.44
486.427	818.44
486.645	868.44
486.863	921.44
487.081	889.44
487.299	870.44
487.517	821.44
487.735	852.44
487.953	837.44
488.171	827.44
488.389	830.44
488.607	838.44
488.825	825.44
489.043	850.44
489.261	804.44
489.479	814.44
489.696	824.44
489.914	828.44
490.132	858.44
490.35	888.44
490.568	868.44
490.786	889.44
491.003	927.44
491.221	964.44
491.439	950.44
491.657	989.44
491.874	976.44
492.092	970.44
492.31	945.44
492.527	1006.44
492.745	974.44
492.963	976.44
493.18	993.44
493.398	1002.44
493.615	1011.44
493.833	974.44
494.05	1016.44
494.268	1000.44
494.485	981.44
494.703	965.44
494.92	975.44
495.138	987.44
495.355	989.44
495.573	983.44
495.79	979.44
496.008	973.44
496.225	983.44
496.442	983.44
496.66	980.44
496.877	996.44
497.094	999.44
497.312	1052.44
497.529	1046.44
497.746	1064.44
497.963	1114.44
498.181	1102.44
498.398	1132.44
498.615	1212.44
498.832	1262.44
499.049	1312.44
499.267	1369.44
499.484	1439.44
499.701	1567.44
499.918	1681.44
500.135	1812.44
500.352	1917.44
500.569	1960.44
500.786	1898.44
501.003	1774.44
501.22	1709.44
501.437	1579.44
501.654	1524.44
