Data from TestCu_HRD10591_00018.txt Node
Date: Thu Oct 05 14:04:59 EDT 2023
User: Yrep
Spectrometer: HR+D1059
Trigger mode: 1
Integration Time (sec): 1.000000E-1
Scans to average: 1
Electric dark correction enabled: true
Nonlinearity correction enabled: false
Boxcar width: 0
XAxis mode: Wavelengths
Number of Pixels in Spectrum: 2048
>>>>>Begin Spectral Data<<<<<
223.165	-17.5
223.4	-17.5
223.635	-17.5
223.869	-26.5
224.104	-10.5
224.338	-25.5
224.573	-17.5
224.808	-19.5
225.042	-13.5
225.277	-8.5
225.511	-3.5
225.746	6.5
225.98	0.5
226.215	22.5
226.449	22.5
226.683	24.5
226.918	31.5
227.152	34.5
227.387	40.5
227.621	28.5
227.856	51.5
228.09	39.5
228.324	52.5
228.559	52.5
228.793	71.5
229.027	113.5
229.262	108.5
229.496	120.5
229.73	171.5
229.964	164.5
230.199	122.5
230.433	112.5
230.667	110.5
230.901	105.5
231.136	118.5
231.37	103.5
231.604	108.5
231.838	108.5
232.072	115.5
232.306	121.5
232.541	129.5
232.775	116.5
233.009	103.5
233.243	117.5
233.477	105.5
233.711	128.5
233.945	109.5
234.179	116.5
234.413	130.5
234.647	121.5
234.881	130.5
235.115	124.5
235.349	120.5
235.583	127.5
235.817	118.5
236.051	128.5
236.285	121.5
236.519	134.5
236.753	140.5
236.987	184.5
237.221	200.5
237.455	233.5
237.689	149.5
237.922	141.5
238.156	146.5
238.39	130.5
238.624	113.5
238.858	118.5
239.091	120.5
239.325	123.5
239.559	134.5
239.793	138.5
240.027	151.5
240.26	166.5
240.494	149.5
240.728	164.5
240.961	153.5
241.195	133.5
241.429	120.5
241.662	149.5
241.896	140.5
242.13	130.5
242.363	141.5
242.597	121.5
242.83	134.5
243.064	129.5
243.298	144.5
243.531	130.5
243.765	114.5
243.998	120.5
244.232	144.5
244.465	153.5
244.699	161.5
244.932	134.5
245.166	153.5
245.399	137.5
245.633	142.5
245.866	142.5
246.099	161.5
246.333	168.5
246.566	146.5
246.8	176.5
247.033	152.5
247.266	171.5
247.5	149.5
247.733	170.5
247.966	173.5
248.2	180.5
248.433	175.5
248.666	178.5
248.899	204.5
249.133	212.5
249.366	217.5
249.599	190.5
249.832	160.5
250.066	161.5
250.299	174.5
250.532	191.5
250.765	223.5
250.998	223.5
251.231	197.5
251.465	172.5
251.698	184.5
251.931	164.5
252.164	169.5
252.397	190.5
252.63	185.5
252.863	205.5
253.096	221.5
253.329	217.5
253.562	205.5
253.795	200.5
254.028	190.5
254.261	222.5
254.494	254.5
254.727	277.5
254.96	258.5
255.193	222.5
255.426	198.5
255.659	197.5
255.892	203.5
256.124	192.5
256.357	193.5
256.59	195.5
256.823	201.5
257.056	198.5
257.289	196.5
257.521	182.5
257.754	200.5
257.987	213.5
258.22	186.5
258.452	190.5
258.685	193.5
258.918	200.5
259.151	192.5
259.383	211.5
259.616	216.5
259.849	232.5
260.081	270.5
260.314	245.5
260.547	240.5
260.779	228.5
261.012	224.5
261.244	217.5
261.477	238.5
261.71	256.5
261.942	247.5
262.175	250.5
262.407	210.5
262.64	206.5
262.872	196.5
263.105	212.5
263.337	225.5
263.57	206.5
263.802	214.5
264.035	218.5
264.267	209.5
264.499	204.5
264.732	206.5
264.964	207.5
265.197	212.5
265.429	212.5
265.661	231.5
265.894	203.5
266.126	225.5
266.358	234.5
266.591	219.5
266.823	238.5
267.055	225.5
267.287	220.5
267.52	229.5
267.752	222.5
267.984	235.5
268.216	230.5
268.448	247.5
268.681	242.5
268.913	269.5
269.145	269.5
269.377	270.5
269.609	262.5
269.841	302.5
270.073	298.5
270.306	310.5
270.538	330.5
270.77	284.5
271.002	276.5
271.234	294.5
271.466	320.5
271.698	334.5
271.93	321.5
272.162	304.5
272.394	296.5
272.626	278.5
272.858	259.5
273.09	270.5
273.322	262.5
273.553	286.5
273.785	254.5
274.017	263.5
274.249	277.5
274.481	281.5
274.713	264.5
274.945	286.5
275.176	272.5
275.408	274.5
275.64	286.5
275.872	277.5
276.104	280.5
276.335	291.5
276.567	310.5
276.799	340.5
277.031	359.5
277.262	325.5
277.494	306.5
277.726	290.5
277.957	284.5
278.189	281.5
278.421	274.5
278.652	284.5
278.884	277.5
279.115	275.5
279.347	277.5
279.579	293.5
279.81	277.5
280.042	271.5
280.273	266.5
280.505	281.5
280.736	293.5
280.968	280.5
281.199	288.5
281.431	282.5
281.662	308.5
281.894	300.5
282.125	328.5
282.356	371.5
282.588	384.5
282.819	340.5
283.051	310.5
283.282	294.5
283.513	305.5
283.745	300.5
283.976	310.5
284.207	319.5
284.439	313.5
284.67	288.5
284.901	290.5
285.132	301.5
285.364	279.5
285.595	286.5
285.826	301.5
286.057	310.5
286.288	303.5
286.52	322.5
286.751	311.5
286.982	309.5
287.213	318.5
287.444	320.5
287.675	338.5
287.906	336.5
288.138	316.5
288.369	329.5
288.6	325.5
288.831	335.5
289.062	329.5
289.293	337.5
289.524	332.5
289.755	325.5
289.986	333.5
290.217	315.5
290.448	318.5
290.679	320.5
290.91	313.5
291.141	322.5
291.371	316.5
291.602	317.5
291.833	336.5
292.064	331.5
292.295	336.5
292.526	322.5
292.757	314.5
292.987	350.5
293.218	332.5
293.449	325.5
293.68	339.5
293.91	344.5
294.141	350.5
294.372	319.5
294.603	321.5
294.833	321.5
295.064	342.5
295.295	353.5
295.525	354.5
295.756	369.5
295.987	401.5
296.217	430.5
296.448	374.5
296.679	370.5
296.909	358.5
297.14	359.5
297.37	353.5
297.601	351.5
297.831	348.5
298.062	367.5
298.292	390.5
298.523	366.5
298.753	354.5
298.984	370.5
299.214	374.5
299.445	358.5
299.675	379.5
299.905	386.5
300.136	372.5
300.366	383.5
300.597	367.5
300.827	401.5
301.057	427.5
301.288	414.5
301.518	433.5
301.748	391.5
301.979	398.5
302.209	408.5
302.439	415.5
302.669	400.5
302.9	397.5
303.13	412.5
303.36	396.5
303.59	436.5
303.82	421.5
304.051	413.5
304.281	401.5
304.511	389.5
304.741	404.5
304.971	404.5
305.201	410.5
305.431	397.5
305.661	394.5
305.891	395.5
306.121	398.5
306.352	423.5
306.582	408.5
306.812	397.5
307.042	411.5
307.272	404.5
307.502	410.5
307.731	394.5
307.961	405.5
308.191	401.5
308.421	393.5
308.651	405.5
308.881	434.5
309.111	412.5
309.341	441.5
309.571	437.5
309.8	448.5
310.03	464.5
310.26	460.5
310.49	486.5
310.72	517.5
310.949	532.5
311.179	474.5
311.409	471.5
311.639	465.5
311.868	485.5
312.098	483.5
312.328	505.5
312.557	537.5
312.787	542.5
313.017	490.5
313.246	482.5
313.476	485.5
313.706	494.5
313.935	505.5
314.165	537.5
314.394	525.5
314.624	504.5
314.853	500.5
315.083	467.5
315.312	446.5
315.542	440.5
315.771	472.5
316.001	479.5
316.23	443.5
316.46	485.5
316.689	473.5
316.919	480.5
317.148	498.5
317.377	500.5
317.607	500.5
317.836	480.5
318.065	482.5
318.295	478.5
318.524	449.5
318.753	476.5
318.983	466.5
319.212	491.5
319.441	468.5
319.67	493.5
319.9	478.5
320.129	472.5
320.358	481.5
320.587	492.5
320.816	501.5
321.046	517.5
321.275	524.5
321.504	503.5
321.733	496.5
321.962	538.5
322.191	580.5
322.42	593.5
322.649	612.5
322.878	644.5
323.108	678.5
323.337	723.5
323.566	762.5
323.795	860.5
324.024	1152.5
324.253	1997.5
324.482	3452.5
324.71	5024.5
324.939	4460.5
325.168	1977.5
325.397	984.5
325.626	738.5
325.855	694.5
326.084	688.5
326.313	714.5
326.542	841.5
326.77	1106.5
326.999	1844.5
327.228	2972.5
327.457	3732.5
327.686	2451.5
327.914	1155.5
328.143	884.5
328.372	822.5
328.6	814.5
328.829	838.5
329.058	863.5
329.287	771.5
329.515	696.5
329.744	640.5
329.972	657.5
330.201	681.5
330.43	793.5
330.658	908.5
330.887	958.5
331.115	791.5
331.344	674.5
331.572	679.5
331.801	687.5
332.03	654.5
332.258	641.5
332.486	622.5
332.715	628.5
332.943	641.5
333.172	668.5
333.4	670.5
333.629	674.5
333.857	699.5
334.085	649.5
334.314	655.5
334.542	649.5
334.771	644.5
334.999	639.5
335.227	639.5
335.455	623.5
335.684	620.5
335.912	633.5
336.14	651.5
336.369	645.5
336.597	655.5
336.825	627.5
337.053	614.5
337.281	577.5
337.51	591.5
337.738	617.5
337.966	622.5
338.194	628.5
338.422	616.5
338.65	588.5
338.878	589.5
339.106	575.5
339.334	588.5
339.562	568.5
339.79	579.5
340.018	599.5
340.246	601.5
340.474	593.5
340.702	577.5
340.93	592.5
341.158	581.5
341.386	600.5
341.614	576.5
341.842	597.5
342.07	583.5
342.298	572.5
342.526	568.5
342.754	570.5
342.981	562.5
343.209	596.5
343.437	604.5
343.665	606.5
343.893	640.5
344.12	654.5
344.348	587.5
344.576	613.5
344.804	633.5
345.031	644.5
345.259	616.5
345.487	606.5
345.714	580.5
345.942	561.5
346.17	551.5
346.397	562.5
346.625	558.5
346.853	539.5
347.08	551.5
347.308	593.5
347.535	604.5
347.763	606.5
347.99	605.5
348.218	628.5
348.445	618.5
348.673	598.5
348.9	586.5
349.128	568.5
349.355	529.5
349.583	555.5
349.81	538.5
350.037	542.5
350.265	544.5
350.492	566.5
350.72	578.5
350.947	597.5
351.174	608.5
351.402	568.5
351.629	589.5
351.856	610.5
352.083	594.5
352.311	654.5
352.538	636.5
352.765	611.5
352.992	602.5
353.22	584.5
353.447	552.5
353.674	554.5
353.901	530.5
354.128	524.5
354.355	544.5
354.583	532.5
354.81	555.5
355.037	542.5
355.264	520.5
355.491	548.5
355.718	510.5
355.945	531.5
356.172	521.5
356.399	527.5
356.626	540.5
356.853	534.5
357.08	520.5
357.307	531.5
357.534	524.5
357.761	530.5
357.988	544.5
358.215	545.5
358.441	545.5
358.668	525.5
358.895	552.5
359.122	572.5
359.349	597.5
359.576	648.5
359.802	737.5
360.029	777.5
360.256	702.5
360.483	636.5
360.709	606.5
360.936	617.5
361.163	610.5
361.39	610.5
361.616	616.5
361.843	599.5
362.07	594.5
362.296	611.5
362.523	594.5
362.749	589.5
362.976	597.5
363.203	578.5
363.429	574.5
363.656	568.5
363.882	564.5
364.109	547.5
364.335	564.5
364.562	553.5
364.788	564.5
365.015	574.5
365.241	582.5
365.468	630.5
365.694	594.5
365.92	595.5
366.147	569.5
366.373	558.5
366.599	566.5
366.826	566.5
367.052	558.5
367.278	569.5
367.505	569.5
367.731	566.5
367.957	573.5
368.184	593.5
368.41	616.5
368.636	593.5
368.862	583.5
369.089	586.5
369.315	595.5
369.541	581.5
369.767	607.5
369.993	592.5
370.219	548.5
370.445	579.5
370.672	566.5
370.898	580.5
371.124	596.5
371.35	579.5
371.576	567.5
371.802	563.5
372.028	576.5
372.254	588.5
372.48	595.5
372.706	582.5
372.932	574.5
373.158	578.5
373.384	576.5
373.61	578.5
373.835	593.5
374.061	603.5
374.287	601.5
374.513	589.5
374.739	606.5
374.965	620.5
375.191	609.5
375.416	621.5
375.642	624.5
375.868	590.5
376.094	566.5
376.319	574.5
376.545	558.5
376.771	574.5
376.997	560.5
377.222	576.5
377.448	571.5
377.674	573.5
377.899	588.5
378.125	578.5
378.35	571.5
378.576	552.5
378.802	562.5
379.027	580.5
379.253	560.5
379.478	586.5
379.704	562.5
379.929	578.5
380.155	593.5
380.38	582.5
380.606	585.5
380.831	569.5
381.057	582.5
381.282	596.5
381.507	600.5
381.733	593.5
381.958	594.5
382.184	612.5
382.409	605.5
382.634	585.5
382.86	614.5
383.085	598.5
383.31	631.5
383.535	640.5
383.761	652.5
383.986	644.5
384.211	650.5
384.436	670.5
384.662	648.5
384.887	658.5
385.112	645.5
385.337	663.5
385.562	674.5
385.787	688.5
386.013	727.5
386.238	688.5
386.463	688.5
386.688	688.5
386.913	653.5
387.138	652.5
387.363	668.5
387.588	638.5
387.813	666.5
388.038	668.5
388.263	675.5
388.488	698.5
388.713	671.5
388.938	673.5
389.163	681.5
389.387	679.5
389.612	671.5
389.837	660.5
390.062	643.5
390.287	652.5
390.512	658.5
390.736	677.5
390.961	682.5
391.186	671.5
391.411	719.5
391.636	742.5
391.86	738.5
392.085	738.5
392.31	721.5
392.534	721.5
392.759	705.5
392.984	705.5
393.208	707.5
393.433	704.5
393.658	684.5
393.882	709.5
394.107	693.5
394.331	708.5
394.556	679.5
394.78	696.5
395.005	708.5
395.229	709.5
395.454	741.5
395.678	765.5
395.903	729.5
396.127	741.5
396.352	729.5
396.576	713.5
396.801	710.5
397.025	734.5
397.249	732.5
397.474	743.5
397.698	765.5
397.922	797.5
398.147	778.5
398.371	804.5
398.595	820.5
398.82	835.5
399.044	929.5
399.268	1025.5
399.492	1076.5
399.717	1098.5
399.941	1063.5
400.165	1018.5
400.389	928.5
400.613	903.5
400.837	864.5
401.062	850.5
401.286	828.5
401.51	815.5
401.734	838.5
401.958	850.5
402.182	910.5
402.406	922.5
402.63	919.5
402.854	896.5
403.078	897.5
403.302	883.5
403.526	944.5
403.75	902.5
403.974	926.5
404.198	923.5
404.422	941.5
404.645	904.5
404.869	916.5
405.093	932.5
405.317	953.5
405.541	960.5
405.765	916.5
405.988	956.5
406.212	1031.5
406.436	1069.5
406.66	1048.5
406.883	1018.5
407.107	1080.5
407.331	1097.5
407.555	1149.5
407.778	1079.5
408.002	1010.5
408.226	962.5
408.449	946.5
408.673	966.5
408.896	969.5
409.12	976.5
409.344	936.5
409.567	880.5
409.791	884.5
410.014	839.5
410.238	857.5
410.461	862.5
410.685	880.5
410.908	900.5
411.132	916.5
411.355	909.5
411.578	880.5
411.802	858.5
412.025	850.5
412.249	847.5
412.472	801.5
412.695	824.5
412.919	822.5
413.142	810.5
413.365	782.5
413.589	794.5
413.812	802.5
414.035	821.5
414.258	825.5
414.482	812.5
414.705	806.5
414.928	804.5
415.151	801.5
415.374	821.5
415.597	816.5
415.821	802.5
416.044	798.5
416.267	781.5
416.49	770.5
416.713	811.5
416.936	802.5
417.159	790.5
417.382	827.5
417.605	824.5
417.828	834.5
418.051	851.5
418.274	826.5
418.497	810.5
418.72	844.5
418.943	816.5
419.166	861.5
419.389	872.5
419.611	841.5
419.834	815.5
420.057	825.5
420.28	839.5
420.503	805.5
420.726	813.5
420.948	862.5
421.171	876.5
421.394	878.5
421.617	838.5
421.839	808.5
422.062	856.5
422.285	893.5
422.507	994.5
422.73	969.5
422.953	927.5
423.175	857.5
423.398	866.5
423.621	874.5
423.843	903.5
424.066	876.5
424.288	915.5
424.511	918.5
424.733	1007.5
424.956	1055.5
425.178	1010.5
425.401	992.5
425.623	977.5
425.846	850.5
426.068	841.5
426.291	840.5
426.513	846.5
426.735	879.5
426.958	967.5
427.18	1082.5
427.402	1264.5
427.625	1266.5
427.847	1004.5
428.069	863.5
428.292	822.5
428.514	777.5
428.736	761.5
428.958	758.5
429.181	730.5
429.403	763.5
429.625	806.5
429.847	846.5
430.069	876.5
430.292	797.5
430.514	735.5
430.736	755.5
430.958	755.5
431.18	722.5
431.402	732.5
431.624	721.5
431.846	743.5
432.068	728.5
432.29	726.5
432.512	743.5
432.734	732.5
432.956	730.5
433.178	749.5
433.4	762.5
433.622	753.5
433.844	768.5
434.066	752.5
434.287	769.5
434.509	779.5
434.731	814.5
434.953	810.5
435.175	820.5
435.397	867.5
435.618	870.5
435.84	926.5
436.062	1027.5
436.284	957.5
436.505	847.5
436.727	819.5
436.949	769.5
437.17	773.5
437.392	757.5
437.614	820.5
437.835	947.5
438.057	1030.5
438.278	1078.5
438.5	1047.5
438.721	1094.5
438.943	952.5
439.165	845.5
439.386	813.5
439.608	843.5
439.829	913.5
440.05	985.5
440.272	1000.5
440.493	823.5
440.715	777.5
440.936	804.5
441.158	796.5
441.379	805.5
441.6	871.5
441.822	909.5
442.043	961.5
442.264	1061.5
442.486	969.5
442.707	867.5
442.928	895.5
443.149	966.5
443.371	977.5
443.592	1075.5
443.813	1159.5
444.034	1043.5
444.255	944.5
444.476	886.5
444.698	937.5
444.919	910.5
445.14	971.5
445.361	981.5
445.582	1042.5
445.803	1209.5
446.024	1228.5
446.245	1174.5
446.466	986.5
446.687	837.5
446.908	789.5
447.129	757.5
447.35	756.5
447.571	761.5
447.792	771.5
448.013	779.5
448.234	849.5
448.455	911.5
448.675	1030.5
448.896	1063.5
449.117	908.5
449.338	1007.5
449.559	1110.5
449.779	1061.5
450	815.5
450.221	768.5
450.442	758.5
450.662	774.5
450.883	816.5
451.104	828.5
451.324	764.5
451.545	711.5
451.766	671.5
451.986	685.5
452.207	698.5
452.428	694.5
452.648	700.5
452.869	703.5
453.089	738.5
453.31	740.5
453.53	703.5
453.751	663.5
453.971	749.5
454.192	746.5
454.412	673.5
454.633	664.5
454.853	668.5
455.073	717.5
455.294	745.5
455.514	788.5
455.734	702.5
455.955	649.5
456.175	650.5
456.395	616.5
456.616	609.5
456.836	610.5
457.056	625.5
457.276	612.5
457.497	629.5
457.717	615.5
457.937	648.5
458.157	670.5
458.377	696.5
458.598	801.5
458.818	1010.5
459.038	1011.5
459.258	884.5
459.478	777.5
459.698	767.5
459.918	756.5
460.138	770.5
460.358	775.5
460.578	781.5
460.798	814.5
461.018	785.5
461.238	776.5
461.458	781.5
461.678	758.5
461.898	780.5
462.118	796.5
462.338	828.5
462.558	866.5
462.777	882.5
462.997	936.5
463.217	968.5
463.437	933.5
463.657	898.5
463.876	880.5
464.096	907.5
464.316	898.5
464.536	912.5
464.755	932.5
464.975	962.5
465.195	1188.5
465.414	1080.5
465.634	849.5
465.854	752.5
466.073	723.5
466.293	725.5
466.512	700.5
466.732	688.5
466.951	693.5
467.171	721.5
467.391	740.5
467.61	772.5
467.829	745.5
468.049	709.5
468.268	705.5
468.488	691.5
468.707	670.5
468.927	669.5
469.146	678.5
469.365	682.5
469.585	696.5
469.804	752.5
470.023	765.5
470.243	748.5
470.462	801.5
470.681	818.5
470.901	727.5
471.12	708.5
471.339	710.5
471.558	722.5
471.777	681.5
471.997	695.5
472.216	671.5
472.435	661.5
472.654	672.5
472.873	638.5
473.092	650.5
473.311	674.5
473.53	647.5
473.749	711.5
473.968	828.5
474.187	904.5
474.406	779.5
474.625	699.5
474.844	675.5
475.063	671.5
475.282	682.5
475.501	654.5
475.72	683.5
475.939	686.5
476.158	687.5
476.377	696.5
476.596	720.5
476.814	752.5
477.033	717.5
477.252	733.5
477.471	725.5
477.69	799.5
477.908	772.5
478.127	782.5
478.346	769.5
478.564	814.5
478.783	814.5
479.002	834.5
479.22	830.5
479.439	859.5
479.658	875.5
479.876	890.5
480.095	884.5
480.313	889.5
480.532	905.5
480.751	869.5
480.969	838.5
481.188	824.5
481.406	821.5
481.624	798.5
481.843	790.5
482.061	760.5
482.28	797.5
482.498	755.5
482.717	767.5
482.935	746.5
483.153	739.5
483.372	806.5
483.59	806.5
483.808	763.5
484.027	761.5
484.245	807.5
484.463	770.5
484.681	809.5
484.9	830.5
485.118	788.5
485.336	823.5
485.554	836.5
485.772	821.5
485.99	804.5
486.209	818.5
486.427	835.5
486.645	844.5
486.863	866.5
487.081	878.5
487.299	839.5
487.517	822.5
487.735	842.5
487.953	855.5
488.171	830.5
488.389	840.5
488.607	852.5
488.825	788.5
489.043	848.5
489.261	814.5
489.479	836.5
489.696	840.5
489.914	819.5
490.132	869.5
490.35	899.5
490.568	879.5
490.786	880.5
491.003	919.5
491.221	951.5
491.439	966.5
491.657	976.5
491.874	968.5
492.092	977.5
492.31	947.5
492.527	969.5
492.745	997.5
492.963	968.5
493.18	990.5
493.398	1014.5
493.615	1031.5
493.833	999.5
494.05	960.5
494.268	958.5
494.485	998.5
494.703	972.5
494.92	967.5
495.138	1018.5
495.355	985.5
495.573	1000.5
495.79	980.5
496.008	976.5
496.225	963.5
496.442	973.5
496.66	1021.5
496.877	1016.5
497.094	994.5
497.312	1002.5
497.529	1041.5
497.746	1046.5
497.963	1066.5
498.181	1128.5
498.398	1162.5
498.615	1207.5
498.832	1243.5
499.049	1272.5
499.267	1367.5
499.484	1447.5
499.701	1554.5
499.918	1655.5
500.135	1798.5
500.352	1913.5
500.569	1931.5
500.786	1826.5
501.003	1778.5
501.22	1677.5
501.437	1582.5
501.654	1491.5
501.871	1450.5
502.088	1330.5
502.305	1237.5
502.522	1204.5
502.739	1144.5
502.956	1066.5
503.172	1070.5
503.389	1065.5
503.606	1083.5
503.823	1064.5
504.04	1023.5
504.256	995.5
504.473	1058.5
504.69	1044.5
504.907	1002.5
505.123	963.5
505.34	959.5
505.557	937.5
505.773	921.5
505.99	929.5
506.207	935.5
506.423	884.5
506.64	905.5
506.856	894.5
507.073	882.5
507.289	892.5
507.506	883.5
507.722	934.5
507.939	936.5
508.155	862.5
508.372	849.5
508.588	844.5
508.805	826.5
509.021	880.5
509.238	914.5
509.454	848.5
509.67	820.5
509.887	841.5
510.103	870.5
510.319	967.5
510.536	1759.5
510.752	2854.5
510.968	1240.5
511.184	852.5
511.401	818.5
511.617	809.5
511.833	797.5
512.049	793.5
512.265	783.5
512.481	789.5
512.698	798.5
512.914	780.5
513.13	800.5
513.346	772.5
513.562	788.5
513.778	827.5
513.994	850.5
514.21	887.5
514.426	963.5
514.642	1041.5
514.858	1103.5
515.074	1319.5
515.29	2228.5
515.506	3257.5
515.721	1609.5
515.937	1098.5
516.153	980.5
516.369	949.5
516.585	890.5
516.801	899.5
517.016	897.5
517.232	932.5
517.448	940.5
517.664	943.5
517.879	970.5
518.095	941.5
518.311	926.5
518.527	901.5
518.742	877.5
518.958	900.5
519.173	849.5
