Data from TestCu_HRD10591_00066.txt Node
Date: Thu Oct 05 14:05:46 EDT 2023
User: Yrep
Spectrometer: HR+D1059
Trigger mode: 1
Integration Time (sec): 1.000000E-1
Scans to average: 1
Electric dark correction enabled: true
Nonlinearity correction enabled: false
Boxcar width: 0
XAxis mode: Wavelengths
Number of Pixels in Spectrum: 2048
>>>>>Begin Spectral Data<<<<<
223.165	-28.12
223.4	-28.12
223.635	-28.12
223.869	-22.12
224.104	-22.12
224.338	-8.12
224.573	-13.12
224.808	-11.12
225.042	-0.12
225.277	-4.12
225.511	-17.12
225.746	-0.12
225.98	18.88
226.215	9.88
226.449	12.88
226.683	10.88
226.918	30.88
227.152	42.88
227.387	42.88
227.621	40.88
227.856	46.88
228.09	42.88
228.324	57.88
228.559	67.88
228.793	80.88
229.027	110.88
229.262	122.88
229.496	132.88
229.73	181.88
229.964	160.88
230.199	120.88
230.433	109.88
230.667	114.88
230.901	114.88
231.136	105.88
231.37	111.88
231.604	103.88
231.838	104.88
232.072	103.88
232.306	110.88
232.541	108.88
232.775	103.88
233.009	118.88
233.243	111.88
233.477	115.88
233.711	126.88
233.945	115.88
234.179	128.88
234.413	127.88
234.647	104.88
234.881	110.88
235.115	118.88
235.349	120.88
235.583	115.88
235.817	109.88
236.051	119.88
236.285	129.88
236.519	121.88
236.753	147.88
236.987	175.88
237.221	237.88
237.455	216.88
237.689	148.88
237.922	124.88
238.156	132.88
238.39	131.88
238.624	111.88
238.858	122.88
239.091	118.88
239.325	127.88
239.559	125.88
239.793	134.88
240.027	158.88
240.26	135.88
240.494	162.88
240.728	138.88
240.961	141.88
241.195	132.88
241.429	135.88
241.662	145.88
241.896	137.88
242.13	125.88
242.363	116.88
242.597	127.88
242.83	138.88
243.064	120.88
243.298	138.88
243.531	131.88
243.765	147.88
243.998	142.88
244.232	147.88
244.465	146.88
244.699	143.88
244.932	148.88
245.166	137.88
245.399	137.88
245.633	141.88
245.866	152.88
246.099	133.88
246.333	144.88
246.566	147.88
246.8	141.88
247.033	139.88
247.266	151.88
247.5	154.88
247.733	155.88
247.966	155.88
248.2	156.88
248.433	170.88
248.666	183.88
248.899	201.88
249.133	200.88
249.366	203.88
249.599	194.88
249.832	170.88
250.066	151.88
250.299	170.88
250.532	196.88
250.765	195.88
250.998	201.88
251.231	207.88
251.465	184.88
251.698	173.88
251.931	186.88
252.164	170.88
252.397	175.88
252.63	183.88
252.863	191.88
253.096	193.88
253.329	206.88
253.562	212.88
253.795	193.88
254.028	188.88
254.261	200.88
254.494	242.88
254.727	242.88
254.96	253.88
255.193	205.88
255.426	202.88
255.659	183.88
255.892	193.88
256.124	199.88
256.357	194.88
256.59	180.88
256.823	185.88
257.056	180.88
257.289	183.88
257.521	203.88
257.754	183.88
257.987	197.88
258.22	202.88
258.452	198.88
258.685	185.88
258.918	193.88
259.151	210.88
259.383	195.88
259.616	198.88
259.849	226.88
260.081	236.88
260.314	264.88
260.547	243.88
260.779	220.88
261.012	217.88
261.244	195.88
261.477	219.88
261.71	231.88
261.942	267.88
262.175	276.88
262.407	230.88
262.64	220.88
262.872	208.88
263.105	209.88
263.337	216.88
263.57	201.88
263.802	211.88
264.035	203.88
264.267	220.88
264.499	200.88
264.732	215.88
264.964	189.88
265.197	224.88
265.429	210.88
265.661	190.88
265.894	207.88
266.126	224.88
266.358	213.88
266.591	203.88
266.823	216.88
267.055	230.88
267.287	223.88
267.52	238.88
267.752	228.88
267.984	221.88
268.216	234.88
268.448	240.88
268.681	255.88
268.913	289.88
269.145	272.88
269.377	258.88
269.609	241.88
269.841	269.88
270.073	292.88
270.306	330.88
270.538	298.88
270.77	268.88
271.002	284.88
271.234	299.88
271.466	315.88
271.698	321.88
271.93	294.88
272.162	309.88
272.394	284.88
272.626	261.88
272.858	250.88
273.09	261.88
273.322	246.88
273.553	236.88
273.785	257.88
274.017	264.88
274.249	264.88
274.481	260.88
274.713	263.88
274.945	277.88
275.176	259.88
275.408	267.88
275.64	274.88
275.872	278.88
276.104	278.88
276.335	300.88
276.567	298.88
276.799	341.88
277.031	343.88
277.262	331.88
277.494	307.88
277.726	294.88
277.957	290.88
278.189	264.88
278.421	278.88
278.652	271.88
278.884	263.88
279.115	272.88
279.347	272.88
279.579	275.88
279.81	291.88
280.042	287.88
280.273	280.88
280.505	278.88
280.736	273.88
280.968	282.88
281.199	274.88
281.431	276.88
281.662	291.88
281.894	298.88
282.125	321.88
282.356	368.88
282.588	364.88
282.819	329.88
283.051	309.88
283.282	282.88
283.513	315.88
283.745	310.88
283.976	297.88
284.207	302.88
284.439	298.88
284.67	298.88
284.901	305.88
285.132	291.88
285.364	284.88
285.595	293.88
285.826	303.88
286.057	295.88
286.288	295.88
286.52	294.88
286.751	291.88
286.982	312.88
287.213	328.88
287.444	315.88
287.675	313.88
287.906	333.88
288.138	339.88
288.369	330.88
288.6	337.88
288.831	324.88
289.062	321.88
289.293	323.88
289.524	328.88
289.755	321.88
289.986	312.88
290.217	314.88
290.448	311.88
290.679	311.88
290.91	321.88
291.141	324.88
291.371	310.88
291.602	295.88
291.833	307.88
292.064	334.88
292.295	332.88
292.526	320.88
292.757	327.88
292.987	330.88
293.218	334.88
293.449	318.88
293.68	350.88
293.91	330.88
294.141	330.88
294.372	327.88
294.603	331.88
294.833	342.88
295.064	333.88
295.295	328.88
295.525	330.88
295.756	371.88
295.987	394.88
296.217	405.88
296.448	387.88
296.679	342.88
296.909	340.88
297.14	343.88
297.37	371.88
297.601	370.88
297.831	365.88
298.062	371.88
298.292	380.88
298.523	355.88
298.753	374.88
298.984	361.88
299.214	385.88
299.445	355.88
299.675	396.88
299.905	394.88
300.136	374.88
300.366	364.88
300.597	369.88
300.827	392.88
301.057	396.88
301.288	407.88
301.518	390.88
301.748	387.88
301.979	402.88
302.209	397.88
302.439	407.88
302.669	405.88
302.9	380.88
303.13	369.88
303.36	398.88
303.59	406.88
303.82	405.88
304.051	399.88
304.281	404.88
304.511	392.88
304.741	382.88
304.971	386.88
305.201	387.88
305.431	374.88
305.661	407.88
305.891	368.88
306.121	406.88
306.352	411.88
306.582	426.88
306.812	392.88
307.042	388.88
307.272	402.88
307.502	380.88
307.731	390.88
307.961	394.88
308.191	406.88
308.421	401.88
308.651	395.88
308.881	389.88
309.111	401.88
309.341	434.88
309.571	425.88
309.8	456.88
310.03	492.88
310.26	476.88
310.49	460.88
310.72	512.88
310.949	500.88
311.179	490.88
311.409	460.88
311.639	460.88
311.868	468.88
312.098	471.88
312.328	515.88
312.557	522.88
312.787	530.88
313.017	500.88
313.246	475.88
313.476	475.88
313.706	477.88
313.935	503.88
314.165	524.88
314.394	519.88
314.624	491.88
314.853	475.88
315.083	470.88
315.312	450.88
315.542	440.88
315.771	466.88
316.001	459.88
316.23	461.88
316.46	486.88
316.689	456.88
316.919	504.88
317.148	483.88
317.377	480.88
317.607	480.88
317.836	477.88
318.065	462.88
318.295	463.88
318.524	456.88
318.753	452.88
318.983	458.88
319.212	466.88
319.441	477.88
319.67	472.88
319.9	472.88
320.129	466.88
320.358	460.88
320.587	493.88
320.816	495.88
321.046	501.88
321.275	510.88
321.504	487.88
321.733	528.88
321.962	542.88
322.191	573.88
322.42	574.88
322.649	594.88
322.878	630.88
323.108	631.88
323.337	687.88
323.566	756.88
323.795	867.88
324.024	1138.88
324.253	1973.88
324.482	3379.88
324.71	5060.88
324.939	4440.88
325.168	1952.88
325.397	948.88
325.626	694.88
325.855	659.88
326.084	648.88
326.313	699.88
326.542	806.88
326.77	1094.88
326.999	1821.88
327.228	2915.88
327.457	3749.88
327.686	2444.88
327.914	1141.88
328.143	903.88
328.372	813.88
328.6	779.88
328.829	799.88
329.058	836.88
329.287	779.88
329.515	684.88
329.744	616.88
329.972	631.88
330.201	683.88
330.43	779.88
330.658	930.88
330.887	935.88
331.115	779.88
331.344	702.88
331.572	694.88
331.801	700.88
332.03	657.88
332.258	628.88
332.486	608.88
332.715	622.88
332.943	647.88
333.172	652.88
333.4	671.88
333.629	662.88
333.857	689.88
334.085	642.88
334.314	643.88
334.542	636.88
334.771	651.88
334.999	663.88
335.227	654.88
335.455	636.88
335.684	614.88
335.912	600.88
336.14	613.88
336.369	639.88
336.597	647.88
336.825	622.88
337.053	602.88
337.281	599.88
337.51	595.88
337.738	620.88
337.966	596.88
338.194	628.88
338.422	593.88
338.65	543.88
338.878	572.88
339.106	555.88
339.334	568.88
339.562	569.88
339.79	575.88
340.018	572.88
340.246	580.88
340.474	591.88
340.702	593.88
340.93	569.88
341.158	581.88
341.386	591.88
341.614	587.88
341.842	555.88
342.07	576.88
342.298	570.88
342.526	564.88
342.754	555.88
342.981	565.88
343.209	572.88
343.437	620.88
343.665	611.88
343.893	651.88
344.12	621.88
344.348	626.88
344.576	627.88
344.804	635.88
345.031	655.88
345.259	632.88
345.487	605.88
345.714	580.88
345.942	544.88
346.17	536.88
346.397	562.88
346.625	569.88
346.853	567.88
347.08	586.88
347.308	583.88
347.535	593.88
347.763	599.88
347.99	591.88
348.218	609.88
348.445	620.88
348.673	580.88
348.9	552.88
349.128	548.88
349.355	529.88
349.583	541.88
349.81	511.88
350.037	524.88
350.265	512.88
350.492	538.88
350.72	549.88
350.947	583.88
351.174	618.88
351.402	610.88
351.629	594.88
351.856	611.88
352.083	607.88
352.311	631.88
352.538	613.88
352.765	601.88
352.992	600.88
353.22	568.88
353.447	542.88
353.674	527.88
353.901	524.88
354.128	517.88
354.355	519.88
354.583	513.88
354.81	539.88
355.037	523.88
355.264	530.88
355.491	527.88
355.718	524.88
355.945	507.88
356.172	511.88
356.399	526.88
356.626	517.88
356.853	515.88
357.08	516.88
357.307	544.88
357.534	513.88
357.761	524.88
357.988	521.88
358.215	514.88
358.441	540.88
358.668	542.88
358.895	538.88
359.122	562.88
359.349	605.88
359.576	644.88
359.802	694.88
360.029	765.88
360.256	700.88
360.483	622.88
360.709	588.88
360.936	580.88
361.163	579.88
361.39	610.88
361.616	575.88
361.843	603.88
362.07	598.88
362.296	640.88
362.523	594.88
362.749	578.88
362.976	566.88
363.203	562.88
363.429	552.88
363.656	584.88
363.882	576.88
364.109	536.88
364.335	562.88
364.562	561.88
364.788	549.88
365.015	549.88
365.241	582.88
365.468	589.88
365.694	614.88
365.92	587.88
366.147	580.88
366.373	556.88
366.599	558.88
366.826	561.88
367.052	521.88
367.278	585.88
367.505	564.88
367.731	557.88
367.957	547.88
368.184	568.88
368.41	597.88
368.636	600.88
368.862	592.88
369.089	552.88
369.315	572.88
369.541	571.88
369.767	569.88
369.993	588.88
370.219	575.88
370.445	576.88
370.672	544.88
370.898	559.88
371.124	551.88
371.35	569.88
371.576	584.88
371.802	561.88
372.028	554.88
372.254	550.88
372.48	588.88
372.706	594.88
372.932	578.88
373.158	561.88
373.384	572.88
373.61	583.88
373.835	584.88
374.061	574.88
374.287	588.88
374.513	613.88
374.739	599.88
374.965	610.88
375.191	599.88
375.416	604.88
375.642	598.88
375.868	586.88
376.094	583.88
376.319	584.88
376.545	542.88
376.771	572.88
376.997	575.88
377.222	571.88
377.448	567.88
377.674	561.88
377.899	574.88
378.125	564.88
378.35	561.88
378.576	569.88
378.802	558.88
379.027	562.88
379.253	591.88
379.478	560.88
379.704	560.88
379.929	569.88
380.155	579.88
380.38	599.88
380.606	588.88
380.831	578.88
381.057	552.88
381.282	586.88
381.507	585.88
381.733	590.88
381.958	556.88
382.184	603.88
382.409	599.88
382.634	622.88
382.86	581.88
383.085	619.88
383.31	593.88
383.535	623.88
383.761	644.88
383.986	640.88
384.211	631.88
384.436	656.88
384.662	674.88
384.887	634.88
385.112	647.88
385.337	677.88
385.562	685.88
385.787	685.88
386.013	697.88
386.238	674.88
386.463	683.88
386.688	692.88
386.913	663.88
387.138	642.88
387.363	635.88
387.588	667.88
387.813	658.88
388.038	671.88
388.263	682.88
388.488	676.88
388.713	680.88
388.938	649.88
389.163	683.88
389.387	661.88
389.612	652.88
389.837	644.88
390.062	638.88
390.287	659.88
390.512	647.88
390.736	661.88
390.961	682.88
391.186	674.88
391.411	703.88
391.636	714.88
391.86	725.88
392.085	730.88
392.31	703.88
392.534	710.88
392.759	689.88
392.984	686.88
393.208	668.88
393.433	695.88
393.658	680.88
393.882	684.88
394.107	701.88
394.331	709.88
394.556	704.88
394.78	703.88
395.005	702.88
395.229	715.88
395.454	745.88
395.678	732.88
395.903	730.88
396.127	747.88
396.352	719.88
396.576	707.88
396.801	707.88
397.025	731.88
397.249	753.88
397.474	762.88
397.698	796.88
397.922	772.88
398.147	766.88
398.371	795.88
398.595	787.88
398.82	816.88
399.044	910.88
399.268	954.88
399.492	1101.88
399.717	1116.88
399.941	1060.88
400.165	1002.88
400.389	929.88
400.613	882.88
400.837	832.88
401.062	815.88
401.286	815.88
401.51	807.88
401.734	827.88
401.958	861.88
402.182	895.88
402.406	901.88
402.63	891.88
402.854	870.88
403.078	882.88
403.302	897.88
403.526	906.88
403.75	901.88
403.974	911.88
404.198	909.88
404.422	922.88
404.645	888.88
404.869	916.88
405.093	937.88
405.317	964.88
405.541	933.88
405.765	937.88
405.988	946.88
406.212	1028.88
406.436	1093.88
406.66	1034.88
406.883	1012.88
407.107	1048.88
407.331	1090.88
407.555	1140.88
407.778	1084.88
408.002	986.88
408.226	937.88
408.449	927.88
408.673	949.88
408.896	945.88
409.12	973.88
409.344	884.88
409.567	848.88
409.791	839.88
410.014	864.88
410.238	832.88
410.461	842.88
410.685	888.88
410.908	888.88
411.132	915.88
411.355	887.88
411.578	841.88
411.802	839.88
412.025	846.88
412.249	818.88
412.472	844.88
412.695	818.88
412.919	794.88
413.142	808.88
413.365	807.88
413.589	804.88
413.812	805.88
414.035	790.88
414.258	791.88
414.482	778.88
414.705	764.88
414.928	776.88
415.151	771.88
415.374	765.88
415.597	796.88
415.821	779.88
416.044	754.88
416.267	785.88
416.49	776.88
416.713	738.88
416.936	778.88
417.159	807.88
417.382	794.88
417.605	797.88
417.828	830.88
418.051	820.88
418.274	796.88
418.497	817.88
418.72	820.88
418.943	775.88
419.166	816.88
419.389	854.88
419.611	830.88
419.834	834.88
420.057	839.88
420.28	795.88
420.503	781.88
420.726	812.88
420.948	830.88
421.171	871.88
421.394	842.88
421.617	836.88
421.839	796.88
422.062	820.88
422.285	872.88
422.507	934.88
422.73	989.88
422.953	885.88
423.175	843.88
423.398	854.88
423.621	895.88
423.843	917.88
424.066	903.88
424.288	910.88
424.511	946.88
424.733	1001.88
424.956	1019.88
425.178	993.88
425.401	991.88
425.623	918.88
425.846	860.88
426.068	846.88
426.291	830.88
426.513	785.88
426.735	855.88
426.958	940.88
427.18	1091.88
427.402	1267.88
427.625	1295.88
427.847	1000.88
428.069	841.88
428.292	800.88
428.514	764.88
428.736	744.88
428.958	753.88
429.181	724.88
429.403	752.88
429.625	787.88
429.847	806.88
430.069	868.88
430.292	796.88
430.514	756.88
430.736	747.88
430.958	728.88
431.18	730.88
431.402	736.88
431.624	723.88
431.846	707.88
432.068	717.88
432.29	739.88
432.512	715.88
432.734	745.88
432.956	741.88
433.178	772.88
433.4	748.88
433.622	731.88
433.844	748.88
434.066	764.88
434.287	752.88
434.509	790.88
434.731	794.88
434.953	808.88
435.175	813.88
435.397	806.88
435.618	862.88
435.84	970.88
436.062	1039.88
436.284	967.88
436.505	851.88
436.727	813.88
436.949	790.88
437.17	750.88
437.392	733.88
437.614	824.88
437.835	926.88
438.057	1042.88
438.278	1072.88
438.5	1080.88
438.721	1119.88
438.943	958.88
439.165	819.88
439.386	806.88
439.608	823.88
439.829	908.88
440.05	942.88
440.272	985.88
440.493	855.88
440.715	772.88
440.936	774.88
441.158	785.88
441.379	779.88
441.6	851.88
441.822	891.88
442.043	943.88
442.264	1044.88
442.486	979.88
442.707	886.88
442.928	902.88
443.149	942.88
443.371	986.88
443.592	1063.88
443.813	1122.88
444.034	1044.88
444.255	941.88
444.476	903.88
444.698	899.88
444.919	938.88
445.14	929.88
445.361	960.88
445.582	1039.88
445.803	1183.88
446.024	1220.88
446.245	1170.88
446.466	962.88
446.687	823.88
446.908	771.88
447.129	750.88
447.35	738.88
447.571	751.88
447.792	735.88
448.013	759.88
448.234	832.88
448.455	949.88
448.675	1074.88
448.896	1034.88
449.117	886.88
449.338	971.88
449.559	1105.88
449.779	1038.88
450	823.88
450.221	722.88
450.442	724.88
450.662	752.88
450.883	810.88
451.104	815.88
451.324	765.88
451.545	702.88
451.766	698.88
451.986	673.88
452.207	662.88
452.428	668.88
452.648	688.88
452.869	689.88
453.089	711.88
453.31	735.88
453.53	659.88
453.751	682.88
453.971	708.88
454.192	748.88
454.412	676.88
454.633	668.88
454.853	667.88
455.073	687.88
455.294	732.88
455.514	784.88
455.734	688.88
455.955	646.88
456.175	626.88
456.395	623.88
456.616	606.88
456.836	602.88
457.056	595.88
457.276	566.88
457.497	616.88
457.717	591.88
457.937	622.88
458.157	631.88
458.377	698.88
458.598	818.88
458.818	1002.88
459.038	999.88
459.258	883.88
459.478	771.88
459.698	760.88
459.918	742.88
460.138	754.88
460.358	769.88
460.578	777.88
460.798	822.88
461.018	772.88
461.238	795.88
461.458	810.88
461.678	782.88
461.898	770.88
462.118	795.88
462.338	816.88
462.558	856.88
462.777	867.88
462.997	916.88
463.217	935.88
463.437	915.88
463.657	882.88
463.876	874.88
464.096	906.88
464.316	884.88
464.536	892.88
464.755	904.88
464.975	948.88
465.195	1142.88
465.414	1071.88
465.634	818.88
465.854	769.88
466.073	722.88
466.293	717.88
466.512	678.88
466.732	695.88
466.951	673.88
467.171	730.88
467.391	735.88
467.61	755.88
467.829	709.88
468.049	686.88
468.268	677.88
468.488	666.88
468.707	661.88
468.927	653.88
469.146	656.88
469.365	679.88
469.585	674.88
469.804	711.88
470.023	768.88
470.243	756.88
470.462	781.88
470.681	791.88
470.901	736.88
471.12	701.88
471.339	722.88
471.558	694.88
471.777	660.88
471.997	648.88
472.216	653.88
472.435	659.88
472.654	637.88
472.873	664.88
473.092	626.88
473.311	644.88
473.53	646.88
473.749	710.88
473.968	815.88
474.187	878.88
474.406	822.88
474.625	699.88
474.844	669.88
475.063	653.88
475.282	640.88
475.501	684.88
475.72	675.88
475.939	668.88
476.158	669.88
476.377	682.88
476.596	677.88
476.814	719.88
477.033	720.88
477.252	703.88
477.471	733.88
477.69	726.88
477.908	751.88
478.127	768.88
478.346	764.88
478.564	786.88
478.783	794.88
479.002	813.88
479.22	821.88
479.439	848.88
479.658	867.88
479.876	855.88
480.095	882.88
480.313	911.88
480.532	848.88
480.751	839.88
480.969	832.88
481.188	806.88
481.406	805.88
481.624	760.88
481.843	767.88
482.061	741.88
482.28	779.88
482.498	747.88
482.717	745.88
482.935	744.88
483.153	772.88
483.372	765.88
483.59	778.88
483.808	775.88
484.027	755.88
484.245	771.88
484.463	807.88
484.681	795.88
484.9	786.88
485.118	800.88
485.336	787.88
485.554	814.88
485.772	805.88
485.99	819.88
486.209	817.88
486.427	823.88
486.645	877.88
486.863	889.88
487.081	843.88
487.299	842.88
487.517	816.88
487.735	803.88
487.953	845.88
488.171	836.88
488.389	807.88
488.607	839.88
488.825	798.88
489.043	778.88
489.261	833.88
489.479	838.88
489.696	811.88
489.914	830.88
490.132	832.88
490.35	875.88
490.568	879.88
490.786	886.88
491.003	913.88
491.221	933.88
491.439	941.88
491.657	972.88
491.874	984.88
492.092	955.88
492.31	946.88
492.527	962.88
492.745	964.88
492.963	963.88
493.18	969.88
493.398	987.88
493.615	1007.88
493.833	994.88
494.05	1000.88
494.268	950.88
494.485	963.88
494.703	963.88
494.92	964.88
495.138	939.88
495.355	975.88
495.573	1013.88
495.79	989.88
496.008	973.88
496.225	975.88
496.442	944.88
496.66	998.88
496.877	1013.88
497.094	1006.88
497.312	1008.88
497.529	1030.88
497.746	1034.88
497.963	1063.88
498.181	1098.88
498.398	1125.88
498.615	1167.88
498.832	1219.88
499.049	1295.88
499.267	1363.88
499.484	1410.88
499.701	1548.88
499.918	1661.88
500.135	1826.88
500.352	1882.88
500.569	1877.88
500.786	1846.88
501.003	1739.88
501.22	1646.88
501.437	1539.88
501.654	1470.88
