Data from TestCu_HRD10591_00071.txt Node
Date: Thu Oct 05 14:05:51 EDT 2023
User: Yrep
Spectrometer: HR+D1059
Trigger mode: 1
Integration Time (sec): 1.000000E-1
Scans to average: 1
Electric dark correction enabled: true
Nonlinearity correction enabled: false
Boxcar width: 0
XAxis mode: Wavelengths
Number of Pixels in Spectrum: 2048
>>>>>Begin Spectral Data<<<<<
223.165	-12.44
223.4	-12.44
223.635	-12.44
223.869	-5.44
224.104	-21.44
224.338	-14.44
224.573	-15.44
224.808	-8.44
225.042	-7.44
225.277	2.56
225.511	1.56
225.746	3.56
225.98	-0.44
226.215	9.56
226.449	17.56
226.683	5.56
226.918	8.56
227.152	36.56
227.387	40.56
227.621	52.56
227.856	48.56
228.09	44.56
228.324	40.56
228.559	52.56
228.793	68.56
229.027	104.56
229.262	116.56
229.496	130.56
229.73	164.56
229.964	153.56
230.199	117.56
230.433	116.56
230.667	120.56
230.901	109.56
231.136	127.56
231.37	115.56
231.604	111.56
231.838	117.56
232.072	107.56
232.306	113.56
232.541	104.56
232.775	116.56
233.009	114.56
233.243	118.56
233.477	118.56
233.711	105.56
233.945	121.56
234.179	114.56
234.413	134.56
234.647	135.56
234.881	115.56
235.115	119.56
235.349	137.56
235.583	121.56
235.817	124.56
236.051	142.56
236.285	139.56
236.519	151.56
236.753	155.56
236.987	184.56
237.221	221.56
237.455	212.56
237.689	156.56
237.922	135.56
238.156	126.56
238.39	136.56
238.624	115.56
238.858	134.56
239.091	130.56
239.325	127.56
239.559	125.56
239.793	121.56
240.027	148.56
240.26	168.56
240.494	160.56
240.728	157.56
240.961	152.56
241.195	140.56
241.429	130.56
241.662	129.56
241.896	133.56
242.13	136.56
242.363	133.56
242.597	130.56
242.83	130.56
243.064	136.56
243.298	137.56
243.531	143.56
243.765	140.56
243.998	142.56
244.232	133.56
244.465	148.56
244.699	143.56
244.932	160.56
245.166	138.56
245.399	135.56
245.633	136.56
245.866	148.56
246.099	154.56
246.333	137.56
246.566	143.56
246.8	135.56
247.033	152.56
247.266	152.56
247.5	150.56
247.733	174.56
247.966	164.56
248.2	173.56
248.433	153.56
248.666	194.56
248.899	202.56
249.133	204.56
249.366	211.56
249.599	185.56
249.832	179.56
250.066	196.56
250.299	180.56
250.532	186.56
250.765	206.56
250.998	201.56
251.231	218.56
251.465	190.56
251.698	168.56
251.931	175.56
252.164	186.56
252.397	184.56
252.63	181.56
252.863	208.56
253.096	219.56
253.329	226.56
253.562	201.56
253.795	194.56
254.028	195.56
254.261	220.56
254.494	248.56
254.727	282.56
254.96	260.56
255.193	223.56
255.426	210.56
255.659	186.56
255.892	190.56
256.124	202.56
256.357	185.56
256.59	207.56
256.823	188.56
257.056	200.56
257.289	205.56
257.521	201.56
257.754	221.56
257.987	194.56
258.22	201.56
258.452	207.56
258.685	214.56
258.918	196.56
259.151	200.56
259.383	233.56
259.616	224.56
259.849	237.56
260.081	249.56
260.314	253.56
260.547	227.56
260.779	224.56
261.012	220.56
261.244	203.56
261.477	228.56
261.71	218.56
261.942	255.56
262.175	264.56
262.407	220.56
262.64	225.56
262.872	209.56
263.105	209.56
263.337	222.56
263.57	224.56
263.802	233.56
264.035	221.56
264.267	228.56
264.499	224.56
264.732	204.56
264.964	222.56
265.197	220.56
265.429	225.56
265.661	231.56
265.894	214.56
266.126	222.56
266.358	230.56
266.591	208.56
266.823	226.56
267.055	220.56
267.287	235.56
267.52	231.56
267.752	240.56
267.984	249.56
268.216	229.56
268.448	248.56
268.681	249.56
268.913	257.56
269.145	290.56
269.377	274.56
269.609	281.56
269.841	284.56
270.073	298.56
270.306	314.56
270.538	310.56
270.77	293.56
271.002	276.56
271.234	279.56
271.466	301.56
271.698	344.56
271.93	310.56
272.162	296.56
272.394	299.56
272.626	290.56
272.858	258.56
273.09	250.56
273.322	264.56
273.553	252.56
273.785	249.56
274.017	262.56
274.249	274.56
274.481	293.56
274.713	254.56
274.945	282.56
275.176	281.56
275.408	273.56
275.64	278.56
275.872	273.56
276.104	288.56
276.335	290.56
276.567	318.56
276.799	352.56
277.031	360.56
277.262	338.56
277.494	327.56
277.726	301.56
277.957	275.56
278.189	277.56
278.421	265.56
278.652	272.56
278.884	262.56
279.115	278.56
279.347	281.56
279.579	292.56
279.81	282.56
280.042	280.56
280.273	290.56
280.505	263.56
280.736	290.56
280.968	279.56
281.199	285.56
281.431	294.56
281.662	283.56
281.894	298.56
282.125	318.56
282.356	348.56
282.588	384.56
282.819	328.56
283.051	308.56
283.282	280.56
283.513	296.56
283.745	314.56
283.976	307.56
284.207	305.56
284.439	300.56
284.67	280.56
284.901	300.56
285.132	301.56
285.364	304.56
285.595	309.56
285.826	310.56
286.057	324.56
286.288	304.56
286.52	313.56
286.751	302.56
286.982	307.56
287.213	324.56
287.444	319.56
287.675	329.56
287.906	342.56
288.138	349.56
288.369	354.56
288.6	319.56
288.831	334.56
289.062	328.56
289.293	314.56
289.524	330.56
289.755	319.56
289.986	320.56
290.217	317.56
290.448	329.56
290.679	329.56
290.91	333.56
291.141	337.56
291.371	344.56
291.602	338.56
291.833	341.56
292.064	334.56
292.295	337.56
292.526	346.56
292.757	342.56
292.987	342.56
293.218	342.56
293.449	333.56
293.68	331.56
293.91	337.56
294.141	336.56
294.372	341.56
294.603	334.56
294.833	324.56
295.064	328.56
295.295	354.56
295.525	345.56
295.756	386.56
295.987	412.56
296.217	418.56
296.448	396.56
296.679	354.56
296.909	352.56
297.14	357.56
297.37	346.56
297.601	371.56
297.831	357.56
298.062	359.56
298.292	377.56
298.523	385.56
298.753	350.56
298.984	364.56
299.214	357.56
299.445	372.56
299.675	372.56
299.905	378.56
300.136	377.56
300.366	359.56
300.597	385.56
300.827	395.56
301.057	416.56
301.288	433.56
301.518	408.56
301.748	393.56
301.979	431.56
302.209	416.56
302.439	430.56
302.669	402.56
302.9	397.56
303.13	405.56
303.36	420.56
303.59	405.56
303.82	417.56
304.051	410.56
304.281	401.56
304.511	394.56
304.741	399.56
304.971	401.56
305.201	393.56
305.431	391.56
305.661	385.56
305.891	399.56
306.121	401.56
306.352	432.56
306.582	410.56
306.812	411.56
307.042	410.56
307.272	409.56
307.502	390.56
307.731	410.56
307.961	400.56
308.191	402.56
308.421	399.56
308.651	407.56
308.881	417.56
309.111	439.56
309.341	431.56
309.571	444.56
309.8	442.56
310.03	479.56
310.26	482.56
310.49	509.56
310.72	502.56
310.949	525.56
311.179	486.56
311.409	486.56
311.639	481.56
311.868	487.56
312.098	492.56
312.328	510.56
312.557	534.56
312.787	537.56
313.017	516.56
313.246	459.56
313.476	455.56
313.706	482.56
313.935	533.56
314.165	522.56
314.394	525.56
314.624	533.56
314.853	486.56
315.083	480.56
315.312	447.56
315.542	436.56
315.771	443.56
316.001	452.56
316.23	478.56
316.46	479.56
316.689	482.56
316.919	475.56
317.148	492.56
317.377	473.56
317.607	501.56
317.836	493.56
318.065	463.56
318.295	460.56
318.524	465.56
318.753	478.56
318.983	468.56
319.212	491.56
319.441	497.56
319.67	500.56
319.9	471.56
320.129	486.56
320.358	472.56
320.587	492.56
320.816	518.56
321.046	526.56
321.275	514.56
321.504	480.56
321.733	528.56
321.962	547.56
322.191	555.56
322.42	584.56
322.649	606.56
322.878	629.56
323.108	673.56
323.337	714.56
323.566	757.56
323.795	862.56
324.024	1175.56
324.253	1985.56
324.482	3441.56
324.71	5038.56
324.939	4412.56
325.168	1934.56
325.397	944.56
325.626	712.56
325.855	656.56
326.084	680.56
326.313	722.56
326.542	811.56
326.77	1130.56
326.999	1857.56
327.228	2966.56
327.457	3754.56
327.686	2378.56
327.914	1149.56
328.143	890.56
328.372	791.56
328.6	792.56
328.829	837.56
329.058	853.56
329.287	808.56
329.515	675.56
329.744	631.56
329.972	647.56
330.201	693.56
330.43	828.56
330.658	933.56
330.887	921.56
331.115	786.56
331.344	659.56
331.572	668.56
331.801	692.56
332.03	644.56
332.258	628.56
332.486	619.56
332.715	628.56
332.943	636.56
333.172	668.56
333.4	632.56
333.629	688.56
333.857	718.56
334.085	672.56
334.314	657.56
334.542	655.56
334.771	661.56
334.999	652.56
335.227	663.56
335.455	643.56
335.684	644.56
335.912	606.56
336.14	615.56
336.369	652.56
336.597	677.56
336.825	616.56
337.053	606.56
337.281	606.56
337.51	607.56
337.738	618.56
337.966	623.56
338.194	615.56
338.422	620.56
338.65	608.56
338.878	624.56
339.106	573.56
339.334	584.56
339.562	571.56
339.79	572.56
340.018	601.56
340.246	583.56
340.474	592.56
340.702	580.56
340.93	592.56
341.158	592.56
341.386	609.56
341.614	601.56
341.842	597.56
342.07	594.56
342.298	565.56
342.526	572.56
342.754	547.56
342.981	540.56
343.209	599.56
343.437	608.56
343.665	630.56
343.893	634.56
344.12	633.56
344.348	623.56
344.576	608.56
344.804	641.56
345.031	641.56
345.259	654.56
345.487	604.56
345.714	588.56
345.942	592.56
346.17	554.56
346.397	567.56
346.625	570.56
346.853	572.56
347.08	564.56
347.308	593.56
347.535	608.56
347.763	590.56
347.99	602.56
348.218	621.56
348.445	631.56
348.673	595.56
348.9	565.56
349.128	548.56
349.355	521.56
349.583	537.56
349.81	558.56
350.037	532.56
350.265	527.56
350.492	564.56
350.72	546.56
350.947	588.56
351.174	587.56
351.402	596.56
351.629	581.56
351.856	613.56
352.083	626.56
352.311	642.56
352.538	625.56
352.765	614.56
352.992	599.56
353.22	590.56
353.447	578.56
353.674	548.56
353.901	547.56
354.128	539.56
354.355	546.56
354.583	549.56
354.81	547.56
355.037	546.56
355.264	529.56
355.491	529.56
355.718	524.56
355.945	534.56
356.172	535.56
356.399	533.56
356.626	543.56
356.853	532.56
357.08	525.56
357.307	537.56
357.534	537.56
357.761	537.56
357.988	522.56
358.215	548.56
358.441	540.56
358.668	516.56
358.895	551.56
359.122	552.56
359.349	586.56
359.576	657.56
359.802	718.56
360.029	764.56
360.256	720.56
360.483	642.56
360.709	563.56
360.936	608.56
361.163	617.56
361.39	605.56
361.616	570.56
361.843	585.56
362.07	617.56
362.296	623.56
362.523	587.56
362.749	569.56
362.976	593.56
363.203	568.56
363.429	572.56
363.656	585.56
363.882	542.56
364.109	582.56
364.335	563.56
364.562	561.56
364.788	564.56
365.015	572.56
365.241	575.56
365.468	599.56
365.694	598.56
365.92	570.56
366.147	551.56
366.373	574.56
366.599	560.56
366.826	555.56
367.052	567.56
367.278	563.56
367.505	560.56
367.731	569.56
367.957	563.56
368.184	589.56
368.41	628.56
368.636	616.56
368.862	617.56
369.089	590.56
369.315	559.56
369.541	575.56
369.767	589.56
369.993	594.56
370.219	589.56
370.445	553.56
370.672	598.56
370.898	572.56
371.124	572.56
371.35	597.56
371.576	566.56
371.802	574.56
372.028	574.56
372.254	588.56
372.48	576.56
372.706	582.56
372.932	606.56
373.158	590.56
373.384	606.56
373.61	571.56
373.835	580.56
374.061	578.56
374.287	599.56
374.513	597.56
374.739	630.56
374.965	625.56
375.191	611.56
375.416	607.56
375.642	585.56
375.868	584.56
376.094	607.56
376.319	578.56
376.545	606.56
376.771	586.56
376.997	582.56
377.222	601.56
377.448	583.56
377.674	583.56
377.899	592.56
378.125	562.56
378.35	566.56
378.576	582.56
378.802	580.56
379.027	556.56
379.253	579.56
379.478	582.56
379.704	592.56
379.929	582.56
380.155	585.56
380.38	604.56
380.606	610.56
380.831	599.56
381.057	588.56
381.282	590.56
381.507	578.56
381.733	600.56
381.958	594.56
382.184	609.56
382.409	618.56
382.634	601.56
382.86	603.56
383.085	630.56
383.31	629.56
383.535	620.56
383.761	632.56
383.986	640.56
384.211	635.56
384.436	659.56
384.662	662.56
384.887	645.56
385.112	679.56
385.337	674.56
385.562	679.56
385.787	706.56
386.013	708.56
386.238	710.56
386.463	695.56
386.688	678.56
386.913	677.56
387.138	646.56
387.363	665.56
387.588	699.56
387.813	685.56
388.038	687.56
388.263	693.56
388.488	685.56
388.713	686.56
388.938	677.56
389.163	660.56
389.387	658.56
389.612	633.56
389.837	681.56
390.062	664.56
390.287	683.56
390.512	665.56
390.736	640.56
390.961	710.56
391.186	690.56
391.411	706.56
391.636	726.56
391.86	745.56
392.085	713.56
392.31	735.56
392.534	698.56
392.759	685.56
392.984	705.56
393.208	711.56
393.433	677.56
393.658	685.56
393.882	718.56
394.107	712.56
394.331	691.56
394.556	708.56
394.78	718.56
395.005	714.56
395.229	705.56
395.454	754.56
395.678	731.56
395.903	756.56
396.127	734.56
396.352	736.56
396.576	743.56
396.801	713.56
397.025	728.56
397.249	744.56
397.474	756.56
397.698	760.56
397.922	770.56
398.147	816.56
398.371	804.56
398.595	816.56
398.82	858.56
399.044	960.56
399.268	1031.56
399.492	1099.56
399.717	1123.56
399.941	1081.56
400.165	1040.56
400.389	958.56
400.613	866.56
400.837	850.56
401.062	865.56
401.286	842.56
401.51	840.56
401.734	839.56
401.958	880.56
402.182	899.56
402.406	938.56
402.63	904.56
402.854	911.56
403.078	900.56
403.302	929.56
403.526	902.56
403.75	903.56
403.974	914.56
404.198	916.56
404.422	928.56
404.645	931.56
404.869	912.56
405.093	944.56
405.317	935.56
405.541	970.56
405.765	920.56
405.988	962.56
406.212	1046.56
406.436	1087.56
406.66	1022.56
406.883	1037.56
407.107	1072.56
407.331	1143.56
407.555	1154.56
407.778	1072.56
408.002	1022.56
408.226	975.56
408.449	944.56
408.673	958.56
408.896	991.56
409.12	971.56
409.344	905.56
409.567	882.56
409.791	868.56
410.014	871.56
410.238	866.56
410.461	878.56
410.685	871.56
410.908	912.56
411.132	902.56
411.355	906.56
411.578	885.56
411.802	836.56
412.025	847.56
412.249	847.56
412.472	837.56
412.695	816.56
412.919	814.56
413.142	826.56
413.365	816.56
413.589	815.56
413.812	797.56
414.035	802.56
414.258	827.56
414.482	806.56
414.705	826.56
414.928	797.56
415.151	809.56
415.374	824.56
415.597	821.56
415.821	794.56
416.044	798.56
416.267	787.56
416.49	782.56
416.713	811.56
416.936	809.56
417.159	792.56
417.382	791.56
417.605	806.56
417.828	840.56
418.051	829.56
418.274	832.56
418.497	817.56
418.72	816.56
418.943	815.56
419.166	843.56
419.389	882.56
419.611	867.56
419.834	824.56
420.057	804.56
420.28	810.56
420.503	822.56
420.726	818.56
420.948	866.56
421.171	895.56
421.394	881.56
421.617	848.56
421.839	836.56
422.062	854.56
422.285	908.56
422.507	964.56
422.73	990.56
422.953	891.56
423.175	871.56
423.398	873.56
423.621	868.56
423.843	876.56
424.066	890.56
424.288	898.56
424.511	943.56
424.733	980.56
424.956	1050.56
425.178	1038.56
425.401	980.56
425.623	962.56
425.846	875.56
426.068	873.56
426.291	813.56
426.513	812.56
426.735	851.56
426.958	936.56
427.18	1095.56
427.402	1253.56
427.625	1305.56
427.847	1018.56
428.069	846.56
428.292	798.56
428.514	793.56
428.736	762.56
428.958	774.56
429.181	718.56
429.403	736.56
429.625	808.56
429.847	837.56
430.069	877.56
430.292	803.56
430.514	746.56
430.736	762.56
430.958	756.56
431.18	743.56
431.402	722.56
431.624	725.56
431.846	737.56
432.068	713.56
432.29	751.56
432.512	714.56
432.734	722.56
432.956	749.56
433.178	784.56
433.4	768.56
433.622	769.56
433.844	755.56
434.066	756.56
434.287	757.56
434.509	759.56
434.731	787.56
434.953	834.56
435.175	841.56
435.397	853.56
435.618	862.56
435.84	948.56
436.062	1037.56
436.284	958.56
436.505	838.56
436.727	830.56
436.949	776.56
437.17	766.56
437.392	770.56
437.614	829.56
437.835	944.56
438.057	1062.56
438.278	1116.56
438.5	1078.56
438.721	1127.56
438.943	982.56
439.165	832.56
439.386	840.56
439.608	845.56
439.829	888.56
440.05	975.56
440.272	994.56
440.493	826.56
440.715	799.56
440.936	782.56
441.158	810.56
441.379	828.56
441.6	885.56
441.822	926.56
442.043	978.56
442.264	1060.56
442.486	988.56
442.707	897.56
442.928	909.56
443.149	949.56
443.371	1002.56
443.592	1073.56
443.813	1104.56
444.034	1071.56
444.255	927.56
444.476	913.56
444.698	927.56
444.919	931.56
445.14	961.56
445.361	979.56
445.582	1085.56
445.803	1188.56
446.024	1245.56
446.245	1155.56
446.466	952.56
446.687	811.56
446.908	825.56
447.129	782.56
447.35	759.56
447.571	780.56
447.792	761.56
448.013	772.56
448.234	839.56
448.455	948.56
448.675	1063.56
448.896	1047.56
449.117	929.56
449.338	992.56
449.559	1146.56
449.779	1056.56
450	827.56
450.221	765.56
450.442	785.56
450.662	780.56
450.883	832.56
451.104	830.56
451.324	766.56
451.545	720.56
451.766	701.56
451.986	702.56
452.207	679.56
452.428	675.56
452.648	703.56
452.869	704.56
453.089	720.56
453.31	734.56
453.53	696.56
453.751	676.56
453.971	733.56
454.192	770.56
454.412	698.56
454.633	663.56
454.853	646.56
455.073	708.56
455.294	749.56
455.514	791.56
455.734	700.56
455.955	619.56
456.175	609.56
456.395	636.56
456.616	634.56
456.836	627.56
457.056	641.56
457.276	619.56
457.497	623.56
457.717	627.56
457.937	650.56
458.157	666.56
458.377	688.56
458.598	821.56
458.818	990.56
459.038	1030.56
459.258	884.56
459.478	798.56
459.698	758.56
459.918	766.56
460.138	772.56
460.358	782.56
460.578	803.56
460.798	808.56
461.018	805.56
461.238	783.56
461.458	784.56
461.678	783.56
461.898	804.56
462.118	846.56
462.338	864.56
462.558	880.56
462.777	915.56
462.997	917.56
463.217	970.56
463.437	948.56
463.657	905.56
463.876	878.56
464.096	907.56
464.316	909.56
464.536	930.56
464.755	912.56
464.975	977.56
465.195	1182.56
465.414	1066.56
465.634	835.56
465.854	767.56
466.073	761.56
466.293	726.56
466.512	701.56
466.732	718.56
466.951	676.56
467.171	703.56
467.391	742.56
467.61	756.56
467.829	723.56
468.049	682.56
468.268	663.56
468.488	683.56
468.707	684.56
468.927	659.56
469.146	672.56
469.365	686.56
469.585	692.56
469.804	746.56
470.023	761.56
470.243	719.56
470.462	776.56
470.681	812.56
470.901	747.56
471.12	701.56
471.339	707.56
471.558	697.56
471.777	704.56
471.997	676.56
472.216	666.56
472.435	655.56
472.654	666.56
472.873	668.56
473.092	674.56
473.311	647.56
473.53	663.56
473.749	690.56
473.968	835.56
474.187	913.56
474.406	790.56
474.625	719.56
474.844	694.56
475.063	647.56
475.282	681.56
475.501	678.56
475.72	717.56
475.939	697.56
476.158	696.56
476.377	713.56
476.596	726.56
476.814	747.56
477.033	739.56
477.252	729.56
477.471	740.56
477.69	736.56
477.908	761.56
478.127	755.56
478.346	762.56
478.564	791.56
478.783	809.56
479.002	838.56
479.22	850.56
479.439	878.56
479.658	888.56
479.876	874.56
480.095	892.56
480.313	911.56
480.532	890.56
480.751	840.56
480.969	873.56
481.188	813.56
481.406	809.56
481.624	783.56
481.843	767.56
482.061	793.56
482.28	770.56
482.498	764.56
482.717	780.56
482.935	775.56
483.153	773.56
483.372	768.56
483.59	756.56
483.808	752.56
484.027	779.56
484.245	786.56
484.463	777.56
484.681	826.56
484.9	826.56
485.118	814.56
485.336	842.56
485.554	808.56
485.772	822.56
485.99	827.56
486.209	819.56
486.427	847.56
486.645	900.56
486.863	893.56
487.081	874.56
487.299	853.56
487.517	825.56
487.735	843.56
487.953	876.56
488.171	828.56
488.389	821.56
488.607	845.56
488.825	834.56
489.043	825.56
489.261	833.56
489.479	862.56
489.696	854.56
489.914	841.56
490.132	856.56
490.35	852.56
490.568	874.56
490.786	914.56
491.003	930.56
491.221	933.56
491.439	975.56
491.657	974.56
491.874	980.56
492.092	988.56
492.31	991.56
492.527	940.56
492.745	953.56
492.963	974.56
493.18	983.56
493.398	986.56
493.615	982.56
493.833	1005.56
494.05	972.56
494.268	966.56
494.485	970.56
494.703	1001.56
494.92	978.56
495.138	983.56
495.355	990.56
495.573	970.56
495.79	973.56
496.008	1005.56
496.225	966.56
496.442	974.56
496.66	994.56
496.877	974.56
497.094	1008.56
497.312	1017.56
497.529	1032.56
497.746	1050.56
497.963	1095.56
498.181	1134.56
498.398	1165.56
498.615	1186.56
498.832	1236.56
499.049	1277.56
499.267	1361.56
499.484	1412.56
499.701	1535.56
499.918	1651.56
500.135	1799.56
500.352	1925.56
500.569	1930.56
500.786	1888.56
501.003	1751.56
501.22	1664.56
501.437	1573.56
501.654	1529.56
