Data from TestCu_HRD10591_00047.txt Node
Date: Thu Oct 05 14:05:27 EDT 2023
User: Yrep
Spectrometer: HR+D1059
Trigger mode: 1
Integration Time (sec): 1.000000E-1
Scans to average: 1
Electric dark correction enabled: true
Nonlinearity correction enabled: false
Boxcar width: 0
XAxis mode: Wavelengths
Number of Pixels in Spectrum: 2048
>>>>>Begin Spectral Data<<<<<
223.165	-26.75
223.4	-26.75
223.635	-26.75
223.869	-12.75
224.104	-16.75
224.338	-7.75
224.573	-36.75
224.808	-19.75
225.042	-14.75
225.277	-8.75
225.511	2.25
225.746	9.25
225.98	27.25
226.215	10.25
226.449	11.25
226.683	17.25
226.918	30.25
227.152	36.25
227.387	30.25
227.621	44.25
227.856	49.25
228.09	41.25
228.324	46.25
228.559	57.25
228.793	80.25
229.027	99.25
229.262	121.25
229.496	131.25
229.73	157.25
229.964	171.25
230.199	101.25
230.433	117.25
230.667	102.25
230.901	101.25
231.136	122.25
231.37	116.25
231.604	110.25
231.838	112.25
232.072	102.25
232.306	115.25
232.541	104.25
232.775	101.25
233.009	112.25
233.243	127.25
233.477	129.25
233.711	116.25
233.945	110.25
234.179	119.25
234.413	108.25
234.647	116.25
234.881	105.25
235.115	114.25
235.349	122.25
235.583	122.25
235.817	133.25
236.051	132.25
236.285	132.25
236.519	130.25
236.753	161.25
236.987	179.25
237.221	215.25
237.455	210.25
237.689	155.25
237.922	129.25
238.156	118.25
238.39	120.25
238.624	121.25
238.858	119.25
239.091	114.25
239.325	125.25
239.559	129.25
239.793	124.25
240.027	144.25
240.26	155.25
240.494	167.25
240.728	156.25
240.961	135.25
241.195	133.25
241.429	128.25
241.662	134.25
241.896	130.25
242.13	120.25
242.363	123.25
242.597	126.25
242.83	140.25
243.064	141.25
243.298	142.25
243.531	139.25
243.765	138.25
243.998	150.25
244.232	152.25
244.465	149.25
244.699	152.25
244.932	145.25
245.166	149.25
245.399	144.25
245.633	136.25
245.866	132.25
246.099	139.25
246.333	156.25
246.566	152.25
246.8	143.25
247.033	155.25
247.266	151.25
247.5	168.25
247.733	166.25
247.966	161.25
248.2	157.25
248.433	159.25
248.666	172.25
248.899	191.25
249.133	208.25
249.366	200.25
249.599	186.25
249.832	182.25
250.066	175.25
250.299	182.25
250.532	200.25
250.765	215.25
250.998	210.25
251.231	204.25
251.465	184.25
251.698	173.25
251.931	183.25
252.164	192.25
252.397	173.25
252.63	186.25
252.863	205.25
253.096	215.25
253.329	216.25
253.562	184.25
253.795	192.25
254.028	204.25
254.261	209.25
254.494	238.25
254.727	248.25
254.96	261.25
255.193	202.25
255.426	191.25
255.659	207.25
255.892	195.25
256.124	186.25
256.357	165.25
256.59	179.25
256.823	191.25
257.056	185.25
257.289	177.25
257.521	206.25
257.754	201.25
257.987	192.25
258.22	188.25
258.452	191.25
258.685	209.25
258.918	206.25
259.151	206.25
259.383	200.25
259.616	215.25
259.849	219.25
260.081	243.25
260.314	238.25
260.547	218.25
260.779	204.25
261.012	212.25
261.244	196.25
261.477	215.25
261.71	232.25
261.942	238.25
262.175	248.25
262.407	211.25
262.64	215.25
262.872	203.25
263.105	207.25
263.337	213.25
263.57	227.25
263.802	213.25
264.035	203.25
264.267	192.25
264.499	219.25
264.732	217.25
264.964	208.25
265.197	216.25
265.429	207.25
265.661	211.25
265.894	217.25
266.126	216.25
266.358	194.25
266.591	205.25
266.823	220.25
267.055	232.25
267.287	217.25
267.52	229.25
267.752	227.25
267.984	227.25
268.216	244.25
268.448	237.25
268.681	244.25
268.913	259.25
269.145	269.25
269.377	276.25
269.609	264.25
269.841	272.25
270.073	293.25
270.306	307.25
270.538	288.25
270.77	294.25
271.002	269.25
271.234	275.25
271.466	309.25
271.698	303.25
271.93	307.25
272.162	317.25
272.394	299.25
272.626	283.25
272.858	263.25
273.09	251.25
273.322	267.25
273.553	252.25
273.785	250.25
274.017	255.25
274.249	264.25
274.481	285.25
274.713	275.25
274.945	262.25
275.176	290.25
275.408	279.25
275.64	256.25
275.872	260.25
276.104	276.25
276.335	294.25
276.567	297.25
276.799	339.25
277.031	356.25
277.262	347.25
277.494	308.25
277.726	276.25
277.957	288.25
278.189	276.25
278.421	272.25
278.652	251.25
278.884	255.25
279.115	270.25
279.347	275.25
279.579	286.25
279.81	273.25
280.042	255.25
280.273	281.25
280.505	268.25
280.736	283.25
280.968	281.25
281.199	276.25
281.431	280.25
281.662	271.25
281.894	305.25
282.125	327.25
282.356	345.25
282.588	375.25
282.819	308.25
283.051	301.25
283.282	290.25
283.513	273.25
283.745	298.25
283.976	303.25
284.207	302.25
284.439	298.25
284.67	299.25
284.901	299.25
285.132	287.25
285.364	303.25
285.595	291.25
285.826	294.25
286.057	304.25
286.288	316.25
286.52	297.25
286.751	316.25
286.982	288.25
287.213	307.25
287.444	331.25
287.675	325.25
287.906	339.25
288.138	336.25
288.369	334.25
288.6	335.25
288.831	308.25
289.062	313.25
289.293	331.25
289.524	321.25
289.755	313.25
289.986	312.25
290.217	302.25
290.448	325.25
290.679	306.25
290.91	309.25
291.141	316.25
291.371	329.25
291.602	321.25
291.833	313.25
292.064	332.25
292.295	329.25
292.526	326.25
292.757	322.25
292.987	338.25
293.218	324.25
293.449	331.25
293.68	318.25
293.91	335.25
294.141	332.25
294.372	332.25
294.603	344.25
294.833	323.25
295.064	340.25
295.295	345.25
295.525	333.25
295.756	365.25
295.987	387.25
296.217	419.25
296.448	395.25
296.679	358.25
296.909	333.25
297.14	344.25
297.37	329.25
297.601	357.25
297.831	367.25
298.062	360.25
298.292	351.25
298.523	363.25
298.753	351.25
298.984	381.25
299.214	358.25
299.445	376.25
299.675	350.25
299.905	366.25
300.136	336.25
300.366	368.25
300.597	367.25
300.827	386.25
301.057	397.25
301.288	391.25
301.518	371.25
301.748	377.25
301.979	400.25
302.209	423.25
302.439	384.25
302.669	399.25
302.9	381.25
303.13	369.25
303.36	402.25
303.59	388.25
303.82	396.25
304.051	391.25
304.281	387.25
304.511	378.25
304.741	363.25
304.971	395.25
305.201	389.25
305.431	379.25
305.661	392.25
305.891	389.25
306.121	397.25
306.352	402.25
306.582	410.25
306.812	399.25
307.042	387.25
307.272	388.25
307.502	384.25
307.731	411.25
307.961	406.25
308.191	397.25
308.421	387.25
308.651	404.25
308.881	396.25
309.111	407.25
309.341	421.25
309.571	437.25
309.8	459.25
310.03	460.25
310.26	472.25
310.49	472.25
310.72	493.25
310.949	496.25
311.179	495.25
311.409	467.25
311.639	460.25
311.868	466.25
312.098	491.25
312.328	505.25
312.557	536.25
312.787	536.25
313.017	484.25
313.246	477.25
313.476	464.25
313.706	478.25
313.935	484.25
314.165	521.25
314.394	516.25
314.624	503.25
314.853	475.25
315.083	461.25
315.312	455.25
315.542	455.25
315.771	455.25
316.001	450.25
316.23	443.25
316.46	459.25
316.689	476.25
316.919	485.25
317.148	480.25
317.377	508.25
317.607	465.25
317.836	477.25
318.065	459.25
318.295	459.25
318.524	452.25
318.753	446.25
318.983	475.25
319.212	491.25
319.441	500.25
319.67	474.25
319.9	454.25
320.129	486.25
320.358	465.25
320.587	490.25
320.816	497.25
321.046	516.25
321.275	512.25
321.504	531.25
321.733	524.25
321.962	520.25
322.191	543.25
322.42	579.25
322.649	627.25
322.878	609.25
323.108	632.25
323.337	709.25
323.566	772.25
323.795	867.25
324.024	1128.25
324.253	1924.25
324.482	3350.25
324.71	4912.25
324.939	4301.25
325.168	1891.25
325.397	914.25
325.626	718.25
325.855	655.25
326.084	689.25
326.313	727.25
326.542	793.25
326.77	1070.25
326.999	1767.25
327.228	2866.25
327.457	3664.25
327.686	2379.25
327.914	1119.25
328.143	867.25
328.372	792.25
328.6	797.25
328.829	809.25
329.058	852.25
329.287	773.25
329.515	662.25
329.744	611.25
329.972	628.25
330.201	679.25
330.43	783.25
330.658	884.25
330.887	891.25
331.115	754.25
331.344	672.25
331.572	674.25
331.801	671.25
332.03	638.25
332.258	622.25
332.486	637.25
332.715	610.25
332.943	644.25
333.172	623.25
333.4	654.25
333.629	683.25
333.857	655.25
334.085	660.25
334.314	630.25
334.542	635.25
334.771	636.25
334.999	649.25
335.227	628.25
335.455	611.25
335.684	609.25
335.912	617.25
336.14	611.25
336.369	640.25
336.597	626.25
336.825	599.25
337.053	591.25
337.281	595.25
337.51	608.25
337.738	600.25
337.966	615.25
338.194	612.25
338.422	585.25
338.65	555.25
338.878	577.25
339.106	556.25
339.334	571.25
339.562	551.25
339.79	560.25
340.018	567.25
340.246	606.25
340.474	563.25
340.702	562.25
340.93	565.25
341.158	569.25
341.386	587.25
341.614	593.25
341.842	592.25
342.07	579.25
342.298	562.25
342.526	555.25
342.754	549.25
342.981	543.25
343.209	569.25
343.437	587.25
343.665	605.25
343.893	598.25
344.12	619.25
344.348	613.25
344.576	591.25
344.804	612.25
345.031	626.25
345.259	615.25
345.487	586.25
345.714	583.25
345.942	545.25
346.17	568.25
346.397	559.25
346.625	549.25
346.853	570.25
347.08	556.25
347.308	577.25
347.535	590.25
347.763	593.25
347.99	592.25
348.218	609.25
348.445	620.25
348.673	574.25
348.9	559.25
349.128	541.25
349.355	545.25
349.583	544.25
349.81	543.25
350.037	534.25
350.265	547.25
350.492	537.25
350.72	549.25
350.947	577.25
351.174	597.25
351.402	583.25
351.629	582.25
351.856	589.25
352.083	603.25
352.311	623.25
352.538	614.25
352.765	604.25
352.992	596.25
353.22	604.25
353.447	578.25
353.674	542.25
353.901	526.25
354.128	536.25
354.355	525.25
354.583	527.25
354.81	527.25
355.037	541.25
355.264	519.25
355.491	502.25
355.718	512.25
355.945	504.25
356.172	511.25
356.399	514.25
356.626	524.25
356.853	533.25
357.08	519.25
357.307	526.25
357.534	543.25
357.761	518.25
357.988	509.25
358.215	530.25
358.441	545.25
358.668	518.25
358.895	548.25
359.122	573.25
359.349	571.25
359.576	609.25
359.802	712.25
360.029	742.25
360.256	694.25
360.483	632.25
360.709	571.25
360.936	575.25
361.163	584.25
361.39	600.25
361.616	593.25
361.843	590.25
362.07	583.25
362.296	586.25
362.523	568.25
362.749	566.25
362.976	549.25
363.203	559.25
363.429	539.25
363.656	555.25
363.882	552.25
364.109	567.25
364.335	552.25
364.562	568.25
364.788	544.25
365.015	550.25
365.241	552.25
365.468	569.25
365.694	585.25
365.92	571.25
366.147	566.25
366.373	549.25
366.599	553.25
366.826	557.25
367.052	560.25
367.278	556.25
367.505	553.25
367.731	559.25
367.957	553.25
368.184	549.25
368.41	575.25
368.636	590.25
368.862	583.25
369.089	572.25
369.315	549.25
369.541	561.25
369.767	560.25
369.993	581.25
370.219	559.25
370.445	561.25
370.672	555.25
370.898	574.25
371.124	542.25
371.35	562.25
371.576	563.25
371.802	562.25
372.028	565.25
372.254	568.25
372.48	546.25
372.706	591.25
372.932	563.25
373.158	561.25
373.384	585.25
373.61	581.25
373.835	569.25
374.061	589.25
374.287	618.25
374.513	584.25
374.739	598.25
374.965	616.25
375.191	597.25
375.416	577.25
375.642	553.25
375.868	590.25
376.094	565.25
376.319	578.25
376.545	555.25
376.771	561.25
376.997	574.25
377.222	565.25
377.448	561.25
377.674	560.25
377.899	557.25
378.125	535.25
378.35	577.25
378.576	550.25
378.802	539.25
379.027	561.25
379.253	520.25
379.478	553.25
379.704	552.25
379.929	565.25
380.155	555.25
380.38	574.25
380.606	561.25
380.831	573.25
381.057	560.25
381.282	558.25
381.507	583.25
381.733	563.25
381.958	577.25
382.184	591.25
382.409	590.25
382.634	589.25
382.86	589.25
383.085	595.25
383.31	591.25
383.535	616.25
383.761	623.25
383.986	629.25
384.211	630.25
384.436	633.25
384.662	620.25
384.887	650.25
385.112	628.25
385.337	654.25
385.562	672.25
385.787	665.25
386.013	697.25
386.238	696.25
386.463	690.25
386.688	653.25
386.913	651.25
387.138	653.25
387.363	665.25
387.588	664.25
387.813	636.25
388.038	657.25
388.263	653.25
388.488	631.25
388.713	669.25
388.938	652.25
389.163	668.25
389.387	653.25
389.612	637.25
389.837	640.25
390.062	663.25
390.287	657.25
390.512	646.25
390.736	658.25
390.961	705.25
391.186	700.25
391.411	690.25
391.636	698.25
391.86	741.25
392.085	719.25
392.31	689.25
392.534	697.25
392.759	688.25
392.984	664.25
393.208	671.25
393.433	661.25
393.658	681.25
393.882	685.25
394.107	705.25
394.331	683.25
394.556	683.25
394.78	684.25
395.005	700.25
395.229	693.25
395.454	715.25
395.678	753.25
395.903	729.25
396.127	728.25
396.352	717.25
396.576	687.25
396.801	696.25
397.025	701.25
397.249	727.25
397.474	736.25
397.698	727.25
397.922	746.25
398.147	779.25
398.371	775.25
398.595	792.25
398.82	827.25
399.044	859.25
399.268	973.25
399.492	1070.25
399.717	1087.25
399.941	1036.25
400.165	997.25
400.389	927.25
400.613	869.25
400.837	863.25
401.062	833.25
401.286	820.25
401.51	798.25
401.734	815.25
401.958	855.25
402.182	886.25
402.406	877.25
402.63	879.25
402.854	889.25
403.078	884.25
403.302	865.25
403.526	893.25
403.75	897.25
403.974	868.25
404.198	883.25
404.422	904.25
404.645	883.25
404.869	888.25
405.093	894.25
405.317	927.25
405.541	925.25
405.765	920.25
405.988	914.25
406.212	1014.25
406.436	1054.25
406.66	1015.25
406.883	972.25
407.107	1037.25
407.331	1121.25
407.555	1099.25
407.778	1041.25
408.002	965.25
408.226	898.25
408.449	941.25
408.673	928.25
408.896	939.25
409.12	948.25
409.344	897.25
409.567	863.25
409.791	862.25
410.014	841.25
410.238	854.25
410.461	848.25
410.685	851.25
410.908	855.25
411.132	883.25
411.355	881.25
411.578	844.25
411.802	813.25
412.025	832.25
412.249	838.25
412.472	836.25
412.695	810.25
412.919	800.25
413.142	799.25
413.365	757.25
413.589	790.25
413.812	774.25
414.035	761.25
414.258	769.25
414.482	787.25
414.705	784.25
414.928	795.25
415.151	823.25
415.374	790.25
415.597	790.25
415.821	785.25
416.044	772.25
416.267	800.25
416.49	766.25
416.713	758.25
416.936	768.25
417.159	783.25
417.382	800.25
417.605	803.25
417.828	826.25
418.051	796.25
418.274	806.25
418.497	761.25
418.72	806.25
418.943	791.25
419.166	799.25
419.389	825.25
419.611	826.25
419.834	806.25
420.057	784.25
420.28	773.25
420.503	776.25
420.726	772.25
420.948	843.25
421.171	872.25
421.394	860.25
421.617	815.25
421.839	807.25
422.062	823.25
422.285	865.25
422.507	954.25
422.73	945.25
422.953	889.25
423.175	853.25
423.398	845.25
423.621	852.25
423.843	872.25
424.066	866.25
424.288	866.25
424.511	899.25
424.733	960.25
424.956	1025.25
425.178	981.25
425.401	995.25
425.623	927.25
425.846	838.25
426.068	818.25
426.291	793.25
426.513	822.25
426.735	839.25
426.958	945.25
427.18	1108.25
427.402	1219.25
427.625	1257.25
427.847	982.25
428.069	835.25
428.292	781.25
428.514	747.25
428.736	727.25
428.958	751.25
429.181	714.25
429.403	744.25
429.625	760.25
429.847	792.25
430.069	845.25
430.292	775.25
430.514	715.25
430.736	728.25
430.958	718.25
431.18	716.25
431.402	724.25
431.624	691.25
431.846	726.25
432.068	699.25
432.29	722.25
432.512	713.25
432.734	743.25
432.956	733.25
433.178	769.25
433.4	734.25
433.622	744.25
433.844	742.25
434.066	735.25
434.287	735.25
434.509	756.25
434.731	792.25
434.953	795.25
435.175	804.25
435.397	808.25
435.618	836.25
435.84	945.25
436.062	996.25
436.284	967.25
436.505	815.25
436.727	797.25
436.949	754.25
437.17	743.25
437.392	751.25
437.614	772.25
437.835	929.25
438.057	997.25
438.278	1057.25
438.5	1063.25
438.721	1085.25
438.943	939.25
439.165	787.25
439.386	790.25
439.608	824.25
439.829	870.25
440.05	930.25
440.272	977.25
440.493	813.25
440.715	779.25
440.936	779.25
441.158	777.25
441.379	809.25
441.6	871.25
441.822	868.25
442.043	969.25
442.264	1027.25
442.486	924.25
442.707	875.25
442.928	903.25
443.149	948.25
443.371	987.25
443.592	1039.25
443.813	1094.25
444.034	1036.25
444.255	923.25
444.476	880.25
444.698	903.25
444.919	911.25
445.14	940.25
445.361	945.25
445.582	1068.25
445.803	1168.25
446.024	1166.25
446.245	1102.25
446.466	953.25
446.687	786.25
446.908	788.25
447.129	740.25
447.35	753.25
447.571	724.25
447.792	738.25
448.013	782.25
448.234	801.25
448.455	923.25
448.675	1027.25
448.896	1038.25
449.117	907.25
449.338	957.25
449.559	1080.25
449.779	1051.25
450	802.25
450.221	742.25
450.442	723.25
450.662	751.25
450.883	800.25
451.104	822.25
451.324	760.25
451.545	716.25
451.766	679.25
451.986	646.25
452.207	667.25
452.428	691.25
452.648	697.25
452.869	694.25
453.089	718.25
453.31	708.25
453.53	679.25
453.751	693.25
453.971	685.25
454.192	734.25
454.412	670.25
454.633	647.25
454.853	652.25
455.073	641.25
455.294	732.25
455.514	759.25
455.734	686.25
455.955	598.25
456.175	630.25
456.395	609.25
456.616	607.25
456.836	588.25
457.056	591.25
457.276	591.25
457.497	642.25
457.717	610.25
457.937	615.25
458.157	659.25
458.377	672.25
458.598	798.25
458.818	1005.25
459.038	981.25
459.258	875.25
459.478	745.25
459.698	768.25
459.918	724.25
460.138	761.25
460.358	798.25
460.578	751.25
460.798	808.25
461.018	785.25
461.238	765.25
461.458	800.25
461.678	756.25
461.898	788.25
462.118	803.25
462.338	808.25
462.558	839.25
462.777	861.25
462.997	915.25
463.217	946.25
463.437	899.25
463.657	872.25
463.876	848.25
464.096	865.25
464.316	888.25
464.536	877.25
464.755	879.25
464.975	966.25
465.195	1151.25
465.414	1074.25
465.634	826.25
465.854	757.25
466.073	754.25
466.293	716.25
466.512	683.25
466.732	697.25
466.951	685.25
467.171	697.25
467.391	711.25
467.61	746.25
467.829	704.25
468.049	684.25
468.268	672.25
468.488	656.25
468.707	656.25
468.927	662.25
469.146	651.25
469.365	670.25
469.585	673.25
469.804	745.25
470.023	735.25
470.243	734.25
470.462	776.25
470.681	776.25
470.901	717.25
471.12	680.25
471.339	700.25
471.558	688.25
471.777	681.25
471.997	656.25
472.216	637.25
472.435	646.25
472.654	636.25
472.873	630.25
473.092	632.25
473.311	643.25
473.53	653.25
473.749	662.25
473.968	811.25
474.187	903.25
474.406	761.25
474.625	699.25
474.844	667.25
475.063	662.25
475.282	651.25
475.501	644.25
475.72	647.25
475.939	646.25
476.158	662.25
476.377	702.25
476.596	701.25
476.814	711.25
477.033	734.25
477.252	699.25
477.471	748.25
477.69	727.25
477.908	777.25
478.127	751.25
478.346	760.25
478.564	777.25
478.783	807.25
479.002	790.25
479.22	814.25
479.439	859.25
479.658	872.25
479.876	877.25
480.095	892.25
480.313	883.25
480.532	851.25
480.751	844.25
480.969	819.25
481.188	819.25
481.406	795.25
481.624	739.25
481.843	749.25
482.061	740.25
482.28	735.25
482.498	748.25
482.717	747.25
482.935	760.25
483.153	747.25
483.372	751.25
483.59	748.25
483.808	777.25
484.027	775.25
484.245	796.25
484.463	781.25
484.681	805.25
484.9	803.25
485.118	787.25
485.336	783.25
485.554	792.25
485.772	808.25
485.99	801.25
486.209	801.25
486.427	820.25
486.645	844.25
486.863	857.25
487.081	815.25
487.299	821.25
487.517	806.25
487.735	826.25
487.953	822.25
488.171	835.25
488.389	833.25
488.607	814.25
488.825	808.25
489.043	782.25
489.261	784.25
489.479	812.25
489.696	820.25
489.914	838.25
490.132	823.25
490.35	853.25
490.568	875.25
490.786	875.25
491.003	897.25
491.221	924.25
491.439	945.25
491.657	969.25
491.874	953.25
492.092	955.25
492.31	983.25
492.527	945.25
492.745	921.25
492.963	962.25
493.18	953.25
493.398	979.25
493.615	989.25
493.833	965.25
494.05	989.25
494.268	957.25
494.485	964.25
494.703	952.25
494.92	952.25
495.138	968.25
495.355	947.25
495.573	957.25
495.79	972.25
496.008	967.25
496.225	931.25
496.442	953.25
496.66	988.25
496.877	965.25
497.094	975.25
497.312	1024.25
497.529	1016.25
497.746	1034.25
497.963	1048.25
498.181	1078.25
498.398	1093.25
498.615	1155.25
498.832	1210.25
499.049	1263.25
499.267	1344.25
499.484	1409.25
499.701	1536.25
499.918	1623.25
500.135	1771.25
500.352	1859.25
500.569	1891.25
500.786	1840.25
501.003	1750.25
501.22	1622.25
501.437	1524.25
501.654	1427.25
501.871	1387.25
