Data from TestCu_HRD10591_00080.txt Node
Date: Thu Oct 05 14:06:00 EDT 2023
User: Yrep
Spectrometer: HR+D1059
Trigger mode: 1
Integration Time (sec): 1.000000E-1
Scans to average: 1
Electric dark correction enabled: true
Nonlinearity correction enabled: false
Boxcar width: 0
XAxis mode: Wavelengths
Number of Pixels in Spectrum: 2048
>>>>>Begin Spectral Data<<<<<
223.165	-21.31
223.4	-21.31
223.635	-21.31
223.869	-10.31
224.104	-19.31
224.338	-16.31
224.573	-21.31
224.808	-6.31
225.042	-8.31
225.277	-12.31
225.511	-9.31
225.746	-2.31
225.98	17.69
226.215	12.69
226.449	17.69
226.683	23.69
226.918	21.69
227.152	33.69
227.387	31.69
227.621	36.69
227.856	43.69
228.09	54.69
228.324	45.69
228.559	58.69
228.793	70.69
229.027	90.69
229.262	97.69
229.496	118.69
229.73	176.69
229.964	155.69
230.199	124.69
230.433	118.69
230.667	107.69
230.901	106.69
231.136	107.69
231.37	101.69
231.604	113.69
231.838	110.69
232.072	111.69
232.306	115.69
232.541	118.69
232.775	119.69
233.009	128.69
233.243	108.69
233.477	119.69
233.711	101.69
233.945	115.69
234.179	100.69
234.413	115.69
234.647	109.69
234.881	111.69
235.115	125.69
235.349	136.69
235.583	135.69
235.817	112.69
236.051	119.69
236.285	131.69
236.519	121.69
236.753	137.69
236.987	178.69
237.221	238.69
237.455	225.69
237.689	153.69
237.922	133.69
238.156	134.69
238.39	126.69
238.624	113.69
238.858	121.69
239.091	119.69
239.325	106.69
239.559	123.69
239.793	123.69
240.027	123.69
240.26	158.69
240.494	169.69
240.728	161.69
240.961	135.69
241.195	130.69
241.429	118.69
241.662	139.69
241.896	124.69
242.13	137.69
242.363	122.69
242.597	133.69
242.83	128.69
243.064	134.69
243.298	133.69
243.531	126.69
243.765	129.69
243.998	139.69
244.232	132.69
244.465	148.69
244.699	138.69
244.932	120.69
245.166	137.69
245.399	125.69
245.633	132.69
245.866	148.69
246.099	131.69
246.333	134.69
246.566	144.69
246.8	165.69
247.033	159.69
247.266	169.69
247.5	156.69
247.733	153.69
247.966	163.69
248.2	157.69
248.433	160.69
248.666	177.69
248.899	209.69
249.133	203.69
249.366	195.69
249.599	194.69
249.832	169.69
250.066	156.69
250.299	175.69
250.532	182.69
250.765	212.69
250.998	221.69
251.231	202.69
251.465	180.69
251.698	182.69
251.931	171.69
252.164	186.69
252.397	182.69
252.63	190.69
252.863	195.69
253.096	202.69
253.329	215.69
253.562	199.69
253.795	187.69
254.028	197.69
254.261	212.69
254.494	232.69
254.727	269.69
254.96	238.69
255.193	220.69
255.426	209.69
255.659	193.69
255.892	193.69
256.124	185.69
256.357	185.69
256.59	178.69
256.823	183.69
257.056	181.69
257.289	189.69
257.521	183.69
257.754	170.69
257.987	191.69
258.22	189.69
258.452	199.69
258.685	196.69
258.918	197.69
259.151	203.69
259.383	202.69
259.616	220.69
259.849	222.69
260.081	249.69
260.314	251.69
260.547	235.69
260.779	225.69
261.012	191.69
261.244	218.69
261.477	211.69
261.71	236.69
261.942	265.69
262.175	253.69
262.407	223.69
262.64	214.69
262.872	213.69
263.105	205.69
263.337	212.69
263.57	197.69
263.802	209.69
264.035	219.69
264.267	194.69
264.499	201.69
264.732	209.69
264.964	201.69
265.197	209.69
265.429	208.69
265.661	201.69
265.894	207.69
266.126	209.69
266.358	225.69
266.591	202.69
266.823	243.69
267.055	222.69
267.287	221.69
267.52	226.69
267.752	233.69
267.984	242.69
268.216	198.69
268.448	232.69
268.681	244.69
268.913	262.69
269.145	289.69
269.377	253.69
269.609	258.69
269.841	260.69
270.073	267.69
270.306	302.69
270.538	319.69
270.77	293.69
271.002	265.69
271.234	289.69
271.466	303.69
271.698	311.69
271.93	307.69
272.162	295.69
272.394	299.69
272.626	272.69
272.858	245.69
273.09	249.69
273.322	258.69
273.553	259.69
273.785	256.69
274.017	263.69
274.249	255.69
274.481	253.69
274.713	275.69
274.945	271.69
275.176	266.69
275.408	264.69
275.64	255.69
275.872	262.69
276.104	266.69
276.335	287.69
276.567	295.69
276.799	318.69
277.031	335.69
277.262	350.69
277.494	305.69
277.726	279.69
277.957	275.69
278.189	275.69
278.421	273.69
278.652	262.69
278.884	276.69
279.115	254.69
279.347	275.69
279.579	266.69
279.81	264.69
280.042	281.69
280.273	273.69
280.505	274.69
280.736	283.69
280.968	275.69
281.199	281.69
281.431	274.69
281.662	281.69
281.894	289.69
282.125	305.69
282.356	348.69
282.588	349.69
282.819	324.69
283.051	312.69
283.282	304.69
283.513	309.69
283.745	279.69
283.976	290.69
284.207	297.69
284.439	285.69
284.67	306.69
284.901	285.69
285.132	284.69
285.364	301.69
285.595	289.69
285.826	297.69
286.057	287.69
286.288	283.69
286.52	305.69
286.751	303.69
286.982	308.69
287.213	315.69
287.444	317.69
287.675	318.69
287.906	336.69
288.138	331.69
288.369	327.69
288.6	334.69
288.831	338.69
289.062	315.69
289.293	305.69
289.524	315.69
289.755	309.69
289.986	297.69
290.217	323.69
290.448	330.69
290.679	313.69
290.91	312.69
291.141	322.69
291.371	327.69
291.602	306.69
291.833	311.69
292.064	330.69
292.295	311.69
292.526	319.69
292.757	324.69
292.987	321.69
293.218	332.69
293.449	327.69
293.68	314.69
293.91	334.69
294.141	316.69
294.372	346.69
294.603	326.69
294.833	317.69
295.064	329.69
295.295	341.69
295.525	341.69
295.756	366.69
295.987	369.69
296.217	416.69
296.448	394.69
296.679	342.69
296.909	340.69
297.14	349.69
297.37	359.69
297.601	348.69
297.831	360.69
298.062	364.69
298.292	358.69
298.523	355.69
298.753	366.69
298.984	362.69
299.214	376.69
299.445	359.69
299.675	356.69
299.905	374.69
300.136	364.69
300.366	371.69
300.597	365.69
300.827	394.69
301.057	394.69
301.288	404.69
301.518	403.69
301.748	377.69
301.979	417.69
302.209	398.69
302.439	387.69
302.669	372.69
302.9	382.69
303.13	375.69
303.36	393.69
303.59	417.69
303.82	405.69
304.051	410.69
304.281	397.69
304.511	373.69
304.741	357.69
304.971	381.69
305.201	373.69
305.431	386.69
305.661	377.69
305.891	395.69
306.121	410.69
306.352	391.69
306.582	390.69
306.812	384.69
307.042	381.69
307.272	365.69
307.502	381.69
307.731	396.69
307.961	381.69
308.191	393.69
308.421	387.69
308.651	399.69
308.881	398.69
309.111	409.69
309.341	425.69
309.571	437.69
309.8	437.69
310.03	446.69
310.26	457.69
310.49	479.69
310.72	502.69
310.949	523.69
311.179	493.69
311.409	447.69
311.639	470.69
311.868	445.69
312.098	477.69
312.328	494.69
312.557	526.69
312.787	519.69
313.017	494.69
313.246	460.69
313.476	451.69
313.706	466.69
313.935	506.69
314.165	502.69
314.394	520.69
314.624	494.69
314.853	465.69
315.083	467.69
315.312	446.69
315.542	450.69
315.771	449.69
316.001	451.69
316.23	461.69
316.46	445.69
316.689	467.69
316.919	460.69
317.148	471.69
317.377	479.69
317.607	485.69
317.836	445.69
318.065	428.69
318.295	447.69
318.524	461.69
318.753	466.69
318.983	456.69
319.212	455.69
319.441	502.69
319.67	483.69
319.9	437.69
320.129	459.69
320.358	477.69
320.587	493.69
320.816	496.69
321.046	483.69
321.275	494.69
321.504	501.69
321.733	498.69
321.962	517.69
322.191	555.69
322.42	568.69
322.649	580.69
322.878	589.69
323.108	630.69
323.337	670.69
323.566	740.69
323.795	843.69
324.024	1129.69
324.253	1890.69
324.482	3359.69
324.71	4997.69
324.939	4429.69
325.168	1917.69
325.397	901.69
325.626	709.69
325.855	663.69
326.084	647.69
326.313	672.69
326.542	776.69
326.77	1067.69
326.999	1859.69
327.228	2924.69
327.457	3715.69
327.686	2399.69
327.914	1145.69
328.143	862.69
328.372	797.69
328.6	780.69
328.829	801.69
329.058	855.69
329.287	788.69
329.515	644.69
329.744	622.69
329.972	629.69
330.201	681.69
330.43	772.69
330.658	893.69
330.887	906.69
331.115	752.69
331.344	655.69
331.572	635.69
331.801	671.69
332.03	640.69
332.258	613.69
332.486	610.69
332.715	626.69
332.943	622.69
333.172	621.69
333.4	634.69
333.629	668.69
333.857	680.69
334.085	641.69
334.314	631.69
334.542	623.69
334.771	638.69
334.999	617.69
335.227	642.69
335.455	588.69
335.684	598.69
335.912	610.69
336.14	619.69
336.369	633.69
336.597	625.69
336.825	619.69
337.053	579.69
337.281	592.69
337.51	581.69
337.738	613.69
337.966	618.69
338.194	602.69
338.422	602.69
338.65	568.69
338.878	576.69
339.106	570.69
339.334	571.69
339.562	561.69
339.79	557.69
340.018	560.69
340.246	573.69
340.474	575.69
340.702	575.69
340.93	554.69
341.158	580.69
341.386	588.69
341.614	571.69
341.842	545.69
342.07	566.69
342.298	577.69
342.526	559.69
342.754	545.69
342.981	551.69
343.209	582.69
343.437	595.69
343.665	584.69
343.893	648.69
344.12	620.69
344.348	601.69
344.576	590.69
344.804	617.69
345.031	625.69
345.259	632.69
345.487	563.69
345.714	565.69
345.942	547.69
346.17	543.69
346.397	556.69
346.625	569.69
346.853	548.69
347.08	535.69
347.308	567.69
347.535	577.69
347.763	574.69
347.99	590.69
348.218	604.69
348.445	607.69
348.673	584.69
348.9	552.69
349.128	534.69
349.355	530.69
349.583	536.69
349.81	519.69
350.037	511.69
350.265	533.69
350.492	534.69
350.72	530.69
350.947	569.69
351.174	577.69
351.402	613.69
351.629	569.69
351.856	576.69
352.083	611.69
352.311	632.69
352.538	602.69
352.765	593.69
352.992	586.69
353.22	561.69
353.447	573.69
353.674	543.69
353.901	515.69
354.128	526.69
354.355	516.69
354.583	513.69
354.81	522.69
355.037	502.69
355.264	500.69
355.491	517.69
355.718	516.69
355.945	505.69
356.172	527.69
356.399	495.69
356.626	511.69
356.853	506.69
357.08	514.69
357.307	510.69
357.534	532.69
357.761	512.69
357.988	518.69
358.215	525.69
358.441	507.69
358.668	525.69
358.895	554.69
359.122	520.69
359.349	577.69
359.576	642.69
359.802	690.69
360.029	748.69
360.256	697.69
360.483	626.69
360.709	563.69
360.936	564.69
361.163	588.69
361.39	577.69
361.616	577.69
361.843	568.69
362.07	577.69
362.296	578.69
362.523	570.69
362.749	583.69
362.976	586.69
363.203	531.69
363.429	531.69
363.656	545.69
363.882	527.69
364.109	546.69
364.335	554.69
364.562	546.69
364.788	515.69
365.015	549.69
365.241	549.69
365.468	571.69
365.694	562.69
365.92	546.69
366.147	566.69
366.373	534.69
366.599	541.69
366.826	535.69
367.052	530.69
367.278	545.69
367.505	515.69
367.731	564.69
367.957	535.69
368.184	565.69
368.41	589.69
368.636	606.69
368.862	579.69
369.089	567.69
369.315	562.69
369.541	532.69
369.767	555.69
369.993	582.69
370.219	559.69
370.445	540.69
370.672	543.69
370.898	543.69
371.124	535.69
371.35	550.69
371.576	556.69
371.802	523.69
372.028	566.69
372.254	551.69
372.48	563.69
372.706	589.69
372.932	574.69
373.158	573.69
373.384	566.69
373.61	562.69
373.835	550.69
374.061	586.69
374.287	572.69
374.513	615.69
374.739	594.69
374.965	570.69
375.191	585.69
375.416	567.69
375.642	563.69
375.868	583.69
376.094	576.69
376.319	560.69
376.545	547.69
376.771	558.69
376.997	557.69
377.222	562.69
377.448	566.69
377.674	554.69
377.899	565.69
378.125	560.69
378.35	547.69
378.576	539.69
378.802	567.69
379.027	551.69
379.253	548.69
379.478	539.69
379.704	565.69
379.929	556.69
380.155	583.69
380.38	571.69
380.606	567.69
380.831	572.69
381.057	581.69
381.282	572.69
381.507	560.69
381.733	598.69
381.958	591.69
382.184	624.69
382.409	607.69
382.634	590.69
382.86	566.69
383.085	580.69
383.31	587.69
383.535	623.69
383.761	616.69
383.986	611.69
384.211	633.69
384.436	635.69
384.662	629.69
384.887	641.69
385.112	627.69
385.337	656.69
385.562	645.69
385.787	642.69
386.013	675.69
386.238	677.69
386.463	667.69
386.688	668.69
386.913	656.69
387.138	651.69
387.363	639.69
387.588	666.69
387.813	643.69
388.038	633.69
388.263	666.69
388.488	658.69
388.713	670.69
388.938	671.69
389.163	659.69
389.387	630.69
389.612	655.69
389.837	642.69
390.062	657.69
390.287	637.69
390.512	650.69
390.736	660.69
390.961	679.69
391.186	690.69
391.411	690.69
391.636	700.69
391.86	711.69
392.085	707.69
392.31	684.69
392.534	691.69
392.759	696.69
392.984	669.69
393.208	664.69
393.433	662.69
393.658	692.69
393.882	671.69
394.107	678.69
394.331	685.69
394.556	685.69
394.78	700.69
395.005	698.69
395.229	715.69
395.454	735.69
395.678	714.69
395.903	719.69
396.127	722.69
396.352	721.69
396.576	701.69
396.801	699.69
397.025	709.69
397.249	708.69
397.474	739.69
397.698	772.69
397.922	733.69
398.147	747.69
398.371	775.69
398.595	789.69
398.82	813.69
399.044	899.69
399.268	984.69
399.492	1063.69
399.717	1061.69
399.941	1054.69
400.165	993.69
400.389	953.69
400.613	857.69
400.837	813.69
401.062	831.69
401.286	807.69
401.51	793.69
401.734	821.69
401.958	846.69
402.182	885.69
402.406	916.69
402.63	910.69
402.854	857.69
403.078	863.69
403.302	858.69
403.526	874.69
403.75	913.69
403.974	890.69
404.198	876.69
404.422	905.69
404.645	851.69
404.869	885.69
405.093	907.69
405.317	927.69
405.541	919.69
405.765	912.69
405.988	911.69
406.212	995.69
406.436	1049.69
406.66	1032.69
406.883	982.69
407.107	1025.69
407.331	1078.69
407.555	1094.69
407.778	1059.69
408.002	987.69
408.226	943.69
408.449	948.69
408.673	957.69
408.896	979.69
409.12	959.69
409.344	885.69
409.567	853.69
409.791	851.69
410.014	833.69
410.238	840.69
410.461	855.69
410.685	882.69
410.908	882.69
411.132	891.69
411.355	885.69
411.578	843.69
411.802	824.69
412.025	836.69
412.249	824.69
412.472	810.69
412.695	793.69
412.919	767.69
413.142	775.69
413.365	783.69
413.589	764.69
413.812	778.69
414.035	756.69
414.258	770.69
414.482	767.69
414.705	763.69
414.928	749.69
415.151	765.69
415.374	756.69
415.597	774.69
415.821	781.69
416.044	758.69
416.267	760.69
416.49	771.69
416.713	757.69
416.936	758.69
417.159	775.69
417.382	797.69
417.605	782.69
417.828	820.69
418.051	811.69
418.274	813.69
418.497	791.69
418.72	790.69
418.943	768.69
419.166	789.69
419.389	849.69
419.611	813.69
419.834	793.69
420.057	801.69
420.28	761.69
420.503	783.69
420.726	809.69
420.948	833.69
421.171	837.69
421.394	824.69
421.617	795.69
421.839	802.69
422.062	810.69
422.285	859.69
422.507	910.69
422.73	966.69
422.953	875.69
423.175	841.69
423.398	828.69
423.621	848.69
423.843	867.69
424.066	883.69
424.288	884.69
424.511	906.69
424.733	981.69
424.956	1049.69
425.178	996.69
425.401	981.69
425.623	917.69
425.846	839.69
426.068	825.69
426.291	809.69
426.513	824.69
426.735	870.69
426.958	957.69
427.18	1097.69
427.402	1284.69
427.625	1225.69
427.847	989.69
428.069	843.69
428.292	777.69
428.514	765.69
428.736	725.69
428.958	742.69
429.181	747.69
429.403	726.69
429.625	781.69
429.847	833.69
430.069	873.69
430.292	788.69
430.514	728.69
430.736	705.69
430.958	723.69
431.18	709.69
431.402	710.69
431.624	691.69
431.846	708.69
432.068	701.69
432.29	735.69
432.512	731.69
432.734	723.69
432.956	747.69
433.178	735.69
433.4	742.69
433.622	722.69
433.844	693.69
434.066	719.69
434.287	750.69
434.509	767.69
434.731	795.69
434.953	799.69
435.175	804.69
435.397	803.69
435.618	840.69
435.84	949.69
436.062	1017.69
436.284	977.69
436.505	850.69
436.727	796.69
436.949	731.69
437.17	761.69
437.392	761.69
437.614	806.69
437.835	921.69
438.057	1042.69
438.278	1076.69
438.5	1061.69
438.721	1101.69
438.943	954.69
439.165	783.69
439.386	793.69
439.608	819.69
439.829	864.69
440.05	945.69
440.272	965.69
440.493	837.69
440.715	766.69
440.936	790.69
441.158	796.69
441.379	797.69
441.6	849.69
441.822	882.69
442.043	993.69
442.264	1040.69
442.486	944.69
442.707	838.69
442.928	884.69
443.149	914.69
443.371	995.69
443.592	1009.69
443.813	1137.69
444.034	1047.69
444.255	911.69
444.476	916.69
444.698	895.69
444.919	913.69
445.14	958.69
445.361	957.69
445.582	1036.69
445.803	1198.69
446.024	1212.69
446.245	1135.69
446.466	947.69
446.687	808.69
446.908	771.69
447.129	743.69
447.35	732.69
447.571	722.69
447.792	717.69
448.013	758.69
448.234	800.69
448.455	909.69
448.675	1040.69
448.896	1045.69
449.117	917.69
449.338	1002.69
449.559	1137.69
449.779	1061.69
450	828.69
450.221	731.69
450.442	716.69
450.662	761.69
450.883	797.69
451.104	827.69
451.324	729.69
451.545	674.69
451.766	667.69
451.986	670.69
452.207	681.69
452.428	675.69
452.648	692.69
452.869	705.69
453.089	720.69
453.31	724.69
453.53	688.69
453.751	681.69
453.971	710.69
454.192	722.69
454.412	661.69
454.633	632.69
454.853	632.69
455.073	659.69
455.294	757.69
455.514	777.69
455.734	712.69
455.955	625.69
456.175	606.69
456.395	617.69
456.616	587.69
456.836	578.69
457.056	575.69
457.276	599.69
457.497	613.69
457.717	599.69
457.937	631.69
458.157	642.69
458.377	662.69
458.598	771.69
458.818	991.69
459.038	1005.69
459.258	872.69
459.478	765.69
459.698	745.69
459.918	736.69
460.138	747.69
460.358	777.69
460.578	782.69
460.798	798.69
461.018	776.69
461.238	762.69
461.458	766.69
461.678	755.69
461.898	779.69
462.118	783.69
462.338	822.69
462.558	811.69
462.777	857.69
462.997	907.69
463.217	938.69
463.437	909.69
463.657	863.69
463.876	841.69
464.096	870.69
464.316	875.69
464.536	897.69
464.755	874.69
464.975	952.69
465.195	1184.69
465.414	1060.69
465.634	811.69
465.854	735.69
466.073	700.69
466.293	707.69
466.512	685.69
466.732	685.69
466.951	698.69
467.171	708.69
467.391	724.69
467.61	760.69
467.829	732.69
468.049	679.69
468.268	652.69
468.488	643.69
468.707	641.69
468.927	661.69
469.146	654.69
469.365	683.69
469.585	669.69
469.804	737.69
470.023	764.69
470.243	737.69
470.462	751.69
470.681	787.69
470.901	675.69
471.12	685.69
471.339	683.69
471.558	698.69
471.777	658.69
471.997	655.69
472.216	653.69
472.435	669.69
472.654	643.69
472.873	650.69
473.092	631.69
473.311	637.69
473.53	657.69
473.749	669.69
473.968	796.69
474.187	886.69
474.406	776.69
474.625	690.69
474.844	647.69
475.063	665.69
475.282	637.69
475.501	657.69
475.72	669.69
475.939	676.69
476.158	673.69
476.377	683.69
476.596	681.69
476.814	679.69
477.033	714.69
477.252	707.69
477.471	719.69
477.69	723.69
477.908	748.69
478.127	735.69
478.346	739.69
478.564	799.69
478.783	803.69
479.002	804.69
479.22	822.69
479.439	857.69
479.658	849.69
479.876	870.69
480.095	858.69
480.313	898.69
480.532	861.69
480.751	832.69
480.969	821.69
481.188	796.69
481.406	792.69
481.624	762.69
481.843	717.69
482.061	750.69
482.28	779.69
482.498	737.69
482.717	738.69
482.935	743.69
483.153	772.69
483.372	772.69
483.59	763.69
483.808	750.69
484.027	751.69
484.245	778.69
484.463	756.69
484.681	766.69
484.9	783.69
485.118	807.69
485.336	779.69
485.554	795.69
485.772	807.69
485.99	806.69
486.209	833.69
486.427	809.69
486.645	859.69
486.863	852.69
487.081	821.69
487.299	818.69
487.517	807.69
487.735	814.69
487.953	828.69
488.171	819.69
488.389	811.69
488.607	815.69
488.825	795.69
489.043	805.69
489.261	816.69
489.479	813.69
489.696	804.69
489.914	822.69
490.132	846.69
490.35	847.69
490.568	842.69
490.786	878.69
491.003	898.69
491.221	911.69
491.439	929.69
491.657	950.69
491.874	949.69
492.092	962.69
492.31	946.69
492.527	929.69
492.745	952.69
492.963	951.69
493.18	951.69
493.398	957.69
493.615	970.69
493.833	961.69
494.05	969.69
494.268	949.69
494.485	959.69
494.703	941.69
494.92	952.69
495.138	957.69
495.355	949.69
495.573	972.69
495.79	926.69
496.008	941.69
496.225	942.69
496.442	943.69
496.66	938.69
496.877	943.69
497.094	986.69
497.312	996.69
497.529	981.69
497.746	1032.69
497.963	1058.69
498.181	1079.69
498.398	1128.69
498.615	1174.69
498.832	1209.69
499.049	1259.69
499.267	1319.69
499.484	1405.69
499.701	1470.69
499.918	1627.69
500.135	1757.69
500.352	1875.69
500.569	1843.69
500.786	1813.69
501.003	1728.69
501.22	1600.69
501.437	1522.69
501.654	1451.69
501.871	1374.69
