Data from TestCu_HRD10591_00026.txt Node
Date: Thu Oct 05 14:05:07 EDT 2023
User: Yrep
Spectrometer: HR+D1059
Trigger mode: 1
Integration Time (sec): 1.000000E-1
Scans to average: 1
Electric dark correction enabled: true
Nonlinearity correction enabled: false
Boxcar width: 0
XAxis mode: Wavelengths
Number of Pixels in Spectrum: 2048
>>>>>Begin Spectral Data<<<<<
223.165	-7.19
223.4	-7.19
223.635	-7.19
223.869	-26.19
224.104	-13.19
224.338	-6.19
224.573	-4.19
224.808	-9.19
225.042	-14.19
225.277	1.81
225.511	3.81
225.746	-4.19
225.98	-3.19
226.215	10.81
226.449	11.81
226.683	11.81
226.918	17.81
227.152	29.81
227.387	36.81
227.621	35.81
227.856	43.81
228.09	31.81
228.324	58.81
228.559	56.81
228.793	61.81
229.027	108.81
229.262	124.81
229.496	145.81
229.73	163.81
229.964	157.81
230.199	97.81
230.433	106.81
230.667	114.81
230.901	96.81
231.136	105.81
231.37	113.81
231.604	104.81
231.838	106.81
232.072	117.81
232.306	105.81
232.541	119.81
232.775	125.81
233.009	111.81
233.243	106.81
233.477	116.81
233.711	105.81
233.945	109.81
234.179	130.81
234.413	106.81
234.647	119.81
234.881	97.81
235.115	115.81
235.349	116.81
235.583	124.81
235.817	118.81
236.051	129.81
236.285	135.81
236.519	141.81
236.753	155.81
236.987	174.81
237.221	221.81
237.455	226.81
237.689	160.81
237.922	138.81
238.156	143.81
238.39	118.81
238.624	118.81
238.858	130.81
239.091	125.81
239.325	133.81
239.559	133.81
239.793	138.81
240.027	139.81
240.26	148.81
240.494	150.81
240.728	148.81
240.961	140.81
241.195	136.81
241.429	139.81
241.662	134.81
241.896	131.81
242.13	126.81
242.363	147.81
242.597	139.81
242.83	127.81
243.064	129.81
243.298	122.81
243.531	131.81
243.765	148.81
243.998	119.81
244.232	130.81
244.465	127.81
244.699	145.81
244.932	151.81
245.166	135.81
245.399	141.81
245.633	125.81
245.866	135.81
246.099	140.81
246.333	132.81
246.566	133.81
246.8	155.81
247.033	148.81
247.266	137.81
247.5	159.81
247.733	165.81
247.966	169.81
248.2	161.81
248.433	163.81
248.666	162.81
248.899	185.81
249.133	206.81
249.366	188.81
249.599	204.81
249.832	156.81
250.066	169.81
250.299	163.81
250.532	174.81
250.765	195.81
250.998	193.81
251.231	172.81
251.465	183.81
251.698	174.81
251.931	176.81
252.164	168.81
252.397	181.81
252.63	186.81
252.863	199.81
253.096	203.81
253.329	211.81
253.562	190.81
253.795	185.81
254.028	199.81
254.261	204.81
254.494	249.81
254.727	275.81
254.96	238.81
255.193	207.81
255.426	197.81
255.659	201.81
255.892	194.81
256.124	176.81
256.357	206.81
256.59	195.81
256.823	178.81
257.056	193.81
257.289	185.81
257.521	203.81
257.754	189.81
257.987	201.81
258.22	183.81
258.452	201.81
258.685	218.81
258.918	180.81
259.151	201.81
259.383	205.81
259.616	192.81
259.849	226.81
260.081	231.81
260.314	252.81
260.547	237.81
260.779	219.81
261.012	215.81
261.244	219.81
261.477	214.81
261.71	221.81
261.942	261.81
262.175	247.81
262.407	217.81
262.64	200.81
262.872	211.81
263.105	209.81
263.337	209.81
263.57	196.81
263.802	192.81
264.035	200.81
264.267	205.81
264.499	192.81
264.732	219.81
264.964	207.81
265.197	221.81
265.429	207.81
265.661	229.81
265.894	225.81
266.126	205.81
266.358	198.81
266.591	211.81
266.823	225.81
267.055	235.81
267.287	214.81
267.52	212.81
267.752	221.81
267.984	230.81
268.216	211.81
268.448	235.81
268.681	246.81
268.913	253.81
269.145	271.81
269.377	248.81
269.609	258.81
269.841	250.81
270.073	276.81
270.306	300.81
270.538	315.81
270.77	303.81
271.002	282.81
271.234	298.81
271.466	305.81
271.698	299.81
271.93	298.81
272.162	300.81
272.394	305.81
272.626	273.81
272.858	263.81
273.09	261.81
273.322	253.81
273.553	242.81
273.785	247.81
274.017	257.81
274.249	276.81
274.481	266.81
274.713	259.81
274.945	268.81
275.176	263.81
275.408	253.81
275.64	255.81
275.872	264.81
276.104	280.81
276.335	276.81
276.567	306.81
276.799	335.81
277.031	353.81
277.262	353.81
277.494	311.81
277.726	269.81
277.957	283.81
278.189	265.81
278.421	259.81
278.652	264.81
278.884	265.81
279.115	261.81
279.347	267.81
279.579	273.81
279.81	286.81
280.042	269.81
280.273	293.81
280.505	279.81
280.736	282.81
280.968	293.81
281.199	283.81
281.431	278.81
281.662	295.81
281.894	302.81
282.125	315.81
282.356	346.81
282.588	374.81
282.819	320.81
283.051	308.81
283.282	297.81
283.513	291.81
283.745	302.81
283.976	290.81
284.207	301.81
284.439	302.81
284.67	308.81
284.901	289.81
285.132	276.81
285.364	285.81
285.595	289.81
285.826	296.81
286.057	308.81
286.288	302.81
286.52	304.81
286.751	310.81
286.982	314.81
287.213	283.81
287.444	325.81
287.675	318.81
287.906	335.81
288.138	329.81
288.369	348.81
288.6	333.81
288.831	330.81
289.062	337.81
289.293	325.81
289.524	319.81
289.755	328.81
289.986	303.81
290.217	314.81
290.448	305.81
290.679	313.81
290.91	330.81
291.141	303.81
291.371	319.81
291.602	323.81
291.833	327.81
292.064	332.81
292.295	327.81
292.526	334.81
292.757	321.81
292.987	327.81
293.218	315.81
293.449	352.81
293.68	338.81
293.91	323.81
294.141	333.81
294.372	321.81
294.603	319.81
294.833	326.81
295.064	338.81
295.295	345.81
295.525	337.81
295.756	363.81
295.987	376.81
296.217	428.81
296.448	409.81
296.679	347.81
296.909	357.81
297.14	352.81
297.37	340.81
297.601	357.81
297.831	365.81
298.062	378.81
298.292	354.81
298.523	379.81
298.753	339.81
298.984	358.81
299.214	368.81
299.445	382.81
299.675	385.81
299.905	385.81
300.136	358.81
300.366	377.81
300.597	393.81
300.827	407.81
301.057	395.81
301.288	418.81
301.518	388.81
301.748	382.81
301.979	405.81
302.209	405.81
302.439	399.81
302.669	383.81
302.9	362.81
303.13	379.81
303.36	378.81
303.59	408.81
303.82	404.81
304.051	392.81
304.281	387.81
304.511	386.81
304.741	392.81
304.971	379.81
305.201	395.81
305.431	394.81
305.661	402.81
305.891	396.81
306.121	399.81
306.352	422.81
306.582	396.81
306.812	395.81
307.042	383.81
307.272	387.81
307.502	410.81
307.731	410.81
307.961	382.81
308.191	381.81
308.421	392.81
308.651	406.81
308.881	380.81
309.111	398.81
309.341	415.81
309.571	444.81
309.8	416.81
310.03	469.81
310.26	467.81
310.49	481.81
310.72	504.81
310.949	518.81
311.179	500.81
311.409	452.81
311.639	459.81
311.868	454.81
312.098	473.81
312.328	509.81
312.557	532.81
312.787	535.81
313.017	507.81
313.246	459.81
313.476	460.81
313.706	467.81
313.935	496.81
314.165	508.81
314.394	509.81
314.624	496.81
314.853	502.81
315.083	471.81
315.312	468.81
315.542	461.81
315.771	436.81
316.001	445.81
316.23	445.81
316.46	459.81
316.689	477.81
316.919	481.81
317.148	487.81
317.377	487.81
317.607	496.81
317.836	484.81
318.065	469.81
318.295	447.81
318.524	469.81
318.753	457.81
318.983	459.81
319.212	476.81
319.441	491.81
319.67	488.81
319.9	457.81
320.129	470.81
320.358	461.81
320.587	474.81
320.816	525.81
321.046	513.81
321.275	496.81
321.504	501.81
321.733	531.81
321.962	533.81
322.191	558.81
322.42	592.81
322.649	585.81
322.878	610.81
323.108	648.81
323.337	713.81
323.566	746.81
323.795	880.81
324.024	1131.81
324.253	1934.81
324.482	3316.81
324.71	4894.81
324.939	4329.81
325.168	1903.81
325.397	966.81
325.626	731.81
325.855	682.81
326.084	673.81
326.313	713.81
326.542	784.81
326.77	1074.81
326.999	1797.81
327.228	2892.81
327.457	3609.81
327.686	2380.81
327.914	1127.81
328.143	870.81
328.372	790.81
328.6	789.81
328.829	826.81
329.058	822.81
329.287	788.81
329.515	665.81
329.744	629.81
329.972	628.81
330.201	687.81
330.43	765.81
330.658	869.81
330.887	918.81
331.115	753.81
331.344	637.81
331.572	661.81
331.801	672.81
332.03	641.81
332.258	621.81
332.486	609.81
332.715	589.81
332.943	658.81
333.172	654.81
333.4	655.81
333.629	647.81
333.857	697.81
334.085	659.81
334.314	612.81
334.542	630.81
334.771	631.81
334.999	656.81
335.227	647.81
335.455	621.81
335.684	646.81
335.912	607.81
336.14	621.81
336.369	650.81
336.597	640.81
336.825	634.81
337.053	603.81
337.281	596.81
337.51	607.81
337.738	623.81
337.966	594.81
338.194	611.81
338.422	595.81
338.65	578.81
338.878	565.81
339.106	577.81
339.334	571.81
339.562	559.81
339.79	557.81
340.018	577.81
340.246	590.81
340.474	589.81
340.702	572.81
340.93	564.81
341.158	575.81
341.386	574.81
341.614	578.81
341.842	564.81
342.07	557.81
342.298	573.81
342.526	559.81
342.754	562.81
342.981	545.81
343.209	566.81
343.437	614.81
343.665	608.81
343.893	622.81
344.12	628.81
344.348	634.81
344.576	601.81
344.804	640.81
345.031	631.81
345.259	626.81
345.487	585.81
345.714	547.81
345.942	578.81
346.17	545.81
346.397	553.81
346.625	566.81
346.853	574.81
347.08	559.81
347.308	573.81
347.535	614.81
347.763	607.81
347.99	565.81
348.218	590.81
348.445	618.81
348.673	593.81
348.9	585.81
349.128	522.81
349.355	545.81
349.583	541.81
349.81	523.81
350.037	540.81
350.265	521.81
350.492	511.81
350.72	546.81
350.947	597.81
351.174	596.81
351.402	603.81
351.629	591.81
351.856	594.81
352.083	629.81
352.311	619.81
352.538	598.81
352.765	587.81
352.992	597.81
353.22	568.81
353.447	565.81
353.674	538.81
353.901	517.81
354.128	537.81
354.355	522.81
354.583	533.81
354.81	537.81
355.037	511.81
355.264	500.81
355.491	515.81
355.718	517.81
355.945	541.81
356.172	543.81
356.399	549.81
356.626	514.81
356.853	514.81
357.08	542.81
357.307	538.81
357.534	552.81
357.761	529.81
357.988	517.81
358.215	509.81
358.441	533.81
358.668	531.81
358.895	539.81
359.122	545.81
359.349	577.81
359.576	620.81
359.802	723.81
360.029	766.81
360.256	689.81
360.483	637.81
360.709	557.81
360.936	582.81
361.163	604.81
361.39	622.81
361.616	610.81
361.843	587.81
362.07	621.81
362.296	579.81
362.523	580.81
362.749	577.81
362.976	535.81
363.203	552.81
363.429	544.81
363.656	554.81
363.882	555.81
364.109	573.81
364.335	569.81
364.562	546.81
364.788	547.81
365.015	576.81
365.241	577.81
365.468	594.81
365.694	591.81
365.92	560.81
366.147	541.81
366.373	547.81
366.599	550.81
366.826	545.81
367.052	543.81
367.278	553.81
367.505	557.81
367.731	546.81
367.957	539.81
368.184	576.81
368.41	577.81
368.636	602.81
368.862	588.81
369.089	575.81
369.315	559.81
369.541	560.81
369.767	561.81
369.993	559.81
370.219	564.81
370.445	544.81
370.672	558.81
370.898	584.81
371.124	557.81
371.35	571.81
371.576	563.81
371.802	557.81
372.028	557.81
372.254	568.81
372.48	567.81
372.706	577.81
372.932	574.81
373.158	589.81
373.384	580.81
373.61	571.81
373.835	597.81
374.061	581.81
374.287	571.81
374.513	609.81
374.739	599.81
374.965	587.81
375.191	607.81
375.416	605.81
375.642	584.81
375.868	589.81
376.094	585.81
376.319	578.81
376.545	563.81
376.771	575.81
376.997	568.81
377.222	593.81
377.448	567.81
377.674	565.81
377.899	563.81
378.125	557.81
378.35	580.81
378.576	571.81
378.802	561.81
379.027	559.81
379.253	593.81
379.478	584.81
379.704	574.81
379.929	589.81
380.155	599.81
380.38	565.81
380.606	589.81
380.831	579.81
381.057	617.81
381.282	607.81
381.507	590.81
381.733	586.81
381.958	613.81
382.184	595.81
382.409	593.81
382.634	590.81
382.86	594.81
383.085	626.81
383.31	594.81
383.535	608.81
383.761	637.81
383.986	625.81
384.211	628.81
384.436	642.81
384.662	641.81
384.887	663.81
385.112	662.81
385.337	667.81
385.562	648.81
385.787	655.81
386.013	684.81
386.238	673.81
386.463	652.81
386.688	671.81
386.913	673.81
387.138	646.81
387.363	668.81
387.588	657.81
387.813	675.81
388.038	650.81
388.263	659.81
388.488	691.81
388.713	670.81
388.938	665.81
389.163	667.81
389.387	673.81
389.612	641.81
389.837	666.81
390.062	657.81
390.287	633.81
390.512	647.81
390.736	658.81
390.961	671.81
391.186	703.81
391.411	708.81
391.636	701.81
391.86	736.81
392.085	717.81
392.31	705.81
392.534	698.81
392.759	723.81
392.984	666.81
393.208	678.81
393.433	679.81
393.658	683.81
393.882	707.81
394.107	677.81
394.331	691.81
394.556	690.81
394.78	705.81
395.005	712.81
395.229	701.81
395.454	729.81
395.678	762.81
395.903	749.81
396.127	733.81
396.352	690.81
396.576	726.81
396.801	717.81
397.025	681.81
397.249	722.81
397.474	764.81
397.698	715.81
397.922	767.81
398.147	769.81
398.371	797.81
398.595	804.81
398.82	850.81
399.044	918.81
399.268	991.81
399.492	1074.81
399.717	1108.81
399.941	1069.81
400.165	997.81
400.389	946.81
400.613	908.81
400.837	847.81
401.062	843.81
401.286	829.81
401.51	814.81
401.734	849.81
401.958	843.81
402.182	907.81
402.406	924.81
402.63	902.81
402.854	876.81
403.078	878.81
403.302	892.81
403.526	890.81
403.75	945.81
403.974	931.81
404.198	915.81
404.422	917.81
404.645	925.81
404.869	905.81
405.093	915.81
405.317	936.81
405.541	960.81
405.765	918.81
405.988	941.81
406.212	1054.81
406.436	1084.81
406.66	1035.81
406.883	1030.81
407.107	1056.81
407.331	1096.81
407.555	1114.81
407.778	1039.81
408.002	984.81
408.226	958.81
408.449	970.81
408.673	948.81
408.896	904.81
409.12	944.81
409.344	904.81
409.567	881.81
409.791	881.81
410.014	851.81
410.238	852.81
410.461	863.81
410.685	881.81
410.908	885.81
411.132	922.81
411.355	898.81
411.578	893.81
411.802	845.81
412.025	827.81
412.249	851.81
412.472	849.81
412.695	793.81
412.919	796.81
413.142	795.81
413.365	798.81
413.589	778.81
413.812	806.81
414.035	790.81
414.258	781.81
414.482	812.81
414.705	804.81
414.928	789.81
415.151	806.81
415.374	831.81
415.597	806.81
415.821	778.81
416.044	795.81
416.267	766.81
416.49	772.81
416.713	768.81
416.936	796.81
417.159	793.81
417.382	800.81
417.605	824.81
417.828	823.81
418.051	806.81
418.274	809.81
418.497	801.81
418.72	831.81
418.943	795.81
419.166	818.81
419.389	869.81
419.611	830.81
419.834	831.81
420.057	832.81
420.28	814.81
420.503	789.81
420.726	825.81
420.948	847.81
421.171	849.81
421.394	842.81
421.617	827.81
421.839	815.81
422.062	833.81
422.285	847.81
422.507	945.81
422.73	957.81
422.953	871.81
423.175	858.81
423.398	887.81
423.621	863.81
423.843	868.81
424.066	852.81
424.288	897.81
424.511	938.81
424.733	1006.81
424.956	1029.81
425.178	986.81
425.401	979.81
425.623	949.81
425.846	814.81
426.068	807.81
426.291	811.81
426.513	851.81
426.735	861.81
426.958	969.81
427.18	1081.81
427.402	1228.81
427.625	1301.81
427.847	990.81
428.069	814.81
428.292	789.81
428.514	786.81
428.736	757.81
428.958	758.81
429.181	731.81
429.403	759.81
429.625	758.81
429.847	837.81
430.069	854.81
430.292	790.81
430.514	749.81
430.736	729.81
430.958	731.81
431.18	716.81
431.402	735.81
431.624	689.81
431.846	734.81
432.068	732.81
432.29	724.81
432.512	744.81
432.734	759.81
432.956	758.81
433.178	754.81
433.4	742.81
433.622	730.81
433.844	725.81
434.066	724.81
434.287	723.81
434.509	753.81
434.731	791.81
434.953	821.81
435.175	784.81
435.397	825.81
435.618	844.81
435.84	912.81
436.062	998.81
436.284	958.81
436.505	854.81
436.727	807.81
436.949	749.81
437.17	750.81
437.392	739.81
437.614	811.81
437.835	922.81
438.057	1042.81
438.278	1046.81
438.5	1026.81
438.721	1061.81
438.943	949.81
439.165	820.81
439.386	794.81
439.608	813.81
439.829	877.81
440.05	973.81
440.272	961.81
440.493	851.81
440.715	777.81
440.936	790.81
441.158	796.81
441.379	793.81
441.6	836.81
441.822	880.81
442.043	977.81
442.264	1013.81
442.486	961.81
442.707	859.81
442.928	879.81
443.149	949.81
443.371	992.81
443.592	1069.81
443.813	1115.81
444.034	1055.81
444.255	928.81
444.476	877.81
444.698	909.81
444.919	915.81
445.14	980.81
445.361	966.81
445.582	1017.81
445.803	1156.81
446.024	1193.81
446.245	1136.81
446.466	963.81
446.687	808.81
446.908	762.81
447.129	755.81
447.35	738.81
447.571	758.81
447.792	733.81
448.013	766.81
448.234	832.81
448.455	916.81
448.675	1044.81
448.896	1039.81
449.117	895.81
449.338	984.81
449.559	1071.81
449.779	1017.81
450	809.81
450.221	735.81
450.442	731.81
450.662	742.81
450.883	815.81
451.104	854.81
451.324	746.81
451.545	714.81
451.766	676.81
451.986	666.81
452.207	659.81
452.428	661.81
452.648	682.81
452.869	706.81
453.089	705.81
453.31	691.81
453.53	685.81
453.751	682.81
453.971	712.81
454.192	745.81
454.412	658.81
454.633	649.81
454.853	670.81
455.073	658.81
455.294	735.81
455.514	778.81
455.734	707.81
455.955	635.81
456.175	596.81
456.395	622.81
456.616	603.81
456.836	606.81
457.056	608.81
457.276	599.81
457.497	610.81
457.717	630.81
457.937	637.81
458.157	639.81
458.377	702.81
458.598	794.81
458.818	990.81
459.038	1017.81
459.258	865.81
459.478	762.81
459.698	722.81
459.918	750.81
460.138	774.81
460.358	763.81
460.578	784.81
460.798	811.81
461.018	820.81
461.238	774.81
461.458	797.81
461.678	765.81
461.898	764.81
462.118	810.81
462.338	855.81
462.558	843.81
462.777	883.81
462.997	946.81
463.217	956.81
463.437	949.81
463.657	857.81
463.876	856.81
464.096	913.81
464.316	886.81
464.536	906.81
464.755	902.81
464.975	961.81
465.195	1163.81
465.414	1075.81
465.634	829.81
465.854	757.81
466.073	721.81
466.293	720.81
466.512	708.81
466.732	692.81
466.951	674.81
467.171	699.81
467.391	741.81
467.61	774.81
467.829	713.81
468.049	695.81
468.268	670.81
468.488	684.81
468.707	668.81
468.927	638.81
469.146	642.81
469.365	673.81
469.585	706.81
469.804	721.81
470.023	753.81
470.243	740.81
470.462	777.81
470.681	804.81
470.901	752.81
471.12	711.81
471.339	701.81
471.558	699.81
471.777	695.81
471.997	664.81
472.216	654.81
472.435	665.81
472.654	659.81
472.873	651.81
473.092	647.81
473.311	645.81
473.53	663.81
473.749	700.81
473.968	799.81
474.187	861.81
474.406	794.81
474.625	693.81
474.844	660.81
475.063	671.81
475.282	662.81
475.501	673.81
475.72	681.81
475.939	706.81
476.158	694.81
476.377	711.81
476.596	698.81
476.814	717.81
477.033	704.81
477.252	725.81
477.471	710.81
477.69	733.81
477.908	757.81
478.127	774.81
478.346	794.81
478.564	772.81
478.783	800.81
479.002	825.81
479.22	820.81
479.439	897.81
479.658	865.81
479.876	872.81
480.095	895.81
480.313	897.81
480.532	875.81
480.751	831.81
480.969	822.81
481.188	834.81
481.406	765.81
481.624	774.81
481.843	758.81
482.061	756.81
482.28	750.81
482.498	765.81
482.717	746.81
482.935	751.81
483.153	768.81
483.372	777.81
483.59	762.81
483.808	769.81
484.027	763.81
484.245	785.81
484.463	781.81
484.681	785.81
484.9	786.81
485.118	787.81
485.336	777.81
485.554	808.81
485.772	817.81
485.99	806.81
486.209	809.81
486.427	833.81
486.645	867.81
486.863	867.81
487.081	846.81
487.299	837.81
487.517	814.81
487.735	825.81
487.953	831.81
488.171	817.81
488.389	823.81
488.607	822.81
488.825	795.81
489.043	810.81
489.261	831.81
489.479	803.81
489.696	822.81
489.914	819.81
490.132	824.81
490.35	848.81
490.568	864.81
490.786	882.81
491.003	907.81
491.221	943.81
491.439	943.81
491.657	938.81
491.874	941.81
492.092	942.81
492.31	957.81
492.527	956.81
492.745	936.81
492.963	945.81
493.18	966.81
493.398	974.81
493.615	973.81
493.833	955.81
494.05	962.81
494.268	968.81
494.485	942.81
494.703	969.81
494.92	926.81
495.138	933.81
495.355	964.81
495.573	956.81
495.79	947.81
496.008	977.81
496.225	972.81
496.442	964.81
496.66	941.81
496.877	974.81
497.094	964.81
497.312	1001.81
497.529	989.81
497.746	1039.81
497.963	1071.81
498.181	1094.81
498.398	1119.81
498.615	1203.81
498.832	1235.81
499.049	1298.81
499.267	1365.81
499.484	1430.81
499.701	1530.81
499.918	1652.81
500.135	1806.81
500.352	1917.81
500.569	1908.81
500.786	1851.81
501.003	1765.81
501.22	1625.81
501.437	1527.81
501.654	1460.81
501.871	1380.81
