Data from TestCu_HRD10591_00101.txt Node
Date: Thu Oct 05 14:06:21 EDT 2023
User: Yrep
Spectrometer: HR+D1059
Trigger mode: 1
Integration Time (sec): 1.000000E-1
Scans to average: 1
Electric dark correction enabled: true
Nonlinearity correction enabled: false
Boxcar width: 0
XAxis mode: Wavelengths
Number of Pixels in Spectrum: 2048
>>>>>Begin Spectral Data<<<<<
223.165	-30.25
223.4	-30.25
223.635	-30.25
223.869	-21.25
224.104	-11.25
224.338	-29.25
224.573	-24.25
224.808	-9.25
225.042	-23.25
225.277	-9.25
225.511	-4.25
225.746	9.75
225.98	6.75
226.215	20.75
226.449	23.75
226.683	34.75
226.918	31.75
227.152	34.75
227.387	43.75
227.621	32.75
227.856	36.75
228.09	48.75
228.324	57.75
228.559	51.75
228.793	64.75
229.027	104.75
229.262	117.75
229.496	134.75
229.73	162.75
229.964	165.75
230.199	118.75
230.433	124.75
230.667	117.75
230.901	115.75
231.136	102.75
231.37	113.75
231.604	89.75
231.838	112.75
232.072	100.75
232.306	102.75
232.541	122.75
232.775	99.75
233.009	114.75
233.243	115.75
233.477	119.75
233.711	118.75
233.945	131.75
234.179	117.75
234.413	130.75
234.647	106.75
234.881	117.75
235.115	120.75
235.349	122.75
235.583	128.75
235.817	133.75
236.051	133.75
236.285	116.75
236.519	115.75
236.753	141.75
236.987	184.75
237.221	211.75
237.455	214.75
237.689	148.75
237.922	132.75
238.156	139.75
238.39	126.75
238.624	133.75
238.858	131.75
239.091	126.75
239.325	129.75
239.559	138.75
239.793	147.75
240.027	146.75
240.26	146.75
240.494	158.75
240.728	164.75
240.961	145.75
241.195	138.75
241.429	131.75
241.662	133.75
241.896	126.75
242.13	141.75
242.363	135.75
242.597	137.75
242.83	130.75
243.064	131.75
243.298	122.75
243.531	133.75
243.765	123.75
243.998	122.75
244.232	138.75
244.465	154.75
244.699	135.75
244.932	148.75
245.166	134.75
245.399	133.75
245.633	158.75
245.866	152.75
246.099	159.75
246.333	141.75
246.566	132.75
246.8	144.75
247.033	146.75
247.266	157.75
247.5	168.75
247.733	169.75
247.966	169.75
248.2	150.75
248.433	172.75
248.666	187.75
248.899	192.75
249.133	206.75
249.366	194.75
249.599	197.75
249.832	176.75
250.066	186.75
250.299	174.75
250.532	200.75
250.765	212.75
250.998	194.75
251.231	206.75
251.465	194.75
251.698	176.75
251.931	182.75
252.164	181.75
252.397	181.75
252.63	186.75
252.863	210.75
253.096	224.75
253.329	213.75
253.562	210.75
253.795	185.75
254.028	209.75
254.261	228.75
254.494	246.75
254.727	249.75
254.96	248.75
255.193	231.75
255.426	206.75
255.659	198.75
255.892	195.75
256.124	197.75
256.357	199.75
256.59	202.75
256.823	194.75
257.056	191.75
257.289	186.75
257.521	193.75
257.754	187.75
257.987	173.75
258.22	167.75
258.452	186.75
258.685	204.75
258.918	202.75
259.151	203.75
259.383	211.75
259.616	238.75
259.849	229.75
260.081	243.75
260.314	250.75
260.547	247.75
260.779	237.75
261.012	226.75
261.244	212.75
261.477	219.75
261.71	230.75
261.942	249.75
262.175	265.75
262.407	211.75
262.64	213.75
262.872	214.75
263.105	205.75
263.337	221.75
263.57	216.75
263.802	223.75
264.035	186.75
264.267	216.75
264.499	203.75
264.732	222.75
264.964	183.75
265.197	216.75
265.429	211.75
265.661	229.75
265.894	205.75
266.126	227.75
266.358	206.75
266.591	223.75
266.823	247.75
267.055	212.75
267.287	232.75
267.52	208.75
267.752	242.75
267.984	237.75
268.216	241.75
268.448	229.75
268.681	239.75
268.913	267.75
269.145	274.75
269.377	274.75
269.609	270.75
269.841	263.75
270.073	282.75
270.306	325.75
270.538	329.75
270.77	303.75
271.002	297.75
271.234	319.75
271.466	295.75
271.698	315.75
271.93	297.75
272.162	315.75
272.394	297.75
272.626	265.75
272.858	259.75
273.09	264.75
273.322	253.75
273.553	259.75
273.785	266.75
274.017	256.75
274.249	284.75
274.481	277.75
274.713	265.75
274.945	268.75
275.176	265.75
275.408	261.75
275.64	264.75
275.872	265.75
276.104	272.75
276.335	291.75
276.567	317.75
276.799	341.75
277.031	361.75
277.262	337.75
277.494	321.75
277.726	301.75
277.957	279.75
278.189	288.75
278.421	281.75
278.652	292.75
278.884	281.75
279.115	263.75
279.347	283.75
279.579	271.75
279.81	260.75
280.042	275.75
280.273	271.75
280.505	279.75
280.736	289.75
280.968	285.75
281.199	294.75
281.431	293.75
281.662	293.75
281.894	290.75
282.125	314.75
282.356	341.75
282.588	384.75
282.819	328.75
283.051	283.75
283.282	292.75
283.513	296.75
283.745	298.75
283.976	329.75
284.207	315.75
284.439	290.75
284.67	295.75
284.901	300.75
285.132	318.75
285.364	294.75
285.595	287.75
285.826	305.75
286.057	315.75
286.288	308.75
286.52	299.75
286.751	289.75
286.982	328.75
287.213	311.75
287.444	304.75
287.675	330.75
287.906	333.75
288.138	326.75
288.369	327.75
288.6	317.75
288.831	328.75
289.062	334.75
289.293	320.75
289.524	306.75
289.755	312.75
289.986	315.75
290.217	322.75
290.448	326.75
290.679	315.75
290.91	317.75
291.141	330.75
291.371	301.75
291.602	310.75
291.833	322.75
292.064	321.75
292.295	323.75
292.526	315.75
292.757	338.75
292.987	327.75
293.218	331.75
293.449	329.75
293.68	336.75
293.91	351.75
294.141	333.75
294.372	305.75
294.603	342.75
294.833	337.75
295.064	354.75
295.295	352.75
295.525	340.75
295.756	376.75
295.987	396.75
296.217	399.75
296.448	383.75
296.679	353.75
296.909	340.75
297.14	351.75
297.37	364.75
297.601	354.75
297.831	371.75
298.062	392.75
298.292	365.75
298.523	369.75
298.753	349.75
298.984	361.75
299.214	368.75
299.445	363.75
299.675	390.75
299.905	362.75
300.136	366.75
300.366	354.75
300.597	377.75
300.827	382.75
301.057	404.75
301.288	408.75
301.518	390.75
301.748	403.75
301.979	406.75
302.209	412.75
302.439	396.75
302.669	400.75
302.9	393.75
303.13	406.75
303.36	411.75
303.59	430.75
303.82	418.75
304.051	411.75
304.281	408.75
304.511	383.75
304.741	378.75
304.971	390.75
305.201	406.75
305.431	389.75
305.661	394.75
305.891	390.75
306.121	396.75
306.352	424.75
306.582	418.75
306.812	392.75
307.042	392.75
307.272	400.75
307.502	391.75
307.731	393.75
307.961	370.75
308.191	409.75
308.421	399.75
308.651	406.75
308.881	403.75
309.111	409.75
309.341	437.75
309.571	441.75
309.8	439.75
310.03	468.75
310.26	485.75
310.49	477.75
310.72	529.75
310.949	501.75
311.179	481.75
311.409	432.75
311.639	469.75
311.868	459.75
312.098	469.75
312.328	507.75
312.557	541.75
312.787	528.75
313.017	513.75
313.246	474.75
313.476	473.75
313.706	493.75
313.935	508.75
314.165	530.75
314.394	522.75
314.624	519.75
314.853	490.75
315.083	459.75
315.312	455.75
315.542	452.75
315.771	441.75
316.001	442.75
316.23	453.75
316.46	458.75
316.689	461.75
316.919	497.75
317.148	494.75
317.377	457.75
317.607	478.75
317.836	464.75
318.065	461.75
318.295	452.75
318.524	457.75
318.753	456.75
318.983	468.75
319.212	472.75
319.441	467.75
319.67	489.75
319.9	443.75
320.129	485.75
320.358	484.75
320.587	470.75
320.816	481.75
321.046	503.75
321.275	495.75
321.504	499.75
321.733	510.75
321.962	517.75
322.191	561.75
322.42	584.75
322.649	601.75
322.878	594.75
323.108	671.75
323.337	703.75
323.566	767.75
323.795	850.75
324.024	1110.75
324.253	1987.75
324.482	3333.75
324.71	4950.75
324.939	4327.75
325.168	1910.75
325.397	938.75
325.626	725.75
325.855	665.75
326.084	654.75
326.313	709.75
326.542	818.75
326.77	1082.75
326.999	1833.75
327.228	2904.75
327.457	3651.75
327.686	2381.75
327.914	1129.75
328.143	887.75
328.372	802.75
328.6	788.75
328.829	798.75
329.058	837.75
329.287	791.75
329.515	700.75
329.744	639.75
329.972	624.75
330.201	711.75
330.43	809.75
330.658	904.75
330.887	901.75
331.115	778.75
331.344	656.75
331.572	654.75
331.801	673.75
332.03	645.75
332.258	619.75
332.486	613.75
332.715	641.75
332.943	654.75
333.172	652.75
333.4	677.75
333.629	673.75
333.857	670.75
334.085	671.75
334.314	622.75
334.542	646.75
334.771	643.75
334.999	635.75
335.227	647.75
335.455	606.75
335.684	597.75
335.912	609.75
336.14	623.75
336.369	627.75
336.597	640.75
336.825	624.75
337.053	589.75
337.281	606.75
337.51	596.75
337.738	622.75
337.966	606.75
338.194	615.75
338.422	595.75
338.65	581.75
338.878	547.75
339.106	566.75
339.334	536.75
339.562	565.75
339.79	580.75
340.018	595.75
340.246	574.75
340.474	589.75
340.702	567.75
340.93	569.75
341.158	563.75
341.386	583.75
341.614	596.75
341.842	605.75
342.07	565.75
342.298	583.75
342.526	560.75
342.754	563.75
342.981	541.75
343.209	548.75
343.437	634.75
343.665	629.75
343.893	616.75
344.12	629.75
344.348	613.75
344.576	622.75
344.804	634.75
345.031	663.75
345.259	654.75
345.487	608.75
345.714	581.75
345.942	553.75
346.17	574.75
346.397	550.75
346.625	570.75
346.853	594.75
347.08	550.75
347.308	592.75
347.535	614.75
347.763	598.75
347.99	607.75
348.218	602.75
348.445	608.75
348.673	569.75
348.9	566.75
349.128	547.75
349.355	525.75
349.583	540.75
349.81	544.75
350.037	527.75
350.265	527.75
350.492	553.75
350.72	560.75
350.947	585.75
351.174	611.75
351.402	571.75
351.629	584.75
351.856	578.75
352.083	632.75
352.311	619.75
352.538	631.75
352.765	613.75
352.992	600.75
353.22	566.75
353.447	542.75
353.674	542.75
353.901	554.75
354.128	534.75
354.355	519.75
354.583	532.75
354.81	524.75
355.037	521.75
355.264	521.75
355.491	525.75
355.718	516.75
355.945	522.75
356.172	500.75
356.399	495.75
356.626	517.75
356.853	524.75
357.08	507.75
357.307	523.75
357.534	509.75
357.761	514.75
357.988	525.75
358.215	529.75
358.441	535.75
358.668	552.75
358.895	559.75
359.122	569.75
359.349	597.75
359.576	650.75
359.802	725.75
360.029	743.75
360.256	689.75
360.483	608.75
360.709	565.75
360.936	602.75
361.163	606.75
361.39	607.75
361.616	583.75
361.843	596.75
362.07	619.75
362.296	614.75
362.523	591.75
362.749	563.75
362.976	574.75
363.203	568.75
363.429	563.75
363.656	571.75
363.882	558.75
364.109	541.75
364.335	573.75
364.562	550.75
364.788	550.75
365.015	577.75
365.241	551.75
365.468	581.75
365.694	579.75
365.92	571.75
366.147	561.75
366.373	570.75
366.599	565.75
366.826	555.75
367.052	571.75
367.278	555.75
367.505	569.75
367.731	570.75
367.957	594.75
368.184	574.75
368.41	600.75
368.636	598.75
368.862	591.75
369.089	562.75
369.315	543.75
369.541	560.75
369.767	586.75
369.993	576.75
370.219	584.75
370.445	559.75
370.672	565.75
370.898	571.75
371.124	558.75
371.35	549.75
371.576	555.75
371.802	537.75
372.028	551.75
372.254	575.75
372.48	575.75
372.706	582.75
372.932	562.75
373.158	600.75
373.384	577.75
373.61	557.75
373.835	580.75
374.061	569.75
374.287	605.75
374.513	600.75
374.739	607.75
374.965	607.75
375.191	611.75
375.416	610.75
375.642	597.75
375.868	596.75
376.094	579.75
376.319	560.75
376.545	581.75
376.771	549.75
376.997	579.75
377.222	567.75
377.448	554.75
377.674	571.75
377.899	566.75
378.125	565.75
378.35	557.75
378.576	565.75
378.802	568.75
379.027	561.75
379.253	546.75
379.478	566.75
379.704	585.75
379.929	582.75
380.155	592.75
380.38	568.75
380.606	590.75
380.831	582.75
381.057	592.75
381.282	581.75
381.507	569.75
381.733	551.75
381.958	568.75
382.184	600.75
382.409	600.75
382.634	621.75
382.86	597.75
383.085	611.75
383.31	613.75
383.535	603.75
383.761	634.75
383.986	637.75
384.211	658.75
384.436	636.75
384.662	649.75
384.887	646.75
385.112	662.75
385.337	661.75
385.562	640.75
385.787	689.75
386.013	680.75
386.238	676.75
386.463	671.75
386.688	662.75
386.913	634.75
387.138	654.75
387.363	676.75
387.588	671.75
387.813	676.75
388.038	677.75
388.263	662.75
388.488	668.75
388.713	666.75
388.938	660.75
389.163	650.75
389.387	670.75
389.612	650.75
389.837	669.75
390.062	631.75
390.287	647.75
390.512	679.75
390.736	661.75
390.961	688.75
391.186	701.75
391.411	689.75
391.636	688.75
391.86	733.75
392.085	721.75
392.31	712.75
392.534	700.75
392.759	706.75
392.984	689.75
393.208	659.75
393.433	682.75
393.658	669.75
393.882	672.75
394.107	709.75
394.331	707.75
394.556	693.75
394.78	724.75
395.005	715.75
395.229	690.75
395.454	726.75
395.678	725.75
395.903	743.75
396.127	718.75
396.352	705.75
396.576	700.75
396.801	713.75
397.025	730.75
397.249	711.75
397.474	737.75
397.698	737.75
397.922	740.75
398.147	762.75
398.371	782.75
398.595	786.75
398.82	841.75
399.044	924.75
399.268	944.75
399.492	1062.75
399.717	1080.75
399.941	1035.75
400.165	1022.75
400.389	980.75
400.613	862.75
400.837	863.75
401.062	840.75
401.286	810.75
401.51	815.75
401.734	831.75
401.958	851.75
402.182	886.75
402.406	878.75
402.63	858.75
402.854	890.75
403.078	891.75
403.302	885.75
403.526	897.75
403.75	880.75
403.974	906.75
404.198	887.75
404.422	931.75
404.645	878.75
404.869	908.75
405.093	920.75
405.317	946.75
405.541	948.75
405.765	900.75
405.988	906.75
406.212	1025.75
406.436	1074.75
406.66	1046.75
406.883	1014.75
407.107	1068.75
407.331	1095.75
407.555	1105.75
407.778	1062.75
408.002	996.75
408.226	953.75
408.449	938.75
408.673	950.75
408.896	959.75
409.12	959.75
409.344	874.75
409.567	866.75
409.791	865.75
410.014	855.75
410.238	830.75
410.461	851.75
410.685	866.75
410.908	913.75
411.132	897.75
411.355	891.75
411.578	850.75
411.802	834.75
412.025	793.75
412.249	813.75
412.472	832.75
412.695	801.75
412.919	804.75
413.142	778.75
413.365	799.75
413.589	810.75
413.812	770.75
414.035	783.75
414.258	785.75
414.482	787.75
414.705	806.75
414.928	785.75
415.151	787.75
415.374	767.75
415.597	790.75
415.821	750.75
416.044	767.75
416.267	774.75
416.49	760.75
416.713	767.75
416.936	781.75
417.159	794.75
417.382	805.75
417.605	778.75
417.828	815.75
418.051	817.75
418.274	818.75
418.497	801.75
418.72	791.75
418.943	787.75
419.166	803.75
419.389	851.75
419.611	817.75
419.834	822.75
420.057	815.75
420.28	791.75
420.503	792.75
420.726	820.75
420.948	825.75
421.171	872.75
421.394	865.75
421.617	812.75
421.839	797.75
422.062	839.75
422.285	868.75
422.507	922.75
422.73	966.75
422.953	893.75
423.175	844.75
423.398	875.75
423.621	870.75
423.843	875.75
424.066	896.75
424.288	889.75
424.511	921.75
424.733	998.75
424.956	1055.75
425.178	983.75
425.401	986.75
425.623	943.75
425.846	842.75
426.068	834.75
426.291	816.75
426.513	837.75
426.735	873.75
426.958	951.75
427.18	1091.75
427.402	1234.75
427.625	1236.75
427.847	1023.75
428.069	823.75
428.292	792.75
428.514	752.75
428.736	758.75
428.958	734.75
429.181	714.75
429.403	725.75
429.625	790.75
429.847	858.75
430.069	853.75
430.292	787.75
430.514	744.75
430.736	733.75
430.958	724.75
431.18	703.75
431.402	746.75
431.624	694.75
431.846	716.75
432.068	715.75
432.29	722.75
432.512	727.75
432.734	728.75
432.956	726.75
433.178	768.75
433.4	754.75
433.622	748.75
433.844	745.75
434.066	740.75
434.287	733.75
434.509	746.75
434.731	790.75
434.953	799.75
435.175	819.75
435.397	837.75
435.618	864.75
435.84	933.75
436.062	1006.75
436.284	997.75
436.505	854.75
436.727	821.75
436.949	744.75
437.17	747.75
437.392	761.75
437.614	795.75
437.835	911.75
438.057	1020.75
438.278	1056.75
438.5	1041.75
438.721	1093.75
438.943	946.75
439.165	824.75
439.386	813.75
439.608	845.75
439.829	861.75
440.05	964.75
440.272	975.75
440.493	837.75
440.715	768.75
440.936	805.75
441.158	786.75
441.379	797.75
441.6	835.75
441.822	905.75
442.043	974.75
442.264	1024.75
442.486	946.75
442.707	854.75
442.928	887.75
443.149	960.75
443.371	970.75
443.592	1042.75
443.813	1125.75
444.034	1034.75
444.255	932.75
444.476	914.75
444.698	938.75
444.919	916.75
445.14	943.75
445.361	971.75
445.582	1044.75
445.803	1147.75
446.024	1227.75
446.245	1098.75
446.466	985.75
446.687	821.75
446.908	766.75
447.129	733.75
447.35	754.75
447.571	745.75
447.792	736.75
448.013	741.75
448.234	811.75
448.455	912.75
448.675	1031.75
448.896	1018.75
449.117	896.75
449.338	993.75
449.559	1081.75
449.779	1022.75
450	836.75
450.221	733.75
450.442	739.75
450.662	751.75
450.883	818.75
451.104	838.75
451.324	775.75
451.545	681.75
451.766	681.75
451.986	688.75
452.207	656.75
452.428	655.75
452.648	666.75
452.869	703.75
453.089	724.75
453.31	715.75
453.53	697.75
453.751	700.75
453.971	710.75
454.192	726.75
454.412	680.75
454.633	682.75
454.853	636.75
455.073	671.75
455.294	709.75
455.514	770.75
455.734	692.75
455.955	641.75
456.175	618.75
456.395	631.75
456.616	614.75
456.836	602.75
457.056	598.75
457.276	607.75
457.497	616.75
457.717	643.75
457.937	642.75
458.157	636.75
458.377	677.75
458.598	815.75
458.818	973.75
459.038	985.75
459.258	867.75
459.478	753.75
459.698	727.75
459.918	730.75
460.138	775.75
460.358	769.75
460.578	757.75
460.798	785.75
461.018	781.75
461.238	775.75
461.458	771.75
461.678	749.75
461.898	775.75
462.118	791.75
462.338	831.75
462.558	821.75
462.777	871.75
462.997	887.75
463.217	928.75
463.437	937.75
463.657	846.75
463.876	865.75
464.096	878.75
464.316	901.75
464.536	871.75
464.755	900.75
464.975	980.75
465.195	1160.75
465.414	1079.75
465.634	819.75
465.854	754.75
466.073	763.75
466.293	714.75
466.512	713.75
466.732	708.75
466.951	691.75
467.171	695.75
467.391	727.75
467.61	763.75
467.829	722.75
468.049	674.75
468.268	649.75
468.488	635.75
468.707	641.75
468.927	672.75
469.146	664.75
469.365	671.75
469.585	681.75
469.804	712.75
470.023	755.75
470.243	751.75
470.462	754.75
470.681	780.75
470.901	722.75
471.12	713.75
471.339	693.75
471.558	694.75
471.777	654.75
471.997	692.75
472.216	624.75
472.435	634.75
472.654	630.75
472.873	662.75
473.092	654.75
473.311	665.75
473.53	658.75
473.749	699.75
473.968	813.75
474.187	919.75
474.406	815.75
474.625	687.75
474.844	652.75
475.063	656.75
475.282	673.75
475.501	651.75
475.72	660.75
475.939	660.75
476.158	685.75
476.377	695.75
476.596	690.75
476.814	743.75
477.033	733.75
477.252	719.75
477.471	743.75
477.69	760.75
477.908	753.75
478.127	782.75
478.346	771.75
478.564	790.75
478.783	778.75
479.002	780.75
479.22	784.75
479.439	869.75
479.658	886.75
479.876	830.75
480.095	879.75
480.313	903.75
480.532	867.75
480.751	841.75
480.969	817.75
481.188	801.75
481.406	773.75
481.624	763.75
481.843	759.75
482.061	767.75
482.28	750.75
482.498	765.75
482.717	756.75
482.935	749.75
483.153	761.75
483.372	786.75
483.59	770.75
483.808	773.75
484.027	768.75
484.245	756.75
484.463	771.75
484.681	777.75
484.9	802.75
485.118	776.75
485.336	802.75
485.554	791.75
485.772	815.75
485.99	799.75
486.209	832.75
486.427	849.75
486.645	873.75
486.863	869.75
487.081	844.75
487.299	820.75
487.517	817.75
487.735	824.75
487.953	843.75
488.171	831.75
488.389	785.75
488.607	798.75
488.825	809.75
489.043	806.75
489.261	810.75
489.479	829.75
489.696	809.75
489.914	860.75
490.132	852.75
490.35	833.75
490.568	871.75
490.786	874.75
491.003	913.75
491.221	901.75
491.439	938.75
491.657	977.75
491.874	978.75
492.092	985.75
492.31	950.75
492.527	963.75
492.745	943.75
492.963	972.75
493.18	995.75
493.398	993.75
493.615	969.75
493.833	970.75
494.05	969.75
494.268	962.75
494.485	963.75
494.703	964.75
494.92	965.75
495.138	951.75
495.355	951.75
495.573	983.75
495.79	990.75
496.008	977.75
496.225	994.75
496.442	998.75
496.66	975.75
496.877	994.75
497.094	1003.75
497.312	1013.75
497.529	1022.75
497.746	1025.75
497.963	1055.75
498.181	1079.75
498.398	1120.75
498.615	1178.75
498.832	1228.75
499.049	1274.75
499.267	1360.75
499.484	1434.75
499.701	1487.75
499.918	1669.75
500.135	1782.75
500.352	1866.75
500.569	1920.75
500.786	1830.75
501.003	1770.75
501.22	1638.75
501.437	1532.75
501.654	1474.75
501.871	1419.75
