Data from TestCu_HRD10591_00090.txt Node
Date: Thu Oct 05 14:06:10 EDT 2023
User: Yrep
Spectrometer: HR+D1059
Trigger mode: 1
Integration Time (sec): 1.000000E-1
Scans to average: 1
Electric dark correction enabled: true
Nonlinearity correction enabled: false
Boxcar width: 0
XAxis mode: Wavelengths
Number of Pixels in Spectrum: 2048
>>>>>Begin Spectral Data<<<<<
223.165	-27.94
223.4	-27.94
223.635	-27.94
223.869	-17.94
224.104	-17.94
224.338	-15.94
224.573	-8.94
224.808	-6.94
225.042	-1.94
225.277	2.06
225.511	-2.94
225.746	-8.94
225.98	7.06
226.215	16.06
226.449	18.06
226.683	16.06
226.918	28.06
227.152	22.06
227.387	35.06
227.621	44.06
227.856	56.06
228.09	47.06
228.324	54.06
228.559	53.06
228.793	63.06
229.027	104.06
229.262	119.06
229.496	129.06
229.73	157.06
229.964	166.06
230.199	125.06
230.433	118.06
230.667	111.06
230.901	110.06
231.136	112.06
231.37	111.06
231.604	111.06
231.838	115.06
232.072	108.06
232.306	124.06
232.541	105.06
232.775	106.06
233.009	97.06
233.243	106.06
233.477	111.06
233.711	132.06
233.945	126.06
234.179	116.06
234.413	111.06
234.647	109.06
234.881	107.06
235.115	117.06
235.349	111.06
235.583	129.06
235.817	125.06
236.051	131.06
236.285	129.06
236.519	128.06
236.753	155.06
236.987	172.06
237.221	215.06
237.455	236.06
237.689	151.06
237.922	132.06
238.156	122.06
238.39	123.06
238.624	131.06
238.858	115.06
239.091	120.06
239.325	118.06
239.559	127.06
239.793	117.06
240.027	137.06
240.26	150.06
240.494	177.06
240.728	160.06
240.961	151.06
241.195	146.06
241.429	118.06
241.662	135.06
241.896	130.06
242.13	126.06
242.363	135.06
242.597	119.06
242.83	141.06
243.064	145.06
243.298	120.06
243.531	140.06
243.765	134.06
243.998	149.06
244.232	143.06
244.465	138.06
244.699	146.06
244.932	145.06
245.166	144.06
245.399	158.06
245.633	146.06
245.866	148.06
246.099	144.06
246.333	148.06
246.566	135.06
246.8	145.06
247.033	158.06
247.266	156.06
247.5	172.06
247.733	163.06
247.966	167.06
248.2	165.06
248.433	173.06
248.666	194.06
248.899	207.06
249.133	209.06
249.366	199.06
249.599	174.06
249.832	163.06
250.066	185.06
250.299	167.06
250.532	176.06
250.765	208.06
250.998	223.06
251.231	183.06
251.465	179.06
251.698	185.06
251.931	185.06
252.164	186.06
252.397	176.06
252.63	204.06
252.863	212.06
253.096	201.06
253.329	210.06
253.562	203.06
253.795	214.06
254.028	222.06
254.261	196.06
254.494	239.06
254.727	263.06
254.96	262.06
255.193	229.06
255.426	212.06
255.659	199.06
255.892	180.06
256.124	197.06
256.357	191.06
256.59	196.06
256.823	200.06
257.056	185.06
257.289	190.06
257.521	200.06
257.754	201.06
257.987	182.06
258.22	189.06
258.452	186.06
258.685	179.06
258.918	195.06
259.151	212.06
259.383	223.06
259.616	229.06
259.849	234.06
260.081	248.06
260.314	263.06
260.547	237.06
260.779	219.06
261.012	213.06
261.244	193.06
261.477	217.06
261.71	229.06
261.942	270.06
262.175	252.06
262.407	228.06
262.64	211.06
262.872	203.06
263.105	212.06
263.337	217.06
263.57	195.06
263.802	212.06
264.035	221.06
264.267	207.06
264.499	208.06
264.732	219.06
264.964	217.06
265.197	217.06
265.429	216.06
265.661	220.06
265.894	231.06
266.126	216.06
266.358	213.06
266.591	225.06
266.823	232.06
267.055	227.06
267.287	224.06
267.52	236.06
267.752	213.06
267.984	234.06
268.216	241.06
268.448	227.06
268.681	258.06
268.913	265.06
269.145	285.06
269.377	280.06
269.609	250.06
269.841	258.06
270.073	290.06
270.306	303.06
270.538	313.06
270.77	298.06
271.002	301.06
271.234	280.06
271.466	305.06
271.698	329.06
271.93	302.06
272.162	316.06
272.394	315.06
272.626	278.06
272.858	283.06
273.09	273.06
273.322	275.06
273.553	257.06
273.785	247.06
274.017	241.06
274.249	258.06
274.481	274.06
274.713	285.06
274.945	283.06
275.176	268.06
275.408	281.06
275.64	260.06
275.872	269.06
276.104	281.06
276.335	296.06
276.567	335.06
276.799	345.06
277.031	361.06
277.262	351.06
277.494	304.06
277.726	299.06
277.957	267.06
278.189	291.06
278.421	259.06
278.652	264.06
278.884	263.06
279.115	275.06
279.347	270.06
279.579	284.06
279.81	257.06
280.042	283.06
280.273	271.06
280.505	281.06
280.736	297.06
280.968	270.06
281.199	272.06
281.431	278.06
281.662	272.06
281.894	291.06
282.125	296.06
282.356	353.06
282.588	380.06
282.819	325.06
283.051	305.06
283.282	300.06
283.513	320.06
283.745	321.06
283.976	292.06
284.207	296.06
284.439	303.06
284.67	309.06
284.901	307.06
285.132	313.06
285.364	295.06
285.595	327.06
285.826	316.06
286.057	290.06
286.288	307.06
286.52	309.06
286.751	303.06
286.982	320.06
287.213	321.06
287.444	337.06
287.675	331.06
287.906	335.06
288.138	341.06
288.369	328.06
288.6	331.06
288.831	327.06
289.062	342.06
289.293	340.06
289.524	314.06
289.755	320.06
289.986	308.06
290.217	319.06
290.448	332.06
290.679	322.06
290.91	327.06
291.141	333.06
291.371	323.06
291.602	332.06
291.833	320.06
292.064	325.06
292.295	318.06
292.526	338.06
292.757	358.06
292.987	334.06
293.218	303.06
293.449	318.06
293.68	329.06
293.91	327.06
294.141	321.06
294.372	332.06
294.603	336.06
294.833	348.06
295.064	335.06
295.295	335.06
295.525	357.06
295.756	374.06
295.987	388.06
296.217	431.06
296.448	395.06
296.679	351.06
296.909	343.06
297.14	361.06
297.37	368.06
297.601	348.06
297.831	363.06
298.062	362.06
298.292	354.06
298.523	359.06
298.753	355.06
298.984	348.06
299.214	360.06
299.445	362.06
299.675	381.06
299.905	382.06
300.136	382.06
300.366	368.06
300.597	386.06
300.827	405.06
301.057	414.06
301.288	412.06
301.518	401.06
301.748	407.06
301.979	406.06
302.209	398.06
302.439	396.06
302.669	392.06
302.9	388.06
303.13	393.06
303.36	399.06
303.59	399.06
303.82	424.06
304.051	396.06
304.281	394.06
304.511	416.06
304.741	390.06
304.971	403.06
305.201	384.06
305.431	392.06
305.661	391.06
305.891	404.06
306.121	398.06
306.352	422.06
306.582	417.06
306.812	391.06
307.042	405.06
307.272	371.06
307.502	405.06
307.731	408.06
307.961	398.06
308.191	391.06
308.421	424.06
308.651	415.06
308.881	406.06
309.111	415.06
309.341	439.06
309.571	460.06
309.8	437.06
310.03	500.06
310.26	484.06
310.49	495.06
310.72	513.06
310.949	513.06
311.179	495.06
311.409	478.06
311.639	487.06
311.868	497.06
312.098	501.06
312.328	516.06
312.557	515.06
312.787	573.06
313.017	495.06
313.246	483.06
313.476	473.06
313.706	491.06
313.935	527.06
314.165	554.06
314.394	531.06
314.624	502.06
314.853	484.06
315.083	470.06
315.312	477.06
315.542	456.06
315.771	472.06
316.001	430.06
316.23	445.06
316.46	471.06
316.689	480.06
316.919	479.06
317.148	484.06
317.377	505.06
317.607	475.06
317.836	479.06
318.065	467.06
318.295	468.06
318.524	465.06
318.753	453.06
318.983	478.06
319.212	494.06
319.441	493.06
319.67	493.06
319.9	469.06
320.129	499.06
320.358	478.06
320.587	499.06
320.816	493.06
321.046	487.06
321.275	503.06
321.504	487.06
321.733	502.06
321.962	554.06
322.191	573.06
322.42	581.06
322.649	584.06
322.878	603.06
323.108	651.06
323.337	709.06
323.566	761.06
323.795	862.06
324.024	1142.06
324.253	1960.06
324.482	3432.06
324.71	4995.06
324.939	4392.06
325.168	1925.06
325.397	940.06
325.626	716.06
325.855	678.06
326.084	664.06
326.313	696.06
326.542	813.06
326.77	1119.06
326.999	1844.06
327.228	2943.06
327.457	3667.06
327.686	2399.06
327.914	1135.06
328.143	898.06
328.372	825.06
328.6	801.06
328.829	846.06
329.058	856.06
329.287	772.06
329.515	677.06
329.744	636.06
329.972	643.06
330.201	708.06
330.43	830.06
330.658	923.06
330.887	929.06
331.115	764.06
331.344	660.06
331.572	680.06
331.801	699.06
332.03	663.06
332.258	643.06
332.486	614.06
332.715	625.06
332.943	626.06
333.172	671.06
333.4	660.06
333.629	677.06
333.857	696.06
334.085	646.06
334.314	659.06
334.542	631.06
334.771	661.06
334.999	655.06
335.227	635.06
335.455	613.06
335.684	612.06
335.912	614.06
336.14	632.06
336.369	628.06
336.597	656.06
336.825	624.06
337.053	598.06
337.281	597.06
337.51	596.06
337.738	611.06
337.966	630.06
338.194	631.06
338.422	594.06
338.65	581.06
338.878	587.06
339.106	577.06
339.334	568.06
339.562	583.06
339.79	605.06
340.018	580.06
340.246	575.06
340.474	585.06
340.702	576.06
340.93	584.06
341.158	605.06
341.386	605.06
341.614	568.06
341.842	590.06
342.07	562.06
342.298	542.06
342.526	539.06
342.754	545.06
342.981	552.06
343.209	568.06
343.437	612.06
343.665	633.06
343.893	624.06
344.12	631.06
344.348	598.06
344.576	612.06
344.804	634.06
345.031	649.06
345.259	628.06
345.487	587.06
345.714	575.06
345.942	560.06
346.17	553.06
346.397	557.06
346.625	584.06
346.853	556.06
347.08	561.06
347.308	599.06
347.535	613.06
347.763	595.06
347.99	570.06
348.218	628.06
348.445	615.06
348.673	586.06
348.9	580.06
349.128	555.06
349.355	534.06
349.583	521.06
349.81	551.06
350.037	561.06
350.265	541.06
350.492	562.06
350.72	603.06
350.947	566.06
351.174	615.06
351.402	599.06
351.629	598.06
351.856	609.06
352.083	609.06
352.311	647.06
352.538	630.06
352.765	632.06
352.992	608.06
353.22	578.06
353.447	590.06
353.674	554.06
353.901	551.06
354.128	549.06
354.355	530.06
354.583	550.06
354.81	550.06
355.037	503.06
355.264	502.06
355.491	506.06
355.718	520.06
355.945	518.06
356.172	518.06
356.399	513.06
356.626	528.06
356.853	533.06
357.08	513.06
357.307	524.06
357.534	534.06
357.761	534.06
357.988	527.06
358.215	536.06
358.441	542.06
358.668	527.06
358.895	543.06
359.122	569.06
359.349	581.06
359.576	669.06
359.802	720.06
360.029	781.06
360.256	718.06
360.483	629.06
360.709	585.06
360.936	588.06
361.163	599.06
361.39	607.06
361.616	596.06
361.843	616.06
362.07	609.06
362.296	601.06
362.523	607.06
362.749	598.06
362.976	559.06
363.203	563.06
363.429	569.06
363.656	566.06
363.882	545.06
364.109	556.06
364.335	557.06
364.562	553.06
364.788	561.06
365.015	576.06
365.241	588.06
365.468	576.06
365.694	592.06
365.92	582.06
366.147	550.06
366.373	560.06
366.599	568.06
366.826	555.06
367.052	550.06
367.278	549.06
367.505	569.06
367.731	581.06
367.957	559.06
368.184	570.06
368.41	588.06
368.636	594.06
368.862	605.06
369.089	561.06
369.315	569.06
369.541	572.06
369.767	591.06
369.993	603.06
370.219	569.06
370.445	552.06
370.672	563.06
370.898	559.06
371.124	565.06
371.35	561.06
371.576	579.06
371.802	566.06
372.028	552.06
372.254	566.06
372.48	596.06
372.706	577.06
372.932	590.06
373.158	549.06
373.384	587.06
373.61	567.06
373.835	599.06
374.061	589.06
374.287	621.06
374.513	607.06
374.739	601.06
374.965	627.06
375.191	615.06
375.416	603.06
375.642	590.06
375.868	595.06
376.094	595.06
376.319	583.06
376.545	562.06
376.771	575.06
376.997	591.06
377.222	593.06
377.448	554.06
377.674	533.06
377.899	587.06
378.125	576.06
378.35	548.06
378.576	560.06
378.802	558.06
379.027	566.06
379.253	554.06
379.478	562.06
379.704	599.06
379.929	583.06
380.155	584.06
380.38	579.06
380.606	585.06
380.831	579.06
381.057	592.06
381.282	574.06
381.507	567.06
381.733	580.06
381.958	590.06
382.184	615.06
382.409	607.06
382.634	614.06
382.86	606.06
383.085	606.06
383.31	622.06
383.535	637.06
383.761	626.06
383.986	629.06
384.211	641.06
384.436	654.06
384.662	679.06
384.887	671.06
385.112	669.06
385.337	665.06
385.562	653.06
385.787	664.06
386.013	677.06
386.238	699.06
386.463	674.06
386.688	695.06
386.913	681.06
387.138	653.06
387.363	663.06
387.588	652.06
387.813	655.06
388.038	641.06
388.263	685.06
388.488	659.06
388.713	675.06
388.938	650.06
389.163	664.06
389.387	685.06
389.612	656.06
389.837	647.06
390.062	669.06
390.287	687.06
390.512	675.06
390.736	708.06
390.961	686.06
391.186	673.06
391.411	727.06
391.636	741.06
391.86	744.06
392.085	748.06
392.31	701.06
392.534	693.06
392.759	681.06
392.984	697.06
393.208	685.06
393.433	702.06
393.658	701.06
393.882	701.06
394.107	696.06
394.331	708.06
394.556	689.06
394.78	703.06
395.005	713.06
395.229	723.06
395.454	737.06
395.678	735.06
395.903	728.06
396.127	716.06
396.352	722.06
396.576	714.06
396.801	667.06
397.025	714.06
397.249	736.06
397.474	739.06
397.698	739.06
397.922	748.06
398.147	793.06
398.371	786.06
398.595	816.06
398.82	848.06
399.044	908.06
399.268	981.06
399.492	1060.06
399.717	1109.06
399.941	1017.06
400.165	1013.06
400.389	966.06
400.613	889.06
400.837	856.06
401.062	843.06
401.286	824.06
401.51	829.06
401.734	808.06
401.958	851.06
402.182	903.06
402.406	927.06
402.63	869.06
402.854	884.06
403.078	879.06
403.302	883.06
403.526	904.06
403.75	894.06
403.974	927.06
404.198	904.06
404.422	935.06
404.645	893.06
404.869	911.06
405.093	939.06
405.317	967.06
405.541	948.06
405.765	939.06
405.988	961.06
406.212	1061.06
406.436	1076.06
406.66	1039.06
406.883	1022.06
407.107	1069.06
407.331	1131.06
407.555	1165.06
407.778	1081.06
408.002	1009.06
408.226	957.06
408.449	951.06
408.673	972.06
408.896	975.06
409.12	959.06
409.344	936.06
409.567	884.06
409.791	883.06
410.014	844.06
410.238	839.06
410.461	879.06
410.685	872.06
410.908	895.06
411.132	897.06
411.355	912.06
411.578	870.06
411.802	877.06
412.025	862.06
412.249	857.06
412.472	858.06
412.695	819.06
412.919	798.06
413.142	822.06
413.365	826.06
413.589	805.06
413.812	795.06
414.035	795.06
414.258	799.06
414.482	806.06
414.705	796.06
414.928	800.06
415.151	787.06
415.374	807.06
415.597	759.06
415.821	779.06
416.044	800.06
416.267	794.06
416.49	787.06
416.713	779.06
416.936	795.06
417.159	819.06
417.382	796.06
417.605	777.06
417.828	837.06
418.051	829.06
418.274	817.06
418.497	793.06
418.72	825.06
418.943	807.06
419.166	835.06
419.389	845.06
419.611	839.06
419.834	859.06
420.057	845.06
420.28	811.06
420.503	792.06
420.726	827.06
420.948	849.06
421.171	907.06
421.394	880.06
421.617	792.06
421.839	813.06
422.062	843.06
422.285	873.06
422.507	944.06
422.73	969.06
422.953	912.06
423.175	845.06
423.398	866.06
423.621	876.06
423.843	876.06
424.066	892.06
424.288	887.06
424.511	952.06
424.733	981.06
424.956	1076.06
425.178	1005.06
425.401	979.06
425.623	949.06
425.846	855.06
426.068	833.06
426.291	830.06
426.513	836.06
426.735	884.06
426.958	989.06
427.18	1097.06
427.402	1299.06
427.625	1273.06
427.847	1000.06
428.069	846.06
428.292	798.06
428.514	768.06
428.736	746.06
428.958	749.06
429.181	733.06
429.403	753.06
429.625	769.06
429.847	826.06
430.069	892.06
430.292	804.06
430.514	720.06
430.736	737.06
430.958	743.06
431.18	742.06
431.402	719.06
431.624	723.06
431.846	719.06
432.068	718.06
432.29	743.06
432.512	726.06
432.734	764.06
432.956	740.06
433.178	763.06
433.4	748.06
433.622	764.06
433.844	753.06
434.066	773.06
434.287	757.06
434.509	753.06
434.731	792.06
434.953	839.06
435.175	835.06
435.397	864.06
435.618	865.06
435.84	949.06
436.062	1042.06
436.284	952.06
436.505	850.06
436.727	811.06
436.949	758.06
437.17	758.06
437.392	757.06
437.614	815.06
437.835	964.06
438.057	1039.06
438.278	1080.06
438.5	1060.06
438.721	1120.06
438.943	956.06
439.165	845.06
439.386	839.06
439.608	834.06
439.829	909.06
440.05	949.06
440.272	999.06
440.493	851.06
440.715	777.06
440.936	794.06
441.158	815.06
441.379	839.06
441.6	863.06
441.822	897.06
442.043	973.06
442.264	1069.06
442.486	969.06
442.707	914.06
442.928	918.06
443.149	950.06
443.371	1007.06
443.592	1041.06
443.813	1120.06
444.034	1099.06
444.255	925.06
444.476	901.06
444.698	910.06
444.919	905.06
445.14	975.06
445.361	952.06
445.582	1045.06
445.803	1201.06
446.024	1227.06
446.245	1142.06
446.466	979.06
446.687	855.06
446.908	800.06
447.129	788.06
447.35	756.06
447.571	742.06
447.792	744.06
448.013	811.06
448.234	859.06
448.455	931.06
448.675	1060.06
448.896	1039.06
449.117	904.06
449.338	975.06
449.559	1105.06
449.779	1067.06
450	821.06
450.221	756.06
450.442	755.06
450.662	784.06
450.883	811.06
451.104	851.06
451.324	751.06
451.545	697.06
451.766	668.06
451.986	668.06
452.207	677.06
452.428	683.06
452.648	696.06
452.869	719.06
453.089	709.06
453.31	726.06
453.53	657.06
453.751	695.06
453.971	728.06
454.192	734.06
454.412	660.06
454.633	662.06
454.853	662.06
455.073	669.06
455.294	738.06
455.514	776.06
455.734	698.06
455.955	647.06
456.175	639.06
456.395	605.06
456.616	621.06
456.836	613.06
457.056	607.06
457.276	615.06
457.497	645.06
457.717	635.06
457.937	655.06
458.157	669.06
458.377	708.06
458.598	793.06
458.818	1019.06
459.038	1017.06
459.258	886.06
459.478	789.06
459.698	761.06
459.918	769.06
460.138	779.06
460.358	801.06
460.578	805.06
460.798	786.06
461.018	783.06
461.238	764.06
461.458	793.06
461.678	794.06
461.898	811.06
462.118	805.06
462.338	846.06
462.558	854.06
462.777	891.06
462.997	961.06
463.217	954.06
463.437	918.06
463.657	908.06
463.876	826.06
464.096	887.06
464.316	925.06
464.536	898.06
464.755	899.06
464.975	959.06
465.195	1169.06
465.414	1094.06
465.634	823.06
465.854	769.06
466.073	747.06
466.293	696.06
466.512	712.06
466.732	684.06
466.951	695.06
467.171	688.06
467.391	735.06
467.61	752.06
467.829	735.06
468.049	695.06
468.268	673.06
468.488	653.06
468.707	654.06
468.927	648.06
469.146	678.06
469.365	673.06
469.585	698.06
469.804	734.06
470.023	739.06
470.243	752.06
470.462	784.06
470.681	797.06
470.901	743.06
471.12	730.06
471.339	736.06
471.558	701.06
471.777	662.06
471.997	654.06
472.216	647.06
472.435	644.06
472.654	648.06
472.873	647.06
473.092	662.06
473.311	659.06
473.53	677.06
473.749	669.06
473.968	806.06
474.187	931.06
474.406	814.06
474.625	701.06
474.844	656.06
475.063	687.06
475.282	652.06
475.501	676.06
475.72	694.06
475.939	677.06
476.158	691.06
476.377	713.06
476.596	697.06
476.814	715.06
477.033	741.06
477.252	720.06
477.471	741.06
477.69	736.06
477.908	754.06
478.127	768.06
478.346	778.06
478.564	799.06
478.783	798.06
479.002	805.06
479.22	831.06
479.439	880.06
479.658	889.06
479.876	868.06
480.095	901.06
480.313	912.06
480.532	872.06
480.751	852.06
480.969	832.06
481.188	805.06
481.406	779.06
481.624	785.06
481.843	780.06
482.061	776.06
482.28	758.06
482.498	749.06
482.717	751.06
482.935	769.06
483.153	783.06
483.372	791.06
483.59	764.06
483.808	765.06
484.027	776.06
484.245	760.06
484.463	787.06
484.681	802.06
484.9	819.06
485.118	811.06
485.336	780.06
485.554	815.06
485.772	797.06
485.99	809.06
486.209	807.06
486.427	843.06
486.645	877.06
486.863	877.06
487.081	852.06
487.299	866.06
487.517	810.06
487.735	826.06
487.953	839.06
488.171	826.06
488.389	851.06
488.607	834.06
488.825	831.06
489.043	831.06
489.261	816.06
489.479	837.06
489.696	834.06
489.914	848.06
490.132	855.06
490.35	866.06
490.568	895.06
490.786	889.06
491.003	947.06
491.221	949.06
491.439	953.06
491.657	940.06
491.874	987.06
492.092	975.06
492.31	957.06
492.527	956.06
492.745	953.06
492.963	977.06
493.18	1008.06
493.398	975.06
493.615	1011.06
493.833	980.06
494.05	976.06
494.268	998.06
494.485	950.06
494.703	956.06
494.92	956.06
495.138	970.06
495.355	974.06
495.573	999.06
495.79	985.06
496.008	975.06
496.225	980.06
496.442	940.06
496.66	984.06
496.877	993.06
497.094	989.06
497.312	999.06
497.529	1007.06
497.746	1030.06
497.963	1074.06
498.181	1125.06
498.398	1110.06
498.615	1207.06
498.832	1259.06
499.049	1280.06
499.267	1340.06
499.484	1438.06
499.701	1526.06
499.918	1667.06
500.135	1806.06
500.352	1907.06
500.569	1908.06
500.786	1847.06
501.003	1748.06
501.22	1622.06
501.437	1550.06
501.654	1480.06
