Data from TestCu_HRD10591_00011.txt Node
Date: Thu Oct 05 14:04:52 EDT 2023
User: Yrep
Spectrometer: HR+D1059
Trigger mode: 1
Integration Time (sec): 1.000000E-1
Scans to average: 1
Electric dark correction enabled: true
Nonlinearity correction enabled: false
Boxcar width: 0
XAxis mode: Wavelengths
Number of Pixels in Spectrum: 2048
>>>>>Begin Spectral Data<<<<<
223.165	-18.38
223.4	-18.38
223.635	-18.38
223.869	-15.38
224.104	-19.38
224.338	-19.38
224.573	-3.38
224.808	-8.38
225.042	0.62
225.277	-13.38
225.511	1.62
225.746	-3.38
225.98	6.62
226.215	19.62
226.449	20.62
226.683	24.62
226.918	12.62
227.152	14.62
227.387	37.62
227.621	36.62
227.856	38.62
228.09	44.62
228.324	54.62
228.559	72.62
228.793	45.62
229.027	104.62
229.262	112.62
229.496	141.62
229.73	171.62
229.964	154.62
230.199	119.62
230.433	113.62
230.667	116.62
230.901	112.62
231.136	93.62
231.37	107.62
231.604	106.62
231.838	101.62
232.072	107.62
232.306	109.62
232.541	119.62
232.775	115.62
233.009	106.62
233.243	107.62
233.477	106.62
233.711	116.62
233.945	125.62
234.179	114.62
234.413	112.62
234.647	122.62
234.881	115.62
235.115	107.62
235.349	118.62
235.583	118.62
235.817	124.62
236.051	122.62
236.285	121.62
236.519	126.62
236.753	156.62
236.987	153.62
237.221	226.62
237.455	223.62
237.689	143.62
237.922	124.62
238.156	139.62
238.39	117.62
238.624	123.62
238.858	116.62
239.091	125.62
239.325	115.62
239.559	133.62
239.793	106.62
240.027	132.62
240.26	156.62
240.494	178.62
240.728	154.62
240.961	165.62
241.195	128.62
241.429	133.62
241.662	113.62
241.896	131.62
242.13	124.62
242.363	121.62
242.597	131.62
242.83	144.62
243.064	136.62
243.298	126.62
243.531	118.62
243.765	123.62
243.998	119.62
244.232	134.62
244.465	165.62
244.699	153.62
244.932	125.62
245.166	131.62
245.399	148.62
245.633	158.62
245.866	137.62
246.099	134.62
246.333	145.62
246.566	147.62
246.8	148.62
247.033	150.62
247.266	147.62
247.5	157.62
247.733	170.62
247.966	152.62
248.2	153.62
248.433	150.62
248.666	182.62
248.899	174.62
249.133	189.62
249.366	189.62
249.599	175.62
249.832	142.62
250.066	188.62
250.299	180.62
250.532	191.62
250.765	193.62
250.998	203.62
251.231	196.62
251.465	196.62
251.698	168.62
251.931	180.62
252.164	186.62
252.397	178.62
252.63	196.62
252.863	186.62
253.096	217.62
253.329	206.62
253.562	199.62
253.795	187.62
254.028	181.62
254.261	205.62
254.494	244.62
254.727	266.62
254.96	233.62
255.193	217.62
255.426	200.62
255.659	182.62
255.892	203.62
256.124	196.62
256.357	180.62
256.59	200.62
256.823	186.62
257.056	201.62
257.289	194.62
257.521	191.62
257.754	189.62
257.987	185.62
258.22	195.62
258.452	195.62
258.685	190.62
258.918	200.62
259.151	198.62
259.383	221.62
259.616	202.62
259.849	205.62
260.081	238.62
260.314	249.62
260.547	232.62
260.779	210.62
261.012	222.62
261.244	208.62
261.477	216.62
261.71	222.62
261.942	237.62
262.175	265.62
262.407	213.62
262.64	210.62
262.872	211.62
263.105	225.62
263.337	205.62
263.57	203.62
263.802	196.62
264.035	224.62
264.267	191.62
264.499	222.62
264.732	198.62
264.964	213.62
265.197	198.62
265.429	206.62
265.661	222.62
265.894	198.62
266.126	198.62
266.358	223.62
266.591	217.62
266.823	215.62
267.055	225.62
267.287	216.62
267.52	229.62
267.752	217.62
267.984	214.62
268.216	241.62
268.448	231.62
268.681	242.62
268.913	265.62
269.145	281.62
269.377	276.62
269.609	264.62
269.841	273.62
270.073	294.62
270.306	335.62
270.538	316.62
270.77	274.62
271.002	255.62
271.234	282.62
271.466	313.62
271.698	333.62
271.93	314.62
272.162	322.62
272.394	294.62
272.626	285.62
272.858	269.62
273.09	257.62
273.322	277.62
273.553	264.62
273.785	256.62
274.017	258.62
274.249	252.62
274.481	268.62
274.713	271.62
274.945	261.62
275.176	263.62
275.408	258.62
275.64	266.62
275.872	259.62
276.104	273.62
276.335	283.62
276.567	306.62
276.799	342.62
277.031	343.62
277.262	338.62
277.494	314.62
277.726	284.62
277.957	261.62
278.189	286.62
278.421	288.62
278.652	260.62
278.884	257.62
279.115	259.62
279.347	275.62
279.579	293.62
279.81	280.62
280.042	268.62
280.273	266.62
280.505	257.62
280.736	284.62
280.968	253.62
281.199	285.62
281.431	291.62
281.662	275.62
281.894	283.62
282.125	305.62
282.356	339.62
282.588	349.62
282.819	311.62
283.051	293.62
283.282	298.62
283.513	306.62
283.745	293.62
283.976	306.62
284.207	294.62
284.439	292.62
284.67	284.62
284.901	304.62
285.132	288.62
285.364	299.62
285.595	312.62
285.826	307.62
286.057	306.62
286.288	291.62
286.52	299.62
286.751	304.62
286.982	304.62
287.213	299.62
287.444	297.62
287.675	317.62
287.906	333.62
288.138	324.62
288.369	341.62
288.6	340.62
288.831	317.62
289.062	304.62
289.293	314.62
289.524	313.62
289.755	325.62
289.986	327.62
290.217	307.62
290.448	308.62
290.679	290.62
290.91	313.62
291.141	320.62
291.371	322.62
291.602	315.62
291.833	314.62
292.064	326.62
292.295	320.62
292.526	323.62
292.757	323.62
292.987	318.62
293.218	320.62
293.449	327.62
293.68	329.62
293.91	338.62
294.141	338.62
294.372	338.62
294.603	323.62
294.833	341.62
295.064	339.62
295.295	326.62
295.525	346.62
295.756	364.62
295.987	395.62
296.217	430.62
296.448	380.62
296.679	355.62
296.909	349.62
297.14	347.62
297.37	350.62
297.601	356.62
297.831	360.62
298.062	348.62
298.292	364.62
298.523	373.62
298.753	359.62
298.984	368.62
299.214	354.62
299.445	354.62
299.675	362.62
299.905	365.62
300.136	374.62
300.366	364.62
300.597	381.62
300.827	375.62
301.057	414.62
301.288	387.62
301.518	389.62
301.748	400.62
301.979	408.62
302.209	391.62
302.439	397.62
302.669	390.62
302.9	381.62
303.13	378.62
303.36	393.62
303.59	413.62
303.82	389.62
304.051	388.62
304.281	384.62
304.511	389.62
304.741	397.62
304.971	383.62
305.201	385.62
305.431	380.62
305.661	374.62
305.891	388.62
306.121	407.62
306.352	385.62
306.582	424.62
306.812	374.62
307.042	408.62
307.272	381.62
307.502	396.62
307.731	386.62
307.961	389.62
308.191	390.62
308.421	393.62
308.651	388.62
308.881	399.62
309.111	404.62
309.341	401.62
309.571	431.62
309.8	450.62
310.03	467.62
310.26	485.62
310.49	484.62
310.72	510.62
310.949	516.62
311.179	472.62
311.409	435.62
311.639	469.62
311.868	462.62
312.098	487.62
312.328	536.62
312.557	532.62
312.787	526.62
313.017	501.62
313.246	475.62
313.476	459.62
313.706	472.62
313.935	498.62
314.165	514.62
314.394	510.62
314.624	474.62
314.853	467.62
315.083	449.62
315.312	443.62
315.542	447.62
315.771	447.62
316.001	454.62
316.23	469.62
316.46	457.62
316.689	480.62
316.919	464.62
317.148	480.62
317.377	476.62
317.607	460.62
317.836	451.62
318.065	478.62
318.295	461.62
318.524	444.62
318.753	457.62
318.983	468.62
319.212	483.62
319.441	503.62
319.67	465.62
319.9	479.62
320.129	481.62
320.358	471.62
320.587	491.62
320.816	505.62
321.046	502.62
321.275	479.62
321.504	508.62
321.733	518.62
321.962	511.62
322.191	544.62
322.42	579.62
322.649	590.62
322.878	600.62
323.108	640.62
323.337	699.62
323.566	741.62
323.795	869.62
324.024	1124.62
324.253	1945.62
324.482	3308.62
324.71	4964.62
324.939	4433.62
325.168	1931.62
325.397	945.62
325.626	736.62
325.855	644.62
326.084	660.62
326.313	680.62
326.542	775.62
326.77	1083.62
326.999	1801.62
327.228	2928.62
327.457	3712.62
327.686	2422.62
327.914	1154.62
328.143	890.62
328.372	804.62
328.6	771.62
328.829	800.62
329.058	841.62
329.287	794.62
329.515	674.62
329.744	641.62
329.972	604.62
330.201	667.62
330.43	793.62
330.658	903.62
330.887	916.62
331.115	779.62
331.344	658.62
331.572	678.62
331.801	670.62
332.03	644.62
332.258	624.62
332.486	609.62
332.715	600.62
332.943	655.62
333.172	644.62
333.4	657.62
333.629	671.62
333.857	696.62
334.085	630.62
334.314	626.62
334.542	634.62
334.771	646.62
334.999	649.62
335.227	639.62
335.455	631.62
335.684	607.62
335.912	612.62
336.14	620.62
336.369	644.62
336.597	634.62
336.825	620.62
337.053	597.62
337.281	581.62
337.51	574.62
337.738	608.62
337.966	611.62
338.194	608.62
338.422	589.62
338.65	583.62
338.878	577.62
339.106	529.62
339.334	564.62
339.562	554.62
339.79	560.62
340.018	576.62
340.246	576.62
340.474	600.62
340.702	556.62
340.93	578.62
341.158	585.62
341.386	568.62
341.614	577.62
341.842	564.62
342.07	564.62
342.298	561.62
342.526	541.62
342.754	529.62
342.981	541.62
343.209	566.62
343.437	589.62
343.665	603.62
343.893	604.62
344.12	618.62
344.348	605.62
344.576	624.62
344.804	618.62
345.031	628.62
345.259	615.62
345.487	610.62
345.714	554.62
345.942	563.62
346.17	560.62
346.397	548.62
346.625	546.62
346.853	541.62
347.08	561.62
347.308	584.62
347.535	579.62
347.763	592.62
347.99	579.62
348.218	603.62
348.445	609.62
348.673	580.62
348.9	573.62
349.128	533.62
349.355	534.62
349.583	541.62
349.81	536.62
350.037	528.62
350.265	537.62
350.492	541.62
350.72	561.62
350.947	578.62
351.174	597.62
351.402	581.62
351.629	577.62
351.856	576.62
352.083	589.62
352.311	616.62
352.538	609.62
352.765	607.62
352.992	569.62
353.22	587.62
353.447	562.62
353.674	546.62
353.901	520.62
354.128	515.62
354.355	532.62
354.583	525.62
354.81	523.62
355.037	508.62
355.264	529.62
355.491	485.62
355.718	530.62
355.945	507.62
356.172	509.62
356.399	499.62
356.626	509.62
356.853	520.62
357.08	516.62
357.307	493.62
357.534	498.62
357.761	529.62
357.988	523.62
358.215	512.62
358.441	534.62
358.668	494.62
358.895	532.62
359.122	550.62
359.349	580.62
359.576	621.62
359.802	703.62
360.029	725.62
360.256	697.62
360.483	602.62
360.709	560.62
360.936	581.62
361.163	582.62
361.39	587.62
361.616	581.62
361.843	568.62
362.07	586.62
362.296	586.62
362.523	581.62
362.749	571.62
362.976	577.62
363.203	564.62
363.429	547.62
363.656	567.62
363.882	543.62
364.109	554.62
364.335	545.62
364.562	554.62
364.788	552.62
365.015	565.62
365.241	572.62
365.468	555.62
365.694	568.62
365.92	579.62
366.147	532.62
366.373	562.62
366.599	553.62
366.826	529.62
367.052	561.62
367.278	556.62
367.505	534.62
367.731	537.62
367.957	570.62
368.184	548.62
368.41	584.62
368.636	581.62
368.862	565.62
369.089	554.62
369.315	561.62
369.541	551.62
369.767	570.62
369.993	574.62
370.219	567.62
370.445	556.62
370.672	555.62
370.898	571.62
371.124	571.62
371.35	565.62
371.576	564.62
371.802	557.62
372.028	554.62
372.254	574.62
372.48	561.62
372.706	564.62
372.932	559.62
373.158	580.62
373.384	551.62
373.61	588.62
373.835	579.62
374.061	585.62
374.287	580.62
374.513	578.62
374.739	621.62
374.965	602.62
375.191	606.62
375.416	602.62
375.642	566.62
375.868	580.62
376.094	574.62
376.319	585.62
376.545	565.62
376.771	572.62
376.997	560.62
377.222	557.62
377.448	564.62
377.674	551.62
377.899	562.62
378.125	551.62
378.35	551.62
378.576	529.62
378.802	548.62
379.027	548.62
379.253	547.62
379.478	558.62
379.704	567.62
379.929	564.62
380.155	573.62
380.38	568.62
380.606	568.62
380.831	579.62
381.057	571.62
381.282	561.62
381.507	563.62
381.733	580.62
381.958	597.62
382.184	580.62
382.409	626.62
382.634	584.62
382.86	572.62
383.085	583.62
383.31	612.62
383.535	615.62
383.761	603.62
383.986	629.62
384.211	614.62
384.436	633.62
384.662	634.62
384.887	663.62
385.112	653.62
385.337	652.62
385.562	669.62
385.787	674.62
386.013	680.62
386.238	684.62
386.463	658.62
386.688	697.62
386.913	653.62
387.138	655.62
387.363	670.62
387.588	636.62
387.813	677.62
388.038	650.62
388.263	670.62
388.488	661.62
388.713	666.62
388.938	637.62
389.163	657.62
389.387	653.62
389.612	637.62
389.837	666.62
390.062	644.62
390.287	629.62
390.512	648.62
390.736	634.62
390.961	668.62
391.186	688.62
391.411	712.62
391.636	712.62
391.86	720.62
392.085	709.62
392.31	697.62
392.534	662.62
392.759	664.62
392.984	688.62
393.208	679.62
393.433	687.62
393.658	682.62
393.882	690.62
394.107	688.62
394.331	691.62
394.556	701.62
394.78	700.62
395.005	716.62
395.229	706.62
395.454	733.62
395.678	716.62
395.903	761.62
396.127	716.62
396.352	730.62
396.576	716.62
396.801	700.62
397.025	720.62
397.249	733.62
397.474	732.62
397.698	750.62
397.922	750.62
398.147	775.62
398.371	775.62
398.595	793.62
398.82	817.62
399.044	876.62
399.268	982.62
399.492	1070.62
399.717	1066.62
399.941	1024.62
400.165	976.62
400.389	928.62
400.613	879.62
400.837	840.62
401.062	816.62
401.286	832.62
401.51	826.62
401.734	826.62
401.958	852.62
402.182	881.62
402.406	908.62
402.63	886.62
402.854	859.62
403.078	866.62
403.302	906.62
403.526	887.62
403.75	906.62
403.974	890.62
404.198	885.62
404.422	897.62
404.645	896.62
404.869	884.62
405.093	909.62
405.317	896.62
405.541	928.62
405.765	892.62
405.988	937.62
406.212	1005.62
406.436	1067.62
406.66	1049.62
406.883	993.62
407.107	1022.62
407.331	1097.62
407.555	1136.62
407.778	1072.62
408.002	973.62
408.226	938.62
408.449	921.62
408.673	936.62
408.896	933.62
409.12	962.62
409.344	924.62
409.567	875.62
409.791	871.62
410.014	860.62
410.238	820.62
410.461	828.62
410.685	863.62
410.908	902.62
411.132	890.62
411.355	894.62
411.578	848.62
411.802	836.62
412.025	815.62
412.249	863.62
412.472	831.62
412.695	815.62
412.919	784.62
413.142	795.62
413.365	784.62
413.589	786.62
413.812	770.62
414.035	792.62
414.258	768.62
414.482	774.62
414.705	803.62
414.928	783.62
415.151	774.62
415.374	794.62
415.597	773.62
415.821	770.62
416.044	782.62
416.267	779.62
416.49	770.62
416.713	758.62
416.936	776.62
417.159	784.62
417.382	800.62
417.605	808.62
417.828	816.62
418.051	837.62
418.274	788.62
418.497	799.62
418.72	805.62
418.943	787.62
419.166	826.62
419.389	814.62
419.611	833.62
419.834	814.62
420.057	795.62
420.28	803.62
420.503	778.62
420.726	802.62
420.948	813.62
421.171	865.62
421.394	863.62
421.617	813.62
421.839	801.62
422.062	810.62
422.285	858.62
422.507	927.62
422.73	956.62
422.953	882.62
423.175	851.62
423.398	886.62
423.621	860.62
423.843	862.62
424.066	853.62
424.288	880.62
424.511	936.62
424.733	973.62
424.956	1015.62
425.178	981.62
425.401	984.62
425.623	901.62
425.846	848.62
426.068	852.62
426.291	812.62
426.513	822.62
426.735	834.62
426.958	950.62
427.18	1066.62
427.402	1216.62
427.625	1261.62
427.847	970.62
428.069	806.62
428.292	776.62
428.514	747.62
428.736	732.62
428.958	738.62
429.181	715.62
429.403	736.62
429.625	789.62
429.847	821.62
430.069	851.62
430.292	773.62
430.514	738.62
430.736	734.62
430.958	727.62
431.18	708.62
431.402	702.62
431.624	702.62
431.846	697.62
432.068	700.62
432.29	721.62
432.512	720.62
432.734	724.62
432.956	744.62
433.178	720.62
433.4	728.62
433.622	735.62
433.844	714.62
434.066	718.62
434.287	733.62
434.509	754.62
434.731	768.62
434.953	792.62
435.175	816.62
435.397	820.62
435.618	871.62
435.84	926.62
436.062	1018.62
436.284	961.62
436.505	799.62
436.727	760.62
436.949	767.62
437.17	747.62
437.392	744.62
437.614	802.62
437.835	922.62
438.057	1012.62
438.278	1062.62
438.5	1036.62
438.721	1088.62
438.943	950.62
439.165	797.62
439.386	812.62
439.608	825.62
439.829	876.62
440.05	968.62
440.272	962.62
440.493	817.62
440.715	780.62
440.936	788.62
441.158	772.62
441.379	806.62
441.6	842.62
441.822	868.62
442.043	949.62
442.264	997.62
442.486	928.62
442.707	862.62
442.928	906.62
443.149	951.62
443.371	1001.62
443.592	1039.62
443.813	1104.62
444.034	1054.62
444.255	932.62
444.476	893.62
444.698	928.62
444.919	893.62
445.14	938.62
445.361	976.62
445.582	1022.62
445.803	1164.62
446.024	1198.62
446.245	1113.62
446.466	957.62
446.687	834.62
446.908	773.62
447.129	767.62
447.35	730.62
447.571	750.62
447.792	734.62
448.013	736.62
448.234	810.62
448.455	913.62
448.675	1038.62
448.896	1017.62
449.117	873.62
449.338	944.62
449.559	1075.62
449.779	1049.62
450	808.62
450.221	745.62
450.442	733.62
450.662	757.62
450.883	798.62
451.104	828.62
451.324	748.62
451.545	696.62
451.766	689.62
451.986	661.62
452.207	674.62
452.428	674.62
452.648	699.62
452.869	714.62
453.089	699.62
453.31	694.62
453.53	671.62
453.751	688.62
453.971	734.62
454.192	741.62
454.412	682.62
454.633	665.62
454.853	629.62
455.073	664.62
455.294	740.62
455.514	764.62
455.734	673.62
455.955	625.62
456.175	602.62
456.395	591.62
456.616	607.62
456.836	602.62
457.056	602.62
457.276	602.62
457.497	613.62
457.717	600.62
457.937	630.62
458.157	642.62
458.377	677.62
458.598	784.62
458.818	990.62
459.038	990.62
459.258	872.62
459.478	748.62
459.698	736.62
459.918	730.62
460.138	757.62
460.358	753.62
460.578	763.62
460.798	776.62
461.018	806.62
461.238	773.62
461.458	788.62
461.678	773.62
461.898	781.62
462.118	765.62
462.338	821.62
462.558	853.62
462.777	872.62
462.997	906.62
463.217	951.62
463.437	892.62
463.657	879.62
463.876	843.62
464.096	881.62
464.316	872.62
464.536	877.62
464.755	883.62
464.975	961.62
465.195	1152.62
465.414	1060.62
465.634	841.62
465.854	762.62
466.073	728.62
466.293	729.62
466.512	700.62
466.732	701.62
466.951	689.62
467.171	693.62
467.391	740.62
467.61	757.62
467.829	734.62
468.049	689.62
468.268	665.62
468.488	637.62
468.707	654.62
468.927	652.62
469.146	660.62
469.365	687.62
469.585	700.62
469.804	709.62
470.023	750.62
470.243	736.62
470.462	773.62
470.681	773.62
470.901	716.62
471.12	703.62
471.339	680.62
471.558	685.62
471.777	666.62
471.997	632.62
472.216	653.62
472.435	637.62
472.654	640.62
472.873	646.62
473.092	633.62
473.311	665.62
473.53	636.62
473.749	694.62
473.968	800.62
474.187	882.62
474.406	771.62
474.625	670.62
474.844	662.62
475.063	649.62
475.282	636.62
475.501	669.62
475.72	676.62
475.939	667.62
476.158	646.62
476.377	688.62
476.596	680.62
476.814	724.62
477.033	730.62
477.252	716.62
477.471	719.62
477.69	747.62
477.908	748.62
478.127	764.62
478.346	765.62
478.564	789.62
478.783	774.62
479.002	794.62
479.22	809.62
479.439	873.62
479.658	852.62
479.876	861.62
480.095	881.62
480.313	885.62
480.532	859.62
480.751	838.62
480.969	834.62
481.188	826.62
481.406	778.62
481.624	755.62
481.843	777.62
482.061	768.62
482.28	740.62
482.498	737.62
482.717	742.62
482.935	762.62
483.153	749.62
483.372	740.62
483.59	747.62
483.808	763.62
484.027	746.62
484.245	763.62
484.463	796.62
484.681	796.62
484.9	784.62
485.118	798.62
485.336	807.62
485.554	798.62
485.772	796.62
485.99	793.62
486.209	798.62
486.427	813.62
486.645	863.62
486.863	894.62
487.081	857.62
487.299	795.62
487.517	818.62
487.735	818.62
487.953	811.62
488.171	842.62
488.389	816.62
488.607	829.62
488.825	825.62
489.043	809.62
489.261	802.62
489.479	810.62
489.696	843.62
489.914	804.62
490.132	830.62
490.35	837.62
490.568	842.62
490.786	883.62
491.003	908.62
491.221	933.62
491.439	914.62
491.657	886.62
491.874	943.62
492.092	962.62
492.31	940.62
492.527	953.62
492.745	943.62
492.963	936.62
493.18	980.62
493.398	970.62
493.615	961.62
493.833	981.62
494.05	969.62
494.268	955.62
494.485	930.62
494.703	961.62
494.92	963.62
495.138	951.62
495.355	964.62
495.573	972.62
495.79	961.62
496.008	915.62
496.225	943.62
496.442	948.62
496.66	957.62
496.877	985.62
497.094	964.62
497.312	997.62
497.529	1013.62
497.746	1048.62
497.963	1049.62
498.181	1100.62
498.398	1109.62
498.615	1196.62
498.832	1251.62
499.049	1288.62
499.267	1320.62
499.484	1420.62
499.701	1525.62
499.918	1620.62
500.135	1778.62
500.352	1876.62
500.569	1889.62
500.786	1803.62
501.003	1700.62
501.22	1600.62
501.437	1537.62
501.654	1460.62
501.871	1380.62
