Data from TestCu_HRD10591_00020.txt Node
Date: Thu Oct 05 14:05:01 EDT 2023
User: Yrep
Spectrometer: HR+D1059
Trigger mode: 1
Integration Time (sec): 1.000000E-1
Scans to average: 1
Electric dark correction enabled: true
Nonlinearity correction enabled: false
Boxcar width: 0
XAxis mode: Wavelengths
Number of Pixels in Spectrum: 2048
>>>>>Begin Spectral Data<<<<<
223.165	-19.81
223.4	-19.81
223.635	-19.81
223.869	-14.81
224.104	-9.81
224.338	-26.81
224.573	-12.81
224.808	-10.81
225.042	-11.81
225.277	-19.81
225.511	-8.81
225.746	-5.81
225.98	6.19
226.215	27.19
226.449	16.19
226.683	27.19
226.918	30.19
227.152	34.19
227.387	41.19
227.621	48.19
227.856	49.19
228.09	50.19
228.324	53.19
228.559	60.19
228.793	69.19
229.027	110.19
229.262	113.19
229.496	142.19
229.73	156.19
229.964	180.19
230.199	125.19
230.433	109.19
230.667	116.19
230.901	106.19
231.136	100.19
231.37	104.19
231.604	120.19
231.838	107.19
232.072	107.19
232.306	118.19
232.541	111.19
232.775	120.19
233.009	110.19
233.243	115.19
233.477	103.19
233.711	115.19
233.945	116.19
234.179	114.19
234.413	126.19
234.647	101.19
234.881	113.19
235.115	117.19
235.349	123.19
235.583	118.19
235.817	118.19
236.051	117.19
236.285	125.19
236.519	131.19
236.753	167.19
236.987	153.19
237.221	202.19
237.455	209.19
237.689	140.19
237.922	128.19
238.156	124.19
238.39	127.19
238.624	116.19
238.858	129.19
239.091	115.19
239.325	122.19
239.559	139.19
239.793	145.19
240.027	141.19
240.26	170.19
240.494	154.19
240.728	161.19
240.961	143.19
241.195	133.19
241.429	114.19
241.662	121.19
241.896	141.19
242.13	124.19
242.363	116.19
242.597	132.19
242.83	125.19
243.064	139.19
243.298	121.19
243.531	148.19
243.765	141.19
243.998	129.19
244.232	127.19
244.465	157.19
244.699	151.19
244.932	141.19
245.166	133.19
245.399	139.19
245.633	130.19
245.866	126.19
246.099	152.19
246.333	153.19
246.566	140.19
246.8	146.19
247.033	148.19
247.266	155.19
247.5	162.19
247.733	175.19
247.966	157.19
248.2	166.19
248.433	155.19
248.666	171.19
248.899	186.19
249.133	203.19
249.366	209.19
249.599	190.19
249.832	164.19
250.066	180.19
250.299	173.19
250.532	179.19
250.765	214.19
250.998	209.19
251.231	200.19
251.465	175.19
251.698	166.19
251.931	167.19
252.164	188.19
252.397	195.19
252.63	194.19
252.863	193.19
253.096	197.19
253.329	218.19
253.562	211.19
253.795	198.19
254.028	206.19
254.261	222.19
254.494	225.19
254.727	264.19
254.96	260.19
255.193	234.19
255.426	185.19
255.659	203.19
255.892	193.19
256.124	199.19
256.357	192.19
256.59	187.19
256.823	191.19
257.056	191.19
257.289	191.19
257.521	190.19
257.754	189.19
257.987	202.19
258.22	213.19
258.452	186.19
258.685	206.19
258.918	193.19
259.151	208.19
259.383	216.19
259.616	215.19
259.849	237.19
260.081	254.19
260.314	240.19
260.547	233.19
260.779	209.19
261.012	248.19
261.244	210.19
261.477	217.19
261.71	224.19
261.942	258.19
262.175	245.19
262.407	231.19
262.64	208.19
262.872	219.19
263.105	200.19
263.337	198.19
263.57	213.19
263.802	217.19
264.035	210.19
264.267	215.19
264.499	207.19
264.732	204.19
264.964	218.19
265.197	217.19
265.429	226.19
265.661	218.19
265.894	209.19
266.126	213.19
266.358	214.19
266.591	238.19
266.823	234.19
267.055	217.19
267.287	221.19
267.52	225.19
267.752	237.19
267.984	229.19
268.216	232.19
268.448	244.19
268.681	263.19
268.913	254.19
269.145	285.19
269.377	276.19
269.609	251.19
269.841	271.19
270.073	297.19
270.306	313.19
270.538	322.19
270.77	291.19
271.002	273.19
271.234	284.19
271.466	294.19
271.698	316.19
271.93	313.19
272.162	303.19
272.394	302.19
272.626	275.19
272.858	280.19
273.09	260.19
273.322	259.19
273.553	256.19
273.785	263.19
274.017	250.19
274.249	258.19
274.481	255.19
274.713	263.19
274.945	273.19
275.176	260.19
275.408	284.19
275.64	257.19
275.872	277.19
276.104	278.19
276.335	285.19
276.567	303.19
276.799	339.19
277.031	368.19
277.262	333.19
277.494	313.19
277.726	290.19
277.957	281.19
278.189	293.19
278.421	283.19
278.652	267.19
278.884	277.19
279.115	277.19
279.347	266.19
279.579	297.19
279.81	279.19
280.042	281.19
280.273	285.19
280.505	278.19
280.736	275.19
280.968	271.19
281.199	303.19
281.431	275.19
281.662	291.19
281.894	303.19
282.125	323.19
282.356	362.19
282.588	355.19
282.819	326.19
283.051	284.19
283.282	308.19
283.513	295.19
283.745	305.19
283.976	318.19
284.207	299.19
284.439	296.19
284.67	295.19
284.901	296.19
285.132	306.19
285.364	290.19
285.595	295.19
285.826	322.19
286.057	294.19
286.288	299.19
286.52	302.19
286.751	308.19
286.982	310.19
287.213	311.19
287.444	319.19
287.675	318.19
287.906	335.19
288.138	357.19
288.369	349.19
288.6	350.19
288.831	316.19
289.062	339.19
289.293	317.19
289.524	311.19
289.755	317.19
289.986	326.19
290.217	313.19
290.448	326.19
290.679	327.19
290.91	344.19
291.141	339.19
291.371	320.19
291.602	335.19
291.833	330.19
292.064	332.19
292.295	326.19
292.526	341.19
292.757	335.19
292.987	341.19
293.218	331.19
293.449	332.19
293.68	345.19
293.91	343.19
294.141	333.19
294.372	345.19
294.603	309.19
294.833	324.19
295.064	335.19
295.295	329.19
295.525	348.19
295.756	358.19
295.987	398.19
296.217	418.19
296.448	387.19
296.679	341.19
296.909	337.19
297.14	336.19
297.37	337.19
297.601	337.19
297.831	359.19
298.062	338.19
298.292	354.19
298.523	378.19
298.753	363.19
298.984	366.19
299.214	379.19
299.445	372.19
299.675	369.19
299.905	382.19
300.136	359.19
300.366	372.19
300.597	381.19
300.827	389.19
301.057	411.19
301.288	418.19
301.518	393.19
301.748	392.19
301.979	429.19
302.209	395.19
302.439	396.19
302.669	377.19
302.9	400.19
303.13	385.19
303.36	406.19
303.59	409.19
303.82	405.19
304.051	411.19
304.281	382.19
304.511	394.19
304.741	389.19
304.971	407.19
305.201	387.19
305.431	389.19
305.661	376.19
305.891	389.19
306.121	416.19
306.352	405.19
306.582	387.19
306.812	413.19
307.042	401.19
307.272	384.19
307.502	389.19
307.731	402.19
307.961	410.19
308.191	397.19
308.421	411.19
308.651	417.19
308.881	393.19
309.111	419.19
309.341	430.19
309.571	459.19
309.8	476.19
310.03	449.19
310.26	506.19
310.49	473.19
310.72	513.19
310.949	520.19
311.179	490.19
311.409	465.19
311.639	470.19
311.868	475.19
312.098	465.19
312.328	490.19
312.557	539.19
312.787	557.19
313.017	502.19
313.246	485.19
313.476	448.19
313.706	498.19
313.935	494.19
314.165	508.19
314.394	516.19
314.624	513.19
314.853	493.19
315.083	475.19
315.312	465.19
315.542	435.19
315.771	480.19
316.001	454.19
316.23	446.19
316.46	457.19
316.689	471.19
316.919	506.19
317.148	497.19
317.377	487.19
317.607	477.19
317.836	476.19
318.065	474.19
318.295	462.19
318.524	478.19
318.753	479.19
318.983	481.19
319.212	487.19
319.441	514.19
319.67	482.19
319.9	468.19
320.129	457.19
320.358	469.19
320.587	484.19
320.816	508.19
321.046	505.19
321.275	501.19
321.504	513.19
321.733	503.19
321.962	539.19
322.191	573.19
322.42	593.19
322.649	601.19
322.878	616.19
323.108	638.19
323.337	699.19
323.566	754.19
323.795	854.19
324.024	1157.19
324.253	2020.19
324.482	3385.19
324.71	5032.19
324.939	4498.19
325.168	1967.19
325.397	965.19
325.626	747.19
325.855	666.19
326.084	682.19
326.313	715.19
326.542	811.19
326.77	1095.19
326.999	1847.19
327.228	2902.19
327.457	3710.19
327.686	2497.19
327.914	1152.19
328.143	877.19
328.372	846.19
328.6	780.19
328.829	822.19
329.058	877.19
329.287	787.19
329.515	653.19
329.744	630.19
329.972	655.19
330.201	694.19
330.43	785.19
330.658	927.19
330.887	911.19
331.115	758.19
331.344	681.19
331.572	685.19
331.801	685.19
332.03	647.19
332.258	625.19
332.486	624.19
332.715	629.19
332.943	636.19
333.172	644.19
333.4	671.19
333.629	680.19
333.857	673.19
334.085	647.19
334.314	649.19
334.542	635.19
334.771	647.19
334.999	659.19
335.227	631.19
335.455	638.19
335.684	623.19
335.912	606.19
336.14	609.19
336.369	631.19
336.597	650.19
336.825	615.19
337.053	585.19
337.281	609.19
337.51	614.19
337.738	607.19
337.966	628.19
338.194	640.19
338.422	604.19
338.65	594.19
338.878	573.19
339.106	561.19
339.334	573.19
339.562	570.19
339.79	586.19
340.018	606.19
340.246	592.19
340.474	590.19
340.702	588.19
340.93	587.19
341.158	597.19
341.386	596.19
341.614	587.19
341.842	583.19
342.07	567.19
342.298	541.19
342.526	558.19
342.754	543.19
342.981	550.19
343.209	566.19
343.437	603.19
343.665	618.19
343.893	631.19
344.12	618.19
344.348	598.19
344.576	604.19
344.804	639.19
345.031	627.19
345.259	630.19
345.487	586.19
345.714	549.19
345.942	549.19
346.17	567.19
346.397	560.19
346.625	567.19
346.853	587.19
347.08	567.19
347.308	579.19
347.535	607.19
347.763	615.19
347.99	606.19
348.218	629.19
348.445	632.19
348.673	570.19
348.9	571.19
349.128	533.19
349.355	541.19
349.583	546.19
349.81	557.19
350.037	549.19
350.265	532.19
350.492	549.19
350.72	548.19
350.947	584.19
351.174	595.19
351.402	590.19
351.629	607.19
351.856	591.19
352.083	631.19
352.311	633.19
352.538	619.19
352.765	614.19
352.992	603.19
353.22	585.19
353.447	555.19
353.674	559.19
353.901	551.19
354.128	511.19
354.355	522.19
354.583	536.19
354.81	507.19
355.037	514.19
355.264	523.19
355.491	492.19
355.718	512.19
355.945	507.19
356.172	528.19
356.399	537.19
356.626	530.19
356.853	513.19
357.08	508.19
357.307	524.19
357.534	516.19
357.761	539.19
357.988	522.19
358.215	524.19
358.441	531.19
358.668	523.19
358.895	525.19
359.122	551.19
359.349	583.19
359.576	646.19
359.802	698.19
360.029	713.19
360.256	700.19
360.483	593.19
360.709	591.19
360.936	557.19
361.163	601.19
361.39	614.19
361.616	610.19
361.843	598.19
362.07	597.19
362.296	585.19
362.523	577.19
362.749	563.19
362.976	557.19
363.203	579.19
363.429	560.19
363.656	558.19
363.882	555.19
364.109	575.19
364.335	555.19
364.562	587.19
364.788	563.19
365.015	576.19
365.241	580.19
365.468	601.19
365.694	597.19
365.92	569.19
366.147	541.19
366.373	571.19
366.599	565.19
366.826	553.19
367.052	533.19
367.278	568.19
367.505	575.19
367.731	578.19
367.957	564.19
368.184	585.19
368.41	596.19
368.636	610.19
368.862	603.19
369.089	564.19
369.315	563.19
369.541	562.19
369.767	557.19
369.993	576.19
370.219	585.19
370.445	568.19
370.672	553.19
370.898	559.19
371.124	562.19
371.35	568.19
371.576	572.19
371.802	571.19
372.028	569.19
372.254	571.19
372.48	559.19
372.706	603.19
372.932	591.19
373.158	586.19
373.384	587.19
373.61	577.19
373.835	597.19
374.061	570.19
374.287	591.19
374.513	603.19
374.739	595.19
374.965	601.19
375.191	603.19
375.416	579.19
375.642	601.19
375.868	568.19
376.094	598.19
376.319	583.19
376.545	583.19
376.771	542.19
376.997	578.19
377.222	559.19
377.448	557.19
377.674	550.19
377.899	555.19
378.125	579.19
378.35	552.19
378.576	574.19
378.802	545.19
379.027	569.19
379.253	553.19
379.478	551.19
379.704	576.19
379.929	582.19
380.155	585.19
380.38	579.19
380.606	567.19
380.831	583.19
381.057	561.19
381.282	586.19
381.507	596.19
381.733	602.19
381.958	599.19
382.184	576.19
382.409	591.19
382.634	593.19
382.86	589.19
383.085	615.19
383.31	621.19
383.535	607.19
383.761	614.19
383.986	612.19
384.211	672.19
384.436	646.19
384.662	638.19
384.887	651.19
385.112	667.19
385.337	657.19
385.562	669.19
385.787	674.19
386.013	691.19
386.238	710.19
386.463	686.19
386.688	681.19
386.913	651.19
387.138	641.19
387.363	660.19
387.588	674.19
387.813	646.19
388.038	651.19
388.263	653.19
388.488	634.19
388.713	663.19
388.938	660.19
389.163	667.19
389.387	641.19
389.612	662.19
389.837	659.19
390.062	669.19
390.287	672.19
390.512	667.19
390.736	666.19
390.961	672.19
391.186	686.19
391.411	719.19
391.636	730.19
391.86	725.19
392.085	725.19
392.31	708.19
392.534	733.19
392.759	704.19
392.984	699.19
393.208	698.19
393.433	694.19
393.658	684.19
393.882	709.19
394.107	701.19
394.331	689.19
394.556	685.19
394.78	701.19
395.005	714.19
395.229	735.19
395.454	717.19
395.678	720.19
395.903	741.19
396.127	729.19
396.352	736.19
396.576	717.19
396.801	713.19
397.025	718.19
397.249	714.19
397.474	738.19
397.698	757.19
397.922	767.19
398.147	757.19
398.371	780.19
398.595	799.19
398.82	849.19
399.044	921.19
399.268	1009.19
399.492	1087.19
399.717	1093.19
399.941	1069.19
400.165	1014.19
400.389	963.19
400.613	880.19
400.837	853.19
401.062	835.19
401.286	834.19
401.51	823.19
401.734	844.19
401.958	857.19
402.182	899.19
402.406	922.19
402.63	918.19
402.854	893.19
403.078	866.19
403.302	913.19
403.526	918.19
403.75	893.19
403.974	885.19
404.198	902.19
404.422	921.19
404.645	903.19
404.869	897.19
405.093	914.19
405.317	934.19
405.541	940.19
405.765	913.19
405.988	937.19
406.212	1040.19
406.436	1076.19
406.66	1062.19
406.883	1021.19
407.107	1081.19
407.331	1117.19
407.555	1114.19
407.778	1067.19
408.002	999.19
408.226	943.19
408.449	943.19
408.673	949.19
408.896	987.19
409.12	980.19
409.344	909.19
409.567	871.19
409.791	867.19
410.014	866.19
410.238	846.19
410.461	880.19
410.685	905.19
410.908	909.19
411.132	904.19
411.355	882.19
411.578	866.19
411.802	849.19
412.025	850.19
412.249	823.19
412.472	818.19
412.695	836.19
412.919	806.19
413.142	807.19
413.365	807.19
413.589	793.19
413.812	803.19
414.035	809.19
414.258	787.19
414.482	785.19
414.705	806.19
414.928	783.19
415.151	796.19
415.374	793.19
415.597	781.19
415.821	781.19
416.044	774.19
416.267	795.19
416.49	791.19
416.713	770.19
416.936	774.19
417.159	785.19
417.382	827.19
417.605	787.19
417.828	829.19
418.051	843.19
418.274	805.19
418.497	817.19
418.72	803.19
418.943	783.19
419.166	857.19
419.389	861.19
419.611	855.19
419.834	848.19
420.057	827.19
420.28	809.19
420.503	804.19
420.726	838.19
420.948	837.19
421.171	879.19
421.394	877.19
421.617	818.19
421.839	804.19
422.062	834.19
422.285	850.19
422.507	935.19
422.73	963.19
422.953	919.19
423.175	850.19
423.398	883.19
423.621	871.19
423.843	893.19
424.066	845.19
424.288	889.19
424.511	937.19
424.733	999.19
424.956	1056.19
425.178	975.19
425.401	985.19
425.623	968.19
425.846	844.19
426.068	834.19
426.291	841.19
426.513	824.19
426.735	845.19
426.958	934.19
427.18	1093.19
427.402	1239.19
427.625	1291.19
427.847	1016.19
428.069	861.19
428.292	803.19
428.514	781.19
428.736	745.19
428.958	754.19
429.181	744.19
429.403	751.19
429.625	827.19
429.847	829.19
430.069	852.19
430.292	805.19
430.514	753.19
430.736	757.19
430.958	739.19
431.18	733.19
431.402	726.19
431.624	714.19
431.846	726.19
432.068	725.19
432.29	720.19
432.512	719.19
432.734	713.19
432.956	738.19
433.178	764.19
433.4	750.19
433.622	736.19
433.844	743.19
434.066	737.19
434.287	744.19
434.509	776.19
434.731	791.19
434.953	831.19
435.175	810.19
435.397	846.19
435.618	837.19
435.84	955.19
436.062	1044.19
436.284	965.19
436.505	836.19
436.727	798.19
436.949	758.19
437.17	725.19
437.392	789.19
437.614	784.19
437.835	939.19
438.057	1037.19
438.278	1067.19
438.5	1041.19
438.721	1110.19
438.943	937.19
439.165	827.19
439.386	799.19
439.608	831.19
439.829	894.19
440.05	938.19
440.272	982.19
440.493	831.19
440.715	785.19
440.936	777.19
441.158	796.19
441.379	809.19
441.6	870.19
441.822	884.19
442.043	965.19
442.264	1065.19
442.486	965.19
442.707	867.19
442.928	882.19
443.149	961.19
443.371	977.19
443.592	1058.19
443.813	1107.19
444.034	1035.19
444.255	903.19
444.476	898.19
444.698	892.19
444.919	946.19
445.14	971.19
445.361	957.19
445.582	1077.19
445.803	1172.19
446.024	1220.19
446.245	1143.19
446.466	945.19
446.687	819.19
446.908	818.19
447.129	748.19
447.35	722.19
447.571	736.19
447.792	721.19
448.013	766.19
448.234	807.19
448.455	915.19
448.675	1054.19
448.896	1029.19
449.117	913.19
449.338	991.19
449.559	1085.19
449.779	1047.19
450	811.19
450.221	752.19
450.442	737.19
450.662	774.19
450.883	834.19
451.104	829.19
451.324	766.19
451.545	705.19
451.766	696.19
451.986	673.19
452.207	658.19
452.428	661.19
452.648	689.19
452.869	695.19
453.089	705.19
453.31	737.19
453.53	683.19
453.751	718.19
453.971	752.19
454.192	729.19
454.412	693.19
454.633	662.19
454.853	651.19
455.073	687.19
455.294	743.19
455.514	789.19
455.734	720.19
455.955	646.19
456.175	587.19
456.395	624.19
456.616	615.19
456.836	613.19
457.056	601.19
457.276	625.19
457.497	649.19
457.717	629.19
457.937	637.19
458.157	647.19
458.377	685.19
458.598	817.19
458.818	981.19
459.038	1031.19
459.258	877.19
459.478	773.19
459.698	753.19
459.918	781.19
460.138	773.19
460.358	770.19
460.578	795.19
460.798	796.19
461.018	797.19
461.238	774.19
461.458	785.19
461.678	791.19
461.898	795.19
462.118	769.19
462.338	827.19
462.558	869.19
462.777	856.19
462.997	930.19
463.217	934.19
463.437	927.19
463.657	882.19
463.876	885.19
464.096	911.19
464.316	935.19
464.536	919.19
464.755	898.19
464.975	943.19
465.195	1156.19
465.414	1089.19
465.634	818.19
465.854	763.19
466.073	721.19
466.293	754.19
466.512	683.19
466.732	700.19
466.951	707.19
467.171	686.19
467.391	716.19
467.61	754.19
467.829	726.19
468.049	702.19
468.268	661.19
468.488	671.19
468.707	668.19
468.927	678.19
469.146	655.19
469.365	708.19
469.585	729.19
469.804	729.19
470.023	742.19
470.243	737.19
470.462	762.19
470.681	809.19
470.901	731.19
471.12	694.19
471.339	699.19
471.558	695.19
471.777	665.19
471.997	670.19
472.216	665.19
472.435	627.19
472.654	630.19
472.873	638.19
473.092	635.19
473.311	665.19
473.53	659.19
473.749	692.19
473.968	788.19
474.187	918.19
474.406	800.19
474.625	681.19
474.844	689.19
475.063	663.19
475.282	672.19
475.501	681.19
475.72	689.19
475.939	685.19
476.158	697.19
476.377	682.19
476.596	691.19
476.814	725.19
477.033	731.19
477.252	723.19
477.471	720.19
477.69	739.19
477.908	721.19
478.127	785.19
478.346	765.19
478.564	787.19
478.783	805.19
479.002	829.19
479.22	817.19
479.439	861.19
479.658	890.19
479.876	884.19
480.095	887.19
480.313	899.19
480.532	888.19
480.751	872.19
480.969	809.19
481.188	824.19
481.406	787.19
481.624	788.19
481.843	759.19
482.061	754.19
482.28	781.19
482.498	753.19
482.717	763.19
482.935	767.19
483.153	755.19
483.372	751.19
483.59	772.19
483.808	761.19
484.027	761.19
484.245	786.19
484.463	779.19
484.681	790.19
484.9	815.19
485.118	799.19
485.336	806.19
485.554	806.19
485.772	819.19
485.99	813.19
486.209	810.19
486.427	834.19
486.645	884.19
486.863	873.19
487.081	854.19
487.299	846.19
487.517	816.19
487.735	847.19
487.953	831.19
488.171	821.19
488.389	833.19
488.607	835.19
488.825	796.19
489.043	805.19
489.261	817.19
489.479	817.19
489.696	799.19
489.914	828.19
490.132	866.19
490.35	853.19
490.568	861.19
490.786	905.19
491.003	938.19
491.221	926.19
491.439	942.19
491.657	935.19
491.874	964.19
492.092	977.19
492.31	974.19
492.527	981.19
492.745	970.19
492.963	971.19
493.18	1001.19
493.398	999.19
493.615	1012.19
493.833	983.19
494.05	988.19
494.268	978.19
494.485	1001.19
494.703	953.19
494.92	975.19
495.138	968.19
495.355	991.19
495.573	1009.19
495.79	950.19
496.008	967.19
496.225	980.19
496.442	976.19
496.66	988.19
496.877	969.19
497.094	982.19
497.312	993.19
497.529	1037.19
497.746	1055.19
497.963	1067.19
498.181	1099.19
498.398	1126.19
498.615	1211.19
498.832	1232.19
499.049	1273.19
499.267	1369.19
499.484	1416.19
499.701	1534.19
499.918	1660.19
500.135	1790.19
500.352	1922.19
500.569	1906.19
500.786	1835.19
501.003	1760.19
501.22	1625.19
501.437	1550.19
501.654	1461.19
