Data from TestCu_HRD10591_00074.txt Node
Date: Thu Oct 05 14:05:54 EDT 2023
User: Yrep
Spectrometer: HR+D1059
Trigger mode: 1
Integration Time (sec): 1.000000E-1
Scans to average: 1
Electric dark correction enabled: true
Nonlinearity correction enabled: false
Boxcar width: 0
XAxis mode: Wavelengths
Number of Pixels in Spectrum: 2048
>>>>>Begin Spectral Data<<<<<
223.165	-17.62
223.4	-17.62
223.635	-17.62
223.869	-31.62
224.104	-22.62
224.338	-3.62
224.573	-15.62
224.808	-20.62
225.042	-11.62
225.277	-8.62
225.511	6.38
225.746	3.38
225.98	9.38
226.215	11.38
226.449	15.38
226.683	20.38
226.918	29.38
227.152	36.38
227.387	37.38
227.621	47.38
227.856	38.38
228.09	42.38
228.324	55.38
228.559	56.38
228.793	46.38
229.027	118.38
229.262	109.38
229.496	125.38
229.73	173.38
229.964	161.38
230.199	137.38
230.433	117.38
230.667	120.38
230.901	109.38
231.136	117.38
231.37	114.38
231.604	120.38
231.838	106.38
232.072	118.38
232.306	113.38
232.541	118.38
232.775	118.38
233.009	113.38
233.243	116.38
233.477	103.38
233.711	104.38
233.945	112.38
234.179	113.38
234.413	122.38
234.647	129.38
234.881	109.38
235.115	112.38
235.349	122.38
235.583	124.38
235.817	117.38
236.051	118.38
236.285	131.38
236.519	117.38
236.753	146.38
236.987	184.38
237.221	222.38
237.455	229.38
237.689	153.38
237.922	136.38
238.156	134.38
238.39	123.38
238.624	133.38
238.858	129.38
239.091	118.38
239.325	128.38
239.559	124.38
239.793	129.38
240.027	155.38
240.26	173.38
240.494	171.38
240.728	141.38
240.961	162.38
241.195	144.38
241.429	129.38
241.662	126.38
241.896	133.38
242.13	120.38
242.363	126.38
242.597	134.38
242.83	146.38
243.064	143.38
243.298	133.38
243.531	121.38
243.765	143.38
243.998	133.38
244.232	129.38
244.465	134.38
244.699	150.38
244.932	137.38
245.166	148.38
245.399	144.38
245.633	149.38
245.866	149.38
246.099	146.38
246.333	146.38
246.566	153.38
246.8	149.38
247.033	144.38
247.266	174.38
247.5	141.38
247.733	157.38
247.966	152.38
248.2	154.38
248.433	176.38
248.666	166.38
248.899	170.38
249.133	196.38
249.366	201.38
249.599	190.38
249.832	165.38
250.066	174.38
250.299	172.38
250.532	188.38
250.765	236.38
250.998	212.38
251.231	201.38
251.465	197.38
251.698	197.38
251.931	170.38
252.164	168.38
252.397	186.38
252.63	191.38
252.863	193.38
253.096	206.38
253.329	210.38
253.562	196.38
253.795	192.38
254.028	204.38
254.261	210.38
254.494	247.38
254.727	280.38
254.96	260.38
255.193	202.38
255.426	204.38
255.659	183.38
255.892	199.38
256.124	196.38
256.357	187.38
256.59	192.38
256.823	189.38
257.056	188.38
257.289	201.38
257.521	183.38
257.754	198.38
257.987	186.38
258.22	189.38
258.452	194.38
258.685	210.38
258.918	206.38
259.151	199.38
259.383	209.38
259.616	216.38
259.849	238.38
260.081	254.38
260.314	244.38
260.547	216.38
260.779	212.38
261.012	216.38
261.244	203.38
261.477	220.38
261.71	214.38
261.942	263.38
262.175	260.38
262.407	231.38
262.64	204.38
262.872	199.38
263.105	200.38
263.337	208.38
263.57	213.38
263.802	217.38
264.035	219.38
264.267	207.38
264.499	200.38
264.732	212.38
264.964	196.38
265.197	221.38
265.429	204.38
265.661	212.38
265.894	211.38
266.126	219.38
266.358	222.38
266.591	242.38
266.823	221.38
267.055	240.38
267.287	223.38
267.52	238.38
267.752	246.38
267.984	233.38
268.216	218.38
268.448	240.38
268.681	259.38
268.913	267.38
269.145	267.38
269.377	249.38
269.609	272.38
269.841	274.38
270.073	277.38
270.306	309.38
270.538	314.38
270.77	292.38
271.002	279.38
271.234	300.38
271.466	323.38
271.698	329.38
271.93	306.38
272.162	323.38
272.394	308.38
272.626	289.38
272.858	275.38
273.09	257.38
273.322	251.38
273.553	229.38
273.785	272.38
274.017	264.38
274.249	262.38
274.481	269.38
274.713	274.38
274.945	260.38
275.176	262.38
275.408	282.38
275.64	262.38
275.872	282.38
276.104	262.38
276.335	301.38
276.567	312.38
276.799	329.38
277.031	349.38
277.262	348.38
277.494	321.38
277.726	291.38
277.957	282.38
278.189	274.38
278.421	280.38
278.652	283.38
278.884	283.38
279.115	255.38
279.347	287.38
279.579	268.38
279.81	271.38
280.042	274.38
280.273	281.38
280.505	280.38
280.736	270.38
280.968	286.38
281.199	287.38
281.431	289.38
281.662	291.38
281.894	280.38
282.125	311.38
282.356	368.38
282.588	395.38
282.819	339.38
283.051	310.38
283.282	287.38
283.513	294.38
283.745	304.38
283.976	301.38
284.207	320.38
284.439	305.38
284.67	305.38
284.901	282.38
285.132	311.38
285.364	293.38
285.595	301.38
285.826	322.38
286.057	318.38
286.288	308.38
286.52	310.38
286.751	313.38
286.982	312.38
287.213	318.38
287.444	323.38
287.675	332.38
287.906	328.38
288.138	350.38
288.369	343.38
288.6	337.38
288.831	315.38
289.062	332.38
289.293	332.38
289.524	303.38
289.755	325.38
289.986	333.38
290.217	329.38
290.448	323.38
290.679	321.38
290.91	321.38
291.141	324.38
291.371	316.38
291.602	321.38
291.833	324.38
292.064	328.38
292.295	331.38
292.526	332.38
292.757	326.38
292.987	354.38
293.218	323.38
293.449	332.38
293.68	328.38
293.91	335.38
294.141	341.38
294.372	333.38
294.603	325.38
294.833	325.38
295.064	312.38
295.295	337.38
295.525	361.38
295.756	383.38
295.987	409.38
296.217	421.38
296.448	385.38
296.679	363.38
296.909	354.38
297.14	360.38
297.37	352.38
297.601	366.38
297.831	357.38
298.062	344.38
298.292	339.38
298.523	380.38
298.753	362.38
298.984	373.38
299.214	373.38
299.445	368.38
299.675	373.38
299.905	395.38
300.136	362.38
300.366	391.38
300.597	394.38
300.827	387.38
301.057	417.38
301.288	421.38
301.518	387.38
301.748	379.38
301.979	406.38
302.209	392.38
302.439	408.38
302.669	395.38
302.9	391.38
303.13	397.38
303.36	391.38
303.59	387.38
303.82	421.38
304.051	400.38
304.281	371.38
304.511	389.38
304.741	376.38
304.971	375.38
305.201	386.38
305.431	390.38
305.661	385.38
305.891	398.38
306.121	408.38
306.352	416.38
306.582	392.38
306.812	399.38
307.042	399.38
307.272	392.38
307.502	393.38
307.731	394.38
307.961	397.38
308.191	406.38
308.421	382.38
308.651	404.38
308.881	411.38
309.111	412.38
309.341	430.38
309.571	441.38
309.8	449.38
310.03	442.38
310.26	494.38
310.49	497.38
310.72	529.38
310.949	510.38
311.179	501.38
311.409	474.38
311.639	473.38
311.868	497.38
312.098	497.38
312.328	514.38
312.557	533.38
312.787	529.38
313.017	513.38
313.246	462.38
313.476	446.38
313.706	488.38
313.935	514.38
314.165	523.38
314.394	516.38
314.624	501.38
314.853	499.38
315.083	479.38
315.312	463.38
315.542	456.38
315.771	466.38
316.001	450.38
316.23	463.38
316.46	454.38
316.689	484.38
316.919	491.38
317.148	514.38
317.377	514.38
317.607	500.38
317.836	470.38
318.065	433.38
318.295	459.38
318.524	476.38
318.753	446.38
318.983	490.38
319.212	496.38
319.441	484.38
319.67	490.38
319.9	484.38
320.129	492.38
320.358	503.38
320.587	500.38
320.816	511.38
321.046	492.38
321.275	516.38
321.504	486.38
321.733	528.38
321.962	556.38
322.191	574.38
322.42	599.38
322.649	615.38
322.878	639.38
323.108	665.38
323.337	708.38
323.566	768.38
323.795	883.38
324.024	1172.38
324.253	2035.38
324.482	3528.38
324.71	5144.38
324.939	4636.38
325.168	2030.38
325.397	976.38
325.626	728.38
325.855	695.38
326.084	691.38
326.313	723.38
326.542	806.38
326.77	1109.38
326.999	1899.38
327.228	2996.38
327.457	3865.38
327.686	2553.38
327.914	1177.38
328.143	885.38
328.372	838.38
328.6	812.38
328.829	848.38
329.058	890.38
329.287	804.38
329.515	657.38
329.744	632.38
329.972	658.38
330.201	655.38
330.43	796.38
330.658	916.38
330.887	954.38
331.115	801.38
331.344	659.38
331.572	692.38
331.801	702.38
332.03	666.38
332.258	639.38
332.486	625.38
332.715	608.38
332.943	625.38
333.172	679.38
333.4	668.38
333.629	677.38
333.857	665.38
334.085	672.38
334.314	667.38
334.542	653.38
334.771	661.38
334.999	636.38
335.227	620.38
335.455	643.38
335.684	618.38
335.912	627.38
336.14	607.38
336.369	636.38
336.597	638.38
336.825	601.38
337.053	600.38
337.281	605.38
337.51	612.38
337.738	597.38
337.966	610.38
338.194	621.38
338.422	623.38
338.65	589.38
338.878	556.38
339.106	580.38
339.334	577.38
339.562	578.38
339.79	570.38
340.018	576.38
340.246	575.38
340.474	585.38
340.702	581.38
340.93	565.38
341.158	574.38
341.386	576.38
341.614	593.38
341.842	564.38
342.07	558.38
342.298	548.38
342.526	557.38
342.754	548.38
342.981	558.38
343.209	564.38
343.437	619.38
343.665	634.38
343.893	631.38
344.12	649.38
344.348	643.38
344.576	618.38
344.804	622.38
345.031	644.38
345.259	650.38
345.487	621.38
345.714	590.38
345.942	565.38
346.17	557.38
346.397	569.38
346.625	568.38
346.853	578.38
347.08	580.38
347.308	602.38
347.535	584.38
347.763	597.38
347.99	597.38
348.218	617.38
348.445	638.38
348.673	590.38
348.9	557.38
349.128	540.38
349.355	546.38
349.583	554.38
349.81	533.38
350.037	550.38
350.265	528.38
350.492	516.38
350.72	570.38
350.947	585.38
351.174	620.38
351.402	580.38
351.629	605.38
351.856	610.38
352.083	644.38
352.311	628.38
352.538	620.38
352.765	604.38
352.992	586.38
353.22	575.38
353.447	593.38
353.674	541.38
353.901	536.38
354.128	540.38
354.355	528.38
354.583	521.38
354.81	525.38
355.037	524.38
355.264	513.38
355.491	513.38
355.718	537.38
355.945	523.38
356.172	516.38
356.399	517.38
356.626	490.38
356.853	527.38
357.08	509.38
357.307	509.38
357.534	512.38
357.761	519.38
357.988	514.38
358.215	514.38
358.441	544.38
358.668	529.38
358.895	548.38
359.122	560.38
359.349	591.38
359.576	629.38
359.802	722.38
360.029	746.38
360.256	680.38
360.483	639.38
360.709	585.38
360.936	594.38
361.163	624.38
361.39	593.38
361.616	581.38
361.843	598.38
362.07	603.38
362.296	608.38
362.523	613.38
362.749	582.38
362.976	579.38
363.203	585.38
363.429	563.38
363.656	585.38
363.882	562.38
364.109	578.38
364.335	548.38
364.562	536.38
364.788	549.38
365.015	570.38
365.241	601.38
365.468	583.38
365.694	590.38
365.92	582.38
366.147	569.38
366.373	575.38
366.599	558.38
366.826	537.38
367.052	533.38
367.278	564.38
367.505	556.38
367.731	566.38
367.957	561.38
368.184	558.38
368.41	585.38
368.636	596.38
368.862	595.38
369.089	562.38
369.315	564.38
369.541	550.38
369.767	577.38
369.993	572.38
370.219	568.38
370.445	546.38
370.672	568.38
370.898	553.38
371.124	556.38
371.35	566.38
371.576	576.38
371.802	579.38
372.028	556.38
372.254	588.38
372.48	564.38
372.706	581.38
372.932	565.38
373.158	596.38
373.384	578.38
373.61	577.38
373.835	578.38
374.061	607.38
374.287	602.38
374.513	613.38
374.739	630.38
374.965	609.38
375.191	618.38
375.416	612.38
375.642	595.38
375.868	605.38
376.094	562.38
376.319	576.38
376.545	574.38
376.771	577.38
376.997	562.38
377.222	563.38
377.448	593.38
377.674	573.38
377.899	554.38
378.125	586.38
378.35	571.38
378.576	553.38
378.802	552.38
379.027	564.38
379.253	566.38
379.478	577.38
379.704	575.38
379.929	588.38
380.155	585.38
380.38	584.38
380.606	572.38
380.831	558.38
381.057	589.38
381.282	582.38
381.507	597.38
381.733	594.38
381.958	591.38
382.184	614.38
382.409	584.38
382.634	613.38
382.86	610.38
383.085	619.38
383.31	610.38
383.535	608.38
383.761	634.38
383.986	642.38
384.211	639.38
384.436	651.38
384.662	656.38
384.887	664.38
385.112	651.38
385.337	660.38
385.562	666.38
385.787	676.38
386.013	707.38
386.238	711.38
386.463	676.38
386.688	669.38
386.913	678.38
387.138	642.38
387.363	680.38
387.588	644.38
387.813	661.38
388.038	646.38
388.263	672.38
388.488	651.38
388.713	667.38
388.938	670.38
389.163	680.38
389.387	653.38
389.612	626.38
389.837	655.38
390.062	656.38
390.287	663.38
390.512	656.38
390.736	675.38
390.961	686.38
391.186	701.38
391.411	717.38
391.636	710.38
391.86	698.38
392.085	736.38
392.31	714.38
392.534	694.38
392.759	700.38
392.984	676.38
393.208	687.38
393.433	658.38
393.658	684.38
393.882	690.38
394.107	696.38
394.331	687.38
394.556	684.38
394.78	680.38
395.005	724.38
395.229	732.38
395.454	722.38
395.678	758.38
395.903	729.38
396.127	738.38
396.352	710.38
396.576	701.38
396.801	699.38
397.025	713.38
397.249	745.38
397.474	752.38
397.698	752.38
397.922	754.38
398.147	776.38
398.371	777.38
398.595	782.38
398.82	815.38
399.044	908.38
399.268	965.38
399.492	1076.38
399.717	1106.38
399.941	1055.38
400.165	998.38
400.389	946.38
400.613	884.38
400.837	842.38
401.062	816.38
401.286	835.38
401.51	826.38
401.734	836.38
401.958	862.38
402.182	892.38
402.406	916.38
402.63	906.38
402.854	864.38
403.078	892.38
403.302	901.38
403.526	921.38
403.75	878.38
403.974	912.38
404.198	900.38
404.422	935.38
404.645	892.38
404.869	890.38
405.093	929.38
405.317	950.38
405.541	926.38
405.765	902.38
405.988	955.38
406.212	1022.38
406.436	1093.38
406.66	1029.38
406.883	1007.38
407.107	1096.38
407.331	1070.38
407.555	1148.38
407.778	1084.38
408.002	985.38
408.226	947.38
408.449	968.38
408.673	970.38
408.896	969.38
409.12	984.38
409.344	922.38
409.567	862.38
409.791	856.38
410.014	864.38
410.238	860.38
410.461	858.38
410.685	886.38
410.908	890.38
411.132	908.38
411.355	893.38
411.578	856.38
411.802	843.38
412.025	847.38
412.249	815.38
412.472	817.38
412.695	812.38
412.919	785.38
413.142	780.38
413.365	806.38
413.589	816.38
413.812	792.38
414.035	818.38
414.258	781.38
414.482	820.38
414.705	808.38
414.928	811.38
415.151	801.38
415.374	770.38
415.597	769.38
415.821	770.38
416.044	783.38
416.267	779.38
416.49	743.38
416.713	747.38
416.936	754.38
417.159	777.38
417.382	792.38
417.605	826.38
417.828	834.38
418.051	812.38
418.274	832.38
418.497	775.38
418.72	822.38
418.943	802.38
419.166	813.38
419.389	840.38
419.611	844.38
419.834	824.38
420.057	868.38
420.28	792.38
420.503	798.38
420.726	789.38
420.948	844.38
421.171	869.38
421.394	880.38
421.617	844.38
421.839	825.38
422.062	834.38
422.285	883.38
422.507	958.38
422.73	972.38
422.953	884.38
423.175	844.38
423.398	845.38
423.621	851.38
423.843	884.38
424.066	866.38
424.288	851.38
424.511	916.38
424.733	1014.38
424.956	1044.38
425.178	1009.38
425.401	956.38
425.623	956.38
425.846	845.38
426.068	831.38
426.291	827.38
426.513	830.38
426.735	881.38
426.958	949.38
427.18	1084.38
427.402	1280.38
427.625	1300.38
427.847	1013.38
428.069	822.38
428.292	797.38
428.514	756.38
428.736	757.38
428.958	748.38
429.181	729.38
429.403	737.38
429.625	793.38
429.847	829.38
430.069	872.38
430.292	808.38
430.514	743.38
430.736	755.38
430.958	715.38
431.18	723.38
431.402	733.38
431.624	725.38
431.846	733.38
432.068	726.38
432.29	731.38
432.512	716.38
432.734	748.38
432.956	752.38
433.178	766.38
433.4	748.38
433.622	747.38
433.844	763.38
434.066	734.38
434.287	746.38
434.509	730.38
434.731	781.38
434.953	839.38
435.175	834.38
435.397	852.38
435.618	867.38
435.84	964.38
436.062	1051.38
436.284	999.38
436.505	821.38
436.727	795.38
436.949	740.38
437.17	745.38
437.392	753.38
437.614	812.38
437.835	954.38
438.057	1066.38
438.278	1104.38
438.5	1085.38
438.721	1100.38
438.943	936.38
439.165	821.38
439.386	818.38
439.608	834.38
439.829	898.38
440.05	968.38
440.272	994.38
440.493	848.38
440.715	815.38
440.936	786.38
441.158	804.38
441.379	832.38
441.6	891.38
441.822	913.38
442.043	1006.38
442.264	1023.38
442.486	968.38
442.707	910.38
442.928	901.38
443.149	952.38
443.371	994.38
443.592	1080.38
443.813	1132.38
444.034	1085.38
444.255	953.38
444.476	906.38
444.698	928.38
444.919	936.38
445.14	963.38
445.361	984.38
445.582	1051.38
445.803	1198.38
446.024	1241.38
446.245	1162.38
446.466	964.38
446.687	830.38
446.908	778.38
447.129	742.38
447.35	745.38
447.571	743.38
447.792	739.38
448.013	758.38
448.234	840.38
448.455	944.38
448.675	1058.38
448.896	1043.38
449.117	904.38
449.338	989.38
449.559	1129.38
449.779	1062.38
450	842.38
450.221	777.38
450.442	741.38
450.662	783.38
450.883	831.38
451.104	816.38
451.324	738.38
451.545	700.38
451.766	679.38
451.986	669.38
452.207	671.38
452.428	672.38
452.648	698.38
452.869	725.38
453.089	713.38
453.31	716.38
453.53	644.38
453.751	676.38
453.971	754.38
454.192	726.38
454.412	668.38
454.633	655.38
454.853	658.38
455.073	644.38
455.294	724.38
455.514	789.38
455.734	684.38
455.955	621.38
456.175	623.38
456.395	604.38
456.616	608.38
456.836	610.38
457.056	611.38
457.276	616.38
457.497	636.38
457.717	645.38
457.937	650.38
458.157	652.38
458.377	673.38
458.598	818.38
458.818	977.38
459.038	1048.38
459.258	899.38
459.478	777.38
459.698	765.38
459.918	762.38
460.138	776.38
460.358	771.38
460.578	804.38
460.798	776.38
461.018	798.38
461.238	776.38
461.458	771.38
461.678	793.38
461.898	817.38
462.118	781.38
462.338	819.38
462.558	829.38
462.777	863.38
462.997	938.38
463.217	963.38
463.437	916.38
463.657	864.38
463.876	872.38
464.096	907.38
464.316	905.38
464.536	885.38
464.755	893.38
464.975	970.38
465.195	1169.38
465.414	1099.38
465.634	838.38
465.854	769.38
466.073	728.38
466.293	724.38
466.512	691.38
466.732	686.38
466.951	687.38
467.171	706.38
467.391	761.38
467.61	755.38
467.829	728.38
468.049	689.38
468.268	666.38
468.488	661.38
468.707	657.38
468.927	685.38
469.146	646.38
469.365	683.38
469.585	698.38
469.804	760.38
470.023	766.38
470.243	711.38
470.462	773.38
470.681	812.38
470.901	757.38
471.12	710.38
471.339	701.38
471.558	692.38
471.777	686.38
471.997	667.38
472.216	681.38
472.435	643.38
472.654	661.38
472.873	635.38
473.092	665.38
473.311	659.38
473.53	667.38
473.749	681.38
473.968	801.38
474.187	897.38
474.406	772.38
474.625	674.38
474.844	670.38
475.063	658.38
475.282	676.38
475.501	698.38
475.72	686.38
475.939	664.38
476.158	657.38
476.377	703.38
476.596	722.38
476.814	736.38
477.033	720.38
477.252	709.38
477.471	716.38
477.69	747.38
477.908	754.38
478.127	759.38
478.346	753.38
478.564	767.38
478.783	804.38
479.002	822.38
479.22	840.38
479.439	828.38
479.658	867.38
479.876	852.38
480.095	876.38
480.313	909.38
480.532	851.38
480.751	861.38
480.969	845.38
481.188	815.38
481.406	814.38
481.624	790.38
481.843	768.38
482.061	772.38
482.28	747.38
482.498	746.38
482.717	732.38
482.935	750.38
483.153	777.38
483.372	762.38
483.59	805.38
483.808	753.38
484.027	792.38
484.245	796.38
484.463	795.38
484.681	787.38
484.9	789.38
485.118	800.38
485.336	801.38
485.554	809.38
485.772	822.38
485.99	833.38
486.209	819.38
486.427	836.38
486.645	902.38
486.863	894.38
487.081	836.38
487.299	836.38
487.517	836.38
487.735	827.38
487.953	838.38
488.171	835.38
488.389	849.38
488.607	840.38
488.825	812.38
489.043	814.38
489.261	820.38
489.479	831.38
489.696	820.38
489.914	864.38
490.132	860.38
490.35	845.38
490.568	861.38
490.786	886.38
491.003	921.38
491.221	948.38
491.439	958.38
491.657	952.38
491.874	939.38
492.092	986.38
492.31	960.38
492.527	979.38
492.745	964.38
492.963	967.38
493.18	981.38
493.398	1009.38
493.615	989.38
493.833	986.38
494.05	966.38
494.268	986.38
494.485	975.38
494.703	972.38
494.92	987.38
495.138	955.38
495.355	964.38
495.573	997.38
495.79	977.38
496.008	966.38
496.225	984.38
496.442	961.38
496.66	984.38
496.877	983.38
497.094	1003.38
497.312	1002.38
497.529	1034.38
497.746	1019.38
497.963	1067.38
498.181	1118.38
498.398	1129.38
498.615	1194.38
498.832	1254.38
499.049	1278.38
499.267	1351.38
499.484	1421.38
499.701	1531.38
499.918	1669.38
500.135	1796.38
500.352	1874.38
500.569	1892.38
500.786	1853.38
501.003	1781.38
501.22	1649.38
501.437	1554.38
501.654	1476.38
