Data from TestCu_HRD10591_00075.txt Node
Date: Thu Oct 05 14:05:55 EDT 2023
User: Yrep
Spectrometer: HR+D1059
Trigger mode: 1
Integration Time (sec): 1.000000E-1
Scans to average: 1
Electric dark correction enabled: true
Nonlinearity correction enabled: false
Boxcar width: 0
XAxis mode: Wavelengths
Number of Pixels in Spectrum: 2048
>>>>>Begin Spectral Data<<<<<
223.165	-19.94
223.4	-19.94
223.635	-19.94
223.869	-27.94
224.104	-24.94
224.338	-15.94
224.573	-7.94
224.808	-14.94
225.042	-2.94
225.277	-13.94
225.511	-1.94
225.746	15.06
225.98	9.06
226.215	-0.94
226.449	15.06
226.683	16.06
226.918	36.06
227.152	40.06
227.387	40.06
227.621	50.06
227.856	34.06
228.09	36.06
228.324	48.06
228.559	40.06
228.793	70.06
229.027	95.06
229.262	113.06
229.496	134.06
229.73	172.06
229.964	166.06
230.199	132.06
230.433	108.06
230.667	118.06
230.901	112.06
231.136	113.06
231.37	118.06
231.604	112.06
231.838	105.06
232.072	121.06
232.306	115.06
232.541	110.06
232.775	118.06
233.009	113.06
233.243	117.06
233.477	116.06
233.711	120.06
233.945	104.06
234.179	123.06
234.413	115.06
234.647	110.06
234.881	115.06
235.115	113.06
235.349	116.06
235.583	128.06
235.817	126.06
236.051	141.06
236.285	140.06
236.519	119.06
236.753	149.06
236.987	172.06
237.221	220.06
237.455	216.06
237.689	162.06
237.922	145.06
238.156	113.06
238.39	128.06
238.624	112.06
238.858	132.06
239.091	113.06
239.325	121.06
239.559	141.06
239.793	150.06
240.027	138.06
240.26	149.06
240.494	158.06
240.728	142.06
240.961	144.06
241.195	128.06
241.429	125.06
241.662	130.06
241.896	115.06
242.13	124.06
242.363	137.06
242.597	116.06
242.83	117.06
243.064	132.06
243.298	137.06
243.531	128.06
243.765	128.06
243.998	145.06
244.232	141.06
244.465	136.06
244.699	152.06
244.932	141.06
245.166	138.06
245.399	124.06
245.633	141.06
245.866	143.06
246.099	153.06
246.333	153.06
246.566	144.06
246.8	156.06
247.033	160.06
247.266	160.06
247.5	155.06
247.733	160.06
247.966	158.06
248.2	150.06
248.433	161.06
248.666	180.06
248.899	189.06
249.133	202.06
249.366	193.06
249.599	180.06
249.832	160.06
250.066	162.06
250.299	172.06
250.532	194.06
250.765	206.06
250.998	216.06
251.231	179.06
251.465	176.06
251.698	169.06
251.931	190.06
252.164	172.06
252.397	183.06
252.63	193.06
252.863	192.06
253.096	221.06
253.329	208.06
253.562	200.06
253.795	194.06
254.028	213.06
254.261	213.06
254.494	250.06
254.727	276.06
254.96	251.06
255.193	215.06
255.426	206.06
255.659	182.06
255.892	199.06
256.124	195.06
256.357	192.06
256.59	192.06
256.823	199.06
257.056	186.06
257.289	180.06
257.521	197.06
257.754	200.06
257.987	198.06
258.22	197.06
258.452	212.06
258.685	205.06
258.918	208.06
259.151	212.06
259.383	226.06
259.616	233.06
259.849	225.06
260.081	226.06
260.314	249.06
260.547	238.06
260.779	206.06
261.012	195.06
261.244	214.06
261.477	216.06
261.71	241.06
261.942	264.06
262.175	260.06
262.407	231.06
262.64	206.06
262.872	216.06
263.105	211.06
263.337	214.06
263.57	223.06
263.802	198.06
264.035	202.06
264.267	206.06
264.499	231.06
264.732	224.06
264.964	217.06
265.197	214.06
265.429	220.06
265.661	213.06
265.894	211.06
266.126	229.06
266.358	213.06
266.591	230.06
266.823	238.06
267.055	236.06
267.287	233.06
267.52	237.06
267.752	228.06
267.984	221.06
268.216	243.06
268.448	226.06
268.681	244.06
268.913	265.06
269.145	266.06
269.377	264.06
269.609	274.06
269.841	264.06
270.073	288.06
270.306	318.06
270.538	294.06
270.77	297.06
271.002	279.06
271.234	291.06
271.466	313.06
271.698	300.06
271.93	306.06
272.162	294.06
272.394	294.06
272.626	271.06
272.858	260.06
273.09	256.06
273.322	259.06
273.553	246.06
273.785	265.06
274.017	254.06
274.249	250.06
274.481	276.06
274.713	262.06
274.945	259.06
275.176	252.06
275.408	258.06
275.64	279.06
275.872	261.06
276.104	279.06
276.335	284.06
276.567	292.06
276.799	352.06
277.031	347.06
277.262	343.06
277.494	321.06
277.726	284.06
277.957	264.06
278.189	272.06
278.421	291.06
278.652	260.06
278.884	262.06
279.115	253.06
279.347	275.06
279.579	281.06
279.81	264.06
280.042	259.06
280.273	278.06
280.505	265.06
280.736	276.06
280.968	277.06
281.199	279.06
281.431	285.06
281.662	292.06
281.894	306.06
282.125	317.06
282.356	339.06
282.588	353.06
282.819	328.06
283.051	292.06
283.282	278.06
283.513	297.06
283.745	310.06
283.976	300.06
284.207	318.06
284.439	298.06
284.67	279.06
284.901	306.06
285.132	302.06
285.364	292.06
285.595	286.06
285.826	291.06
286.057	294.06
286.288	296.06
286.52	292.06
286.751	305.06
286.982	294.06
287.213	309.06
287.444	320.06
287.675	336.06
287.906	333.06
288.138	334.06
288.369	322.06
288.6	333.06
288.831	326.06
289.062	323.06
289.293	324.06
289.524	333.06
289.755	311.06
289.986	305.06
290.217	320.06
290.448	301.06
290.679	311.06
290.91	336.06
291.141	308.06
291.371	310.06
291.602	317.06
291.833	330.06
292.064	318.06
292.295	309.06
292.526	324.06
292.757	342.06
292.987	322.06
293.218	324.06
293.449	323.06
293.68	322.06
293.91	319.06
294.141	322.06
294.372	319.06
294.603	317.06
294.833	333.06
295.064	349.06
295.295	333.06
295.525	339.06
295.756	369.06
295.987	381.06
296.217	416.06
296.448	393.06
296.679	339.06
296.909	353.06
297.14	352.06
297.37	377.06
297.601	366.06
297.831	370.06
298.062	353.06
298.292	358.06
298.523	375.06
298.753	338.06
298.984	344.06
299.214	373.06
299.445	380.06
299.675	377.06
299.905	382.06
300.136	381.06
300.366	371.06
300.597	368.06
300.827	382.06
301.057	401.06
301.288	408.06
301.518	402.06
301.748	398.06
301.979	409.06
302.209	420.06
302.439	396.06
302.669	412.06
302.9	400.06
303.13	380.06
303.36	396.06
303.59	384.06
303.82	405.06
304.051	412.06
304.281	409.06
304.511	384.06
304.741	357.06
304.971	361.06
305.201	384.06
305.431	374.06
305.661	368.06
305.891	393.06
306.121	374.06
306.352	403.06
306.582	404.06
306.812	375.06
307.042	394.06
307.272	377.06
307.502	408.06
307.731	392.06
307.961	398.06
308.191	408.06
308.421	430.06
308.651	400.06
308.881	423.06
309.111	420.06
309.341	425.06
309.571	435.06
309.8	462.06
310.03	466.06
310.26	458.06
310.49	474.06
310.72	510.06
310.949	510.06
311.179	478.06
311.409	447.06
311.639	471.06
311.868	460.06
312.098	466.06
312.328	514.06
312.557	554.06
312.787	542.06
313.017	506.06
313.246	466.06
313.476	470.06
313.706	494.06
313.935	500.06
314.165	535.06
314.394	521.06
314.624	510.06
314.853	484.06
315.083	460.06
315.312	464.06
315.542	462.06
315.771	451.06
316.001	455.06
316.23	445.06
316.46	465.06
316.689	469.06
316.919	478.06
317.148	490.06
317.377	500.06
317.607	500.06
317.836	486.06
318.065	448.06
318.295	448.06
318.524	457.06
318.753	443.06
318.983	461.06
319.212	461.06
319.441	501.06
319.67	482.06
319.9	460.06
320.129	470.06
320.358	468.06
320.587	464.06
320.816	500.06
321.046	506.06
321.275	501.06
321.504	495.06
321.733	509.06
321.962	535.06
322.191	549.06
322.42	610.06
322.649	582.06
322.878	594.06
323.108	638.06
323.337	709.06
323.566	728.06
323.795	836.06
324.024	1128.06
324.253	1947.06
324.482	3349.06
324.71	5047.06
324.939	4433.06
325.168	1978.06
325.397	928.06
325.626	717.06
325.855	657.06
326.084	652.06
326.313	718.06
326.542	793.06
326.77	1081.06
326.999	1810.06
327.228	2937.06
327.457	3757.06
327.686	2439.06
327.914	1158.06
328.143	885.06
328.372	823.06
328.6	796.06
328.829	832.06
329.058	857.06
329.287	762.06
329.515	670.06
329.744	633.06
329.972	630.06
330.201	694.06
330.43	783.06
330.658	900.06
330.887	921.06
331.115	750.06
331.344	687.06
331.572	691.06
331.801	682.06
332.03	666.06
332.258	612.06
332.486	593.06
332.715	616.06
332.943	626.06
333.172	655.06
333.4	665.06
333.629	674.06
333.857	674.06
334.085	647.06
334.314	616.06
334.542	630.06
334.771	651.06
334.999	652.06
335.227	639.06
335.455	632.06
335.684	616.06
335.912	598.06
336.14	630.06
336.369	634.06
336.597	645.06
336.825	620.06
337.053	608.06
337.281	612.06
337.51	588.06
337.738	601.06
337.966	610.06
338.194	630.06
338.422	597.06
338.65	583.06
338.878	588.06
339.106	570.06
339.334	558.06
339.562	549.06
339.79	585.06
340.018	579.06
340.246	583.06
340.474	585.06
340.702	564.06
340.93	555.06
341.158	564.06
341.386	605.06
341.614	596.06
341.842	582.06
342.07	556.06
342.298	565.06
342.526	558.06
342.754	557.06
342.981	578.06
343.209	556.06
343.437	560.06
343.665	629.06
343.893	623.06
344.12	612.06
344.348	605.06
344.576	594.06
344.804	621.06
345.031	629.06
345.259	608.06
345.487	558.06
345.714	573.06
345.942	550.06
346.17	570.06
346.397	557.06
346.625	561.06
346.853	560.06
347.08	564.06
347.308	601.06
347.535	594.06
347.763	560.06
347.99	574.06
348.218	608.06
348.445	612.06
348.673	564.06
348.9	579.06
349.128	555.06
349.355	536.06
349.583	545.06
349.81	541.06
350.037	543.06
350.265	544.06
350.492	528.06
350.72	567.06
350.947	579.06
351.174	613.06
351.402	606.06
351.629	566.06
351.856	612.06
352.083	639.06
352.311	640.06
352.538	608.06
352.765	600.06
352.992	598.06
353.22	580.06
353.447	557.06
353.674	535.06
353.901	511.06
354.128	528.06
354.355	509.06
354.583	533.06
354.81	518.06
355.037	522.06
355.264	509.06
355.491	521.06
355.718	511.06
355.945	499.06
356.172	529.06
356.399	510.06
356.626	540.06
356.853	524.06
357.08	530.06
357.307	534.06
357.534	519.06
357.761	529.06
357.988	528.06
358.215	516.06
358.441	522.06
358.668	541.06
358.895	554.06
359.122	561.06
359.349	592.06
359.576	640.06
359.802	708.06
360.029	729.06
360.256	697.06
360.483	621.06
360.709	566.06
360.936	574.06
361.163	586.06
361.39	628.06
361.616	580.06
361.843	585.06
362.07	602.06
362.296	591.06
362.523	570.06
362.749	601.06
362.976	571.06
363.203	526.06
363.429	541.06
363.656	571.06
363.882	550.06
364.109	552.06
364.335	543.06
364.562	550.06
364.788	559.06
365.015	562.06
365.241	549.06
365.468	569.06
365.694	581.06
365.92	564.06
366.147	542.06
366.373	545.06
366.599	553.06
366.826	529.06
367.052	546.06
367.278	553.06
367.505	580.06
367.731	555.06
367.957	547.06
368.184	560.06
368.41	592.06
368.636	593.06
368.862	580.06
369.089	562.06
369.315	548.06
369.541	554.06
369.767	567.06
369.993	561.06
370.219	566.06
370.445	548.06
370.672	574.06
370.898	570.06
371.124	556.06
371.35	570.06
371.576	556.06
371.802	554.06
372.028	569.06
372.254	545.06
372.48	554.06
372.706	563.06
372.932	558.06
373.158	577.06
373.384	567.06
373.61	563.06
373.835	573.06
374.061	590.06
374.287	586.06
374.513	601.06
374.739	610.06
374.965	629.06
375.191	599.06
375.416	606.06
375.642	588.06
375.868	576.06
376.094	565.06
376.319	573.06
376.545	588.06
376.771	580.06
376.997	566.06
377.222	587.06
377.448	549.06
377.674	550.06
377.899	566.06
378.125	577.06
378.35	558.06
378.576	554.06
378.802	539.06
379.027	560.06
379.253	544.06
379.478	564.06
379.704	576.06
379.929	583.06
380.155	589.06
380.38	579.06
380.606	597.06
380.831	583.06
381.057	598.06
381.282	560.06
381.507	580.06
381.733	588.06
381.958	589.06
382.184	620.06
382.409	606.06
382.634	590.06
382.86	617.06
383.085	611.06
383.31	611.06
383.535	628.06
383.761	617.06
383.986	642.06
384.211	633.06
384.436	631.06
384.662	649.06
384.887	652.06
385.112	654.06
385.337	656.06
385.562	656.06
385.787	691.06
386.013	717.06
386.238	704.06
386.463	663.06
386.688	678.06
386.913	637.06
387.138	670.06
387.363	656.06
387.588	633.06
387.813	653.06
388.038	642.06
388.263	690.06
388.488	673.06
388.713	669.06
388.938	644.06
389.163	638.06
389.387	663.06
389.612	644.06
389.837	668.06
390.062	625.06
390.287	660.06
390.512	654.06
390.736	646.06
390.961	678.06
391.186	678.06
391.411	716.06
391.636	722.06
391.86	703.06
392.085	722.06
392.31	721.06
392.534	718.06
392.759	710.06
392.984	677.06
393.208	663.06
393.433	675.06
393.658	688.06
393.882	677.06
394.107	658.06
394.331	695.06
394.556	687.06
394.78	717.06
395.005	702.06
395.229	688.06
395.454	718.06
395.678	740.06
395.903	759.06
396.127	744.06
396.352	744.06
396.576	709.06
396.801	714.06
397.025	727.06
397.249	706.06
397.474	734.06
397.698	755.06
397.922	762.06
398.147	788.06
398.371	797.06
398.595	796.06
398.82	826.06
399.044	915.06
399.268	1002.06
399.492	1100.06
399.717	1097.06
399.941	1060.06
400.165	1005.06
400.389	932.06
400.613	872.06
400.837	819.06
401.062	824.06
401.286	819.06
401.51	838.06
401.734	824.06
401.958	836.06
402.182	878.06
402.406	922.06
402.63	919.06
402.854	894.06
403.078	900.06
403.302	893.06
403.526	902.06
403.75	897.06
403.974	946.06
404.198	866.06
404.422	912.06
404.645	902.06
404.869	912.06
405.093	915.06
405.317	972.06
405.541	931.06
405.765	887.06
405.988	937.06
406.212	1026.06
406.436	1063.06
406.66	1034.06
406.883	1024.06
407.107	1063.06
407.331	1098.06
407.555	1126.06
407.778	1088.06
408.002	956.06
408.226	951.06
408.449	941.06
408.673	941.06
408.896	903.06
409.12	950.06
409.344	899.06
409.567	858.06
409.791	868.06
410.014	861.06
410.238	825.06
410.461	857.06
410.685	866.06
410.908	901.06
411.132	894.06
411.355	906.06
411.578	837.06
411.802	819.06
412.025	801.06
412.249	834.06
412.472	793.06
412.695	805.06
412.919	790.06
413.142	777.06
413.365	776.06
413.589	808.06
413.812	794.06
414.035	782.06
414.258	798.06
414.482	779.06
414.705	797.06
414.928	800.06
415.151	760.06
415.374	812.06
415.597	785.06
415.821	770.06
416.044	765.06
416.267	768.06
416.49	762.06
416.713	760.06
416.936	787.06
417.159	769.06
417.382	791.06
417.605	818.06
417.828	836.06
418.051	822.06
418.274	798.06
418.497	784.06
418.72	814.06
418.943	792.06
419.166	807.06
419.389	836.06
419.611	822.06
419.834	830.06
420.057	836.06
420.28	817.06
420.503	803.06
420.726	842.06
420.948	846.06
421.171	844.06
421.394	865.06
421.617	831.06
421.839	835.06
422.062	838.06
422.285	866.06
422.507	935.06
422.73	960.06
422.953	887.06
423.175	824.06
423.398	853.06
423.621	845.06
423.843	862.06
424.066	879.06
424.288	879.06
424.511	930.06
424.733	978.06
424.956	1044.06
425.178	975.06
425.401	1014.06
425.623	950.06
425.846	856.06
426.068	836.06
426.291	821.06
426.513	820.06
426.735	864.06
426.958	976.06
427.18	1065.06
427.402	1233.06
427.625	1253.06
427.847	981.06
428.069	840.06
428.292	799.06
428.514	755.06
428.736	721.06
428.958	740.06
429.181	709.06
429.403	748.06
429.625	773.06
429.847	847.06
430.069	872.06
430.292	785.06
430.514	741.06
430.736	743.06
430.958	704.06
431.18	716.06
431.402	728.06
431.624	721.06
431.846	706.06
432.068	713.06
432.29	741.06
432.512	733.06
432.734	724.06
432.956	742.06
433.178	775.06
433.4	743.06
433.622	718.06
433.844	715.06
434.066	743.06
434.287	746.06
434.509	762.06
434.731	782.06
434.953	809.06
435.175	820.06
435.397	819.06
435.618	852.06
435.84	934.06
436.062	1050.06
436.284	960.06
436.505	855.06
436.727	793.06
436.949	772.06
437.17	732.06
437.392	758.06
437.614	807.06
437.835	926.06
438.057	1044.06
438.278	1074.06
438.5	1049.06
438.721	1101.06
438.943	938.06
439.165	825.06
439.386	803.06
439.608	827.06
439.829	882.06
440.05	967.06
440.272	1016.06
440.493	833.06
440.715	761.06
440.936	761.06
441.158	810.06
441.379	808.06
441.6	854.06
441.822	903.06
442.043	968.06
442.264	1029.06
442.486	961.06
442.707	878.06
442.928	881.06
443.149	942.06
443.371	990.06
443.592	1069.06
443.813	1128.06
444.034	1077.06
444.255	928.06
444.476	913.06
444.698	927.06
444.919	899.06
445.14	969.06
445.361	937.06
445.582	1040.06
445.803	1175.06
446.024	1268.06
446.245	1150.06
446.466	974.06
446.687	830.06
446.908	790.06
447.129	757.06
447.35	765.06
447.571	727.06
447.792	718.06
448.013	776.06
448.234	828.06
448.455	901.06
448.675	1070.06
448.896	1032.06
449.117	924.06
449.338	988.06
449.559	1121.06
449.779	1030.06
450	812.06
450.221	746.06
450.442	741.06
450.662	762.06
450.883	830.06
451.104	824.06
451.324	708.06
451.545	711.06
451.766	692.06
451.986	672.06
452.207	642.06
452.428	678.06
452.648	705.06
452.869	714.06
453.089	688.06
453.31	711.06
453.53	698.06
453.751	686.06
453.971	725.06
454.192	735.06
454.412	672.06
454.633	636.06
454.853	630.06
455.073	646.06
455.294	743.06
455.514	798.06
455.734	687.06
455.955	608.06
456.175	610.06
456.395	592.06
456.616	627.06
456.836	596.06
457.056	607.06
457.276	590.06
457.497	599.06
457.717	614.06
457.937	643.06
458.157	648.06
458.377	701.06
458.598	772.06
458.818	964.06
459.038	1043.06
459.258	910.06
459.478	787.06
459.698	724.06
459.918	742.06
460.138	770.06
460.358	785.06
460.578	789.06
460.798	778.06
461.018	783.06
461.238	802.06
461.458	776.06
461.678	759.06
461.898	789.06
462.118	822.06
462.338	834.06
462.558	815.06
462.777	862.06
462.997	940.06
463.217	953.06
463.437	932.06
463.657	877.06
463.876	876.06
464.096	885.06
464.316	894.06
464.536	904.06
464.755	884.06
464.975	958.06
465.195	1186.06
465.414	1104.06
465.634	844.06
465.854	738.06
466.073	730.06
466.293	708.06
466.512	700.06
466.732	692.06
466.951	677.06
467.171	657.06
467.391	709.06
467.61	744.06
467.829	713.06
468.049	692.06
468.268	682.06
468.488	681.06
468.707	662.06
468.927	662.06
469.146	670.06
469.365	678.06
469.585	683.06
469.804	718.06
470.023	752.06
470.243	735.06
470.462	781.06
470.681	810.06
470.901	730.06
471.12	697.06
471.339	679.06
471.558	697.06
471.777	650.06
471.997	682.06
472.216	653.06
472.435	636.06
472.654	636.06
472.873	640.06
473.092	663.06
473.311	621.06
473.53	665.06
473.749	726.06
473.968	805.06
474.187	896.06
474.406	787.06
474.625	705.06
474.844	668.06
475.063	666.06
475.282	643.06
475.501	663.06
475.72	703.06
475.939	671.06
476.158	678.06
476.377	687.06
476.596	690.06
476.814	706.06
477.033	686.06
477.252	719.06
477.471	728.06
477.69	754.06
477.908	725.06
478.127	731.06
478.346	770.06
478.564	805.06
478.783	812.06
479.002	820.06
479.22	834.06
479.439	885.06
479.658	890.06
479.876	870.06
480.095	868.06
480.313	887.06
480.532	854.06
480.751	829.06
480.969	836.06
481.188	814.06
481.406	782.06
481.624	779.06
481.843	750.06
482.061	750.06
482.28	745.06
482.498	754.06
482.717	757.06
482.935	756.06
483.153	758.06
483.372	768.06
483.59	766.06
483.808	757.06
484.027	757.06
484.245	776.06
484.463	772.06
484.681	802.06
484.9	784.06
485.118	788.06
485.336	797.06
485.554	777.06
485.772	801.06
485.99	818.06
486.209	788.06
486.427	817.06
486.645	860.06
486.863	882.06
487.081	846.06
487.299	840.06
487.517	826.06
487.735	825.06
487.953	821.06
488.171	819.06
488.389	827.06
488.607	821.06
488.825	793.06
489.043	807.06
489.261	830.06
489.479	801.06
489.696	836.06
489.914	834.06
490.132	847.06
490.35	849.06
490.568	866.06
490.786	855.06
491.003	900.06
491.221	918.06
491.439	920.06
491.657	945.06
491.874	946.06
492.092	956.06
492.31	959.06
492.527	949.06
492.745	956.06
492.963	919.06
493.18	947.06
493.398	980.06
493.615	965.06
493.833	980.06
494.05	977.06
494.268	944.06
494.485	965.06
494.703	938.06
494.92	945.06
495.138	941.06
495.355	954.06
495.573	960.06
495.79	950.06
496.008	959.06
496.225	948.06
496.442	950.06
496.66	952.06
496.877	954.06
497.094	968.06
497.312	978.06
497.529	1013.06
497.746	1029.06
497.963	1067.06
498.181	1085.06
498.398	1118.06
498.615	1176.06
498.832	1247.06
499.049	1288.06
499.267	1349.06
499.484	1431.06
499.701	1496.06
499.918	1624.06
500.135	1781.06
500.352	1886.06
500.569	1890.06
500.786	1864.06
501.003	1758.06
501.22	1655.06
501.437	1521.06
501.654	1441.06
