Data from TestCu_HRD10591_00048.txt Node
Date: Thu Oct 05 14:05:28 EDT 2023
User: Yrep
Spectrometer: HR+D1059
Trigger mode: 1
Integration Time (sec): 1.000000E-1
Scans to average: 1
Electric dark correction enabled: true
Nonlinearity correction enabled: false
Boxcar width: 0
XAxis mode: Wavelengths
Number of Pixels in Spectrum: 2048
>>>>>Begin Spectral Data<<<<<
223.165	-22.88
223.4	-22.88
223.635	-22.88
223.869	-19.88
224.104	-22.88
224.338	-12.88
224.573	-15.88
224.808	-22.88
225.042	-1.88
225.277	-2.88
225.511	3.12
225.746	7.12
225.98	8.12
226.215	11.12
226.449	21.12
226.683	18.12
226.918	22.12
227.152	31.12
227.387	35.12
227.621	20.12
227.856	56.12
228.09	39.12
228.324	43.12
228.559	55.12
228.793	69.12
229.027	98.12
229.262	138.12
229.496	149.12
229.73	162.12
229.964	171.12
230.199	124.12
230.433	127.12
230.667	109.12
230.901	116.12
231.136	122.12
231.37	108.12
231.604	127.12
231.838	114.12
232.072	113.12
232.306	114.12
232.541	118.12
232.775	105.12
233.009	126.12
233.243	122.12
233.477	121.12
233.711	112.12
233.945	125.12
234.179	127.12
234.413	120.12
234.647	118.12
234.881	127.12
235.115	141.12
235.349	110.12
235.583	123.12
235.817	124.12
236.051	115.12
236.285	131.12
236.519	145.12
236.753	155.12
236.987	194.12
237.221	229.12
237.455	215.12
237.689	142.12
237.922	127.12
238.156	135.12
238.39	139.12
238.624	118.12
238.858	119.12
239.091	136.12
239.325	142.12
239.559	141.12
239.793	144.12
240.027	159.12
240.26	165.12
240.494	160.12
240.728	148.12
240.961	144.12
241.195	129.12
241.429	127.12
241.662	126.12
241.896	128.12
242.13	130.12
242.363	124.12
242.597	128.12
242.83	135.12
243.064	141.12
243.298	133.12
243.531	141.12
243.765	130.12
243.998	146.12
244.232	130.12
244.465	132.12
244.699	148.12
244.932	131.12
245.166	135.12
245.399	144.12
245.633	160.12
245.866	142.12
246.099	137.12
246.333	158.12
246.566	150.12
246.8	151.12
247.033	160.12
247.266	159.12
247.5	170.12
247.733	171.12
247.966	164.12
248.2	169.12
248.433	176.12
248.666	181.12
248.899	209.12
249.133	212.12
249.366	204.12
249.599	179.12
249.832	163.12
250.066	181.12
250.299	176.12
250.532	182.12
250.765	220.12
250.998	212.12
251.231	213.12
251.465	180.12
251.698	181.12
251.931	186.12
252.164	193.12
252.397	186.12
252.63	192.12
252.863	206.12
253.096	225.12
253.329	223.12
253.562	222.12
253.795	206.12
254.028	197.12
254.261	211.12
254.494	245.12
254.727	258.12
254.96	254.12
255.193	223.12
255.426	203.12
255.659	212.12
255.892	203.12
256.124	190.12
256.357	206.12
256.59	203.12
256.823	167.12
257.056	185.12
257.289	202.12
257.521	197.12
257.754	197.12
257.987	202.12
258.22	196.12
258.452	189.12
258.685	200.12
258.918	211.12
259.151	208.12
259.383	226.12
259.616	212.12
259.849	244.12
260.081	254.12
260.314	255.12
260.547	232.12
260.779	215.12
261.012	215.12
261.244	221.12
261.477	232.12
261.71	244.12
261.942	260.12
262.175	258.12
262.407	227.12
262.64	233.12
262.872	219.12
263.105	229.12
263.337	213.12
263.57	224.12
263.802	228.12
264.035	213.12
264.267	216.12
264.499	216.12
264.732	225.12
264.964	222.12
265.197	214.12
265.429	216.12
265.661	220.12
265.894	224.12
266.126	228.12
266.358	244.12
266.591	223.12
266.823	205.12
267.055	215.12
267.287	240.12
267.52	229.12
267.752	214.12
267.984	244.12
268.216	253.12
268.448	255.12
268.681	248.12
268.913	277.12
269.145	274.12
269.377	300.12
269.609	261.12
269.841	267.12
270.073	311.12
270.306	312.12
270.538	327.12
270.77	285.12
271.002	289.12
271.234	296.12
271.466	317.12
271.698	308.12
271.93	330.12
272.162	320.12
272.394	297.12
272.626	287.12
272.858	280.12
273.09	261.12
273.322	252.12
273.553	243.12
273.785	273.12
274.017	269.12
274.249	268.12
274.481	273.12
274.713	279.12
274.945	277.12
275.176	277.12
275.408	268.12
275.64	276.12
275.872	266.12
276.104	289.12
276.335	302.12
276.567	328.12
276.799	322.12
277.031	360.12
277.262	348.12
277.494	319.12
277.726	311.12
277.957	280.12
278.189	279.12
278.421	273.12
278.652	283.12
278.884	287.12
279.115	278.12
279.347	273.12
279.579	276.12
279.81	294.12
280.042	281.12
280.273	273.12
280.505	279.12
280.736	295.12
280.968	287.12
281.199	287.12
281.431	287.12
281.662	287.12
281.894	299.12
282.125	309.12
282.356	364.12
282.588	372.12
282.819	329.12
283.051	320.12
283.282	285.12
283.513	309.12
283.745	318.12
283.976	305.12
284.207	309.12
284.439	331.12
284.67	300.12
284.901	303.12
285.132	316.12
285.364	293.12
285.595	320.12
285.826	310.12
286.057	326.12
286.288	313.12
286.52	311.12
286.751	310.12
286.982	329.12
287.213	318.12
287.444	307.12
287.675	340.12
287.906	347.12
288.138	337.12
288.369	348.12
288.6	348.12
288.831	351.12
289.062	336.12
289.293	339.12
289.524	316.12
289.755	324.12
289.986	312.12
290.217	319.12
290.448	307.12
290.679	329.12
290.91	329.12
291.141	333.12
291.371	319.12
291.602	306.12
291.833	326.12
292.064	344.12
292.295	340.12
292.526	352.12
292.757	326.12
292.987	325.12
293.218	343.12
293.449	342.12
293.68	335.12
293.91	333.12
294.141	328.12
294.372	355.12
294.603	333.12
294.833	347.12
295.064	334.12
295.295	351.12
295.525	353.12
295.756	381.12
295.987	389.12
296.217	418.12
296.448	397.12
296.679	370.12
296.909	351.12
297.14	372.12
297.37	383.12
297.601	350.12
297.831	356.12
298.062	376.12
298.292	379.12
298.523	388.12
298.753	369.12
298.984	371.12
299.214	366.12
299.445	372.12
299.675	387.12
299.905	388.12
300.136	372.12
300.366	393.12
300.597	385.12
300.827	405.12
301.057	417.12
301.288	423.12
301.518	406.12
301.748	399.12
301.979	417.12
302.209	433.12
302.439	407.12
302.669	407.12
302.9	385.12
303.13	390.12
303.36	413.12
303.59	431.12
303.82	407.12
304.051	403.12
304.281	403.12
304.511	401.12
304.741	387.12
304.971	381.12
305.201	414.12
305.431	405.12
305.661	409.12
305.891	426.12
306.121	406.12
306.352	441.12
306.582	426.12
306.812	395.12
307.042	403.12
307.272	416.12
307.502	405.12
307.731	412.12
307.961	414.12
308.191	422.12
308.421	404.12
308.651	389.12
308.881	426.12
309.111	442.12
309.341	420.12
309.571	456.12
309.8	461.12
310.03	479.12
310.26	487.12
310.49	491.12
310.72	527.12
310.949	542.12
311.179	515.12
311.409	470.12
311.639	485.12
311.868	488.12
312.098	497.12
312.328	519.12
312.557	555.12
312.787	557.12
313.017	515.12
313.246	483.12
313.476	482.12
313.706	494.12
313.935	524.12
314.165	542.12
314.394	529.12
314.624	513.12
314.853	501.12
315.083	490.12
315.312	453.12
315.542	468.12
315.771	450.12
316.001	467.12
316.23	475.12
316.46	460.12
316.689	487.12
316.919	484.12
317.148	506.12
317.377	497.12
317.607	507.12
317.836	503.12
318.065	462.12
318.295	443.12
318.524	472.12
318.753	477.12
318.983	455.12
319.212	485.12
319.441	492.12
319.67	507.12
319.9	478.12
320.129	483.12
320.358	462.12
320.587	475.12
320.816	531.12
321.046	528.12
321.275	514.12
321.504	513.12
321.733	535.12
321.962	561.12
322.191	579.12
322.42	594.12
322.649	619.12
322.878	619.12
323.108	681.12
323.337	735.12
323.566	789.12
323.795	888.12
324.024	1188.12
324.253	2049.12
324.482	3443.12
324.71	5155.12
324.939	4543.12
325.168	2053.12
325.397	965.12
325.626	733.12
325.855	698.12
326.084	693.12
326.313	727.12
326.542	836.12
326.77	1105.12
326.999	1912.12
327.228	3034.12
327.457	3815.12
327.686	2531.12
327.914	1185.12
328.143	906.12
328.372	855.12
328.6	798.12
328.829	847.12
329.058	895.12
329.287	814.12
329.515	681.12
329.744	663.12
329.972	643.12
330.201	717.12
330.43	810.12
330.658	918.12
330.887	958.12
331.115	811.12
331.344	708.12
331.572	698.12
331.801	705.12
332.03	682.12
332.258	630.12
332.486	617.12
332.715	631.12
332.943	663.12
333.172	676.12
333.4	677.12
333.629	693.12
333.857	701.12
334.085	682.12
334.314	646.12
334.542	661.12
334.771	681.12
334.999	640.12
335.227	632.12
335.455	633.12
335.684	630.12
335.912	625.12
336.14	629.12
336.369	644.12
336.597	672.12
336.825	632.12
337.053	607.12
337.281	598.12
337.51	607.12
337.738	632.12
337.966	631.12
338.194	614.12
338.422	599.12
338.65	601.12
338.878	592.12
339.106	580.12
339.334	591.12
339.562	593.12
339.79	588.12
340.018	588.12
340.246	607.12
340.474	585.12
340.702	609.12
340.93	589.12
341.158	615.12
341.386	617.12
341.614	608.12
341.842	584.12
342.07	596.12
342.298	562.12
342.526	584.12
342.754	589.12
342.981	563.12
343.209	572.12
343.437	615.12
343.665	611.12
343.893	648.12
344.12	634.12
344.348	612.12
344.576	640.12
344.804	643.12
345.031	657.12
345.259	643.12
345.487	600.12
345.714	595.12
345.942	555.12
346.17	582.12
346.397	567.12
346.625	579.12
346.853	574.12
347.08	567.12
347.308	596.12
347.535	609.12
347.763	617.12
347.99	594.12
348.218	625.12
348.445	646.12
348.673	605.12
348.9	570.12
349.128	567.12
349.355	550.12
349.583	555.12
349.81	539.12
350.037	557.12
350.265	555.12
350.492	548.12
350.72	569.12
350.947	603.12
351.174	612.12
351.402	600.12
351.629	621.12
351.856	619.12
352.083	644.12
352.311	656.12
352.538	655.12
352.765	620.12
352.992	629.12
353.22	582.12
353.447	566.12
353.674	565.12
353.901	549.12
354.128	547.12
354.355	531.12
354.583	559.12
354.81	544.12
355.037	508.12
355.264	534.12
355.491	534.12
355.718	523.12
355.945	541.12
356.172	564.12
356.399	548.12
356.626	529.12
356.853	536.12
357.08	543.12
357.307	529.12
357.534	531.12
357.761	522.12
357.988	549.12
358.215	523.12
358.441	536.12
358.668	541.12
358.895	576.12
359.122	588.12
359.349	620.12
359.576	663.12
359.802	751.12
360.029	756.12
360.256	748.12
360.483	649.12
360.709	588.12
360.936	615.12
361.163	616.12
361.39	631.12
361.616	618.12
361.843	612.12
362.07	592.12
362.296	615.12
362.523	591.12
362.749	589.12
362.976	590.12
363.203	568.12
363.429	575.12
363.656	590.12
363.882	564.12
364.109	552.12
364.335	591.12
364.562	573.12
364.788	569.12
365.015	557.12
365.241	598.12
365.468	580.12
365.694	603.12
365.92	594.12
366.147	576.12
366.373	582.12
366.599	576.12
366.826	563.12
367.052	575.12
367.278	587.12
367.505	581.12
367.731	585.12
367.957	570.12
368.184	603.12
368.41	605.12
368.636	625.12
368.862	595.12
369.089	608.12
369.315	597.12
369.541	581.12
369.767	576.12
369.993	579.12
370.219	571.12
370.445	564.12
370.672	570.12
370.898	585.12
371.124	589.12
371.35	578.12
371.576	568.12
371.802	573.12
372.028	565.12
372.254	579.12
372.48	580.12
372.706	585.12
372.932	583.12
373.158	567.12
373.384	575.12
373.61	593.12
373.835	593.12
374.061	594.12
374.287	600.12
374.513	615.12
374.739	617.12
374.965	605.12
375.191	603.12
375.416	612.12
375.642	597.12
375.868	603.12
376.094	575.12
376.319	604.12
376.545	594.12
376.771	600.12
376.997	606.12
377.222	582.12
377.448	575.12
377.674	594.12
377.899	547.12
378.125	577.12
378.35	590.12
378.576	574.12
378.802	596.12
379.027	582.12
379.253	586.12
379.478	569.12
379.704	571.12
379.929	593.12
380.155	592.12
380.38	583.12
380.606	615.12
380.831	613.12
381.057	601.12
381.282	612.12
381.507	585.12
381.733	595.12
381.958	609.12
382.184	587.12
382.409	622.12
382.634	609.12
382.86	604.12
383.085	639.12
383.31	645.12
383.535	644.12
383.761	647.12
383.986	655.12
384.211	666.12
384.436	671.12
384.662	672.12
384.887	681.12
385.112	677.12
385.337	695.12
385.562	670.12
385.787	692.12
386.013	710.12
386.238	701.12
386.463	678.12
386.688	685.12
386.913	683.12
387.138	688.12
387.363	684.12
387.588	674.12
387.813	703.12
388.038	676.12
388.263	669.12
388.488	681.12
388.713	685.12
388.938	697.12
389.163	677.12
389.387	688.12
389.612	689.12
389.837	671.12
390.062	672.12
390.287	661.12
390.512	660.12
390.736	716.12
390.961	713.12
391.186	712.12
391.411	722.12
391.636	733.12
391.86	752.12
392.085	727.12
392.31	709.12
392.534	712.12
392.759	711.12
392.984	716.12
393.208	698.12
393.433	715.12
393.658	691.12
393.882	709.12
394.107	720.12
394.331	713.12
394.556	741.12
394.78	731.12
395.005	723.12
395.229	727.12
395.454	737.12
395.678	745.12
395.903	764.12
396.127	722.12
396.352	750.12
396.576	721.12
396.801	744.12
397.025	710.12
397.249	710.12
397.474	779.12
397.698	781.12
397.922	807.12
398.147	811.12
398.371	819.12
398.595	808.12
398.82	873.12
399.044	924.12
399.268	1040.12
399.492	1121.12
399.717	1116.12
399.941	1093.12
400.165	1024.12
400.389	994.12
400.613	892.12
400.837	868.12
401.062	853.12
401.286	848.12
401.51	863.12
401.734	843.12
401.958	896.12
402.182	928.12
402.406	957.12
402.63	903.12
402.854	899.12
403.078	904.12
403.302	927.12
403.526	946.12
403.75	944.12
403.974	939.12
404.198	950.12
404.422	960.12
404.645	907.12
404.869	915.12
405.093	975.12
405.317	947.12
405.541	958.12
405.765	948.12
405.988	961.12
406.212	1034.12
406.436	1099.12
406.66	1058.12
406.883	1037.12
407.107	1061.12
407.331	1117.12
407.555	1176.12
407.778	1117.12
408.002	1019.12
408.226	983.12
408.449	959.12
408.673	964.12
408.896	959.12
409.12	981.12
409.344	915.12
409.567	877.12
409.791	879.12
410.014	879.12
410.238	873.12
410.461	899.12
410.685	883.12
410.908	910.12
411.132	912.12
411.355	916.12
411.578	873.12
411.802	850.12
412.025	855.12
412.249	865.12
412.472	847.12
412.695	832.12
412.919	784.12
413.142	815.12
413.365	834.12
413.589	849.12
413.812	819.12
414.035	810.12
414.258	803.12
414.482	817.12
414.705	813.12
414.928	805.12
415.151	831.12
415.374	804.12
415.597	808.12
415.821	814.12
416.044	800.12
416.267	801.12
416.49	803.12
416.713	797.12
416.936	774.12
417.159	801.12
417.382	825.12
417.605	816.12
417.828	843.12
418.051	855.12
418.274	847.12
418.497	818.12
418.72	827.12
418.943	827.12
419.166	851.12
419.389	839.12
419.611	824.12
419.834	845.12
420.057	855.12
420.28	808.12
420.503	815.12
420.726	815.12
420.948	860.12
421.171	906.12
421.394	859.12
421.617	825.12
421.839	838.12
422.062	873.12
422.285	902.12
422.507	974.12
422.73	967.12
422.953	942.12
423.175	896.12
423.398	872.12
423.621	877.12
423.843	897.12
424.066	881.12
424.288	887.12
424.511	962.12
424.733	1024.12
424.956	1101.12
425.178	1026.12
425.401	1014.12
425.623	978.12
425.846	854.12
426.068	826.12
426.291	850.12
426.513	844.12
426.735	849.12
426.958	978.12
427.18	1128.12
427.402	1285.12
427.625	1313.12
427.847	1029.12
428.069	865.12
428.292	811.12
428.514	790.12
428.736	767.12
428.958	784.12
429.181	777.12
429.403	779.12
429.625	801.12
429.847	851.12
430.069	884.12
430.292	819.12
430.514	754.12
430.736	755.12
430.958	760.12
431.18	727.12
431.402	743.12
431.624	751.12
431.846	741.12
432.068	753.12
432.29	727.12
432.512	747.12
432.734	761.12
432.956	753.12
433.178	781.12
433.4	783.12
433.622	760.12
433.844	767.12
434.066	756.12
434.287	767.12
434.509	803.12
434.731	806.12
434.953	824.12
435.175	847.12
435.397	838.12
435.618	869.12
435.84	973.12
436.062	1051.12
436.284	1021.12
436.505	878.12
436.727	810.12
436.949	808.12
437.17	761.12
437.392	779.12
437.614	829.12
437.835	948.12
438.057	1046.12
438.278	1102.12
438.5	1109.12
438.721	1098.12
438.943	953.12
439.165	857.12
439.386	822.12
439.608	854.12
439.829	901.12
440.05	999.12
440.272	1001.12
440.493	887.12
440.715	779.12
440.936	783.12
441.158	829.12
441.379	840.12
441.6	897.12
441.822	902.12
442.043	979.12
442.264	1052.12
442.486	989.12
442.707	910.12
442.928	898.12
443.149	991.12
443.371	996.12
443.592	1059.12
443.813	1168.12
444.034	1073.12
444.255	949.12
444.476	927.12
444.698	967.12
444.919	926.12
445.14	957.12
445.361	993.12
445.582	1085.12
445.803	1222.12
446.024	1235.12
446.245	1155.12
446.466	1008.12
446.687	827.12
446.908	797.12
447.129	768.12
447.35	759.12
447.571	787.12
447.792	749.12
448.013	792.12
448.234	835.12
448.455	980.12
448.675	1041.12
448.896	1084.12
449.117	925.12
449.338	987.12
449.559	1183.12
449.779	1093.12
450	842.12
450.221	769.12
450.442	781.12
450.662	797.12
450.883	819.12
451.104	861.12
451.324	775.12
451.545	726.12
451.766	719.12
451.986	677.12
452.207	689.12
452.428	685.12
452.648	708.12
452.869	726.12
453.089	755.12
453.31	744.12
453.53	704.12
453.751	713.12
453.971	756.12
454.192	769.12
454.412	677.12
454.633	671.12
454.853	659.12
455.073	678.12
455.294	755.12
455.514	819.12
455.734	719.12
455.955	632.12
456.175	620.12
456.395	630.12
456.616	633.12
456.836	640.12
457.056	610.12
457.276	621.12
457.497	626.12
457.717	652.12
457.937	654.12
458.157	676.12
458.377	703.12
458.598	817.12
458.818	1011.12
459.038	1052.12
459.258	925.12
459.478	809.12
459.698	761.12
459.918	785.12
460.138	796.12
460.358	801.12
460.578	815.12
460.798	829.12
461.018	787.12
461.238	808.12
461.458	784.12
461.678	799.12
461.898	806.12
462.118	800.12
462.338	846.12
462.558	870.12
462.777	893.12
462.997	963.12
463.217	975.12
463.437	942.12
463.657	905.12
463.876	891.12
464.096	898.12
464.316	929.12
464.536	939.12
464.755	918.12
464.975	996.12
465.195	1220.12
465.414	1109.12
465.634	856.12
465.854	784.12
466.073	750.12
466.293	738.12
466.512	713.12
466.732	705.12
466.951	686.12
467.171	735.12
467.391	768.12
467.61	778.12
467.829	736.12
468.049	718.12
468.268	695.12
468.488	685.12
468.707	684.12
468.927	668.12
469.146	690.12
469.365	696.12
469.585	725.12
469.804	738.12
470.023	760.12
470.243	738.12
470.462	790.12
470.681	827.12
470.901	718.12
471.12	719.12
471.339	712.12
471.558	698.12
471.777	694.12
471.997	677.12
472.216	660.12
472.435	644.12
472.654	636.12
472.873	665.12
473.092	644.12
473.311	670.12
473.53	683.12
473.749	743.12
473.968	854.12
474.187	943.12
474.406	816.12
474.625	717.12
474.844	667.12
475.063	664.12
475.282	675.12
475.501	657.12
475.72	704.12
475.939	681.12
476.158	704.12
476.377	697.12
476.596	731.12
476.814	732.12
477.033	732.12
477.252	740.12
477.471	760.12
477.69	777.12
477.908	787.12
478.127	790.12
478.346	766.12
478.564	815.12
478.783	823.12
479.002	847.12
479.22	848.12
479.439	895.12
479.658	920.12
479.876	868.12
480.095	904.12
480.313	922.12
480.532	903.12
480.751	870.12
480.969	855.12
481.188	856.12
481.406	839.12
481.624	800.12
481.843	788.12
482.061	795.12
482.28	780.12
482.498	755.12
482.717	786.12
482.935	776.12
483.153	778.12
483.372	802.12
483.59	807.12
483.808	803.12
484.027	767.12
484.245	798.12
484.463	790.12
484.681	820.12
484.9	807.12
485.118	820.12
485.336	802.12
485.554	811.12
485.772	824.12
485.99	851.12
486.209	842.12
486.427	833.12
486.645	904.12
486.863	899.12
487.081	868.12
487.299	845.12
487.517	865.12
487.735	819.12
487.953	852.12
488.171	876.12
488.389	861.12
488.607	861.12
488.825	869.12
489.043	856.12
489.261	870.12
489.479	874.12
489.696	837.12
489.914	880.12
490.132	887.12
490.35	899.12
490.568	927.12
490.786	899.12
491.003	949.12
491.221	951.12
491.439	959.12
491.657	991.12
491.874	996.12
492.092	1007.12
492.31	968.12
492.527	962.12
492.745	943.12
492.963	990.12
493.18	1001.12
493.398	1016.12
493.615	1011.12
493.833	1027.12
494.05	985.12
494.268	1001.12
494.485	988.12
494.703	992.12
494.92	1012.12
495.138	1035.12
495.355	1004.12
495.573	1010.12
495.79	1023.12
496.008	1005.12
496.225	992.12
496.442	979.12
496.66	987.12
496.877	997.12
497.094	1021.12
497.312	1033.12
497.529	1044.12
497.746	1030.12
497.963	1108.12
498.181	1157.12
498.398	1165.12
498.615	1239.12
498.832	1268.12
499.049	1308.12
499.267	1401.12
499.484	1475.12
499.701	1555.12
499.918	1654.12
500.135	1825.12
500.352	1949.12
500.569	1980.12
500.786	1893.12
501.003	1766.12
501.22	1684.12
501.437	1564.12
