Data from TestCu_HRD10591_00012.txt Node
Date: Thu Oct 05 14:04:53 EDT 2023
User: Yrep
Spectrometer: HR+D1059
Trigger mode: 1
Integration Time (sec): 1.000000E-1
Scans to average: 1
Electric dark correction enabled: true
Nonlinearity correction enabled: false
Boxcar width: 0
XAxis mode: Wavelengths
Number of Pixels in Spectrum: 2048
>>>>>Begin Spectral Data<<<<<
223.165	-14.69
223.4	-14.69
223.635	-14.69
223.869	-17.69
224.104	-16.69
224.338	-8.69
224.573	-18.69
224.808	-27.69
225.042	-6.69
225.277	-4.69
225.511	-10.69
225.746	0.31
225.98	8.31
226.215	18.31
226.449	17.31
226.683	29.31
226.918	22.31
227.152	30.31
227.387	40.31
227.621	45.31
227.856	54.31
228.09	42.31
228.324	41.31
228.559	53.31
228.793	77.31
229.027	120.31
229.262	119.31
229.496	140.31
229.73	173.31
229.964	158.31
230.199	105.31
230.433	98.31
230.667	112.31
230.901	118.31
231.136	117.31
231.37	96.31
231.604	121.31
231.838	129.31
232.072	109.31
232.306	121.31
232.541	102.31
232.775	111.31
233.009	114.31
233.243	111.31
233.477	112.31
233.711	109.31
233.945	125.31
234.179	119.31
234.413	110.31
234.647	101.31
234.881	121.31
235.115	117.31
235.349	120.31
235.583	122.31
235.817	144.31
236.051	124.31
236.285	136.31
236.519	131.31
236.753	137.31
236.987	178.31
237.221	226.31
237.455	230.31
237.689	149.31
237.922	134.31
238.156	128.31
238.39	133.31
238.624	119.31
238.858	116.31
239.091	129.31
239.325	132.31
239.559	128.31
239.793	134.31
240.027	160.31
240.26	172.31
240.494	165.31
240.728	159.31
240.961	143.31
241.195	134.31
241.429	127.31
241.662	132.31
241.896	142.31
242.13	138.31
242.363	124.31
242.597	130.31
242.83	142.31
243.064	148.31
243.298	128.31
243.531	136.31
243.765	126.31
243.998	134.31
244.232	140.31
244.465	129.31
244.699	132.31
244.932	144.31
245.166	135.31
245.399	130.31
245.633	156.31
245.866	134.31
246.099	133.31
246.333	162.31
246.566	141.31
246.8	148.31
247.033	171.31
247.266	147.31
247.5	160.31
247.733	157.31
247.966	162.31
248.2	159.31
248.433	189.31
248.666	166.31
248.899	191.31
249.133	207.31
249.366	190.31
249.599	190.31
249.832	184.31
250.066	178.31
250.299	163.31
250.532	191.31
250.765	197.31
250.998	202.31
251.231	199.31
251.465	176.31
251.698	181.31
251.931	182.31
252.164	170.31
252.397	184.31
252.63	189.31
252.863	201.31
253.096	230.31
253.329	228.31
253.562	216.31
253.795	200.31
254.028	219.31
254.261	228.31
254.494	240.31
254.727	284.31
254.96	262.31
255.193	214.31
255.426	206.31
255.659	193.31
255.892	186.31
256.124	198.31
256.357	201.31
256.59	189.31
256.823	188.31
257.056	194.31
257.289	196.31
257.521	202.31
257.754	191.31
257.987	196.31
258.22	193.31
258.452	202.31
258.685	207.31
258.918	211.31
259.151	222.31
259.383	205.31
259.616	218.31
259.849	235.31
260.081	237.31
260.314	264.31
260.547	222.31
260.779	225.31
261.012	225.31
261.244	217.31
261.477	229.31
261.71	228.31
261.942	265.31
262.175	260.31
262.407	230.31
262.64	221.31
262.872	205.31
263.105	208.31
263.337	217.31
263.57	212.31
263.802	224.31
264.035	202.31
264.267	213.31
264.499	191.31
264.732	198.31
264.964	201.31
265.197	214.31
265.429	225.31
265.661	214.31
265.894	205.31
266.126	238.31
266.358	227.31
266.591	228.31
266.823	237.31
267.055	235.31
267.287	236.31
267.52	240.31
267.752	221.31
267.984	227.31
268.216	247.31
268.448	234.31
268.681	274.31
268.913	265.31
269.145	280.31
269.377	277.31
269.609	275.31
269.841	273.31
270.073	289.31
270.306	329.31
270.538	310.31
270.77	297.31
271.002	286.31
271.234	284.31
271.466	322.31
271.698	326.31
271.93	333.31
272.162	332.31
272.394	312.31
272.626	289.31
272.858	261.31
273.09	278.31
273.322	265.31
273.553	258.31
273.785	261.31
274.017	277.31
274.249	257.31
274.481	252.31
274.713	281.31
274.945	262.31
275.176	272.31
275.408	268.31
275.64	261.31
275.872	257.31
276.104	286.31
276.335	286.31
276.567	313.31
276.799	352.31
277.031	348.31
277.262	344.31
277.494	320.31
277.726	292.31
277.957	296.31
278.189	297.31
278.421	286.31
278.652	294.31
278.884	286.31
279.115	268.31
279.347	288.31
279.579	274.31
279.81	273.31
280.042	281.31
280.273	284.31
280.505	290.31
280.736	292.31
280.968	290.31
281.199	282.31
281.431	285.31
281.662	292.31
281.894	301.31
282.125	310.31
282.356	344.31
282.588	394.31
282.819	334.31
283.051	295.31
283.282	287.31
283.513	305.31
283.745	297.31
283.976	303.31
284.207	320.31
284.439	305.31
284.67	316.31
284.901	301.31
285.132	306.31
285.364	308.31
285.595	320.31
285.826	326.31
286.057	308.31
286.288	321.31
286.52	306.31
286.751	318.31
286.982	326.31
287.213	320.31
287.444	328.31
287.675	330.31
287.906	340.31
288.138	341.31
288.369	326.31
288.6	337.31
288.831	340.31
289.062	334.31
289.293	329.31
289.524	327.31
289.755	328.31
289.986	331.31
290.217	324.31
290.448	323.31
290.679	313.31
290.91	324.31
291.141	325.31
291.371	326.31
291.602	328.31
291.833	310.31
292.064	334.31
292.295	334.31
292.526	329.31
292.757	331.31
292.987	333.31
293.218	331.31
293.449	343.31
293.68	357.31
293.91	340.31
294.141	337.31
294.372	323.31
294.603	342.31
294.833	342.31
295.064	366.31
295.295	331.31
295.525	352.31
295.756	382.31
295.987	403.31
296.217	454.31
296.448	403.31
296.679	375.31
296.909	343.31
297.14	341.31
297.37	377.31
297.601	364.31
297.831	356.31
298.062	386.31
298.292	374.31
298.523	395.31
298.753	367.31
298.984	370.31
299.214	375.31
299.445	378.31
299.675	404.31
299.905	373.31
300.136	372.31
300.366	375.31
300.597	386.31
300.827	405.31
301.057	440.31
301.288	425.31
301.518	412.31
301.748	407.31
301.979	413.31
302.209	393.31
302.439	425.31
302.669	394.31
302.9	392.31
303.13	378.31
303.36	413.31
303.59	417.31
303.82	418.31
304.051	407.31
304.281	412.31
304.511	391.31
304.741	393.31
304.971	399.31
305.201	401.31
305.431	397.31
305.661	401.31
305.891	400.31
306.121	406.31
306.352	420.31
306.582	398.31
306.812	397.31
307.042	397.31
307.272	417.31
307.502	386.31
307.731	387.31
307.961	401.31
308.191	408.31
308.421	425.31
308.651	408.31
308.881	406.31
309.111	439.31
309.341	439.31
309.571	450.31
309.8	450.31
310.03	474.31
310.26	474.31
310.49	489.31
310.72	524.31
310.949	547.31
311.179	497.31
311.409	502.31
311.639	484.31
311.868	472.31
312.098	500.31
312.328	513.31
312.557	562.31
312.787	529.31
313.017	504.31
313.246	492.31
313.476	482.31
313.706	489.31
313.935	520.31
314.165	549.31
314.394	527.31
314.624	521.31
314.853	480.31
315.083	489.31
315.312	461.31
315.542	471.31
315.771	442.31
316.001	472.31
316.23	462.31
316.46	468.31
316.689	497.31
316.919	486.31
317.148	498.31
317.377	505.31
317.607	504.31
317.836	465.31
318.065	473.31
318.295	492.31
318.524	482.31
318.753	470.31
318.983	478.31
319.212	478.31
319.441	515.31
319.67	492.31
319.9	484.31
320.129	490.31
320.358	480.31
320.587	498.31
320.816	510.31
321.046	498.31
321.275	507.31
321.504	511.31
321.733	510.31
321.962	534.31
322.191	553.31
322.42	592.31
322.649	641.31
322.878	642.31
323.108	657.31
323.337	722.31
323.566	772.31
323.795	898.31
324.024	1145.31
324.253	2030.31
324.482	3463.31
324.71	5170.31
324.939	4516.31
325.168	2008.31
325.397	973.31
325.626	750.31
325.855	690.31
326.084	680.31
326.313	710.31
326.542	821.31
326.77	1118.31
326.999	1878.31
327.228	3006.31
327.457	3798.31
327.686	2462.31
327.914	1161.31
328.143	917.31
328.372	847.31
328.6	809.31
328.829	851.31
329.058	852.31
329.287	800.31
329.515	686.31
329.744	641.31
329.972	644.31
330.201	702.31
330.43	797.31
330.658	905.31
330.887	951.31
331.115	781.31
331.344	680.31
331.572	686.31
331.801	701.31
332.03	662.31
332.258	649.31
332.486	625.31
332.715	652.31
332.943	648.31
333.172	664.31
333.4	668.31
333.629	696.31
333.857	701.31
334.085	661.31
334.314	672.31
334.542	646.31
334.771	668.31
334.999	636.31
335.227	657.31
335.455	643.31
335.684	648.31
335.912	619.31
336.14	640.31
336.369	625.31
336.597	653.31
336.825	641.31
337.053	625.31
337.281	615.31
337.51	609.31
337.738	598.31
337.966	645.31
338.194	652.31
338.422	618.31
338.65	577.31
338.878	590.31
339.106	570.31
339.334	585.31
339.562	578.31
339.79	568.31
340.018	601.31
340.246	624.31
340.474	589.31
340.702	607.31
340.93	587.31
341.158	569.31
341.386	621.31
341.614	611.31
341.842	562.31
342.07	585.31
342.298	584.31
342.526	571.31
342.754	565.31
342.981	584.31
343.209	563.31
343.437	597.31
343.665	629.31
343.893	661.31
344.12	655.31
344.348	639.31
344.576	617.31
344.804	621.31
345.031	658.31
345.259	653.31
345.487	621.31
345.714	594.31
345.942	543.31
346.17	564.31
346.397	578.31
346.625	573.31
346.853	559.31
347.08	562.31
347.308	598.31
347.535	581.31
347.763	625.31
347.99	605.31
348.218	622.31
348.445	634.31
348.673	585.31
348.9	569.31
349.128	560.31
349.355	556.31
349.583	523.31
349.81	548.31
350.037	570.31
350.265	558.31
350.492	548.31
350.72	575.31
350.947	567.31
351.174	622.31
351.402	612.31
351.629	597.31
351.856	620.31
352.083	638.31
352.311	648.31
352.538	636.31
352.765	625.31
352.992	617.31
353.22	614.31
353.447	574.31
353.674	552.31
353.901	538.31
354.128	538.31
354.355	549.31
354.583	543.31
354.81	537.31
355.037	517.31
355.264	514.31
355.491	524.31
355.718	506.31
355.945	522.31
356.172	546.31
356.399	517.31
356.626	536.31
356.853	526.31
357.08	512.31
357.307	551.31
357.534	558.31
357.761	523.31
357.988	530.31
358.215	544.31
358.441	540.31
358.668	530.31
358.895	560.31
359.122	552.31
359.349	589.31
359.576	632.31
359.802	747.31
360.029	775.31
360.256	704.31
360.483	642.31
360.709	595.31
360.936	606.31
361.163	610.31
361.39	598.31
361.616	615.31
361.843	597.31
362.07	632.31
362.296	629.31
362.523	610.31
362.749	575.31
362.976	578.31
363.203	573.31
363.429	570.31
363.656	589.31
363.882	574.31
364.109	568.31
364.335	581.31
364.562	564.31
364.788	572.31
365.015	576.31
365.241	594.31
365.468	593.31
365.694	621.31
365.92	593.31
366.147	576.31
366.373	562.31
366.599	567.31
366.826	564.31
367.052	573.31
367.278	553.31
367.505	571.31
367.731	584.31
367.957	574.31
368.184	577.31
368.41	613.31
368.636	596.31
368.862	608.31
369.089	595.31
369.315	562.31
369.541	575.31
369.767	582.31
369.993	591.31
370.219	575.31
370.445	573.31
370.672	566.31
370.898	564.31
371.124	551.31
371.35	560.31
371.576	583.31
371.802	568.31
372.028	569.31
372.254	588.31
372.48	608.31
372.706	608.31
372.932	576.31
373.158	605.31
373.384	593.31
373.61	591.31
373.835	599.31
374.061	579.31
374.287	606.31
374.513	629.31
374.739	620.31
374.965	616.31
375.191	629.31
375.416	608.31
375.642	605.31
375.868	604.31
376.094	584.31
376.319	593.31
376.545	590.31
376.771	572.31
376.997	556.31
377.222	582.31
377.448	584.31
377.674	569.31
377.899	593.31
378.125	600.31
378.35	563.31
378.576	563.31
378.802	567.31
379.027	588.31
379.253	573.31
379.478	581.31
379.704	577.31
379.929	606.31
380.155	589.31
380.38	594.31
380.606	601.31
380.831	578.31
381.057	577.31
381.282	561.31
381.507	610.31
381.733	613.31
381.958	617.31
382.184	596.31
382.409	622.31
382.634	598.31
382.86	625.31
383.085	628.31
383.31	647.31
383.535	620.31
383.761	646.31
383.986	660.31
384.211	629.31
384.436	655.31
384.662	671.31
384.887	652.31
385.112	666.31
385.337	694.31
385.562	701.31
385.787	711.31
386.013	739.31
386.238	695.31
386.463	673.31
386.688	702.31
386.913	673.31
387.138	681.31
387.363	672.31
387.588	698.31
387.813	682.31
388.038	664.31
388.263	691.31
388.488	656.31
388.713	657.31
388.938	677.31
389.163	695.31
389.387	686.31
389.612	675.31
389.837	655.31
390.062	690.31
390.287	677.31
390.512	670.31
390.736	676.31
390.961	691.31
391.186	698.31
391.411	727.31
391.636	728.31
391.86	743.31
392.085	742.31
392.31	715.31
392.534	716.31
392.759	712.31
392.984	695.31
393.208	725.31
393.433	721.31
393.658	712.31
393.882	697.31
394.107	712.31
394.331	692.31
394.556	724.31
394.78	707.31
395.005	720.31
395.229	724.31
395.454	751.31
395.678	776.31
395.903	746.31
396.127	750.31
396.352	721.31
396.576	719.31
396.801	720.31
397.025	713.31
397.249	743.31
397.474	757.31
397.698	774.31
397.922	785.31
398.147	762.31
398.371	800.31
398.595	838.31
398.82	865.31
399.044	926.31
399.268	1027.31
399.492	1094.31
399.717	1113.31
399.941	1060.31
400.165	1044.31
400.389	946.31
400.613	920.31
400.837	864.31
401.062	865.31
401.286	838.31
401.51	888.31
401.734	830.31
401.958	889.31
402.182	930.31
402.406	918.31
402.63	910.31
402.854	926.31
403.078	906.31
403.302	917.31
403.526	927.31
403.75	940.31
403.974	924.31
404.198	918.31
404.422	917.31
404.645	949.31
404.869	941.31
405.093	929.31
405.317	977.31
405.541	961.31
405.765	968.31
405.988	962.31
406.212	1053.31
406.436	1101.31
406.66	1089.31
406.883	1040.31
407.107	1086.31
407.331	1138.31
407.555	1158.31
407.778	1098.31
408.002	988.31
408.226	977.31
408.449	965.31
408.673	984.31
408.896	1011.31
409.12	978.31
409.344	894.31
409.567	883.31
409.791	889.31
410.014	888.31
410.238	860.31
410.461	876.31
410.685	893.31
410.908	936.31
411.132	938.31
411.355	929.31
411.578	879.31
411.802	831.31
412.025	853.31
412.249	870.31
412.472	843.31
412.695	822.31
412.919	809.31
413.142	816.31
413.365	805.31
413.589	799.31
413.812	805.31
414.035	813.31
414.258	796.31
414.482	793.31
414.705	816.31
414.928	804.31
415.151	810.31
415.374	808.31
415.597	798.31
415.821	804.31
416.044	806.31
416.267	811.31
416.49	801.31
416.713	809.31
416.936	789.31
417.159	800.31
417.382	810.31
417.605	805.31
417.828	845.31
418.051	855.31
418.274	807.31
418.497	823.31
418.72	839.31
418.943	826.31
419.166	824.31
419.389	901.31
419.611	855.31
419.834	846.31
420.057	843.31
420.28	829.31
420.503	802.31
420.726	834.31
420.948	870.31
421.171	885.31
421.394	916.31
421.617	817.31
421.839	814.31
422.062	884.31
422.285	912.31
422.507	962.31
422.73	989.31
422.953	882.31
423.175	869.31
423.398	877.31
423.621	885.31
423.843	884.31
424.066	890.31
424.288	897.31
424.511	927.31
424.733	1016.31
424.956	1071.31
425.178	1021.31
425.401	984.31
425.623	938.31
425.846	888.31
426.068	855.31
426.291	836.31
426.513	839.31
426.735	891.31
426.958	986.31
427.18	1098.31
427.402	1262.31
427.625	1293.31
427.847	1005.31
428.069	841.31
428.292	810.31
428.514	764.31
428.736	758.31
428.958	770.31
429.181	766.31
429.403	765.31
429.625	815.31
429.847	832.31
430.069	898.31
430.292	816.31
430.514	762.31
430.736	762.31
430.958	746.31
431.18	723.31
431.402	742.31
431.624	728.31
431.846	718.31
432.068	718.31
432.29	736.31
432.512	755.31
432.734	782.31
432.956	747.31
433.178	784.31
433.4	787.31
433.622	742.31
433.844	772.31
434.066	759.31
434.287	766.31
434.509	783.31
434.731	813.31
434.953	831.31
435.175	848.31
435.397	854.31
435.618	851.31
435.84	990.31
436.062	1049.31
436.284	973.31
436.505	861.31
436.727	805.31
436.949	781.31
437.17	785.31
437.392	774.31
437.614	803.31
437.835	974.31
438.057	1072.31
438.278	1091.31
438.5	1104.31
438.721	1140.31
438.943	941.31
439.165	838.31
439.386	807.31
439.608	841.31
439.829	922.31
440.05	1000.31
440.272	1014.31
440.493	861.31
440.715	798.31
440.936	793.31
441.158	820.31
441.379	830.31
441.6	871.31
441.822	915.31
442.043	988.31
442.264	1063.31
442.486	1006.31
442.707	916.31
442.928	945.31
443.149	978.31
443.371	1027.31
443.592	1057.31
443.813	1120.31
444.034	1066.31
444.255	931.31
444.476	930.31
444.698	916.31
444.919	960.31
445.14	972.31
445.361	994.31
445.582	1082.31
445.803	1222.31
446.024	1260.31
446.245	1171.31
446.466	1001.31
446.687	856.31
446.908	802.31
447.129	759.31
447.35	742.31
447.571	750.31
447.792	756.31
448.013	765.31
448.234	822.31
448.455	948.31
448.675	1039.31
448.896	1050.31
449.117	911.31
449.338	1000.31
449.559	1121.31
449.779	1059.31
450	838.31
450.221	759.31
450.442	722.31
450.662	793.31
450.883	832.31
451.104	844.31
451.324	777.31
451.545	680.31
451.766	706.31
451.986	667.31
452.207	706.31
452.428	674.31
452.648	708.31
452.869	714.31
453.089	736.31
453.31	718.31
453.53	671.31
453.751	676.31
453.971	737.31
454.192	741.31
454.412	679.31
454.633	658.31
454.853	664.31
455.073	687.31
455.294	742.31
455.514	796.31
455.734	698.31
455.955	657.31
456.175	642.31
456.395	624.31
456.616	636.31
456.836	601.31
457.056	612.31
457.276	610.31
457.497	632.31
457.717	629.31
457.937	648.31
458.157	666.31
458.377	704.31
458.598	805.31
458.818	1015.31
459.038	1031.31
459.258	904.31
459.478	807.31
459.698	744.31
459.918	771.31
460.138	774.31
460.358	818.31
460.578	811.31
460.798	814.31
461.018	817.31
461.238	803.31
461.458	798.31
461.678	802.31
461.898	827.31
462.118	810.31
462.338	863.31
462.558	888.31
462.777	907.31
462.997	950.31
463.217	965.31
463.437	943.31
463.657	890.31
463.876	886.31
464.096	912.31
464.316	927.31
464.536	904.31
464.755	919.31
464.975	977.31
465.195	1204.31
465.414	1132.31
465.634	827.31
465.854	812.31
466.073	788.31
466.293	748.31
466.512	704.31
466.732	709.31
466.951	688.31
467.171	698.31
467.391	735.31
467.61	793.31
467.829	747.31
468.049	703.31
468.268	698.31
468.488	690.31
468.707	668.31
468.927	670.31
469.146	654.31
469.365	696.31
469.585	698.31
469.804	748.31
470.023	748.31
470.243	772.31
470.462	771.31
470.681	815.31
470.901	752.31
471.12	710.31
471.339	703.31
471.558	673.31
471.777	684.31
471.997	661.31
472.216	651.31
472.435	647.31
472.654	662.31
472.873	673.31
473.092	666.31
473.311	654.31
473.53	699.31
473.749	721.31
473.968	840.31
474.187	922.31
474.406	802.31
474.625	697.31
474.844	676.31
475.063	668.31
475.282	673.31
475.501	673.31
475.72	690.31
475.939	693.31
476.158	686.31
476.377	717.31
476.596	706.31
476.814	736.31
477.033	719.31
477.252	722.31
477.471	751.31
477.69	765.31
477.908	747.31
478.127	783.31
478.346	783.31
478.564	815.31
478.783	800.31
479.002	814.31
479.22	828.31
479.439	897.31
479.658	917.31
479.876	900.31
480.095	893.31
480.313	909.31
480.532	890.31
480.751	860.31
480.969	863.31
481.188	834.31
481.406	822.31
481.624	789.31
481.843	757.31
482.061	769.31
482.28	776.31
482.498	773.31
482.717	760.31
482.935	773.31
483.153	785.31
483.372	785.31
483.59	800.31
483.808	798.31
484.027	788.31
484.245	815.31
484.463	814.31
484.681	830.31
484.9	820.31
485.118	829.31
485.336	798.31
485.554	815.31
485.772	835.31
485.99	825.31
486.209	860.31
486.427	857.31
486.645	878.31
486.863	886.31
487.081	872.31
487.299	852.31
487.517	830.31
487.735	847.31
487.953	828.31
488.171	854.31
488.389	861.31
488.607	836.31
488.825	830.31
489.043	825.31
489.261	818.31
489.479	820.31
489.696	836.31
489.914	832.31
490.132	889.31
490.35	881.31
490.568	860.31
490.786	895.31
491.003	944.31
491.221	940.31
491.439	994.31
491.657	968.31
491.874	951.31
492.092	992.31
492.31	990.31
492.527	988.31
492.745	979.31
492.963	962.31
493.18	1009.31
493.398	1023.31
493.615	980.31
493.833	984.31
494.05	996.31
494.268	985.31
494.485	949.31
494.703	975.31
494.92	964.31
495.138	974.31
495.355	1005.31
495.573	1000.31
495.79	975.31
496.008	986.31
496.225	968.31
496.442	1012.31
496.66	996.31
496.877	1015.31
497.094	1014.31
497.312	1011.31
497.529	1066.31
497.746	1061.31
497.963	1125.31
498.181	1141.31
498.398	1159.31
498.615	1217.31
498.832	1239.31
499.049	1301.31
499.267	1388.31
499.484	1484.31
499.701	1538.31
499.918	1700.31
500.135	1868.31
500.352	1962.31
500.569	1934.31
500.786	1861.31
501.003	1756.31
501.22	1664.31
501.437	1590.31
