Data from TestCu_HRD10591_00093.txt Node
Date: Thu Oct 05 14:06:13 EDT 2023
User: Yrep
Spectrometer: HR+D1059
Trigger mode: 1
Integration Time (sec): 1.000000E-1
Scans to average: 1
Electric dark correction enabled: true
Nonlinearity correction enabled: false
Boxcar width: 0
XAxis mode: Wavelengths
Number of Pixels in Spectrum: 2048
>>>>>Begin Spectral Data<<<<<
223.165	-9.69
223.4	-9.69
223.635	-9.69
223.869	-15.69
224.104	-18.69
224.338	-12.69
224.573	-24.69
224.808	-0.69
225.042	-9.69
225.277	-19.69
225.511	-5.69
225.746	-0.69
225.98	10.31
226.215	-0.69
226.449	18.31
226.683	31.31
226.918	29.31
227.152	29.31
227.387	36.31
227.621	32.31
227.856	39.31
228.09	53.31
228.324	44.31
228.559	68.31
228.793	67.31
229.027	98.31
229.262	124.31
229.496	136.31
229.73	162.31
229.964	164.31
230.199	114.31
230.433	116.31
230.667	129.31
230.901	116.31
231.136	112.31
231.37	115.31
231.604	118.31
231.838	108.31
232.072	106.31
232.306	120.31
232.541	122.31
232.775	101.31
233.009	102.31
233.243	107.31
233.477	108.31
233.711	110.31
233.945	106.31
234.179	111.31
234.413	108.31
234.647	97.31
234.881	107.31
235.115	97.31
235.349	120.31
235.583	112.31
235.817	137.31
236.051	132.31
236.285	124.31
236.519	135.31
236.753	156.31
236.987	190.31
237.221	212.31
237.455	220.31
237.689	138.31
237.922	133.31
238.156	129.31
238.39	126.31
238.624	114.31
238.858	116.31
239.091	129.31
239.325	121.31
239.559	137.31
239.793	132.31
240.027	155.31
240.26	170.31
240.494	167.31
240.728	168.31
240.961	136.31
241.195	139.31
241.429	135.31
241.662	123.31
241.896	129.31
242.13	131.31
242.363	131.31
242.597	133.31
242.83	115.31
243.064	116.31
243.298	129.31
243.531	133.31
243.765	134.31
243.998	128.31
244.232	143.31
244.465	135.31
244.699	156.31
244.932	130.31
245.166	119.31
245.399	120.31
245.633	137.31
245.866	157.31
246.099	144.31
246.333	168.31
246.566	153.31
246.8	152.31
247.033	149.31
247.266	145.31
247.5	163.31
247.733	166.31
247.966	162.31
248.2	176.31
248.433	163.31
248.666	156.31
248.899	179.31
249.133	208.31
249.366	210.31
249.599	184.31
249.832	171.31
250.066	180.31
250.299	180.31
250.532	193.31
250.765	208.31
250.998	220.31
251.231	200.31
251.465	182.31
251.698	191.31
251.931	172.31
252.164	182.31
252.397	173.31
252.63	197.31
252.863	221.31
253.096	228.31
253.329	202.31
253.562	199.31
253.795	196.31
254.028	204.31
254.261	228.31
254.494	228.31
254.727	271.31
254.96	259.31
255.193	206.31
255.426	201.31
255.659	196.31
255.892	206.31
256.124	194.31
256.357	192.31
256.59	175.31
256.823	177.31
257.056	186.31
257.289	178.31
257.521	182.31
257.754	195.31
257.987	200.31
258.22	186.31
258.452	189.31
258.685	194.31
258.918	197.31
259.151	193.31
259.383	218.31
259.616	216.31
259.849	220.31
260.081	246.31
260.314	248.31
260.547	229.31
260.779	221.31
261.012	213.31
261.244	220.31
261.477	221.31
261.71	230.31
261.942	255.31
262.175	257.31
262.407	234.31
262.64	200.31
262.872	202.31
263.105	198.31
263.337	217.31
263.57	191.31
263.802	200.31
264.035	212.31
264.267	207.31
264.499	219.31
264.732	223.31
264.964	203.31
265.197	227.31
265.429	204.31
265.661	188.31
265.894	215.31
266.126	228.31
266.358	210.31
266.591	221.31
266.823	218.31
267.055	219.31
267.287	218.31
267.52	224.31
267.752	236.31
267.984	233.31
268.216	244.31
268.448	236.31
268.681	246.31
268.913	268.31
269.145	288.31
269.377	280.31
269.609	262.31
269.841	266.31
270.073	307.31
270.306	332.31
270.538	334.31
270.77	288.31
271.002	276.31
271.234	283.31
271.466	317.31
271.698	309.31
271.93	321.31
272.162	321.31
272.394	296.31
272.626	269.31
272.858	270.31
273.09	252.31
273.322	244.31
273.553	256.31
273.785	250.31
274.017	273.31
274.249	285.31
274.481	244.31
274.713	266.31
274.945	282.31
275.176	272.31
275.408	269.31
275.64	265.31
275.872	255.31
276.104	270.31
276.335	282.31
276.567	312.31
276.799	349.31
277.031	367.31
277.262	319.31
277.494	324.31
277.726	276.31
277.957	283.31
278.189	277.31
278.421	273.31
278.652	274.31
278.884	269.31
279.115	268.31
279.347	266.31
279.579	273.31
279.81	268.31
280.042	272.31
280.273	264.31
280.505	291.31
280.736	281.31
280.968	272.31
281.199	288.31
281.431	271.31
281.662	298.31
281.894	302.31
282.125	328.31
282.356	372.31
282.588	360.31
282.819	322.31
283.051	273.31
283.282	294.31
283.513	300.31
283.745	293.31
283.976	287.31
284.207	308.31
284.439	316.31
284.67	280.31
284.901	282.31
285.132	298.31
285.364	297.31
285.595	314.31
285.826	307.31
286.057	312.31
286.288	293.31
286.52	310.31
286.751	294.31
286.982	310.31
287.213	311.31
287.444	328.31
287.675	314.31
287.906	361.31
288.138	330.31
288.369	330.31
288.6	325.31
288.831	334.31
289.062	332.31
289.293	323.31
289.524	314.31
289.755	306.31
289.986	312.31
290.217	326.31
290.448	320.31
290.679	317.31
290.91	317.31
291.141	317.31
291.371	328.31
291.602	314.31
291.833	316.31
292.064	329.31
292.295	342.31
292.526	317.31
292.757	326.31
292.987	344.31
293.218	331.31
293.449	350.31
293.68	323.31
293.91	332.31
294.141	314.31
294.372	328.31
294.603	357.31
294.833	334.31
295.064	348.31
295.295	357.31
295.525	346.31
295.756	372.31
295.987	391.31
296.217	422.31
296.448	382.31
296.679	345.31
296.909	336.31
297.14	360.31
297.37	346.31
297.601	349.31
297.831	352.31
298.062	355.31
298.292	354.31
298.523	371.31
298.753	349.31
298.984	352.31
299.214	367.31
299.445	377.31
299.675	398.31
299.905	375.31
300.136	363.31
300.366	386.31
300.597	357.31
300.827	390.31
301.057	389.31
301.288	421.31
301.518	396.31
301.748	381.31
301.979	421.31
302.209	408.31
302.439	391.31
302.669	397.31
302.9	368.31
303.13	387.31
303.36	417.31
303.59	426.31
303.82	413.31
304.051	389.31
304.281	410.31
304.511	387.31
304.741	384.31
304.971	391.31
305.201	403.31
305.431	395.31
305.661	381.31
305.891	398.31
306.121	413.31
306.352	407.31
306.582	424.31
306.812	388.31
307.042	376.31
307.272	377.31
307.502	387.31
307.731	410.31
307.961	420.31
308.191	421.31
308.421	400.31
308.651	412.31
308.881	388.31
309.111	405.31
309.341	430.31
309.571	466.31
309.8	465.31
310.03	476.31
310.26	478.31
310.49	461.31
310.72	503.31
310.949	530.31
311.179	513.31
311.409	466.31
311.639	470.31
311.868	475.31
312.098	489.31
312.328	537.31
312.557	560.31
312.787	560.31
313.017	495.31
313.246	466.31
313.476	454.31
313.706	493.31
313.935	512.31
314.165	520.31
314.394	548.31
314.624	494.31
314.853	498.31
315.083	473.31
315.312	456.31
315.542	455.31
315.771	457.31
316.001	448.31
316.23	466.31
316.46	465.31
316.689	491.31
316.919	479.31
317.148	469.31
317.377	493.31
317.607	474.31
317.836	475.31
318.065	450.31
318.295	456.31
318.524	483.31
318.753	460.31
318.983	458.31
319.212	492.31
319.441	501.31
319.67	478.31
319.9	477.31
320.129	488.31
320.358	488.31
320.587	473.31
320.816	511.31
321.046	521.31
321.275	514.31
321.504	519.31
321.733	491.31
321.962	538.31
322.191	576.31
322.42	620.31
322.649	602.31
322.878	625.31
323.108	668.31
323.337	728.31
323.566	783.31
323.795	881.31
324.024	1184.31
324.253	2050.31
324.482	3570.31
324.71	5284.31
324.939	4735.31
325.168	2061.31
325.397	968.31
325.626	730.31
325.855	641.31
326.084	686.31
326.313	732.31
326.542	783.31
326.77	1152.31
326.999	1894.31
327.228	3047.31
327.457	3914.31
327.686	2538.31
327.914	1170.31
328.143	922.31
328.372	837.31
328.6	797.31
328.829	852.31
329.058	885.31
329.287	808.31
329.515	696.31
329.744	617.31
329.972	654.31
330.201	710.31
330.43	813.31
330.658	944.31
330.887	990.31
331.115	807.31
331.344	695.31
331.572	699.31
331.801	715.31
332.03	628.31
332.258	620.31
332.486	611.31
332.715	642.31
332.943	634.31
333.172	642.31
333.4	653.31
333.629	666.31
333.857	668.31
334.085	667.31
334.314	681.31
334.542	643.31
334.771	668.31
334.999	656.31
335.227	606.31
335.455	608.31
335.684	612.31
335.912	611.31
336.14	608.31
336.369	651.31
336.597	654.31
336.825	625.31
337.053	605.31
337.281	582.31
337.51	602.31
337.738	602.31
337.966	624.31
338.194	600.31
338.422	609.31
338.65	589.31
338.878	570.31
339.106	569.31
339.334	581.31
339.562	581.31
339.79	562.31
340.018	585.31
340.246	603.31
340.474	576.31
340.702	586.31
340.93	573.31
341.158	591.31
341.386	616.31
341.614	590.31
341.842	576.31
342.07	569.31
342.298	581.31
342.526	562.31
342.754	564.31
342.981	549.31
343.209	578.31
343.437	604.31
343.665	631.31
343.893	638.31
344.12	618.31
344.348	614.31
344.576	628.31
344.804	649.31
345.031	669.31
345.259	642.31
345.487	611.31
345.714	585.31
345.942	551.31
346.17	553.31
346.397	558.31
346.625	567.31
346.853	548.31
347.08	564.31
347.308	603.31
347.535	598.31
347.763	604.31
347.99	589.31
348.218	628.31
348.445	645.31
348.673	605.31
348.9	558.31
349.128	540.31
349.355	548.31
349.583	555.31
349.81	554.31
350.037	528.31
350.265	524.31
350.492	544.31
350.72	564.31
350.947	569.31
351.174	613.31
351.402	591.31
351.629	602.31
351.856	605.31
352.083	646.31
352.311	654.31
352.538	635.31
352.765	624.31
352.992	618.31
353.22	606.31
353.447	551.31
353.674	547.31
353.901	532.31
354.128	540.31
354.355	520.31
354.583	528.31
354.81	548.31
355.037	510.31
355.264	507.31
355.491	521.31
355.718	521.31
355.945	525.31
356.172	519.31
356.399	511.31
356.626	504.31
356.853	526.31
357.08	533.31
357.307	520.31
357.534	530.31
357.761	527.31
357.988	528.31
358.215	517.31
358.441	527.31
358.668	533.31
358.895	559.31
359.122	550.31
359.349	589.31
359.576	625.31
359.802	752.31
360.029	739.31
360.256	722.31
360.483	650.31
360.709	608.31
360.936	576.31
361.163	624.31
361.39	607.31
361.616	601.31
361.843	597.31
362.07	617.31
362.296	588.31
362.523	588.31
362.749	597.31
362.976	563.31
363.203	567.31
363.429	576.31
363.656	561.31
363.882	558.31
364.109	544.31
364.335	570.31
364.562	571.31
364.788	582.31
365.015	554.31
365.241	572.31
365.468	595.31
365.694	614.31
365.92	573.31
366.147	569.31
366.373	575.31
366.599	549.31
366.826	532.31
367.052	552.31
367.278	570.31
367.505	552.31
367.731	556.31
367.957	547.31
368.184	584.31
368.41	576.31
368.636	616.31
368.862	601.31
369.089	579.31
369.315	566.31
369.541	578.31
369.767	572.31
369.993	585.31
370.219	559.31
370.445	565.31
370.672	556.31
370.898	564.31
371.124	557.31
371.35	575.31
371.576	565.31
371.802	561.31
372.028	578.31
372.254	564.31
372.48	564.31
372.706	577.31
372.932	586.31
373.158	572.31
373.384	612.31
373.61	594.31
373.835	582.31
374.061	592.31
374.287	600.31
374.513	581.31
374.739	605.31
374.965	607.31
375.191	613.31
375.416	610.31
375.642	573.31
375.868	578.31
376.094	578.31
376.319	551.31
376.545	557.31
376.771	580.31
376.997	572.31
377.222	576.31
377.448	570.31
377.674	574.31
377.899	562.31
378.125	559.31
378.35	567.31
378.576	558.31
378.802	554.31
379.027	562.31
379.253	575.31
379.478	565.31
379.704	546.31
379.929	562.31
380.155	567.31
380.38	573.31
380.606	603.31
380.831	587.31
381.057	576.31
381.282	592.31
381.507	588.31
381.733	574.31
381.958	586.31
382.184	591.31
382.409	594.31
382.634	616.31
382.86	596.31
383.085	610.31
383.31	627.31
383.535	610.31
383.761	620.31
383.986	622.31
384.211	616.31
384.436	653.31
384.662	627.31
384.887	652.31
385.112	645.31
385.337	667.31
385.562	668.31
385.787	683.31
386.013	706.31
386.238	706.31
386.463	673.31
386.688	680.31
386.913	651.31
387.138	645.31
387.363	646.31
387.588	651.31
387.813	658.31
388.038	636.31
388.263	661.31
388.488	646.31
388.713	665.31
388.938	642.31
389.163	658.31
389.387	671.31
389.612	643.31
389.837	668.31
390.062	645.31
390.287	639.31
390.512	645.31
390.736	655.31
390.961	658.31
391.186	691.31
391.411	698.31
391.636	688.31
391.86	717.31
392.085	728.31
392.31	709.31
392.534	688.31
392.759	690.31
392.984	687.31
393.208	671.31
393.433	685.31
393.658	668.31
393.882	684.31
394.107	699.31
394.331	690.31
394.556	698.31
394.78	704.31
395.005	701.31
395.229	722.31
395.454	733.31
395.678	741.31
395.903	756.31
396.127	729.31
396.352	722.31
396.576	715.31
396.801	712.31
397.025	728.31
397.249	730.31
397.474	741.31
397.698	747.31
397.922	748.31
398.147	779.31
398.371	766.31
398.595	804.31
398.82	834.31
399.044	905.31
399.268	1002.31
399.492	1058.31
399.717	1142.31
399.941	1076.31
400.165	1020.31
400.389	944.31
400.613	883.31
400.837	841.31
401.062	834.31
401.286	810.31
401.51	824.31
401.734	828.31
401.958	852.31
402.182	898.31
402.406	932.31
402.63	896.31
402.854	884.31
403.078	885.31
403.302	885.31
403.526	883.31
403.75	893.31
403.974	884.31
404.198	910.31
404.422	917.31
404.645	904.31
404.869	942.31
405.093	925.31
405.317	931.31
405.541	905.31
405.765	922.31
405.988	949.31
406.212	1052.31
406.436	1074.31
406.66	1067.31
406.883	1045.31
407.107	1042.31
407.331	1096.31
407.555	1120.31
407.778	1044.31
408.002	994.31
408.226	934.31
408.449	942.31
408.673	951.31
408.896	927.31
409.12	950.31
409.344	915.31
409.567	885.31
409.791	851.31
410.014	864.31
410.238	837.31
410.461	832.31
410.685	877.31
410.908	903.31
411.132	908.31
411.355	861.31
411.578	836.31
411.802	842.31
412.025	834.31
412.249	867.31
412.472	832.31
412.695	814.31
412.919	772.31
413.142	786.31
413.365	813.31
413.589	794.31
413.812	762.31
414.035	783.31
414.258	810.31
414.482	780.31
414.705	794.31
414.928	789.31
415.151	767.31
415.374	809.31
415.597	768.31
415.821	794.31
416.044	777.31
416.267	779.31
416.49	778.31
416.713	787.31
416.936	812.31
417.159	804.31
417.382	814.31
417.605	800.31
417.828	821.31
418.051	843.31
418.274	815.31
418.497	808.31
418.72	818.31
418.943	800.31
419.166	815.31
419.389	825.31
419.611	845.31
419.834	805.31
420.057	820.31
420.28	798.31
420.503	798.31
420.726	820.31
420.948	852.31
421.171	862.31
421.394	907.31
421.617	805.31
421.839	803.31
422.062	828.31
422.285	881.31
422.507	922.31
422.73	973.31
422.953	930.31
423.175	852.31
423.398	857.31
423.621	879.31
423.843	886.31
424.066	850.31
424.288	886.31
424.511	951.31
424.733	991.31
424.956	1027.31
425.178	996.31
425.401	970.31
425.623	902.31
425.846	842.31
426.068	860.31
426.291	850.31
426.513	828.31
426.735	851.31
426.958	960.31
427.18	1091.31
427.402	1283.31
427.625	1313.31
427.847	1046.31
428.069	846.31
428.292	792.31
428.514	753.31
428.736	753.31
428.958	756.31
429.181	724.31
429.403	749.31
429.625	798.31
429.847	826.31
430.069	872.31
430.292	798.31
430.514	732.31
430.736	737.31
430.958	740.31
431.18	713.31
431.402	689.31
431.624	728.31
431.846	733.31
432.068	699.31
432.29	737.31
432.512	745.31
432.734	739.31
432.956	749.31
433.178	756.31
433.4	770.31
433.622	766.31
433.844	729.31
434.066	749.31
434.287	734.31
434.509	757.31
434.731	780.31
434.953	817.31
435.175	832.31
435.397	868.31
435.618	870.31
435.84	944.31
436.062	1032.31
436.284	974.31
436.505	841.31
436.727	809.31
436.949	768.31
437.17	738.31
437.392	748.31
437.614	822.31
437.835	940.31
438.057	1041.31
438.278	1098.31
438.5	1065.31
438.721	1088.31
438.943	942.31
439.165	808.31
439.386	790.31
439.608	838.31
439.829	896.31
440.05	982.31
440.272	986.31
440.493	858.31
440.715	784.31
440.936	784.31
441.158	789.31
441.379	806.31
441.6	866.31
441.822	900.31
442.043	977.31
442.264	1037.31
442.486	975.31
442.707	896.31
442.928	896.31
443.149	932.31
443.371	979.31
443.592	1068.31
443.813	1107.31
444.034	1082.31
444.255	922.31
444.476	874.31
444.698	908.31
444.919	902.31
445.14	922.31
445.361	973.31
445.582	1057.31
445.803	1176.31
446.024	1262.31
446.245	1146.31
446.466	970.31
446.687	845.31
446.908	783.31
447.129	758.31
447.35	746.31
447.571	768.31
447.792	745.31
448.013	764.31
448.234	814.31
448.455	918.31
448.675	1075.31
448.896	1017.31
449.117	880.31
449.338	989.31
449.559	1129.31
449.779	1070.31
450	840.31
450.221	742.31
450.442	758.31
450.662	764.31
450.883	806.31
451.104	836.31
451.324	752.31
451.545	707.31
451.766	692.31
451.986	659.31
452.207	637.31
452.428	687.31
452.648	702.31
452.869	692.31
453.089	739.31
453.31	744.31
453.53	682.31
453.751	671.31
453.971	734.31
454.192	763.31
454.412	685.31
454.633	648.31
454.853	650.31
455.073	656.31
455.294	745.31
455.514	812.31
455.734	699.31
455.955	613.31
456.175	613.31
456.395	620.31
456.616	602.31
456.836	590.31
457.056	605.31
457.276	602.31
457.497	636.31
457.717	626.31
457.937	639.31
458.157	639.31
458.377	678.31
458.598	789.31
458.818	1057.31
459.038	1064.31
459.258	889.31
459.478	757.31
459.698	747.31
459.918	756.31
460.138	771.31
460.358	768.31
460.578	770.31
460.798	778.31
461.018	811.31
461.238	780.31
461.458	771.31
461.678	794.31
461.898	772.31
462.118	809.31
462.338	821.31
462.558	857.31
462.777	872.31
462.997	902.31
463.217	942.31
463.437	927.31
463.657	914.31
463.876	884.31
464.096	879.31
464.316	881.31
464.536	900.31
464.755	898.31
464.975	986.31
465.195	1202.31
465.414	1114.31
465.634	827.31
465.854	777.31
466.073	724.31
466.293	725.31
466.512	711.31
466.732	691.31
466.951	710.31
467.171	715.31
467.391	737.31
467.61	765.31
467.829	722.31
468.049	697.31
468.268	656.31
468.488	645.31
468.707	652.31
468.927	664.31
469.146	659.31
469.365	688.31
469.585	694.31
469.804	721.31
470.023	747.31
470.243	756.31
470.462	792.31
470.681	804.31
470.901	723.31
471.12	709.31
471.339	685.31
471.558	694.31
471.777	669.31
471.997	660.31
472.216	659.31
472.435	634.31
472.654	645.31
472.873	651.31
473.092	669.31
473.311	666.31
473.53	668.31
473.749	676.31
473.968	794.31
474.187	900.31
474.406	777.31
474.625	709.31
474.844	657.31
475.063	651.31
475.282	668.31
475.501	655.31
475.72	680.31
475.939	651.31
476.158	684.31
476.377	700.31
476.596	700.31
476.814	739.31
477.033	741.31
477.252	736.31
477.471	744.31
477.69	761.31
477.908	772.31
478.127	776.31
478.346	766.31
478.564	775.31
478.783	808.31
479.002	788.31
479.22	843.31
479.439	872.31
479.658	871.31
479.876	858.31
480.095	872.31
480.313	891.31
480.532	867.31
480.751	833.31
480.969	808.31
481.188	837.31
481.406	810.31
481.624	783.31
481.843	780.31
482.061	765.31
482.28	760.31
482.498	747.31
482.717	734.31
482.935	753.31
483.153	744.31
483.372	756.31
483.59	787.31
483.808	752.31
484.027	775.31
484.245	773.31
484.463	790.31
484.681	818.31
484.9	796.31
485.118	808.31
485.336	788.31
485.554	821.31
485.772	808.31
485.99	806.31
486.209	823.31
486.427	832.31
486.645	872.31
486.863	882.31
487.081	839.31
487.299	841.31
487.517	807.31
487.735	841.31
487.953	836.31
488.171	818.31
488.389	841.31
488.607	821.31
488.825	789.31
489.043	829.31
489.261	776.31
489.479	815.31
489.696	826.31
489.914	851.31
490.132	844.31
490.35	835.31
490.568	873.31
490.786	903.31
491.003	932.31
491.221	973.31
491.439	949.31
491.657	969.31
491.874	980.31
492.092	960.31
492.31	966.31
492.527	984.31
492.745	980.31
492.963	957.31
493.18	1014.31
493.398	1000.31
493.615	1014.31
493.833	969.31
494.05	1000.31
494.268	974.31
494.485	976.31
494.703	953.31
494.92	978.31
495.138	937.31
495.355	972.31
495.573	979.31
495.79	994.31
496.008	990.31
496.225	981.31
496.442	975.31
496.66	976.31
496.877	979.31
497.094	1005.31
497.312	979.31
497.529	1052.31
497.746	1052.31
497.963	1055.31
498.181	1094.31
498.398	1136.31
498.615	1204.31
498.832	1257.31
499.049	1325.31
499.267	1354.31
499.484	1438.31
499.701	1493.31
499.918	1667.31
500.135	1764.31
500.352	1882.31
500.569	1904.31
500.786	1855.31
501.003	1730.31
501.22	1638.31
501.437	1546.31
501.654	1507.31
