Data from TestCu_HRD10591_00034.txt Node
Date: Thu Oct 05 14:05:15 EDT 2023
User: Yrep
Spectrometer: HR+D1059
Trigger mode: 1
Integration Time (sec): 1.000000E-1
Scans to average: 1
Electric dark correction enabled: true
Nonlinearity correction enabled: false
Boxcar width: 0
XAxis mode: Wavelengths
Number of Pixels in Spectrum: 2048
>>>>>Begin Spectral Data<<<<<
223.165	-15.5
223.4	-15.5
223.635	-15.5
223.869	-31.5
224.104	-32.5
224.338	-11.5
224.573	-4.5
224.808	-21.5
225.042	4.5
225.277	-4.5
225.511	-5.5
225.746	15.5
225.98	7.5
226.215	12.5
226.449	18.5
226.683	15.5
226.918	26.5
227.152	26.5
227.387	45.5
227.621	54.5
227.856	57.5
228.09	59.5
228.324	64.5
228.559	72.5
228.793	77.5
229.027	107.5
229.262	122.5
229.496	123.5
229.73	163.5
229.964	173.5
230.199	137.5
230.433	130.5
230.667	121.5
230.901	113.5
231.136	121.5
231.37	115.5
231.604	109.5
231.838	119.5
232.072	111.5
232.306	116.5
232.541	118.5
232.775	134.5
233.009	121.5
233.243	111.5
233.477	107.5
233.711	127.5
233.945	133.5
234.179	109.5
234.413	119.5
234.647	114.5
234.881	111.5
235.115	127.5
235.349	115.5
235.583	127.5
235.817	111.5
236.051	130.5
236.285	118.5
236.519	122.5
236.753	157.5
236.987	182.5
237.221	224.5
237.455	235.5
237.689	153.5
237.922	122.5
238.156	130.5
238.39	128.5
238.624	117.5
238.858	127.5
239.091	128.5
239.325	120.5
239.559	126.5
239.793	133.5
240.027	137.5
240.26	164.5
240.494	152.5
240.728	146.5
240.961	145.5
241.195	134.5
241.429	138.5
241.662	127.5
241.896	135.5
242.13	121.5
242.363	132.5
242.597	141.5
242.83	152.5
243.064	134.5
243.298	138.5
243.531	143.5
243.765	138.5
243.998	141.5
244.232	152.5
244.465	141.5
244.699	139.5
244.932	141.5
245.166	142.5
245.399	135.5
245.633	148.5
245.866	147.5
246.099	138.5
246.333	149.5
246.566	151.5
246.8	150.5
247.033	151.5
247.266	156.5
247.5	173.5
247.733	153.5
247.966	142.5
248.2	163.5
248.433	167.5
248.666	182.5
248.899	201.5
249.133	209.5
249.366	208.5
249.599	187.5
249.832	172.5
250.066	186.5
250.299	176.5
250.532	176.5
250.765	205.5
250.998	227.5
251.231	197.5
251.465	185.5
251.698	184.5
251.931	159.5
252.164	198.5
252.397	186.5
252.63	203.5
252.863	212.5
253.096	220.5
253.329	208.5
253.562	186.5
253.795	198.5
254.028	173.5
254.261	199.5
254.494	230.5
254.727	261.5
254.96	249.5
255.193	215.5
255.426	203.5
255.659	193.5
255.892	197.5
256.124	173.5
256.357	181.5
256.59	187.5
256.823	183.5
257.056	194.5
257.289	194.5
257.521	182.5
257.754	201.5
257.987	211.5
258.22	182.5
258.452	202.5
258.685	204.5
258.918	201.5
259.151	213.5
259.383	214.5
259.616	204.5
259.849	202.5
260.081	251.5
260.314	234.5
260.547	216.5
260.779	208.5
261.012	222.5
261.244	217.5
261.477	215.5
261.71	227.5
261.942	256.5
262.175	232.5
262.407	228.5
262.64	208.5
262.872	217.5
263.105	214.5
263.337	223.5
263.57	230.5
263.802	210.5
264.035	210.5
264.267	211.5
264.499	207.5
264.732	200.5
264.964	224.5
265.197	213.5
265.429	216.5
265.661	203.5
265.894	215.5
266.126	214.5
266.358	219.5
266.591	229.5
266.823	240.5
267.055	227.5
267.287	215.5
267.52	193.5
267.752	239.5
267.984	240.5
268.216	237.5
268.448	241.5
268.681	246.5
268.913	265.5
269.145	294.5
269.377	280.5
269.609	263.5
269.841	277.5
270.073	297.5
270.306	295.5
270.538	299.5
270.77	288.5
271.002	289.5
271.234	283.5
271.466	305.5
271.698	315.5
271.93	291.5
272.162	304.5
272.394	297.5
272.626	278.5
272.858	250.5
273.09	259.5
273.322	266.5
273.553	257.5
273.785	252.5
274.017	259.5
274.249	258.5
274.481	264.5
274.713	272.5
274.945	248.5
275.176	262.5
275.408	282.5
275.64	268.5
275.872	271.5
276.104	285.5
276.335	272.5
276.567	295.5
276.799	339.5
277.031	335.5
277.262	345.5
277.494	294.5
277.726	280.5
277.957	289.5
278.189	276.5
278.421	270.5
278.652	281.5
278.884	267.5
279.115	275.5
279.347	274.5
279.579	284.5
279.81	265.5
280.042	273.5
280.273	290.5
280.505	270.5
280.736	266.5
280.968	272.5
281.199	294.5
281.431	290.5
281.662	279.5
281.894	291.5
282.125	307.5
282.356	339.5
282.588	361.5
282.819	337.5
283.051	291.5
283.282	297.5
283.513	305.5
283.745	307.5
283.976	302.5
284.207	308.5
284.439	288.5
284.67	271.5
284.901	281.5
285.132	304.5
285.364	309.5
285.595	303.5
285.826	313.5
286.057	315.5
286.288	304.5
286.52	304.5
286.751	316.5
286.982	321.5
287.213	305.5
287.444	301.5
287.675	316.5
287.906	328.5
288.138	337.5
288.369	339.5
288.6	338.5
288.831	340.5
289.062	309.5
289.293	309.5
289.524	325.5
289.755	314.5
289.986	308.5
290.217	303.5
290.448	327.5
290.679	320.5
290.91	327.5
291.141	328.5
291.371	330.5
291.602	309.5
291.833	315.5
292.064	323.5
292.295	341.5
292.526	330.5
292.757	342.5
292.987	322.5
293.218	333.5
293.449	335.5
293.68	334.5
293.91	347.5
294.141	340.5
294.372	333.5
294.603	345.5
294.833	335.5
295.064	317.5
295.295	332.5
295.525	343.5
295.756	347.5
295.987	366.5
296.217	386.5
296.448	381.5
296.679	342.5
296.909	329.5
297.14	345.5
297.37	359.5
297.601	371.5
297.831	360.5
298.062	370.5
298.292	367.5
298.523	377.5
298.753	377.5
298.984	369.5
299.214	352.5
299.445	357.5
299.675	365.5
299.905	365.5
300.136	377.5
300.366	378.5
300.597	389.5
300.827	385.5
301.057	401.5
301.288	402.5
301.518	378.5
301.748	388.5
301.979	398.5
302.209	417.5
302.439	405.5
302.669	378.5
302.9	373.5
303.13	382.5
303.36	410.5
303.59	394.5
303.82	393.5
304.051	396.5
304.281	407.5
304.511	387.5
304.741	382.5
304.971	383.5
305.201	386.5
305.431	393.5
305.661	372.5
305.891	387.5
306.121	400.5
306.352	426.5
306.582	395.5
306.812	376.5
307.042	376.5
307.272	388.5
307.502	406.5
307.731	392.5
307.961	419.5
308.191	388.5
308.421	395.5
308.651	399.5
308.881	407.5
309.111	422.5
309.341	410.5
309.571	434.5
309.8	443.5
310.03	463.5
310.26	468.5
310.49	468.5
310.72	486.5
310.949	493.5
311.179	473.5
311.409	453.5
311.639	461.5
311.868	450.5
312.098	482.5
312.328	506.5
312.557	524.5
312.787	521.5
313.017	465.5
313.246	479.5
313.476	466.5
313.706	487.5
313.935	473.5
314.165	526.5
314.394	507.5
314.624	507.5
314.853	470.5
315.083	475.5
315.312	465.5
315.542	468.5
315.771	451.5
316.001	437.5
316.23	448.5
316.46	463.5
316.689	481.5
316.919	497.5
317.148	493.5
317.377	455.5
317.607	487.5
317.836	455.5
318.065	461.5
318.295	455.5
318.524	471.5
318.753	449.5
318.983	453.5
319.212	478.5
319.441	465.5
319.67	491.5
319.9	459.5
320.129	456.5
320.358	475.5
320.587	474.5
320.816	490.5
321.046	517.5
321.275	483.5
321.504	485.5
321.733	521.5
321.962	499.5
322.191	545.5
322.42	553.5
322.649	598.5
322.878	609.5
323.108	640.5
323.337	694.5
323.566	722.5
323.795	828.5
324.024	1119.5
324.253	1876.5
324.482	3158.5
324.71	4747.5
324.939	4125.5
325.168	1843.5
325.397	916.5
325.626	693.5
325.855	664.5
326.084	629.5
326.313	693.5
326.542	771.5
326.77	1042.5
326.999	1708.5
327.228	2775.5
327.457	3471.5
327.686	2275.5
327.914	1074.5
328.143	837.5
328.372	763.5
328.6	772.5
328.829	774.5
329.058	813.5
329.287	761.5
329.515	658.5
329.744	601.5
329.972	631.5
330.201	685.5
330.43	781.5
330.658	875.5
330.887	892.5
331.115	750.5
331.344	660.5
331.572	655.5
331.801	671.5
332.03	655.5
332.258	617.5
332.486	619.5
332.715	601.5
332.943	614.5
333.172	646.5
333.4	656.5
333.629	666.5
333.857	681.5
334.085	630.5
334.314	666.5
334.542	637.5
334.771	648.5
334.999	649.5
335.227	622.5
335.455	622.5
335.684	613.5
335.912	625.5
336.14	611.5
336.369	628.5
336.597	642.5
336.825	632.5
337.053	592.5
337.281	605.5
337.51	577.5
337.738	595.5
337.966	619.5
338.194	592.5
338.422	583.5
338.65	569.5
338.878	569.5
339.106	571.5
339.334	584.5
339.562	588.5
339.79	576.5
340.018	572.5
340.246	593.5
340.474	590.5
340.702	573.5
340.93	557.5
341.158	594.5
341.386	586.5
341.614	567.5
341.842	553.5
342.07	559.5
342.298	547.5
342.526	557.5
342.754	557.5
342.981	560.5
343.209	561.5
343.437	596.5
343.665	607.5
343.893	625.5
344.12	611.5
344.348	594.5
344.576	611.5
344.804	620.5
345.031	649.5
345.259	617.5
345.487	599.5
345.714	560.5
345.942	547.5
346.17	568.5
346.397	543.5
346.625	542.5
346.853	544.5
347.08	538.5
347.308	589.5
347.535	609.5
347.763	609.5
347.99	589.5
348.218	607.5
348.445	603.5
348.673	568.5
348.9	567.5
349.128	556.5
349.355	535.5
349.583	532.5
349.81	536.5
350.037	550.5
350.265	542.5
350.492	547.5
350.72	540.5
350.947	558.5
351.174	591.5
351.402	607.5
351.629	583.5
351.856	583.5
352.083	601.5
352.311	617.5
352.538	595.5
352.765	628.5
352.992	589.5
353.22	562.5
353.447	555.5
353.674	536.5
353.901	526.5
354.128	515.5
354.355	536.5
354.583	524.5
354.81	504.5
355.037	518.5
355.264	525.5
355.491	537.5
355.718	522.5
355.945	513.5
356.172	509.5
356.399	520.5
356.626	506.5
356.853	525.5
357.08	518.5
357.307	520.5
357.534	526.5
357.761	531.5
357.988	546.5
358.215	526.5
358.441	512.5
358.668	526.5
358.895	561.5
359.122	539.5
359.349	573.5
359.576	627.5
359.802	685.5
360.029	719.5
360.256	679.5
360.483	621.5
360.709	571.5
360.936	576.5
361.163	576.5
361.39	595.5
361.616	589.5
361.843	589.5
362.07	622.5
362.296	602.5
362.523	577.5
362.749	575.5
362.976	574.5
363.203	558.5
363.429	564.5
363.656	559.5
363.882	543.5
364.109	566.5
364.335	566.5
364.562	555.5
364.788	555.5
365.015	568.5
365.241	558.5
365.468	587.5
365.694	580.5
365.92	567.5
366.147	552.5
366.373	540.5
366.599	544.5
366.826	542.5
367.052	531.5
367.278	533.5
367.505	523.5
367.731	570.5
367.957	539.5
368.184	577.5
368.41	591.5
368.636	593.5
368.862	586.5
369.089	562.5
369.315	562.5
369.541	560.5
369.767	562.5
369.993	594.5
370.219	569.5
370.445	565.5
370.672	572.5
370.898	575.5
371.124	585.5
371.35	589.5
371.576	546.5
371.802	562.5
372.028	551.5
372.254	577.5
372.48	573.5
372.706	570.5
372.932	579.5
373.158	580.5
373.384	575.5
373.61	559.5
373.835	564.5
374.061	599.5
374.287	608.5
374.513	619.5
374.739	618.5
374.965	591.5
375.191	611.5
375.416	580.5
375.642	596.5
375.868	592.5
376.094	582.5
376.319	551.5
376.545	580.5
376.771	576.5
376.997	578.5
377.222	577.5
377.448	551.5
377.674	562.5
377.899	552.5
378.125	565.5
378.35	554.5
378.576	553.5
378.802	564.5
379.027	579.5
379.253	552.5
379.478	567.5
379.704	561.5
379.929	564.5
380.155	596.5
380.38	589.5
380.606	568.5
380.831	578.5
381.057	581.5
381.282	585.5
381.507	587.5
381.733	586.5
381.958	582.5
382.184	600.5
382.409	591.5
382.634	614.5
382.86	581.5
383.085	616.5
383.31	609.5
383.535	654.5
383.761	617.5
383.986	627.5
384.211	612.5
384.436	646.5
384.662	643.5
384.887	646.5
385.112	640.5
385.337	695.5
385.562	689.5
385.787	686.5
386.013	709.5
386.238	704.5
386.463	666.5
386.688	681.5
386.913	665.5
387.138	687.5
387.363	658.5
387.588	648.5
387.813	668.5
388.038	657.5
388.263	663.5
388.488	670.5
388.713	649.5
388.938	666.5
389.163	677.5
389.387	680.5
389.612	654.5
389.837	657.5
390.062	668.5
390.287	692.5
390.512	670.5
390.736	664.5
390.961	674.5
391.186	682.5
391.411	688.5
391.636	728.5
391.86	728.5
392.085	713.5
392.31	696.5
392.534	700.5
392.759	703.5
392.984	693.5
393.208	674.5
393.433	707.5
393.658	683.5
393.882	690.5
394.107	706.5
394.331	711.5
394.556	723.5
394.78	711.5
395.005	737.5
395.229	722.5
395.454	722.5
395.678	771.5
395.903	729.5
396.127	760.5
396.352	705.5
396.576	703.5
396.801	698.5
397.025	727.5
397.249	705.5
397.474	756.5
397.698	767.5
397.922	780.5
398.147	794.5
398.371	771.5
398.595	781.5
398.82	831.5
399.044	906.5
399.268	984.5
399.492	1063.5
399.717	1097.5
399.941	1058.5
400.165	1039.5
400.389	941.5
400.613	867.5
400.837	834.5
401.062	841.5
401.286	821.5
401.51	826.5
401.734	835.5
401.958	861.5
402.182	900.5
402.406	952.5
402.63	902.5
402.854	859.5
403.078	899.5
403.302	901.5
403.526	911.5
403.75	906.5
403.974	885.5
404.198	920.5
404.422	923.5
404.645	893.5
404.869	887.5
405.093	917.5
405.317	923.5
405.541	914.5
405.765	911.5
405.988	940.5
406.212	1001.5
406.436	1041.5
406.66	1012.5
406.883	977.5
407.107	1022.5
407.331	1121.5
407.555	1135.5
407.778	1062.5
408.002	1005.5
408.226	953.5
408.449	959.5
408.673	942.5
408.896	984.5
409.12	964.5
409.344	901.5
409.567	871.5
409.791	896.5
410.014	848.5
410.238	873.5
410.461	858.5
410.685	870.5
410.908	894.5
411.132	921.5
411.355	930.5
411.578	847.5
411.802	841.5
412.025	858.5
412.249	835.5
412.472	828.5
412.695	816.5
412.919	809.5
413.142	800.5
413.365	809.5
413.589	815.5
413.812	789.5
414.035	780.5
414.258	806.5
414.482	811.5
414.705	785.5
414.928	798.5
415.151	786.5
415.374	813.5
415.597	773.5
415.821	772.5
416.044	790.5
416.267	759.5
416.49	794.5
416.713	762.5
416.936	775.5
417.159	789.5
417.382	797.5
417.605	795.5
417.828	839.5
418.051	822.5
418.274	828.5
418.497	791.5
418.72	809.5
418.943	815.5
419.166	819.5
419.389	855.5
419.611	838.5
419.834	811.5
420.057	810.5
420.28	786.5
420.503	809.5
420.726	821.5
420.948	853.5
421.171	883.5
421.394	843.5
421.617	812.5
421.839	832.5
422.062	840.5
422.285	894.5
422.507	905.5
422.73	958.5
422.953	886.5
423.175	858.5
423.398	883.5
423.621	882.5
423.843	872.5
424.066	883.5
424.288	867.5
424.511	928.5
424.733	993.5
424.956	1044.5
425.178	981.5
425.401	977.5
425.623	934.5
425.846	838.5
426.068	825.5
426.291	825.5
426.513	816.5
426.735	859.5
426.958	925.5
427.18	1072.5
427.402	1240.5
427.625	1266.5
427.847	986.5
428.069	821.5
428.292	789.5
428.514	748.5
428.736	769.5
428.958	757.5
429.181	746.5
429.403	730.5
429.625	776.5
429.847	817.5
430.069	851.5
430.292	807.5
430.514	726.5
430.736	720.5
430.958	724.5
431.18	710.5
431.402	753.5
431.624	744.5
431.846	736.5
432.068	739.5
432.29	727.5
432.512	715.5
432.734	769.5
432.956	743.5
433.178	749.5
433.4	743.5
433.622	744.5
433.844	743.5
434.066	731.5
434.287	754.5
434.509	752.5
434.731	771.5
434.953	802.5
435.175	799.5
435.397	837.5
435.618	846.5
435.84	925.5
436.062	1034.5
436.284	971.5
436.505	855.5
436.727	817.5
436.949	754.5
437.17	746.5
437.392	759.5
437.614	808.5
437.835	939.5
438.057	1025.5
438.278	1069.5
438.5	1061.5
438.721	1076.5
438.943	936.5
439.165	809.5
439.386	792.5
439.608	829.5
439.829	873.5
440.05	973.5
440.272	930.5
440.493	847.5
440.715	783.5
440.936	786.5
441.158	799.5
441.379	811.5
441.6	857.5
441.822	901.5
442.043	951.5
442.264	1026.5
442.486	963.5
442.707	866.5
442.928	892.5
443.149	959.5
443.371	993.5
443.592	1047.5
443.813	1085.5
444.034	1055.5
444.255	926.5
444.476	920.5
444.698	901.5
444.919	947.5
445.14	943.5
445.361	969.5
445.582	1021.5
445.803	1155.5
446.024	1215.5
446.245	1142.5
446.466	957.5
446.687	835.5
446.908	791.5
447.129	731.5
447.35	749.5
447.571	708.5
447.792	757.5
448.013	730.5
448.234	788.5
448.455	939.5
448.675	1058.5
448.896	1023.5
449.117	887.5
449.338	971.5
449.559	1110.5
449.779	1050.5
450	843.5
450.221	753.5
450.442	750.5
450.662	743.5
450.883	793.5
451.104	807.5
451.324	749.5
451.545	695.5
451.766	672.5
451.986	681.5
452.207	683.5
452.428	672.5
452.648	671.5
452.869	693.5
453.089	717.5
453.31	705.5
453.53	671.5
453.751	657.5
453.971	723.5
454.192	737.5
454.412	662.5
454.633	664.5
454.853	655.5
455.073	658.5
455.294	746.5
455.514	786.5
455.734	716.5
455.955	616.5
456.175	602.5
456.395	598.5
456.616	618.5
456.836	618.5
457.056	624.5
457.276	609.5
457.497	606.5
457.717	601.5
457.937	639.5
458.157	639.5
458.377	693.5
458.598	791.5
458.818	967.5
459.038	984.5
459.258	863.5
459.478	773.5
459.698	739.5
459.918	734.5
460.138	786.5
460.358	776.5
460.578	809.5
460.798	805.5
461.018	800.5
461.238	773.5
461.458	763.5
461.678	774.5
461.898	796.5
462.118	829.5
462.338	832.5
462.558	855.5
462.777	897.5
462.997	953.5
463.217	954.5
463.437	915.5
463.657	870.5
463.876	893.5
464.096	927.5
464.316	911.5
464.536	910.5
464.755	874.5
464.975	962.5
465.195	1138.5
465.414	1049.5
465.634	822.5
465.854	737.5
466.073	718.5
466.293	697.5
466.512	719.5
466.732	693.5
466.951	692.5
467.171	674.5
467.391	727.5
467.61	755.5
467.829	735.5
468.049	687.5
468.268	671.5
468.488	660.5
468.707	665.5
468.927	670.5
469.146	650.5
469.365	668.5
469.585	671.5
469.804	751.5
470.023	748.5
470.243	746.5
470.462	768.5
470.681	801.5
470.901	737.5
471.12	687.5
471.339	715.5
471.558	674.5
471.777	641.5
471.997	657.5
472.216	653.5
472.435	618.5
472.654	656.5
472.873	625.5
473.092	657.5
473.311	650.5
473.53	660.5
473.749	696.5
473.968	812.5
474.187	886.5
474.406	809.5
474.625	681.5
474.844	653.5
475.063	662.5
475.282	669.5
475.501	671.5
475.72	672.5
475.939	682.5
476.158	681.5
476.377	707.5
476.596	705.5
476.814	723.5
477.033	725.5
477.252	730.5
477.471	733.5
477.69	767.5
477.908	739.5
478.127	770.5
478.346	774.5
478.564	761.5
478.783	785.5
479.002	824.5
479.22	838.5
479.439	831.5
479.658	841.5
479.876	849.5
480.095	878.5
480.313	871.5
480.532	858.5
480.751	852.5
480.969	815.5
481.188	833.5
481.406	811.5
481.624	771.5
481.843	759.5
482.061	760.5
482.28	760.5
482.498	730.5
482.717	756.5
482.935	755.5
483.153	755.5
483.372	777.5
483.59	738.5
483.808	755.5
484.027	777.5
484.245	802.5
484.463	777.5
484.681	794.5
484.9	791.5
485.118	768.5
485.336	784.5
485.554	806.5
485.772	819.5
485.99	790.5
486.209	820.5
486.427	841.5
486.645	858.5
486.863	869.5
487.081	851.5
487.299	813.5
487.517	805.5
487.735	824.5
487.953	828.5
488.171	849.5
488.389	835.5
488.607	819.5
488.825	810.5
489.043	808.5
489.261	802.5
489.479	819.5
489.696	812.5
489.914	851.5
490.132	849.5
490.35	869.5
490.568	883.5
490.786	871.5
491.003	918.5
491.221	943.5
491.439	944.5
491.657	941.5
491.874	963.5
492.092	961.5
492.31	965.5
492.527	964.5
492.745	940.5
492.963	954.5
493.18	978.5
493.398	977.5
493.615	985.5
493.833	972.5
494.05	950.5
494.268	973.5
494.485	973.5
494.703	966.5
494.92	958.5
495.138	935.5
495.355	960.5
495.573	969.5
495.79	948.5
496.008	937.5
496.225	946.5
496.442	942.5
496.66	946.5
496.877	966.5
497.094	990.5
497.312	982.5
497.529	993.5
497.746	1018.5
497.963	1061.5
498.181	1104.5
498.398	1128.5
498.615	1186.5
498.832	1189.5
499.049	1239.5
499.267	1355.5
499.484	1466.5
499.701	1509.5
499.918	1637.5
500.135	1803.5
500.352	1867.5
500.569	1925.5
500.786	1869.5
501.003	1735.5
501.22	1668.5
501.437	1546.5
501.654	1471.5
501.871	1402.5
502.088	1275.5
502.305	1223.5
502.522	1175.5
502.739	1137.5
502.956	1105.5
503.172	1069.5
503.389	1026.5
503.606	1047.5
503.823	1036.5
504.04	1036.5
504.256	1018.5
504.473	1013.5
504.69	1026.5
504.907	1000.5
505.123	964.5
505.34	939.5
505.557	920.5
505.773	924.5
505.99	920.5
506.207	889.5
506.423	881.5
506.64	890.5
506.856	863.5
507.073	873.5
507.289	877.5
507.506	887.5
507.722	946.5
507.939	938.5
508.155	882.5
508.372	835.5
508.588	817.5
508.805	836.5
509.021	865.5
509.238	843.5
509.454	817.5
509.67	846.5
509.887	799.5
510.103	823.5
510.319	924.5
510.536	1577.5
510.752	2477.5
510.968	1157.5
511.184	809.5
511.401	782.5
511.617	753.5
511.833	769.5
512.049	761.5
512.265	759.5
512.481	765.5
512.698	762.5
512.914	749.5
513.13	769.5
513.346	761.5
513.562	768.5
513.778	798.5
513.994	806.5
514.21	877.5
514.426	913.5
514.642	1004.5
514.858	1060.5
515.074	1253.5
515.29	1995.5
515.506	2857.5
515.721	1505.5
515.937	1026.5
516.153	949.5
516.369	890.5
516.585	882.5
516.801	888.5
517.016	897.5
517.232	921.5
517.448	932.5
517.664	956.5
517.879	928.5
518.095	943.5
518.311	900.5
518.527	899.5
518.742	843.5
518.958	858.5
519.173	829.5
519.389	854.5
