Data from TestCu_HRD10591_00103.txt Node
Date: Thu Oct 05 14:06:23 EDT 2023
User: Yrep
Spectrometer: HR+D1059
Trigger mode: 1
Integration Time (sec): 1.000000E-1
Scans to average: 1
Electric dark correction enabled: true
Nonlinearity correction enabled: false
Boxcar width: 0
XAxis mode: Wavelengths
Number of Pixels in Spectrum: 2048
>>>>>Begin Spectral Data<<<<<
223.165	-24.69
223.4	-24.69
223.635	-24.69
223.869	-27.69
224.104	-17.69
224.338	-18.69
224.573	-8.69
224.808	-3.69
225.042	4.31
225.277	-4.69
225.511	-0.69
225.746	-5.69
225.98	9.31
226.215	2.31
226.449	13.31
226.683	14.31
226.918	33.31
227.152	35.31
227.387	39.31
227.621	38.31
227.856	44.31
228.09	41.31
228.324	53.31
228.559	57.31
228.793	56.31
229.027	104.31
229.262	95.31
229.496	135.31
229.73	173.31
229.964	159.31
230.199	113.31
230.433	119.31
230.667	113.31
230.901	102.31
231.136	102.31
231.37	110.31
231.604	102.31
231.838	100.31
232.072	101.31
232.306	112.31
232.541	113.31
232.775	118.31
233.009	107.31
233.243	115.31
233.477	115.31
233.711	110.31
233.945	115.31
234.179	112.31
234.413	123.31
234.647	114.31
234.881	112.31
235.115	112.31
235.349	123.31
235.583	115.31
235.817	132.31
236.051	137.31
236.285	119.31
236.519	133.31
236.753	149.31
236.987	177.31
237.221	236.31
237.455	228.31
237.689	151.31
237.922	117.31
238.156	115.31
238.39	123.31
238.624	111.31
238.858	131.31
239.091	117.31
239.325	131.31
239.559	126.31
239.793	127.31
240.027	146.31
240.26	169.31
240.494	149.31
240.728	132.31
240.961	135.31
241.195	135.31
241.429	140.31
241.662	136.31
241.896	129.31
242.13	102.31
242.363	126.31
242.597	126.31
242.83	129.31
243.064	137.31
243.298	118.31
243.531	128.31
243.765	137.31
243.998	147.31
244.232	152.31
244.465	128.31
244.699	140.31
244.932	157.31
245.166	131.31
245.399	130.31
245.633	142.31
245.866	142.31
246.099	157.31
246.333	127.31
246.566	143.31
246.8	152.31
247.033	152.31
247.266	168.31
247.5	161.31
247.733	148.31
247.966	157.31
248.2	163.31
248.433	163.31
248.666	162.31
248.899	196.31
249.133	203.31
249.366	211.31
249.599	180.31
249.832	167.31
250.066	160.31
250.299	173.31
250.532	203.31
250.765	200.31
250.998	217.31
251.231	192.31
251.465	193.31
251.698	163.31
251.931	161.31
252.164	179.31
252.397	181.31
252.63	188.31
252.863	209.31
253.096	205.31
253.329	205.31
253.562	204.31
253.795	201.31
254.028	199.31
254.261	214.31
254.494	230.31
254.727	268.31
254.96	263.31
255.193	212.31
255.426	192.31
255.659	197.31
255.892	200.31
256.124	183.31
256.357	194.31
256.59	191.31
256.823	173.31
257.056	177.31
257.289	188.31
257.521	179.31
257.754	193.31
257.987	197.31
258.22	185.31
258.452	189.31
258.685	217.31
258.918	208.31
259.151	215.31
259.383	212.31
259.616	221.31
259.849	227.31
260.081	257.31
260.314	248.31
260.547	231.31
260.779	204.31
261.012	212.31
261.244	203.31
261.477	203.31
261.71	224.31
261.942	239.31
262.175	252.31
262.407	249.31
262.64	211.31
262.872	207.31
263.105	203.31
263.337	200.31
263.57	192.31
263.802	204.31
264.035	198.31
264.267	213.31
264.499	202.31
264.732	201.31
264.964	215.31
265.197	197.31
265.429	232.31
265.661	218.31
265.894	212.31
266.126	223.31
266.358	214.31
266.591	224.31
266.823	228.31
267.055	225.31
267.287	204.31
267.52	223.31
267.752	219.31
267.984	230.31
268.216	232.31
268.448	256.31
268.681	242.31
268.913	255.31
269.145	276.31
269.377	267.31
269.609	257.31
269.841	270.31
270.073	277.31
270.306	311.31
270.538	312.31
270.77	286.31
271.002	265.31
271.234	282.31
271.466	279.31
271.698	305.31
271.93	326.31
272.162	312.31
272.394	276.31
272.626	269.31
272.858	250.31
273.09	254.31
273.322	250.31
273.553	250.31
273.785	263.31
274.017	273.31
274.249	249.31
274.481	268.31
274.713	251.31
274.945	252.31
275.176	280.31
275.408	270.31
275.64	256.31
275.872	252.31
276.104	273.31
276.335	275.31
276.567	299.31
276.799	323.31
277.031	356.31
277.262	345.31
277.494	294.31
277.726	284.31
277.957	273.31
278.189	271.31
278.421	275.31
278.652	272.31
278.884	287.31
279.115	272.31
279.347	279.31
279.579	269.31
279.81	264.31
280.042	273.31
280.273	269.31
280.505	287.31
280.736	260.31
280.968	284.31
281.199	268.31
281.431	275.31
281.662	292.31
281.894	307.31
282.125	303.31
282.356	358.31
282.588	357.31
282.819	347.31
283.051	299.31
283.282	270.31
283.513	278.31
283.745	291.31
283.976	294.31
284.207	299.31
284.439	291.31
284.67	299.31
284.901	295.31
285.132	296.31
285.364	292.31
285.595	286.31
285.826	313.31
286.057	293.31
286.288	297.31
286.52	287.31
286.751	287.31
286.982	304.31
287.213	321.31
287.444	326.31
287.675	333.31
287.906	327.31
288.138	329.31
288.369	343.31
288.6	325.31
288.831	323.31
289.062	325.31
289.293	317.31
289.524	315.31
289.755	319.31
289.986	298.31
290.217	289.31
290.448	305.31
290.679	327.31
290.91	324.31
291.141	305.31
291.371	313.31
291.602	313.31
291.833	322.31
292.064	313.31
292.295	324.31
292.526	308.31
292.757	317.31
292.987	325.31
293.218	340.31
293.449	320.31
293.68	332.31
293.91	300.31
294.141	331.31
294.372	336.31
294.603	351.31
294.833	328.31
295.064	338.31
295.295	332.31
295.525	365.31
295.756	389.31
295.987	383.31
296.217	415.31
296.448	368.31
296.679	349.31
296.909	336.31
297.14	339.31
297.37	351.31
297.601	361.31
297.831	356.31
298.062	350.31
298.292	341.31
298.523	375.31
298.753	368.31
298.984	363.31
299.214	360.31
299.445	354.31
299.675	361.31
299.905	367.31
300.136	358.31
300.366	372.31
300.597	408.31
300.827	404.31
301.057	405.31
301.288	406.31
301.518	392.31
301.748	392.31
301.979	401.31
302.209	399.31
302.439	403.31
302.669	410.31
302.9	393.31
303.13	371.31
303.36	415.31
303.59	419.31
303.82	396.31
304.051	406.31
304.281	381.31
304.511	368.31
304.741	375.31
304.971	392.31
305.201	367.31
305.431	410.31
305.661	394.31
305.891	388.31
306.121	388.31
306.352	413.31
306.582	397.31
306.812	400.31
307.042	401.31
307.272	388.31
307.502	404.31
307.731	397.31
307.961	385.31
308.191	369.31
308.421	403.31
308.651	401.31
308.881	402.31
309.111	403.31
309.341	431.31
309.571	415.31
309.8	464.31
310.03	469.31
310.26	449.31
310.49	450.31
310.72	468.31
310.949	495.31
311.179	492.31
311.409	455.31
311.639	465.31
311.868	487.31
312.098	455.31
312.328	515.31
312.557	537.31
312.787	517.31
313.017	503.31
313.246	502.31
313.476	485.31
313.706	478.31
313.935	503.31
314.165	512.31
314.394	496.31
314.624	479.31
314.853	479.31
315.083	448.31
315.312	445.31
315.542	443.31
315.771	433.31
316.001	432.31
316.23	465.31
316.46	454.31
316.689	471.31
316.919	475.31
317.148	499.31
317.377	480.31
317.607	459.31
317.836	460.31
318.065	445.31
318.295	449.31
318.524	452.31
318.753	455.31
318.983	472.31
319.212	485.31
319.441	488.31
319.67	491.31
319.9	463.31
320.129	471.31
320.358	495.31
320.587	474.31
320.816	491.31
321.046	490.31
321.275	528.31
321.504	498.31
321.733	501.31
321.962	532.31
322.191	532.31
322.42	583.31
322.649	595.31
322.878	620.31
323.108	661.31
323.337	686.31
323.566	747.31
323.795	848.31
324.024	1104.31
324.253	1940.31
324.482	3332.31
324.71	4951.31
324.939	4285.31
325.168	1875.31
325.397	912.31
325.626	697.31
325.855	637.31
326.084	660.31
326.313	712.31
326.542	794.31
326.77	1075.31
326.999	1817.31
327.228	2848.31
327.457	3659.31
327.686	2385.31
327.914	1117.31
328.143	888.31
328.372	823.31
328.6	754.31
328.829	799.31
329.058	839.31
329.287	787.31
329.515	687.31
329.744	627.31
329.972	611.31
330.201	669.31
330.43	790.31
330.658	904.31
330.887	903.31
331.115	748.31
331.344	639.31
331.572	665.31
331.801	676.31
332.03	656.31
332.258	594.31
332.486	608.31
332.715	587.31
332.943	608.31
333.172	637.31
333.4	642.31
333.629	665.31
333.857	648.31
334.085	617.31
334.314	624.31
334.542	628.31
334.771	644.31
334.999	636.31
335.227	633.31
335.455	604.31
335.684	593.31
335.912	607.31
336.14	607.31
336.369	617.31
336.597	646.31
336.825	611.31
337.053	568.31
337.281	609.31
337.51	613.31
337.738	613.31
337.966	596.31
338.194	615.31
338.422	607.31
338.65	589.31
338.878	566.31
339.106	593.31
339.334	575.31
339.562	560.31
339.79	569.31
340.018	580.31
340.246	590.31
340.474	579.31
340.702	576.31
340.93	583.31
341.158	579.31
341.386	553.31
341.614	539.31
341.842	574.31
342.07	576.31
342.298	559.31
342.526	536.31
342.754	554.31
342.981	552.31
343.209	553.31
343.437	571.31
343.665	621.31
343.893	624.31
344.12	602.31
344.348	589.31
344.576	597.31
344.804	621.31
345.031	641.31
345.259	620.31
345.487	610.31
345.714	570.31
345.942	554.31
346.17	549.31
346.397	567.31
346.625	557.31
346.853	565.31
347.08	566.31
347.308	594.31
347.535	605.31
347.763	590.31
347.99	595.31
348.218	601.31
348.445	599.31
348.673	584.31
348.9	561.31
349.128	551.31
349.355	561.31
349.583	536.31
349.81	523.31
350.037	534.31
350.265	497.31
350.492	541.31
350.72	550.31
350.947	561.31
351.174	585.31
351.402	583.31
351.629	585.31
351.856	563.31
352.083	612.31
352.311	625.31
352.538	628.31
352.765	596.31
352.992	560.31
353.22	555.31
353.447	542.31
353.674	513.31
353.901	531.31
354.128	520.31
354.355	523.31
354.583	517.31
354.81	518.31
355.037	512.31
355.264	515.31
355.491	489.31
355.718	496.31
355.945	504.31
356.172	512.31
356.399	507.31
356.626	524.31
356.853	511.31
357.08	511.31
357.307	517.31
357.534	518.31
357.761	524.31
357.988	511.31
358.215	511.31
358.441	532.31
358.668	528.31
358.895	528.31
359.122	544.31
359.349	565.31
359.576	618.31
359.802	700.31
360.029	741.31
360.256	696.31
360.483	609.31
360.709	571.31
360.936	585.31
361.163	587.31
361.39	571.31
361.616	574.31
361.843	569.31
362.07	596.31
362.296	590.31
362.523	576.31
362.749	585.31
362.976	553.31
363.203	569.31
363.429	544.31
363.656	532.31
363.882	543.31
364.109	552.31
364.335	572.31
364.562	553.31
364.788	547.31
365.015	558.31
365.241	559.31
365.468	569.31
365.694	565.31
365.92	559.31
366.147	539.31
366.373	530.31
366.599	549.31
366.826	541.31
367.052	552.31
367.278	558.31
367.505	562.31
367.731	559.31
367.957	547.31
368.184	557.31
368.41	593.31
368.636	605.31
368.862	575.31
369.089	563.31
369.315	562.31
369.541	573.31
369.767	566.31
369.993	570.31
370.219	561.31
370.445	523.31
370.672	566.31
370.898	555.31
371.124	585.31
371.35	568.31
371.576	556.31
371.802	555.31
372.028	558.31
372.254	579.31
372.48	534.31
372.706	565.31
372.932	562.31
373.158	559.31
373.384	570.31
373.61	565.31
373.835	582.31
374.061	583.31
374.287	592.31
374.513	569.31
374.739	595.31
374.965	592.31
375.191	577.31
375.416	579.31
375.642	561.31
375.868	569.31
376.094	559.31
376.319	556.31
376.545	556.31
376.771	564.31
376.997	566.31
377.222	573.31
377.448	551.31
377.674	546.31
377.899	560.31
378.125	563.31
378.35	541.31
378.576	539.31
378.802	544.31
379.027	529.31
379.253	551.31
379.478	567.31
379.704	558.31
379.929	558.31
380.155	578.31
380.38	595.31
380.606	570.31
380.831	571.31
381.057	571.31
381.282	586.31
381.507	574.31
381.733	561.31
381.958	576.31
382.184	575.31
382.409	588.31
382.634	584.31
382.86	588.31
383.085	610.31
383.31	594.31
383.535	620.31
383.761	606.31
383.986	632.31
384.211	623.31
384.436	649.31
384.662	640.31
384.887	655.31
385.112	651.31
385.337	636.31
385.562	645.31
385.787	662.31
386.013	698.31
386.238	688.31
386.463	656.31
386.688	671.31
386.913	633.31
387.138	633.31
387.363	638.31
387.588	616.31
387.813	653.31
388.038	633.31
388.263	648.31
388.488	637.31
388.713	640.31
388.938	650.31
389.163	645.31
389.387	653.31
389.612	645.31
389.837	660.31
390.062	653.31
390.287	652.31
390.512	660.31
390.736	656.31
390.961	700.31
391.186	641.31
391.411	659.31
391.636	685.31
391.86	704.31
392.085	731.31
392.31	733.31
392.534	700.31
392.759	693.31
392.984	672.31
393.208	664.31
393.433	669.31
393.658	673.31
393.882	662.31
394.107	654.31
394.331	671.31
394.556	677.31
394.78	677.31
395.005	689.31
395.229	708.31
395.454	715.31
395.678	744.31
395.903	709.31
396.127	706.31
396.352	692.31
396.576	663.31
396.801	672.31
397.025	698.31
397.249	721.31
397.474	716.31
397.698	731.31
397.922	763.31
398.147	754.31
398.371	797.31
398.595	799.31
398.82	823.31
399.044	901.31
399.268	951.31
399.492	1043.31
399.717	1061.31
399.941	1038.31
400.165	1003.31
400.389	913.31
400.613	878.31
400.837	809.31
401.062	825.31
401.286	815.31
401.51	817.31
401.734	803.31
401.958	834.31
402.182	884.31
402.406	894.31
402.63	883.31
402.854	888.31
403.078	871.31
403.302	882.31
403.526	888.31
403.75	868.31
403.974	913.31
404.198	891.31
404.422	902.31
404.645	890.31
404.869	876.31
405.093	917.31
405.317	924.31
405.541	909.31
405.765	896.31
405.988	923.31
406.212	997.31
406.436	1051.31
406.66	1008.31
406.883	954.31
407.107	1038.31
407.331	1094.31
407.555	1104.31
407.778	1016.31
408.002	962.31
408.226	941.31
408.449	912.31
408.673	940.31
408.896	939.31
409.12	939.31
409.344	907.31
409.567	851.31
409.791	835.31
410.014	829.31
410.238	812.31
410.461	856.31
410.685	855.31
410.908	862.31
411.132	906.31
411.355	873.31
411.578	831.31
411.802	785.31
412.025	808.31
412.249	801.31
412.472	815.31
412.695	785.31
412.919	784.31
413.142	786.31
413.365	792.31
413.589	788.31
413.812	792.31
414.035	781.31
414.258	776.31
414.482	808.31
414.705	749.31
414.928	759.31
415.151	766.31
415.374	775.31
415.597	777.31
415.821	772.31
416.044	724.31
416.267	776.31
416.49	760.31
416.713	773.31
416.936	764.31
417.159	786.31
417.382	776.31
417.605	781.31
417.828	799.31
418.051	809.31
418.274	797.31
418.497	809.31
418.72	776.31
418.943	795.31
419.166	793.31
419.389	801.31
419.611	843.31
419.834	829.31
420.057	827.31
420.28	790.31
420.503	778.31
420.726	812.31
420.948	825.31
421.171	867.31
421.394	846.31
421.617	795.31
421.839	811.31
422.062	830.31
422.285	854.31
422.507	945.31
422.73	981.31
422.953	890.31
423.175	852.31
423.398	854.31
423.621	852.31
423.843	877.31
424.066	880.31
424.288	887.31
424.511	938.31
424.733	976.31
424.956	1014.31
425.178	968.31
425.401	967.31
425.623	948.31
425.846	853.31
426.068	842.31
426.291	804.31
426.513	791.31
426.735	866.31
426.958	924.31
427.18	1064.31
427.402	1262.31
427.625	1252.31
427.847	992.31
428.069	835.31
428.292	783.31
428.514	748.31
428.736	758.31
428.958	736.31
429.181	735.31
429.403	739.31
429.625	769.31
429.847	813.31
430.069	862.31
430.292	793.31
430.514	723.31
430.736	725.31
430.958	724.31
431.18	688.31
431.402	700.31
431.624	690.31
431.846	728.31
432.068	725.31
432.29	711.31
432.512	705.31
432.734	757.31
432.956	734.31
433.178	733.31
433.4	722.31
433.622	726.31
433.844	734.31
434.066	735.31
434.287	725.31
434.509	735.31
434.731	771.31
434.953	785.31
435.175	811.31
435.397	801.31
435.618	851.31
435.84	949.31
436.062	1015.31
436.284	957.31
436.505	825.31
436.727	768.31
436.949	717.31
437.17	734.31
437.392	748.31
437.614	792.31
437.835	905.31
438.057	1025.31
438.278	1072.31
438.5	1060.31
438.721	1088.31
438.943	938.31
439.165	800.31
439.386	798.31
439.608	821.31
439.829	849.31
440.05	912.31
440.272	952.31
440.493	825.31
440.715	757.31
440.936	776.31
441.158	792.31
441.379	804.31
441.6	832.31
441.822	885.31
442.043	931.31
442.264	1014.31
442.486	952.31
442.707	859.31
442.928	900.31
443.149	950.31
443.371	959.31
443.592	1037.31
443.813	1110.31
444.034	1018.31
444.255	887.31
444.476	879.31
444.698	906.31
444.919	896.31
445.14	944.31
445.361	960.31
445.582	1035.31
445.803	1141.31
446.024	1198.31
446.245	1104.31
446.466	968.31
446.687	813.31
446.908	761.31
447.129	758.31
447.35	727.31
447.571	736.31
447.792	719.31
448.013	758.31
448.234	807.31
448.455	928.31
448.675	1052.31
448.896	1008.31
449.117	868.31
449.338	971.31
449.559	1084.31
449.779	1053.31
450	802.31
450.221	746.31
450.442	710.31
450.662	753.31
450.883	779.31
451.104	802.31
451.324	746.31
451.545	675.31
451.766	645.31
451.986	662.31
452.207	655.31
452.428	645.31
452.648	700.31
452.869	676.31
453.089	694.31
453.31	692.31
453.53	661.31
453.751	676.31
453.971	713.31
454.192	717.31
454.412	655.31
454.633	634.31
454.853	650.31
455.073	641.31
455.294	744.31
455.514	779.31
455.734	683.31
455.955	627.31
456.175	585.31
456.395	585.31
456.616	608.31
456.836	605.31
457.056	593.31
457.276	595.31
457.497	633.31
457.717	627.31
457.937	627.31
458.157	625.31
458.377	665.31
458.598	778.31
458.818	983.31
459.038	1026.31
459.258	881.31
459.478	760.31
459.698	723.31
459.918	728.31
460.138	750.31
460.358	772.31
460.578	766.31
460.798	803.31
461.018	788.31
461.238	752.31
461.458	763.31
461.678	736.31
461.898	772.31
462.118	823.31
462.338	811.31
462.558	814.31
462.777	861.31
462.997	907.31
463.217	928.31
463.437	902.31
463.657	827.31
463.876	867.31
464.096	881.31
464.316	878.31
464.536	892.31
464.755	889.31
464.975	920.31
465.195	1138.31
465.414	1027.31
465.634	816.31
465.854	771.31
466.073	713.31
466.293	685.31
466.512	664.31
466.732	685.31
466.951	664.31
467.171	671.31
467.391	730.31
467.61	760.31
467.829	712.31
468.049	684.31
468.268	685.31
468.488	649.31
468.707	658.31
468.927	625.31
469.146	650.31
469.365	677.31
469.585	663.31
469.804	721.31
470.023	727.31
470.243	711.31
470.462	766.31
470.681	771.31
470.901	741.31
471.12	686.31
471.339	696.31
471.558	680.31
471.777	685.31
471.997	653.31
472.216	628.31
472.435	632.31
472.654	634.31
472.873	617.31
473.092	654.31
473.311	655.31
473.53	650.31
473.749	693.31
473.968	793.31
474.187	901.31
474.406	794.31
474.625	674.31
474.844	663.31
475.063	643.31
475.282	659.31
475.501	663.31
475.72	680.31
475.939	664.31
476.158	673.31
476.377	685.31
476.596	683.31
476.814	703.31
477.033	701.31
477.252	704.31
477.471	742.31
477.69	723.31
477.908	748.31
478.127	735.31
478.346	751.31
478.564	783.31
478.783	789.31
479.002	811.31
479.22	811.31
479.439	836.31
479.658	838.31
479.876	839.31
480.095	876.31
480.313	898.31
480.532	866.31
480.751	855.31
480.969	820.31
481.188	797.31
481.406	780.31
481.624	788.31
481.843	780.31
482.061	733.31
482.28	726.31
482.498	739.31
482.717	730.31
482.935	743.31
483.153	748.31
483.372	744.31
483.59	759.31
483.808	749.31
484.027	751.31
484.245	776.31
484.463	778.31
484.681	781.31
484.9	800.31
485.118	790.31
485.336	790.31
485.554	782.31
485.772	785.31
485.99	796.31
486.209	815.31
486.427	813.31
486.645	851.31
486.863	880.31
487.081	854.31
487.299	825.31
487.517	818.31
487.735	811.31
487.953	828.31
488.171	835.31
488.389	813.31
488.607	808.31
488.825	786.31
489.043	799.31
489.261	797.31
489.479	840.31
489.696	813.31
489.914	811.31
490.132	827.31
490.35	832.31
490.568	873.31
490.786	864.31
491.003	881.31
491.221	945.31
491.439	944.31
491.657	928.31
491.874	918.31
492.092	939.31
492.31	943.31
492.527	942.31
492.745	965.31
492.963	943.31
493.18	950.31
493.398	991.31
493.615	967.31
493.833	957.31
494.05	968.31
494.268	934.31
494.485	923.31
494.703	934.31
494.92	935.31
495.138	983.31
495.355	963.31
495.573	952.31
495.79	949.31
496.008	935.31
496.225	972.31
496.442	927.31
496.66	961.31
496.877	956.31
497.094	978.31
497.312	978.31
497.529	1029.31
497.746	1018.31
497.963	1061.31
498.181	1064.31
498.398	1090.31
498.615	1167.31
498.832	1217.31
499.049	1255.31
499.267	1348.31
499.484	1396.31
499.701	1496.31
499.918	1638.31
500.135	1760.31
500.352	1824.31
500.569	1875.31
500.786	1792.31
501.003	1683.31
501.22	1591.31
501.437	1517.31
501.654	1457.31
501.871	1379.31
