Data from TestCu_HRD10591_00079.txt Node
Date: Thu Oct 05 14:05:59 EDT 2023
User: Yrep
Spectrometer: HR+D1059
Trigger mode: 1
Integration Time (sec): 1.000000E-1
Scans to average: 1
Electric dark correction enabled: true
Nonlinearity correction enabled: false
Boxcar width: 0
XAxis mode: Wavelengths
Number of Pixels in Spectrum: 2048
>>>>>Begin Spectral Data<<<<<
223.165	-24.06
223.4	-24.06
223.635	-24.06
223.869	-7.06
224.104	-22.06
224.338	3.94
224.573	-17.06
224.808	-26.06
225.042	-1.06
225.277	-6.06
225.511	-4.06
225.746	3.94
225.98	7.94
226.215	11.94
226.449	17.94
226.683	21.94
226.918	26.94
227.152	12.94
227.387	29.94
227.621	35.94
227.856	45.94
228.09	34.94
228.324	46.94
228.559	72.94
228.793	74.94
229.027	107.94
229.262	133.94
229.496	143.94
229.73	164.94
229.964	173.94
230.199	140.94
230.433	102.94
230.667	115.94
230.901	109.94
231.136	108.94
231.37	101.94
231.604	123.94
231.838	113.94
232.072	103.94
232.306	112.94
232.541	122.94
232.775	113.94
233.009	115.94
233.243	110.94
233.477	111.94
233.711	118.94
233.945	119.94
234.179	125.94
234.413	121.94
234.647	117.94
234.881	103.94
235.115	112.94
235.349	125.94
235.583	136.94
235.817	131.94
236.051	143.94
236.285	146.94
236.519	140.94
236.753	149.94
236.987	171.94
237.221	222.94
237.455	231.94
237.689	141.94
237.922	128.94
238.156	125.94
238.39	122.94
238.624	135.94
238.858	135.94
239.091	124.94
239.325	132.94
239.559	132.94
239.793	144.94
240.027	147.94
240.26	147.94
240.494	165.94
240.728	161.94
240.961	145.94
241.195	133.94
241.429	118.94
241.662	125.94
241.896	133.94
242.13	121.94
242.363	139.94
242.597	135.94
242.83	141.94
243.064	149.94
243.298	148.94
243.531	135.94
243.765	134.94
243.998	136.94
244.232	133.94
244.465	132.94
244.699	132.94
244.932	138.94
245.166	121.94
245.399	139.94
245.633	143.94
245.866	142.94
246.099	130.94
246.333	151.94
246.566	145.94
246.8	144.94
247.033	152.94
247.266	152.94
247.5	162.94
247.733	176.94
247.966	174.94
248.2	156.94
248.433	179.94
248.666	172.94
248.899	191.94
249.133	229.94
249.366	223.94
249.599	197.94
249.832	171.94
250.066	182.94
250.299	186.94
250.532	189.94
250.765	204.94
250.998	213.94
251.231	215.94
251.465	199.94
251.698	185.94
251.931	173.94
252.164	190.94
252.397	194.94
252.63	204.94
252.863	204.94
253.096	217.94
253.329	225.94
253.562	211.94
253.795	195.94
254.028	186.94
254.261	213.94
254.494	227.94
254.727	259.94
254.96	261.94
255.193	226.94
255.426	223.94
255.659	212.94
255.892	204.94
256.124	201.94
256.357	193.94
256.59	195.94
256.823	196.94
257.056	197.94
257.289	191.94
257.521	191.94
257.754	193.94
257.987	202.94
258.22	195.94
258.452	208.94
258.685	207.94
258.918	189.94
259.151	211.94
259.383	224.94
259.616	229.94
259.849	221.94
260.081	245.94
260.314	252.94
260.547	239.94
260.779	224.94
261.012	231.94
261.244	223.94
261.477	229.94
261.71	214.94
261.942	256.94
262.175	259.94
262.407	223.94
262.64	214.94
262.872	209.94
263.105	219.94
263.337	211.94
263.57	215.94
263.802	216.94
264.035	212.94
264.267	209.94
264.499	213.94
264.732	227.94
264.964	204.94
265.197	227.94
265.429	218.94
265.661	209.94
265.894	213.94
266.126	227.94
266.358	227.94
266.591	227.94
266.823	219.94
267.055	224.94
267.287	241.94
267.52	219.94
267.752	227.94
267.984	246.94
268.216	228.94
268.448	246.94
268.681	260.94
268.913	271.94
269.145	282.94
269.377	274.94
269.609	272.94
269.841	276.94
270.073	297.94
270.306	332.94
270.538	313.94
270.77	299.94
271.002	293.94
271.234	284.94
271.466	311.94
271.698	315.94
271.93	310.94
272.162	315.94
272.394	316.94
272.626	281.94
272.858	276.94
273.09	261.94
273.322	254.94
273.553	262.94
273.785	267.94
274.017	257.94
274.249	256.94
274.481	281.94
274.713	276.94
274.945	294.94
275.176	267.94
275.408	283.94
275.64	281.94
275.872	267.94
276.104	271.94
276.335	275.94
276.567	317.94
276.799	327.94
277.031	367.94
277.262	355.94
277.494	300.94
277.726	298.94
277.957	281.94
278.189	279.94
278.421	271.94
278.652	284.94
278.884	292.94
279.115	265.94
279.347	279.94
279.579	282.94
279.81	282.94
280.042	274.94
280.273	295.94
280.505	285.94
280.736	287.94
280.968	281.94
281.199	274.94
281.431	286.94
281.662	279.94
281.894	279.94
282.125	315.94
282.356	361.94
282.588	374.94
282.819	323.94
283.051	323.94
283.282	297.94
283.513	295.94
283.745	299.94
283.976	311.94
284.207	298.94
284.439	307.94
284.67	297.94
284.901	308.94
285.132	303.94
285.364	296.94
285.595	312.94
285.826	307.94
286.057	313.94
286.288	305.94
286.52	333.94
286.751	302.94
286.982	321.94
287.213	314.94
287.444	317.94
287.675	321.94
287.906	353.94
288.138	351.94
288.369	348.94
288.6	339.94
288.831	353.94
289.062	322.94
289.293	333.94
289.524	301.94
289.755	317.94
289.986	321.94
290.217	325.94
290.448	340.94
290.679	329.94
290.91	308.94
291.141	339.94
291.371	331.94
291.602	330.94
291.833	346.94
292.064	348.94
292.295	341.94
292.526	336.94
292.757	359.94
292.987	329.94
293.218	337.94
293.449	338.94
293.68	334.94
293.91	340.94
294.141	324.94
294.372	336.94
294.603	344.94
294.833	355.94
295.064	331.94
295.295	340.94
295.525	344.94
295.756	368.94
295.987	415.94
296.217	416.94
296.448	386.94
296.679	349.94
296.909	364.94
297.14	352.94
297.37	370.94
297.601	359.94
297.831	352.94
298.062	366.94
298.292	367.94
298.523	359.94
298.753	375.94
298.984	361.94
299.214	375.94
299.445	355.94
299.675	371.94
299.905	380.94
300.136	374.94
300.366	366.94
300.597	398.94
300.827	401.94
301.057	415.94
301.288	409.94
301.518	399.94
301.748	411.94
301.979	431.94
302.209	398.94
302.439	420.94
302.669	400.94
302.9	399.94
303.13	385.94
303.36	400.94
303.59	399.94
303.82	414.94
304.051	419.94
304.281	401.94
304.511	407.94
304.741	386.94
304.971	385.94
305.201	404.94
305.431	392.94
305.661	387.94
305.891	387.94
306.121	399.94
306.352	417.94
306.582	423.94
306.812	403.94
307.042	417.94
307.272	415.94
307.502	412.94
307.731	406.94
307.961	408.94
308.191	410.94
308.421	409.94
308.651	418.94
308.881	436.94
309.111	411.94
309.341	435.94
309.571	444.94
309.8	458.94
310.03	482.94
310.26	473.94
310.49	509.94
310.72	528.94
310.949	536.94
311.179	508.94
311.409	473.94
311.639	475.94
311.868	488.94
312.098	487.94
312.328	505.94
312.557	540.94
312.787	555.94
313.017	520.94
313.246	477.94
313.476	454.94
313.706	485.94
313.935	492.94
314.165	532.94
314.394	544.94
314.624	506.94
314.853	508.94
315.083	486.94
315.312	437.94
315.542	461.94
315.771	460.94
316.001	452.94
316.23	463.94
316.46	470.94
316.689	480.94
316.919	490.94
317.148	492.94
317.377	492.94
317.607	472.94
317.836	490.94
318.065	481.94
318.295	474.94
318.524	465.94
318.753	444.94
318.983	475.94
319.212	487.94
319.441	508.94
319.67	484.94
319.9	481.94
320.129	483.94
320.358	473.94
320.587	501.94
320.816	507.94
321.046	525.94
321.275	519.94
321.504	500.94
321.733	537.94
321.962	537.94
322.191	581.94
322.42	571.94
322.649	602.94
322.878	602.94
323.108	661.94
323.337	702.94
323.566	756.94
323.795	860.94
324.024	1111.94
324.253	1985.94
324.482	3428.94
324.71	5037.94
324.939	4503.94
325.168	1925.94
325.397	919.94
325.626	736.94
325.855	673.94
326.084	696.94
326.313	696.94
326.542	798.94
326.77	1099.94
326.999	1851.94
327.228	2946.94
327.457	3781.94
327.686	2464.94
327.914	1162.94
328.143	873.94
328.372	828.94
328.6	778.94
328.829	823.94
329.058	856.94
329.287	766.94
329.515	687.94
329.744	638.94
329.972	637.94
330.201	702.94
330.43	792.94
330.658	924.94
330.887	967.94
331.115	784.94
331.344	673.94
331.572	688.94
331.801	674.94
332.03	672.94
332.258	633.94
332.486	629.94
332.715	622.94
332.943	644.94
333.172	651.94
333.4	655.94
333.629	697.94
333.857	700.94
334.085	664.94
334.314	656.94
334.542	658.94
334.771	660.94
334.999	666.94
335.227	645.94
335.455	633.94
335.684	617.94
335.912	630.94
336.14	645.94
336.369	630.94
336.597	664.94
336.825	618.94
337.053	608.94
337.281	597.94
337.51	618.94
337.738	619.94
337.966	623.94
338.194	623.94
338.422	629.94
338.65	596.94
338.878	577.94
339.106	572.94
339.334	587.94
339.562	554.94
339.79	597.94
340.018	554.94
340.246	593.94
340.474	594.94
340.702	576.94
340.93	579.94
341.158	584.94
341.386	596.94
341.614	602.94
341.842	577.94
342.07	593.94
342.298	559.94
342.526	549.94
342.754	561.94
342.981	586.94
343.209	567.94
343.437	631.94
343.665	632.94
343.893	633.94
344.12	643.94
344.348	609.94
344.576	610.94
344.804	649.94
345.031	648.94
345.259	638.94
345.487	579.94
345.714	588.94
345.942	549.94
346.17	565.94
346.397	563.94
346.625	555.94
346.853	573.94
347.08	575.94
347.308	601.94
347.535	612.94
347.763	623.94
347.99	611.94
348.218	621.94
348.445	640.94
348.673	614.94
348.9	553.94
349.128	569.94
349.355	536.94
349.583	563.94
349.81	539.94
350.037	552.94
350.265	559.94
350.492	556.94
350.72	573.94
350.947	591.94
351.174	595.94
351.402	609.94
351.629	600.94
351.856	600.94
352.083	633.94
352.311	644.94
352.538	642.94
352.765	639.94
352.992	600.94
353.22	610.94
353.447	557.94
353.674	562.94
353.901	551.94
354.128	542.94
354.355	541.94
354.583	536.94
354.81	537.94
355.037	508.94
355.264	505.94
355.491	513.94
355.718	513.94
355.945	521.94
356.172	534.94
356.399	503.94
356.626	523.94
356.853	535.94
357.08	508.94
357.307	524.94
357.534	525.94
357.761	552.94
357.988	536.94
358.215	548.94
358.441	536.94
358.668	549.94
358.895	572.94
359.122	554.94
359.349	628.94
359.576	660.94
359.802	721.94
360.029	768.94
360.256	702.94
360.483	668.94
360.709	579.94
360.936	592.94
361.163	604.94
361.39	620.94
361.616	595.94
361.843	627.94
362.07	618.94
362.296	620.94
362.523	591.94
362.749	604.94
362.976	578.94
363.203	571.94
363.429	550.94
363.656	584.94
363.882	568.94
364.109	571.94
364.335	582.94
364.562	590.94
364.788	566.94
365.015	566.94
365.241	573.94
365.468	571.94
365.694	580.94
365.92	609.94
366.147	586.94
366.373	571.94
366.599	567.94
366.826	530.94
367.052	553.94
367.278	547.94
367.505	567.94
367.731	584.94
367.957	562.94
368.184	561.94
368.41	610.94
368.636	604.94
368.862	583.94
369.089	573.94
369.315	576.94
369.541	565.94
369.767	561.94
369.993	596.94
370.219	582.94
370.445	590.94
370.672	586.94
370.898	576.94
371.124	589.94
371.35	572.94
371.576	550.94
371.802	559.94
372.028	590.94
372.254	583.94
372.48	592.94
372.706	605.94
372.932	591.94
373.158	586.94
373.384	590.94
373.61	576.94
373.835	586.94
374.061	603.94
374.287	596.94
374.513	609.94
374.739	604.94
374.965	604.94
375.191	628.94
375.416	616.94
375.642	576.94
375.868	599.94
376.094	567.94
376.319	562.94
376.545	598.94
376.771	579.94
376.997	589.94
377.222	579.94
377.448	569.94
377.674	578.94
377.899	574.94
378.125	563.94
378.35	559.94
378.576	559.94
378.802	540.94
379.027	563.94
379.253	557.94
379.478	554.94
379.704	568.94
379.929	584.94
380.155	597.94
380.38	574.94
380.606	579.94
380.831	587.94
381.057	592.94
381.282	589.94
381.507	560.94
381.733	590.94
381.958	609.94
382.184	609.94
382.409	584.94
382.634	602.94
382.86	619.94
383.085	619.94
383.31	618.94
383.535	618.94
383.761	640.94
383.986	649.94
384.211	655.94
384.436	641.94
384.662	657.94
384.887	668.94
385.112	661.94
385.337	678.94
385.562	694.94
385.787	680.94
386.013	699.94
386.238	677.94
386.463	698.94
386.688	701.94
386.913	655.94
387.138	675.94
387.363	650.94
387.588	668.94
387.813	651.94
388.038	681.94
388.263	662.94
388.488	687.94
388.713	689.94
388.938	665.94
389.163	686.94
389.387	662.94
389.612	647.94
389.837	665.94
390.062	651.94
390.287	659.94
390.512	659.94
390.736	688.94
390.961	691.94
391.186	673.94
391.411	692.94
391.636	727.94
391.86	746.94
392.085	732.94
392.31	715.94
392.534	715.94
392.759	723.94
392.984	674.94
393.208	695.94
393.433	703.94
393.658	719.94
393.882	684.94
394.107	705.94
394.331	701.94
394.556	712.94
394.78	698.94
395.005	742.94
395.229	713.94
395.454	747.94
395.678	759.94
395.903	718.94
396.127	734.94
396.352	756.94
396.576	711.94
396.801	711.94
397.025	724.94
397.249	736.94
397.474	762.94
397.698	763.94
397.922	758.94
398.147	804.94
398.371	781.94
398.595	821.94
398.82	831.94
399.044	913.94
399.268	1011.94
399.492	1079.94
399.717	1147.94
399.941	1099.94
400.165	1021.94
400.389	945.94
400.613	853.94
400.837	856.94
401.062	853.94
401.286	819.94
401.51	843.94
401.734	842.94
401.958	846.94
402.182	935.94
402.406	965.94
402.63	921.94
402.854	872.94
403.078	917.94
403.302	904.94
403.526	911.94
403.75	915.94
403.974	897.94
404.198	902.94
404.422	924.94
404.645	925.94
404.869	920.94
405.093	947.94
405.317	950.94
405.541	955.94
405.765	941.94
405.988	991.94
406.212	1041.94
406.436	1082.94
406.66	1033.94
406.883	1025.94
407.107	1071.94
407.331	1144.94
407.555	1142.94
407.778	1072.94
408.002	1005.94
408.226	951.94
408.449	954.94
408.673	972.94
408.896	967.94
409.12	999.94
409.344	921.94
409.567	871.94
409.791	869.94
410.014	886.94
410.238	854.94
410.461	881.94
410.685	903.94
410.908	871.94
411.132	932.94
411.355	920.94
411.578	860.94
411.802	851.94
412.025	807.94
412.249	839.94
412.472	843.94
412.695	802.94
412.919	782.94
413.142	791.94
413.365	808.94
413.589	815.94
413.812	781.94
414.035	803.94
414.258	825.94
414.482	799.94
414.705	807.94
414.928	784.94
415.151	811.94
415.374	791.94
415.597	789.94
415.821	800.94
416.044	778.94
416.267	783.94
416.49	778.94
416.713	779.94
416.936	801.94
417.159	799.94
417.382	778.94
417.605	826.94
417.828	819.94
418.051	834.94
418.274	848.94
418.497	799.94
418.72	794.94
418.943	823.94
419.166	837.94
419.389	828.94
419.611	856.94
419.834	869.94
420.057	856.94
420.28	819.94
420.503	819.94
420.726	837.94
420.948	859.94
421.171	893.94
421.394	879.94
421.617	841.94
421.839	797.94
422.062	829.94
422.285	903.94
422.507	931.94
422.73	978.94
422.953	904.94
423.175	870.94
423.398	870.94
423.621	860.94
423.843	892.94
424.066	901.94
424.288	911.94
424.511	960.94
424.733	985.94
424.956	1079.94
425.178	988.94
425.401	994.94
425.623	968.94
425.846	844.94
426.068	843.94
426.291	846.94
426.513	844.94
426.735	881.94
426.958	986.94
427.18	1109.94
427.402	1286.94
427.625	1311.94
427.847	1025.94
428.069	872.94
428.292	825.94
428.514	762.94
428.736	755.94
428.958	752.94
429.181	749.94
429.403	744.94
429.625	812.94
429.847	884.94
430.069	874.94
430.292	799.94
430.514	765.94
430.736	740.94
430.958	732.94
431.18	721.94
431.402	724.94
431.624	716.94
431.846	723.94
432.068	732.94
432.29	710.94
432.512	735.94
432.734	752.94
432.956	741.94
433.178	796.94
433.4	772.94
433.622	745.94
433.844	749.94
434.066	754.94
434.287	766.94
434.509	770.94
434.731	806.94
434.953	817.94
435.175	851.94
435.397	865.94
435.618	854.94
435.84	1003.94
436.062	1017.94
436.284	1007.94
436.505	865.94
436.727	802.94
436.949	791.94
437.17	733.94
437.392	763.94
437.614	804.94
437.835	955.94
438.057	1065.94
438.278	1091.94
438.5	1092.94
438.721	1132.94
438.943	947.94
439.165	826.94
439.386	801.94
439.608	850.94
439.829	908.94
440.05	975.94
440.272	1013.94
440.493	884.94
440.715	805.94
440.936	810.94
441.158	804.94
441.379	838.94
441.6	887.94
441.822	910.94
442.043	994.94
442.264	1053.94
442.486	1003.94
442.707	898.94
442.928	921.94
443.149	975.94
443.371	1008.94
443.592	1072.94
443.813	1124.94
444.034	1085.94
444.255	933.94
444.476	920.94
444.698	910.94
444.919	927.94
445.14	985.94
445.361	999.94
445.582	1071.94
445.803	1216.94
446.024	1252.94
446.245	1138.94
446.466	973.94
446.687	834.94
446.908	785.94
447.129	776.94
447.35	766.94
447.571	758.94
447.792	765.94
448.013	793.94
448.234	816.94
448.455	924.94
448.675	1076.94
448.896	1079.94
449.117	918.94
449.338	997.94
449.559	1165.94
449.779	1071.94
450	841.94
450.221	747.94
450.442	723.94
450.662	795.94
450.883	794.94
451.104	811.94
451.324	756.94
451.545	719.94
451.766	661.94
451.986	648.94
452.207	663.94
452.428	687.94
452.648	699.94
452.869	724.94
453.089	721.94
453.31	731.94
453.53	697.94
453.751	711.94
453.971	736.94
454.192	751.94
454.412	698.94
454.633	657.94
454.853	637.94
455.073	678.94
455.294	743.94
455.514	814.94
455.734	705.94
455.955	631.94
456.175	635.94
456.395	638.94
456.616	617.94
456.836	618.94
457.056	613.94
457.276	614.94
457.497	630.94
457.717	633.94
457.937	658.94
458.157	660.94
458.377	690.94
458.598	795.94
458.818	990.94
459.038	1048.94
459.258	908.94
459.478	790.94
459.698	766.94
459.918	770.94
460.138	801.94
460.358	776.94
460.578	777.94
460.798	797.94
461.018	799.94
461.238	796.94
461.458	789.94
461.678	779.94
461.898	807.94
462.118	833.94
462.338	836.94
462.558	875.94
462.777	877.94
462.997	942.94
463.217	951.94
463.437	929.94
463.657	897.94
463.876	873.94
464.096	900.94
464.316	918.94
464.536	899.94
464.755	881.94
464.975	948.94
465.195	1167.94
465.414	1078.94
465.634	847.94
465.854	782.94
466.073	747.94
466.293	731.94
466.512	742.94
466.732	716.94
466.951	711.94
467.171	690.94
467.391	766.94
467.61	786.94
467.829	740.94
468.049	715.94
468.268	701.94
468.488	672.94
468.707	675.94
468.927	673.94
469.146	672.94
469.365	664.94
469.585	695.94
469.804	752.94
470.023	781.94
470.243	759.94
470.462	794.94
470.681	815.94
470.901	737.94
471.12	703.94
471.339	702.94
471.558	724.94
471.777	701.94
471.997	689.94
472.216	646.94
472.435	656.94
472.654	659.94
472.873	659.94
473.092	655.94
473.311	646.94
473.53	690.94
473.749	674.94
473.968	828.94
474.187	915.94
474.406	825.94
474.625	698.94
474.844	690.94
475.063	667.94
475.282	673.94
475.501	676.94
475.72	706.94
475.939	680.94
476.158	677.94
476.377	725.94
476.596	720.94
476.814	730.94
477.033	758.94
477.252	723.94
477.471	720.94
477.69	733.94
477.908	781.94
478.127	756.94
478.346	763.94
478.564	783.94
478.783	783.94
479.002	831.94
479.22	827.94
479.439	872.94
479.658	855.94
479.876	890.94
480.095	878.94
480.313	930.94
480.532	887.94
480.751	863.94
480.969	863.94
481.188	812.94
481.406	840.94
481.624	795.94
481.843	779.94
482.061	762.94
482.28	779.94
482.498	769.94
482.717	765.94
482.935	786.94
483.153	757.94
483.372	771.94
483.59	780.94
483.808	762.94
484.027	784.94
484.245	779.94
484.463	785.94
484.681	806.94
484.9	821.94
485.118	805.94
485.336	805.94
485.554	816.94
485.772	776.94
485.99	815.94
486.209	812.94
486.427	841.94
486.645	905.94
486.863	869.94
487.081	880.94
487.299	833.94
487.517	821.94
487.735	838.94
487.953	863.94
488.171	852.94
488.389	852.94
488.607	849.94
488.825	832.94
489.043	823.94
489.261	803.94
489.479	815.94
489.696	852.94
489.914	852.94
490.132	847.94
490.35	868.94
490.568	912.94
490.786	905.94
491.003	916.94
491.221	945.94
491.439	963.94
491.657	970.94
491.874	969.94
492.092	997.94
492.31	1019.94
492.527	956.94
492.745	962.94
492.963	986.94
493.18	984.94
493.398	1003.94
493.615	983.94
493.833	1005.94
494.05	986.94
494.268	983.94
494.485	969.94
494.703	968.94
494.92	987.94
495.138	964.94
495.355	978.94
495.573	967.94
495.79	983.94
496.008	989.94
496.225	968.94
496.442	991.94
496.66	979.94
496.877	966.94
497.094	992.94
497.312	998.94
497.529	1032.94
497.746	1059.94
497.963	1039.94
498.181	1093.94
498.398	1142.94
498.615	1186.94
498.832	1235.94
499.049	1283.94
499.267	1314.94
499.484	1447.94
499.701	1578.94
499.918	1640.94
500.135	1813.94
500.352	1916.94
500.569	1920.94
500.786	1892.94
501.003	1807.94
501.22	1681.94
501.437	1568.94
501.654	1436.94
