Data from TestCu_HRD10591_00004.txt Node
Date: Thu Oct 05 14:04:31 EDT 2023
User: Yrep
Spectrometer: HR+D1059
Trigger mode: 1
Integration Time (sec): 1.000000E-1
Scans to average: 1
Electric dark correction enabled: true
Nonlinearity correction enabled: false
Boxcar width: 0
XAxis mode: Wavelengths
Number of Pixels in Spectrum: 2048
>>>>>Begin Spectral Data<<<<<
223.165	-14.81
223.4	-14.81
223.635	-14.81
223.869	-11.81
224.104	-16.81
224.338	-17.81
224.573	-15.81
224.808	-13.81
225.042	-9.81
225.277	-9.81
225.511	-5.81
225.746	-0.81
225.98	5.19
226.215	9.19
226.449	13.19
226.683	20.19
226.918	30.19
227.152	39.19
227.387	39.19
227.621	31.19
227.856	55.19
228.09	39.19
228.324	53.19
228.559	46.19
228.793	82.19
229.027	98.19
229.262	133.19
229.496	139.19
229.73	144.19
229.964	155.19
230.199	131.19
230.433	111.19
230.667	105.19
230.901	103.19
231.136	113.19
231.37	95.19
231.604	110.19
231.838	115.19
232.072	104.19
232.306	117.19
232.541	101.19
232.775	110.19
233.009	101.19
233.243	111.19
233.477	102.19
233.711	120.19
233.945	114.19
234.179	107.19
234.413	108.19
234.647	114.19
234.881	119.19
235.115	118.19
235.349	116.19
235.583	116.19
235.817	137.19
236.051	126.19
236.285	121.19
236.519	138.19
236.753	149.19
236.987	183.19
237.221	244.19
237.455	219.19
237.689	150.19
237.922	136.19
238.156	130.19
238.39	125.19
238.624	130.19
238.858	117.19
239.091	126.19
239.325	124.19
239.559	134.19
239.793	137.19
240.027	140.19
240.26	166.19
240.494	161.19
240.728	155.19
240.961	136.19
241.195	149.19
241.429	129.19
241.662	129.19
241.896	134.19
242.13	134.19
242.363	126.19
242.597	136.19
242.83	133.19
243.064	132.19
243.298	135.19
243.531	151.19
243.765	122.19
243.998	134.19
244.232	132.19
244.465	147.19
244.699	149.19
244.932	134.19
245.166	145.19
245.399	159.19
245.633	152.19
245.866	122.19
246.099	151.19
246.333	151.19
246.566	134.19
246.8	140.19
247.033	137.19
247.266	144.19
247.5	155.19
247.733	157.19
247.966	155.19
248.2	160.19
248.433	165.19
248.666	171.19
248.899	175.19
249.133	207.19
249.366	214.19
249.599	197.19
249.832	175.19
250.066	174.19
250.299	176.19
250.532	198.19
250.765	204.19
250.998	217.19
251.231	197.19
251.465	209.19
251.698	180.19
251.931	178.19
252.164	174.19
252.397	189.19
252.63	183.19
252.863	173.19
253.096	218.19
253.329	210.19
253.562	204.19
253.795	188.19
254.028	190.19
254.261	218.19
254.494	240.19
254.727	252.19
254.96	254.19
255.193	215.19
255.426	201.19
255.659	203.19
255.892	173.19
256.124	193.19
256.357	183.19
256.59	196.19
256.823	193.19
257.056	189.19
257.289	194.19
257.521	198.19
257.754	197.19
257.987	197.19
258.22	190.19
258.452	186.19
258.685	190.19
258.918	184.19
259.151	204.19
259.383	215.19
259.616	210.19
259.849	204.19
260.081	242.19
260.314	245.19
260.547	226.19
260.779	213.19
261.012	202.19
261.244	214.19
261.477	219.19
261.71	227.19
261.942	250.19
262.175	252.19
262.407	215.19
262.64	205.19
262.872	199.19
263.105	205.19
263.337	214.19
263.57	196.19
263.802	214.19
264.035	210.19
264.267	202.19
264.499	212.19
264.732	217.19
264.964	203.19
265.197	212.19
265.429	198.19
265.661	216.19
265.894	226.19
266.126	205.19
266.358	211.19
266.591	226.19
266.823	233.19
267.055	234.19
267.287	239.19
267.52	224.19
267.752	229.19
267.984	232.19
268.216	238.19
268.448	242.19
268.681	244.19
268.913	244.19
269.145	277.19
269.377	281.19
269.609	248.19
269.841	258.19
270.073	290.19
270.306	326.19
270.538	316.19
270.77	290.19
271.002	283.19
271.234	286.19
271.466	313.19
271.698	319.19
271.93	318.19
272.162	309.19
272.394	299.19
272.626	273.19
272.858	265.19
273.09	244.19
273.322	271.19
273.553	254.19
273.785	256.19
274.017	246.19
274.249	254.19
274.481	253.19
274.713	274.19
274.945	273.19
275.176	274.19
275.408	265.19
275.64	273.19
275.872	270.19
276.104	277.19
276.335	293.19
276.567	296.19
276.799	323.19
277.031	355.19
277.262	332.19
277.494	307.19
277.726	287.19
277.957	299.19
278.189	275.19
278.421	269.19
278.652	257.19
278.884	279.19
279.115	262.19
279.347	266.19
279.579	261.19
279.81	284.19
280.042	272.19
280.273	291.19
280.505	271.19
280.736	275.19
280.968	295.19
281.199	289.19
281.431	294.19
281.662	294.19
281.894	312.19
282.125	297.19
282.356	342.19
282.588	372.19
282.819	314.19
283.051	293.19
283.282	306.19
283.513	304.19
283.745	309.19
283.976	303.19
284.207	302.19
284.439	284.19
284.67	284.19
284.901	305.19
285.132	279.19
285.364	301.19
285.595	307.19
285.826	278.19
286.057	313.19
286.288	289.19
286.52	319.19
286.751	308.19
286.982	320.19
287.213	311.19
287.444	327.19
287.675	364.19
287.906	349.19
288.138	331.19
288.369	333.19
288.6	359.19
288.831	329.19
289.062	330.19
289.293	324.19
289.524	337.19
289.755	322.19
289.986	318.19
290.217	319.19
290.448	320.19
290.679	306.19
290.91	338.19
291.141	317.19
291.371	320.19
291.602	318.19
291.833	325.19
292.064	327.19
292.295	325.19
292.526	338.19
292.757	331.19
292.987	318.19
293.218	333.19
293.449	336.19
293.68	330.19
293.91	347.19
294.141	340.19
294.372	338.19
294.603	339.19
294.833	326.19
295.064	335.19
295.295	339.19
295.525	337.19
295.756	378.19
295.987	395.19
296.217	417.19
296.448	375.19
296.679	356.19
296.909	367.19
297.14	360.19
297.37	340.19
297.601	352.19
297.831	381.19
298.062	381.19
298.292	358.19
298.523	377.19
298.753	373.19
298.984	361.19
299.214	371.19
299.445	375.19
299.675	382.19
299.905	383.19
300.136	364.19
300.366	379.19
300.597	387.19
300.827	416.19
301.057	405.19
301.288	419.19
301.518	405.19
301.748	401.19
301.979	422.19
302.209	404.19
302.439	427.19
302.669	400.19
302.9	386.19
303.13	394.19
303.36	384.19
303.59	440.19
303.82	434.19
304.051	403.19
304.281	414.19
304.511	387.19
304.741	387.19
304.971	390.19
305.201	390.19
305.431	387.19
305.661	395.19
305.891	374.19
306.121	383.19
306.352	390.19
306.582	423.19
306.812	406.19
307.042	411.19
307.272	391.19
307.502	396.19
307.731	385.19
307.961	394.19
308.191	399.19
308.421	398.19
308.651	397.19
308.881	425.19
309.111	427.19
309.341	437.19
309.571	451.19
309.8	465.19
310.03	466.19
310.26	473.19
310.49	464.19
310.72	501.19
310.949	514.19
311.179	483.19
311.409	463.19
311.639	463.19
311.868	470.19
312.098	475.19
312.328	490.19
312.557	536.19
312.787	554.19
313.017	513.19
313.246	474.19
313.476	467.19
313.706	484.19
313.935	503.19
314.165	524.19
314.394	508.19
314.624	522.19
314.853	478.19
315.083	491.19
315.312	451.19
315.542	450.19
315.771	462.19
316.001	446.19
316.23	451.19
316.46	449.19
316.689	463.19
316.919	497.19
317.148	495.19
317.377	479.19
317.607	484.19
317.836	484.19
318.065	462.19
318.295	468.19
318.524	445.19
318.753	463.19
318.983	476.19
319.212	491.19
319.441	491.19
319.67	477.19
319.9	455.19
320.129	461.19
320.358	468.19
320.587	500.19
320.816	498.19
321.046	477.19
321.275	501.19
321.504	496.19
321.733	522.19
321.962	530.19
322.191	544.19
322.42	590.19
322.649	589.19
322.878	643.19
323.108	634.19
323.337	677.19
323.566	772.19
323.795	851.19
324.024	1147.19
324.253	1920.19
324.482	3296.19
324.71	4866.19
324.939	4338.19
325.168	1940.19
325.397	946.19
325.626	713.19
325.855	656.19
326.084	694.19
326.313	701.19
326.542	793.19
326.77	1077.19
326.999	1769.19
327.228	2891.19
327.457	3628.19
327.686	2352.19
327.914	1129.19
328.143	875.19
328.372	828.19
328.6	793.19
328.829	808.19
329.058	877.19
329.287	805.19
329.515	691.19
329.744	619.19
329.972	648.19
330.201	653.19
330.43	775.19
330.658	908.19
330.887	947.19
331.115	783.19
331.344	692.19
331.572	673.19
331.801	691.19
332.03	646.19
332.258	637.19
332.486	612.19
332.715	626.19
332.943	630.19
333.172	676.19
333.4	659.19
333.629	691.19
333.857	660.19
334.085	664.19
334.314	637.19
334.542	637.19
334.771	629.19
334.999	644.19
335.227	646.19
335.455	631.19
335.684	630.19
335.912	626.19
336.14	659.19
336.369	637.19
336.597	625.19
336.825	617.19
337.053	622.19
337.281	617.19
337.51	592.19
337.738	607.19
337.966	612.19
338.194	623.19
338.422	607.19
338.65	572.19
338.878	573.19
339.106	563.19
339.334	579.19
339.562	565.19
339.79	567.19
340.018	611.19
340.246	594.19
340.474	571.19
340.702	565.19
340.93	559.19
341.158	562.19
341.386	589.19
341.614	584.19
341.842	579.19
342.07	579.19
342.298	561.19
342.526	574.19
342.754	566.19
342.981	563.19
343.209	585.19
343.437	582.19
343.665	619.19
343.893	630.19
344.12	606.19
344.348	626.19
344.576	627.19
344.804	642.19
345.031	644.19
345.259	622.19
345.487	589.19
345.714	583.19
345.942	573.19
346.17	574.19
346.397	577.19
346.625	579.19
346.853	551.19
347.08	544.19
347.308	595.19
347.535	607.19
347.763	610.19
347.99	589.19
348.218	603.19
348.445	628.19
348.673	572.19
348.9	555.19
349.128	553.19
349.355	538.19
349.583	535.19
349.81	546.19
350.037	542.19
350.265	541.19
350.492	533.19
350.72	561.19
350.947	567.19
351.174	591.19
351.402	579.19
351.629	590.19
351.856	633.19
352.083	625.19
352.311	654.19
352.538	641.19
352.765	587.19
352.992	589.19
353.22	609.19
353.447	575.19
353.674	535.19
353.901	535.19
354.128	510.19
354.355	521.19
354.583	534.19
354.81	538.19
355.037	549.19
355.264	523.19
355.491	511.19
355.718	521.19
355.945	526.19
356.172	518.19
356.399	513.19
356.626	480.19
356.853	517.19
357.08	521.19
357.307	509.19
357.534	505.19
357.761	510.19
357.988	549.19
358.215	524.19
358.441	532.19
358.668	549.19
358.895	545.19
359.122	562.19
359.349	568.19
359.576	646.19
359.802	717.19
360.029	748.19
360.256	703.19
360.483	641.19
360.709	557.19
360.936	606.19
361.163	595.19
361.39	621.19
361.616	577.19
361.843	589.19
362.07	589.19
362.296	619.19
362.523	595.19
362.749	607.19
362.976	577.19
363.203	576.19
363.429	572.19
363.656	571.19
363.882	546.19
364.109	546.19
364.335	566.19
364.562	566.19
364.788	575.19
365.015	574.19
365.241	584.19
365.468	597.19
365.694	604.19
365.92	571.19
366.147	541.19
366.373	568.19
366.599	546.19
366.826	552.19
367.052	569.19
367.278	561.19
367.505	572.19
367.731	575.19
367.957	566.19
368.184	570.19
368.41	595.19
368.636	605.19
368.862	579.19
369.089	565.19
369.315	563.19
369.541	557.19
369.767	543.19
369.993	592.19
370.219	573.19
370.445	561.19
370.672	553.19
370.898	584.19
371.124	576.19
371.35	589.19
371.576	555.19
371.802	572.19
372.028	573.19
372.254	585.19
372.48	597.19
372.706	596.19
372.932	571.19
373.158	559.19
373.384	563.19
373.61	564.19
373.835	576.19
374.061	602.19
374.287	623.19
374.513	594.19
374.739	613.19
374.965	622.19
375.191	592.19
375.416	603.19
375.642	592.19
375.868	591.19
376.094	571.19
376.319	581.19
376.545	603.19
376.771	597.19
376.997	561.19
377.222	585.19
377.448	579.19
377.674	553.19
377.899	579.19
378.125	557.19
378.35	584.19
378.576	551.19
378.802	534.19
379.027	569.19
379.253	555.19
379.478	572.19
379.704	601.19
379.929	589.19
380.155	605.19
380.38	575.19
380.606	602.19
380.831	584.19
381.057	570.19
381.282	584.19
381.507	570.19
381.733	587.19
381.958	594.19
382.184	582.19
382.409	599.19
382.634	608.19
382.86	603.19
383.085	594.19
383.31	605.19
383.535	618.19
383.761	644.19
383.986	635.19
384.211	629.19
384.436	653.19
384.662	652.19
384.887	669.19
385.112	657.19
385.337	666.19
385.562	647.19
385.787	687.19
386.013	713.19
386.238	707.19
386.463	674.19
386.688	687.19
386.913	666.19
387.138	650.19
387.363	656.19
387.588	669.19
387.813	679.19
388.038	668.19
388.263	681.19
388.488	670.19
388.713	658.19
388.938	665.19
389.163	667.19
389.387	647.19
389.612	674.19
389.837	676.19
390.062	662.19
390.287	654.19
390.512	676.19
390.736	677.19
390.961	681.19
391.186	658.19
391.411	675.19
391.636	716.19
391.86	705.19
392.085	723.19
392.31	715.19
392.534	722.19
392.759	698.19
392.984	685.19
393.208	694.19
393.433	660.19
393.658	674.19
393.882	695.19
394.107	691.19
394.331	703.19
394.556	713.19
394.78	738.19
395.005	713.19
395.229	707.19
395.454	747.19
395.678	722.19
395.903	756.19
396.127	740.19
396.352	733.19
396.576	684.19
396.801	675.19
397.025	715.19
397.249	737.19
397.474	745.19
397.698	737.19
397.922	790.19
398.147	802.19
398.371	797.19
398.595	823.19
398.82	855.19
399.044	892.19
399.268	996.19
399.492	1083.19
399.717	1134.19
399.941	1085.19
400.165	1038.19
400.389	995.19
400.613	894.19
400.837	875.19
401.062	843.19
401.286	837.19
401.51	846.19
401.734	859.19
401.958	850.19
402.182	906.19
402.406	930.19
402.63	922.19
402.854	899.19
403.078	895.19
403.302	886.19
403.526	891.19
403.75	885.19
403.974	938.19
404.198	902.19
404.422	910.19
404.645	900.19
404.869	953.19
405.093	952.19
405.317	946.19
405.541	926.19
405.765	913.19
405.988	953.19
406.212	1075.19
406.436	1080.19
406.66	1024.19
406.883	1012.19
407.107	1089.19
407.331	1067.19
407.555	1138.19
407.778	1076.19
408.002	965.19
408.226	956.19
408.449	943.19
408.673	959.19
408.896	982.19
409.12	965.19
409.344	907.19
409.567	874.19
409.791	850.19
410.014	867.19
410.238	860.19
410.461	851.19
410.685	916.19
410.908	897.19
411.132	934.19
411.355	926.19
411.578	839.19
411.802	837.19
412.025	840.19
412.249	816.19
412.472	844.19
412.695	836.19
412.919	790.19
413.142	827.19
413.365	829.19
413.589	805.19
413.812	784.19
414.035	785.19
414.258	788.19
414.482	813.19
414.705	786.19
414.928	780.19
415.151	784.19
415.374	799.19
415.597	809.19
415.821	783.19
416.044	803.19
416.267	798.19
416.49	786.19
416.713	789.19
416.936	764.19
417.159	795.19
417.382	788.19
417.605	799.19
417.828	819.19
418.051	836.19
418.274	793.19
418.497	803.19
418.72	835.19
418.943	781.19
419.166	833.19
419.389	879.19
419.611	847.19
419.834	828.19
420.057	836.19
420.28	810.19
420.503	811.19
420.726	827.19
420.948	844.19
421.171	877.19
421.394	858.19
421.617	809.19
421.839	805.19
422.062	867.19
422.285	877.19
422.507	969.19
422.73	963.19
422.953	894.19
423.175	839.19
423.398	859.19
423.621	884.19
423.843	889.19
424.066	888.19
424.288	862.19
424.511	949.19
424.733	991.19
424.956	1022.19
425.178	978.19
425.401	977.19
425.623	966.19
425.846	882.19
426.068	843.19
426.291	833.19
426.513	823.19
426.735	868.19
426.958	956.19
427.18	1098.19
427.402	1276.19
427.625	1238.19
427.847	1014.19
428.069	827.19
428.292	797.19
428.514	786.19
428.736	765.19
428.958	738.19
429.181	705.19
429.403	751.19
429.625	774.19
429.847	823.19
430.069	851.19
430.292	817.19
430.514	764.19
430.736	746.19
430.958	732.19
431.18	728.19
431.402	692.19
431.624	717.19
431.846	701.19
432.068	744.19
432.29	737.19
432.512	737.19
432.734	752.19
432.956	763.19
433.178	769.19
433.4	756.19
433.622	742.19
433.844	735.19
434.066	766.19
434.287	739.19
434.509	781.19
434.731	779.19
434.953	811.19
435.175	803.19
435.397	832.19
435.618	848.19
435.84	952.19
436.062	1019.19
436.284	987.19
436.505	847.19
436.727	817.19
436.949	798.19
437.17	755.19
437.392	779.19
437.614	833.19
437.835	944.19
438.057	1051.19
438.278	1065.19
438.5	1072.19
438.721	1125.19
438.943	931.19
439.165	802.19
439.386	819.19
439.608	827.19
439.829	895.19
440.05	955.19
440.272	994.19
440.493	840.19
440.715	771.19
440.936	775.19
441.158	804.19
441.379	833.19
441.6	850.19
441.822	894.19
442.043	961.19
442.264	1058.19
442.486	950.19
442.707	887.19
442.928	892.19
443.149	945.19
443.371	1022.19
443.592	1048.19
443.813	1105.19
444.034	1041.19
444.255	921.19
444.476	884.19
444.698	894.19
444.919	923.19
445.14	979.19
445.361	973.19
445.582	1061.19
445.803	1177.19
446.024	1228.19
446.245	1100.19
446.466	977.19
446.687	845.19
446.908	774.19
447.129	755.19
447.35	762.19
447.571	747.19
447.792	754.19
448.013	773.19
448.234	829.19
448.455	952.19
448.675	1065.19
448.896	1021.19
449.117	911.19
449.338	1002.19
449.559	1137.19
449.779	1052.19
450	817.19
450.221	766.19
450.442	758.19
450.662	759.19
450.883	813.19
451.104	836.19
451.324	784.19
451.545	705.19
451.766	690.19
451.986	650.19
452.207	686.19
452.428	683.19
452.648	707.19
452.869	696.19
453.089	711.19
453.31	733.19
453.53	687.19
453.751	709.19
453.971	721.19
454.192	751.19
454.412	681.19
454.633	655.19
454.853	663.19
455.073	660.19
455.294	738.19
455.514	773.19
455.734	681.19
455.955	619.19
456.175	615.19
456.395	624.19
456.616	596.19
456.836	610.19
457.056	607.19
457.276	598.19
457.497	623.19
457.717	617.19
457.937	629.19
458.157	672.19
458.377	701.19
458.598	787.19
458.818	993.19
459.038	1001.19
459.258	878.19
459.478	786.19
459.698	770.19
459.918	757.19
460.138	767.19
460.358	769.19
460.578	793.19
460.798	805.19
461.018	794.19
461.238	790.19
461.458	798.19
461.678	787.19
461.898	811.19
462.118	809.19
462.338	837.19
462.558	845.19
462.777	877.19
462.997	924.19
463.217	912.19
463.437	909.19
463.657	881.19
463.876	892.19
464.096	909.19
464.316	914.19
464.536	913.19
464.755	931.19
464.975	965.19
465.195	1147.19
465.414	1092.19
465.634	843.19
465.854	759.19
466.073	731.19
466.293	708.19
466.512	683.19
466.732	701.19
466.951	696.19
467.171	710.19
467.391	720.19
467.61	759.19
467.829	745.19
468.049	694.19
468.268	668.19
468.488	689.19
468.707	650.19
468.927	662.19
469.146	645.19
469.365	685.19
469.585	706.19
469.804	720.19
470.023	756.19
470.243	737.19
470.462	796.19
470.681	799.19
470.901	736.19
471.12	718.19
471.339	705.19
471.558	693.19
471.777	713.19
471.997	673.19
472.216	656.19
472.435	656.19
472.654	633.19
472.873	650.19
473.092	634.19
473.311	659.19
473.53	687.19
473.749	687.19
473.968	810.19
474.187	893.19
474.406	786.19
474.625	681.19
474.844	658.19
475.063	672.19
475.282	665.19
475.501	656.19
475.72	681.19
475.939	709.19
476.158	685.19
476.377	708.19
476.596	698.19
476.814	759.19
477.033	730.19
477.252	731.19
477.471	741.19
477.69	745.19
477.908	752.19
478.127	763.19
478.346	775.19
478.564	767.19
478.783	787.19
479.002	819.19
479.22	812.19
479.439	872.19
479.658	903.19
479.876	891.19
480.095	901.19
480.313	898.19
480.532	875.19
480.751	869.19
480.969	861.19
481.188	824.19
481.406	788.19
481.624	773.19
481.843	761.19
482.061	784.19
482.28	749.19
482.498	757.19
482.717	731.19
482.935	757.19
483.153	770.19
483.372	751.19
483.59	759.19
483.808	762.19
484.027	767.19
484.245	766.19
484.463	762.19
484.681	795.19
484.9	797.19
485.118	804.19
485.336	794.19
485.554	786.19
485.772	788.19
485.99	811.19
486.209	819.19
486.427	837.19
486.645	860.19
486.863	880.19
487.081	872.19
487.299	826.19
487.517	811.19
487.735	837.19
487.953	827.19
488.171	796.19
488.389	812.19
488.607	817.19
488.825	813.19
489.043	805.19
489.261	828.19
489.479	825.19
489.696	830.19
489.914	817.19
490.132	840.19
490.35	822.19
490.568	881.19
490.786	899.19
491.003	926.19
491.221	911.19
491.439	959.19
491.657	974.19
491.874	939.19
492.092	981.19
492.31	971.19
492.527	949.19
492.745	943.19
492.963	967.19
493.18	991.19
493.398	989.19
493.615	967.19
493.833	980.19
494.05	986.19
494.268	965.19
494.485	962.19
494.703	960.19
494.92	980.19
495.138	950.19
495.355	965.19
495.573	993.19
495.79	969.19
496.008	985.19
496.225	949.19
496.442	972.19
496.66	983.19
496.877	982.19
497.094	996.19
497.312	975.19
497.529	1025.19
497.746	1037.19
497.963	1054.19
498.181	1093.19
498.398	1145.19
498.615	1206.19
498.832	1229.19
499.049	1283.19
499.267	1343.19
499.484	1407.19
499.701	1550.19
499.918	1651.19
500.135	1826.19
500.352	1933.19
500.569	1932.19
500.786	1872.19
501.003	1785.19
501.22	1670.19
501.437	1552.19
501.654	1444.19
