Data from TestCu_HRD10591_00072.txt Node
Date: Thu Oct 05 14:05:52 EDT 2023
User: Yrep
Spectrometer: HR+D1059
Trigger mode: 1
Integration Time (sec): 1.000000E-1
Scans to average: 1
Electric dark correction enabled: true
Nonlinearity correction enabled: false
Boxcar width: 0
XAxis mode: Wavelengths
Number of Pixels in Spectrum: 2048
>>>>>Begin Spectral Data<<<<<
223.165	-24.25
223.4	-24.25
223.635	-24.25
223.869	-11.25
224.104	-22.25
224.338	-24.25
224.573	-10.25
224.808	-9.25
225.042	-18.25
225.277	-2.25
225.511	-9.25
225.746	2.75
225.98	22.75
226.215	5.75
226.449	17.75
226.683	22.75
226.918	12.75
227.152	46.75
227.387	41.75
227.621	46.75
227.856	36.75
228.09	56.75
228.324	54.75
228.559	57.75
228.793	80.75
229.027	105.75
229.262	126.75
229.496	153.75
229.73	162.75
229.964	151.75
230.199	127.75
230.433	108.75
230.667	126.75
230.901	96.75
231.136	119.75
231.37	112.75
231.604	112.75
231.838	121.75
232.072	109.75
232.306	120.75
232.541	110.75
232.775	125.75
233.009	99.75
233.243	110.75
233.477	112.75
233.711	124.75
233.945	119.75
234.179	120.75
234.413	125.75
234.647	112.75
234.881	121.75
235.115	115.75
235.349	113.75
235.583	129.75
235.817	109.75
236.051	121.75
236.285	135.75
236.519	136.75
236.753	141.75
236.987	173.75
237.221	213.75
237.455	220.75
237.689	173.75
237.922	145.75
238.156	119.75
238.39	137.75
238.624	114.75
238.858	113.75
239.091	127.75
239.325	134.75
239.559	125.75
239.793	158.75
240.027	148.75
240.26	164.75
240.494	167.75
240.728	150.75
240.961	149.75
241.195	132.75
241.429	134.75
241.662	130.75
241.896	116.75
242.13	130.75
242.363	126.75
242.597	145.75
242.83	150.75
243.064	134.75
243.298	131.75
243.531	137.75
243.765	131.75
243.998	138.75
244.232	133.75
244.465	133.75
244.699	130.75
244.932	150.75
245.166	139.75
245.399	130.75
245.633	150.75
245.866	144.75
246.099	136.75
246.333	141.75
246.566	126.75
246.8	150.75
247.033	157.75
247.266	154.75
247.5	168.75
247.733	167.75
247.966	179.75
248.2	155.75
248.433	163.75
248.666	167.75
248.899	205.75
249.133	211.75
249.366	195.75
249.599	188.75
249.832	166.75
250.066	166.75
250.299	176.75
250.532	180.75
250.765	196.75
250.998	217.75
251.231	208.75
251.465	188.75
251.698	184.75
251.931	178.75
252.164	166.75
252.397	177.75
252.63	171.75
252.863	190.75
253.096	209.75
253.329	208.75
253.562	205.75
253.795	179.75
254.028	194.75
254.261	209.75
254.494	249.75
254.727	277.75
254.96	257.75
255.193	216.75
255.426	213.75
255.659	187.75
255.892	202.75
256.124	189.75
256.357	196.75
256.59	197.75
256.823	195.75
257.056	185.75
257.289	193.75
257.521	193.75
257.754	184.75
257.987	205.75
258.22	197.75
258.452	191.75
258.685	212.75
258.918	191.75
259.151	208.75
259.383	215.75
259.616	225.75
259.849	216.75
260.081	267.75
260.314	242.75
260.547	218.75
260.779	222.75
261.012	208.75
261.244	198.75
261.477	208.75
261.71	232.75
261.942	226.75
262.175	237.75
262.407	230.75
262.64	210.75
262.872	201.75
263.105	215.75
263.337	222.75
263.57	214.75
263.802	203.75
264.035	197.75
264.267	208.75
264.499	222.75
264.732	217.75
264.964	217.75
265.197	220.75
265.429	212.75
265.661	196.75
265.894	222.75
266.126	206.75
266.358	222.75
266.591	222.75
266.823	234.75
267.055	226.75
267.287	225.75
267.52	233.75
267.752	230.75
267.984	245.75
268.216	246.75
268.448	250.75
268.681	251.75
268.913	274.75
269.145	282.75
269.377	287.75
269.609	262.75
269.841	275.75
270.073	310.75
270.306	304.75
270.538	320.75
270.77	299.75
271.002	281.75
271.234	277.75
271.466	306.75
271.698	312.75
271.93	304.75
272.162	310.75
272.394	314.75
272.626	292.75
272.858	272.75
273.09	268.75
273.322	255.75
273.553	259.75
273.785	248.75
274.017	260.75
274.249	268.75
274.481	270.75
274.713	269.75
274.945	270.75
275.176	269.75
275.408	291.75
275.64	276.75
275.872	280.75
276.104	271.75
276.335	311.75
276.567	304.75
276.799	336.75
277.031	361.75
277.262	341.75
277.494	333.75
277.726	291.75
277.957	278.75
278.189	275.75
278.421	269.75
278.652	274.75
278.884	276.75
279.115	283.75
279.347	286.75
279.579	265.75
279.81	257.75
280.042	276.75
280.273	278.75
280.505	293.75
280.736	266.75
280.968	266.75
281.199	277.75
281.431	291.75
281.662	288.75
281.894	284.75
282.125	313.75
282.356	362.75
282.588	346.75
282.819	315.75
283.051	294.75
283.282	293.75
283.513	319.75
283.745	292.75
283.976	319.75
284.207	309.75
284.439	292.75
284.67	290.75
284.901	295.75
285.132	292.75
285.364	300.75
285.595	308.75
285.826	313.75
286.057	308.75
286.288	319.75
286.52	312.75
286.751	293.75
286.982	298.75
287.213	320.75
287.444	324.75
287.675	330.75
287.906	331.75
288.138	344.75
288.369	332.75
288.6	321.75
288.831	328.75
289.062	335.75
289.293	315.75
289.524	318.75
289.755	310.75
289.986	312.75
290.217	322.75
290.448	320.75
290.679	332.75
290.91	310.75
291.141	320.75
291.371	333.75
291.602	327.75
291.833	336.75
292.064	332.75
292.295	321.75
292.526	326.75
292.757	323.75
292.987	322.75
293.218	331.75
293.449	334.75
293.68	331.75
293.91	322.75
294.141	333.75
294.372	321.75
294.603	338.75
294.833	314.75
295.064	316.75
295.295	356.75
295.525	337.75
295.756	387.75
295.987	397.75
296.217	398.75
296.448	385.75
296.679	349.75
296.909	355.75
297.14	345.75
297.37	358.75
297.601	346.75
297.831	369.75
298.062	371.75
298.292	377.75
298.523	353.75
298.753	353.75
298.984	366.75
299.214	362.75
299.445	377.75
299.675	382.75
299.905	380.75
300.136	359.75
300.366	373.75
300.597	382.75
300.827	375.75
301.057	398.75
301.288	388.75
301.518	379.75
301.748	392.75
301.979	414.75
302.209	416.75
302.439	404.75
302.669	389.75
302.9	387.75
303.13	413.75
303.36	412.75
303.59	417.75
303.82	422.75
304.051	406.75
304.281	404.75
304.511	388.75
304.741	382.75
304.971	384.75
305.201	370.75
305.431	393.75
305.661	380.75
305.891	403.75
306.121	404.75
306.352	428.75
306.582	405.75
306.812	382.75
307.042	380.75
307.272	377.75
307.502	387.75
307.731	416.75
307.961	419.75
308.191	413.75
308.421	419.75
308.651	414.75
308.881	410.75
309.111	412.75
309.341	416.75
309.571	431.75
309.8	471.75
310.03	448.75
310.26	453.75
310.49	456.75
310.72	492.75
310.949	507.75
311.179	497.75
311.409	473.75
311.639	472.75
311.868	481.75
312.098	499.75
312.328	508.75
312.557	534.75
312.787	528.75
313.017	495.75
313.246	468.75
313.476	458.75
313.706	498.75
313.935	500.75
314.165	522.75
314.394	528.75
314.624	494.75
314.853	479.75
315.083	478.75
315.312	456.75
315.542	468.75
315.771	441.75
316.001	451.75
316.23	446.75
316.46	468.75
316.689	475.75
316.919	493.75
317.148	487.75
317.377	480.75
317.607	483.75
317.836	451.75
318.065	488.75
318.295	461.75
318.524	467.75
318.753	449.75
318.983	460.75
319.212	506.75
319.441	494.75
319.67	477.75
319.9	459.75
320.129	469.75
320.358	480.75
320.587	500.75
320.816	495.75
321.046	506.75
321.275	505.75
321.504	501.75
321.733	524.75
321.962	497.75
322.191	543.75
322.42	565.75
322.649	617.75
322.878	621.75
323.108	646.75
323.337	693.75
323.566	761.75
323.795	848.75
324.024	1124.75
324.253	1934.75
324.482	3306.75
324.71	4907.75
324.939	4192.75
325.168	1855.75
325.397	923.75
325.626	724.75
325.855	672.75
326.084	661.75
326.313	686.75
326.542	812.75
326.77	1081.75
326.999	1827.75
327.228	2846.75
327.457	3588.75
327.686	2338.75
327.914	1108.75
328.143	880.75
328.372	800.75
328.6	800.75
328.829	825.75
329.058	854.75
329.287	762.75
329.515	651.75
329.744	621.75
329.972	620.75
330.201	685.75
330.43	781.75
330.658	925.75
330.887	932.75
331.115	771.75
331.344	665.75
331.572	656.75
331.801	670.75
332.03	645.75
332.258	604.75
332.486	610.75
332.715	651.75
332.943	644.75
333.172	626.75
333.4	643.75
333.629	653.75
333.857	668.75
334.085	656.75
334.314	632.75
334.542	637.75
334.771	644.75
334.999	666.75
335.227	652.75
335.455	630.75
335.684	626.75
335.912	634.75
336.14	623.75
336.369	610.75
336.597	637.75
336.825	633.75
337.053	600.75
337.281	611.75
337.51	589.75
337.738	604.75
337.966	617.75
338.194	622.75
338.422	570.75
338.65	587.75
338.878	560.75
339.106	565.75
339.334	562.75
339.562	571.75
339.79	569.75
340.018	571.75
340.246	602.75
340.474	580.75
340.702	562.75
340.93	567.75
341.158	588.75
341.386	576.75
341.614	578.75
341.842	570.75
342.07	568.75
342.298	567.75
342.526	559.75
342.754	568.75
342.981	561.75
343.209	556.75
343.437	604.75
343.665	624.75
343.893	644.75
344.12	626.75
344.348	609.75
344.576	629.75
344.804	630.75
345.031	614.75
345.259	633.75
345.487	589.75
345.714	583.75
345.942	560.75
346.17	558.75
346.397	546.75
346.625	574.75
346.853	551.75
347.08	570.75
347.308	610.75
347.535	620.75
347.763	594.75
347.99	591.75
348.218	604.75
348.445	595.75
348.673	579.75
348.9	570.75
349.128	550.75
349.355	523.75
349.583	543.75
349.81	520.75
350.037	541.75
350.265	521.75
350.492	557.75
350.72	546.75
350.947	577.75
351.174	589.75
351.402	584.75
351.629	576.75
351.856	592.75
352.083	600.75
352.311	631.75
352.538	635.75
352.765	622.75
352.992	583.75
353.22	604.75
353.447	558.75
353.674	569.75
353.901	527.75
354.128	521.75
354.355	511.75
354.583	529.75
354.81	533.75
355.037	504.75
355.264	522.75
355.491	530.75
355.718	552.75
355.945	528.75
356.172	527.75
356.399	521.75
356.626	517.75
356.853	535.75
357.08	509.75
357.307	503.75
357.534	535.75
357.761	522.75
357.988	549.75
358.215	536.75
358.441	517.75
358.668	548.75
358.895	528.75
359.122	549.75
359.349	557.75
359.576	645.75
359.802	714.75
360.029	759.75
360.256	697.75
360.483	614.75
360.709	592.75
360.936	592.75
361.163	594.75
361.39	607.75
361.616	603.75
361.843	583.75
362.07	593.75
362.296	589.75
362.523	578.75
362.749	591.75
362.976	560.75
363.203	574.75
363.429	580.75
363.656	544.75
363.882	562.75
364.109	562.75
364.335	559.75
364.562	558.75
364.788	548.75
365.015	551.75
365.241	578.75
365.468	600.75
365.694	581.75
365.92	576.75
366.147	535.75
366.373	537.75
366.599	519.75
366.826	550.75
367.052	534.75
367.278	564.75
367.505	556.75
367.731	573.75
367.957	545.75
368.184	575.75
368.41	601.75
368.636	598.75
368.862	568.75
369.089	558.75
369.315	551.75
369.541	572.75
369.767	574.75
369.993	575.75
370.219	552.75
370.445	566.75
370.672	554.75
370.898	543.75
371.124	574.75
371.35	570.75
371.576	578.75
371.802	549.75
372.028	570.75
372.254	560.75
372.48	561.75
372.706	605.75
372.932	548.75
373.158	578.75
373.384	580.75
373.61	559.75
373.835	566.75
374.061	588.75
374.287	615.75
374.513	579.75
374.739	609.75
374.965	597.75
375.191	585.75
375.416	590.75
375.642	586.75
375.868	562.75
376.094	598.75
376.319	596.75
376.545	571.75
376.771	572.75
376.997	583.75
377.222	585.75
377.448	583.75
377.674	568.75
377.899	554.75
378.125	563.75
378.35	572.75
378.576	558.75
378.802	551.75
379.027	548.75
379.253	553.75
379.478	564.75
379.704	560.75
379.929	567.75
380.155	591.75
380.38	588.75
380.606	582.75
380.831	568.75
381.057	601.75
381.282	567.75
381.507	593.75
381.733	562.75
381.958	577.75
382.184	595.75
382.409	584.75
382.634	578.75
382.86	598.75
383.085	611.75
383.31	604.75
383.535	623.75
383.761	638.75
383.986	633.75
384.211	646.75
384.436	641.75
384.662	663.75
384.887	638.75
385.112	670.75
385.337	626.75
385.562	660.75
385.787	686.75
386.013	680.75
386.238	702.75
386.463	690.75
386.688	657.75
386.913	650.75
387.138	668.75
387.363	680.75
387.588	656.75
387.813	637.75
388.038	649.75
388.263	680.75
388.488	658.75
388.713	659.75
388.938	673.75
389.163	662.75
389.387	646.75
389.612	655.75
389.837	652.75
390.062	645.75
390.287	647.75
390.512	675.75
390.736	681.75
390.961	684.75
391.186	674.75
391.411	697.75
391.636	704.75
391.86	697.75
392.085	729.75
392.31	694.75
392.534	718.75
392.759	676.75
392.984	687.75
393.208	689.75
393.433	689.75
393.658	664.75
393.882	679.75
394.107	688.75
394.331	670.75
394.556	676.75
394.78	703.75
395.005	694.75
395.229	718.75
395.454	723.75
395.678	732.75
395.903	745.75
396.127	737.75
396.352	724.75
396.576	692.75
396.801	698.75
397.025	708.75
397.249	714.75
397.474	726.75
397.698	746.75
397.922	753.75
398.147	780.75
398.371	763.75
398.595	774.75
398.82	859.75
399.044	866.75
399.268	967.75
399.492	1066.75
399.717	1096.75
399.941	1041.75
400.165	1003.75
400.389	939.75
400.613	874.75
400.837	847.75
401.062	841.75
401.286	836.75
401.51	813.75
401.734	864.75
401.958	832.75
402.182	873.75
402.406	881.75
402.63	873.75
402.854	922.75
403.078	866.75
403.302	926.75
403.526	922.75
403.75	879.75
403.974	910.75
404.198	903.75
404.422	913.75
404.645	917.75
404.869	895.75
405.093	922.75
405.317	910.75
405.541	929.75
405.765	918.75
405.988	940.75
406.212	1010.75
406.436	1056.75
406.66	1033.75
406.883	964.75
407.107	1080.75
407.331	1092.75
407.555	1136.75
407.778	1067.75
408.002	972.75
408.226	941.75
408.449	916.75
408.673	928.75
408.896	951.75
409.12	946.75
409.344	879.75
409.567	884.75
409.791	844.75
410.014	848.75
410.238	852.75
410.461	868.75
410.685	878.75
410.908	890.75
411.132	908.75
411.355	924.75
411.578	869.75
411.802	828.75
412.025	839.75
412.249	846.75
412.472	850.75
412.695	785.75
412.919	771.75
413.142	789.75
413.365	789.75
413.589	793.75
413.812	796.75
414.035	792.75
414.258	781.75
414.482	810.75
414.705	797.75
414.928	756.75
415.151	790.75
415.374	792.75
415.597	775.75
415.821	768.75
416.044	781.75
416.267	787.75
416.49	765.75
416.713	760.75
416.936	790.75
417.159	780.75
417.382	754.75
417.605	798.75
417.828	825.75
418.051	830.75
418.274	830.75
418.497	823.75
418.72	786.75
418.943	784.75
419.166	831.75
419.389	841.75
419.611	849.75
419.834	830.75
420.057	826.75
420.28	773.75
420.503	790.75
420.726	802.75
420.948	828.75
421.171	853.75
421.394	864.75
421.617	822.75
421.839	812.75
422.062	829.75
422.285	886.75
422.507	909.75
422.73	978.75
422.953	902.75
423.175	870.75
423.398	881.75
423.621	871.75
423.843	873.75
424.066	863.75
424.288	873.75
424.511	932.75
424.733	1000.75
424.956	1033.75
425.178	1055.75
425.401	989.75
425.623	942.75
425.846	838.75
426.068	836.75
426.291	809.75
426.513	805.75
426.735	867.75
426.958	968.75
427.18	1093.75
427.402	1246.75
427.625	1328.75
427.847	1011.75
428.069	836.75
428.292	788.75
428.514	748.75
428.736	747.75
428.958	759.75
429.181	718.75
429.403	742.75
429.625	766.75
429.847	808.75
430.069	868.75
430.292	821.75
430.514	750.75
430.736	734.75
430.958	740.75
431.18	736.75
431.402	723.75
431.624	713.75
431.846	706.75
432.068	716.75
432.29	706.75
432.512	712.75
432.734	715.75
432.956	748.75
433.178	759.75
433.4	749.75
433.622	748.75
433.844	752.75
434.066	760.75
434.287	742.75
434.509	756.75
434.731	789.75
434.953	816.75
435.175	816.75
435.397	840.75
435.618	898.75
435.84	940.75
436.062	1020.75
436.284	953.75
436.505	843.75
436.727	804.75
436.949	780.75
437.17	745.75
437.392	762.75
437.614	799.75
437.835	948.75
438.057	1045.75
438.278	1126.75
438.5	1074.75
438.721	1111.75
438.943	947.75
439.165	802.75
439.386	797.75
439.608	832.75
439.829	875.75
440.05	947.75
440.272	971.75
440.493	837.75
440.715	790.75
440.936	752.75
441.158	772.75
441.379	821.75
441.6	868.75
441.822	912.75
442.043	965.75
442.264	1064.75
442.486	983.75
442.707	880.75
442.928	904.75
443.149	967.75
443.371	1020.75
443.592	1071.75
443.813	1121.75
444.034	1080.75
444.255	918.75
444.476	888.75
444.698	913.75
444.919	930.75
445.14	941.75
445.361	1000.75
445.582	1082.75
445.803	1196.75
446.024	1233.75
446.245	1152.75
446.466	950.75
446.687	796.75
446.908	778.75
447.129	751.75
447.35	782.75
447.571	771.75
447.792	733.75
448.013	758.75
448.234	841.75
448.455	928.75
448.675	1071.75
448.896	1018.75
449.117	889.75
449.338	973.75
449.559	1136.75
449.779	1073.75
450	841.75
450.221	751.75
450.442	756.75
450.662	738.75
450.883	820.75
451.104	824.75
451.324	735.75
451.545	714.75
451.766	693.75
451.986	687.75
452.207	644.75
452.428	675.75
452.648	716.75
452.869	713.75
453.089	722.75
453.31	728.75
453.53	697.75
453.751	688.75
453.971	703.75
454.192	739.75
454.412	706.75
454.633	674.75
454.853	637.75
455.073	658.75
455.294	740.75
455.514	772.75
455.734	697.75
455.955	649.75
456.175	609.75
456.395	621.75
456.616	642.75
456.836	589.75
457.056	617.75
457.276	612.75
457.497	646.75
457.717	631.75
457.937	641.75
458.157	670.75
458.377	681.75
458.598	787.75
458.818	962.75
459.038	994.75
459.258	884.75
459.478	793.75
459.698	718.75
459.918	763.75
460.138	769.75
460.358	769.75
460.578	770.75
460.798	796.75
461.018	786.75
461.238	772.75
461.458	786.75
461.678	787.75
461.898	792.75
462.118	807.75
462.338	844.75
462.558	840.75
462.777	870.75
462.997	950.75
463.217	970.75
463.437	910.75
463.657	869.75
463.876	835.75
464.096	889.75
464.316	870.75
464.536	915.75
464.755	903.75
464.975	961.75
465.195	1136.75
465.414	1061.75
465.634	840.75
465.854	764.75
466.073	722.75
466.293	724.75
466.512	697.75
466.732	699.75
466.951	702.75
467.171	717.75
467.391	740.75
467.61	764.75
467.829	739.75
468.049	699.75
468.268	659.75
468.488	688.75
468.707	668.75
468.927	684.75
469.146	665.75
469.365	684.75
469.585	685.75
469.804	741.75
470.023	742.75
470.243	733.75
470.462	775.75
470.681	791.75
470.901	731.75
471.12	713.75
471.339	694.75
471.558	688.75
471.777	670.75
471.997	663.75
472.216	634.75
472.435	644.75
472.654	662.75
472.873	648.75
473.092	657.75
473.311	638.75
473.53	650.75
473.749	706.75
473.968	821.75
474.187	903.75
474.406	794.75
474.625	690.75
474.844	675.75
475.063	688.75
475.282	670.75
475.501	662.75
475.72	678.75
475.939	673.75
476.158	695.75
476.377	713.75
476.596	700.75
476.814	720.75
477.033	735.75
477.252	702.75
477.471	727.75
477.69	727.75
477.908	757.75
478.127	762.75
478.346	764.75
478.564	798.75
478.783	804.75
479.002	805.75
479.22	801.75
479.439	868.75
479.658	880.75
479.876	850.75
480.095	870.75
480.313	901.75
480.532	868.75
480.751	855.75
480.969	844.75
481.188	831.75
481.406	791.75
481.624	806.75
481.843	762.75
482.061	744.75
482.28	756.75
482.498	740.75
482.717	774.75
482.935	764.75
483.153	752.75
483.372	788.75
483.59	739.75
483.808	769.75
484.027	766.75
484.245	737.75
484.463	782.75
484.681	783.75
484.9	799.75
485.118	801.75
485.336	780.75
485.554	799.75
485.772	824.75
485.99	810.75
486.209	808.75
486.427	830.75
486.645	878.75
486.863	886.75
487.081	869.75
487.299	811.75
487.517	831.75
487.735	815.75
487.953	840.75
488.171	846.75
488.389	805.75
488.607	822.75
488.825	808.75
489.043	792.75
489.261	823.75
489.479	842.75
489.696	834.75
489.914	836.75
490.132	845.75
490.35	851.75
490.568	874.75
490.786	879.75
491.003	915.75
491.221	953.75
491.439	951.75
491.657	962.75
491.874	958.75
492.092	980.75
492.31	965.75
492.527	948.75
492.745	938.75
492.963	961.75
493.18	994.75
493.398	980.75
493.615	1013.75
493.833	995.75
494.05	982.75
494.268	967.75
494.485	964.75
494.703	966.75
494.92	966.75
495.138	966.75
495.355	962.75
495.573	958.75
495.79	992.75
496.008	994.75
496.225	961.75
496.442	957.75
496.66	986.75
496.877	993.75
497.094	1013.75
497.312	999.75
497.529	1021.75
497.746	1035.75
497.963	1073.75
498.181	1061.75
498.398	1122.75
498.615	1189.75
498.832	1256.75
499.049	1294.75
499.267	1324.75
499.484	1450.75
499.701	1536.75
499.918	1638.75
500.135	1771.75
500.352	1880.75
500.569	1895.75
500.786	1830.75
501.003	1766.75
501.22	1665.75
501.437	1551.75
501.654	1474.75
