Data from TestCu_HRD10591_00003.txt Node
Date: Thu Oct 05 14:04:30 EDT 2023
User: Yrep
Spectrometer: HR+D1059
Trigger mode: 1
Integration Time (sec): 1.000000E-1
Scans to average: 1
Electric dark correction enabled: true
Nonlinearity correction enabled: false
Boxcar width: 0
XAxis mode: Wavelengths
Number of Pixels in Spectrum: 2048
>>>>>Begin Spectral Data<<<<<
223.165	-4.62
223.4	-4.62
223.635	-4.62
223.869	-13.62
224.104	-9.62
224.338	-17.62
224.573	-22.62
224.808	-12.62
225.042	-11.62
225.277	-15.62
225.511	3.38
225.746	-0.62
225.98	-1.62
226.215	15.38
226.449	16.38
226.683	27.38
226.918	30.38
227.152	17.38
227.387	41.38
227.621	42.38
227.856	57.38
228.09	39.38
228.324	56.38
228.559	70.38
228.793	65.38
229.027	112.38
229.262	119.38
229.496	145.38
229.73	162.38
229.964	165.38
230.199	111.38
230.433	120.38
230.667	115.38
230.901	112.38
231.136	124.38
231.37	114.38
231.604	101.38
231.838	116.38
232.072	118.38
232.306	124.38
232.541	119.38
232.775	99.38
233.009	113.38
233.243	112.38
233.477	96.38
233.711	95.38
233.945	114.38
234.179	115.38
234.413	109.38
234.647	112.38
234.881	120.38
235.115	118.38
235.349	116.38
235.583	129.38
235.817	128.38
236.051	134.38
236.285	132.38
236.519	139.38
236.753	167.38
236.987	173.38
237.221	230.38
237.455	223.38
237.689	157.38
237.922	149.38
238.156	129.38
238.39	117.38
238.624	115.38
238.858	128.38
239.091	115.38
239.325	126.38
239.559	150.38
239.793	154.38
240.027	152.38
240.26	175.38
240.494	164.38
240.728	140.38
240.961	129.38
241.195	155.38
241.429	127.38
241.662	134.38
241.896	130.38
242.13	116.38
242.363	131.38
242.597	123.38
242.83	121.38
243.064	119.38
243.298	135.38
243.531	132.38
243.765	134.38
243.998	129.38
244.232	141.38
244.465	150.38
244.699	141.38
244.932	132.38
245.166	146.38
245.399	148.38
245.633	151.38
245.866	136.38
246.099	144.38
246.333	145.38
246.566	155.38
246.8	152.38
247.033	151.38
247.266	149.38
247.5	173.38
247.733	171.38
247.966	172.38
248.2	156.38
248.433	179.38
248.666	165.38
248.899	182.38
249.133	199.38
249.366	203.38
249.599	191.38
249.832	163.38
250.066	163.38
250.299	171.38
250.532	199.38
250.765	193.38
250.998	230.38
251.231	198.38
251.465	197.38
251.698	191.38
251.931	185.38
252.164	165.38
252.397	181.38
252.63	172.38
252.863	199.38
253.096	206.38
253.329	214.38
253.562	206.38
253.795	204.38
254.028	225.38
254.261	231.38
254.494	248.38
254.727	264.38
254.96	243.38
255.193	222.38
255.426	200.38
255.659	200.38
255.892	187.38
256.124	189.38
256.357	192.38
256.59	204.38
256.823	184.38
257.056	193.38
257.289	190.38
257.521	175.38
257.754	195.38
257.987	205.38
258.22	194.38
258.452	199.38
258.685	196.38
258.918	196.38
259.151	225.38
259.383	216.38
259.616	215.38
259.849	215.38
260.081	234.38
260.314	258.38
260.547	239.38
260.779	213.38
261.012	218.38
261.244	203.38
261.477	227.38
261.71	246.38
261.942	274.38
262.175	251.38
262.407	237.38
262.64	209.38
262.872	214.38
263.105	197.38
263.337	214.38
263.57	197.38
263.802	209.38
264.035	213.38
264.267	212.38
264.499	201.38
264.732	213.38
264.964	227.38
265.197	219.38
265.429	219.38
265.661	207.38
265.894	214.38
266.126	214.38
266.358	228.38
266.591	221.38
266.823	239.38
267.055	227.38
267.287	223.38
267.52	214.38
267.752	236.38
267.984	231.38
268.216	220.38
268.448	238.38
268.681	256.38
268.913	269.38
269.145	272.38
269.377	282.38
269.609	245.38
269.841	283.38
270.073	303.38
270.306	326.38
270.538	317.38
270.77	272.38
271.002	283.38
271.234	274.38
271.466	301.38
271.698	317.38
271.93	293.38
272.162	306.38
272.394	303.38
272.626	280.38
272.858	258.38
273.09	261.38
273.322	261.38
273.553	266.38
273.785	256.38
274.017	265.38
274.249	266.38
274.481	285.38
274.713	269.38
274.945	271.38
275.176	261.38
275.408	275.38
275.64	249.38
275.872	265.38
276.104	263.38
276.335	293.38
276.567	315.38
276.799	328.38
277.031	345.38
277.262	337.38
277.494	287.38
277.726	278.38
277.957	266.38
278.189	268.38
278.421	279.38
278.652	278.38
278.884	264.38
279.115	270.38
279.347	286.38
279.579	268.38
279.81	287.38
280.042	293.38
280.273	294.38
280.505	277.38
280.736	274.38
280.968	272.38
281.199	284.38
281.431	289.38
281.662	283.38
281.894	288.38
282.125	317.38
282.356	363.38
282.588	349.38
282.819	333.38
283.051	291.38
283.282	309.38
283.513	312.38
283.745	303.38
283.976	317.38
284.207	310.38
284.439	290.38
284.67	303.38
284.901	309.38
285.132	317.38
285.364	279.38
285.595	294.38
285.826	292.38
286.057	314.38
286.288	290.38
286.52	288.38
286.751	314.38
286.982	306.38
287.213	317.38
287.444	311.38
287.675	347.38
287.906	339.38
288.138	332.38
288.369	335.38
288.6	340.38
288.831	326.38
289.062	321.38
289.293	318.38
289.524	328.38
289.755	326.38
289.986	329.38
290.217	341.38
290.448	297.38
290.679	309.38
290.91	327.38
291.141	331.38
291.371	329.38
291.602	319.38
291.833	321.38
292.064	314.38
292.295	345.38
292.526	323.38
292.757	356.38
292.987	353.38
293.218	320.38
293.449	353.38
293.68	356.38
293.91	329.38
294.141	341.38
294.372	324.38
294.603	341.38
294.833	331.38
295.064	352.38
295.295	342.38
295.525	349.38
295.756	359.38
295.987	398.38
296.217	428.38
296.448	393.38
296.679	348.38
296.909	341.38
297.14	352.38
297.37	348.38
297.601	352.38
297.831	356.38
298.062	359.38
298.292	370.38
298.523	386.38
298.753	375.38
298.984	353.38
299.214	369.38
299.445	372.38
299.675	367.38
299.905	365.38
300.136	380.38
300.366	377.38
300.597	392.38
300.827	409.38
301.057	404.38
301.288	413.38
301.518	394.38
301.748	413.38
301.979	433.38
302.209	386.38
302.439	408.38
302.669	388.38
302.9	411.38
303.13	405.38
303.36	401.38
303.59	412.38
303.82	429.38
304.051	397.38
304.281	391.38
304.511	379.38
304.741	380.38
304.971	402.38
305.201	404.38
305.431	399.38
305.661	396.38
305.891	384.38
306.121	427.38
306.352	418.38
306.582	424.38
306.812	406.38
307.042	395.38
307.272	385.38
307.502	398.38
307.731	409.38
307.961	404.38
308.191	408.38
308.421	401.38
308.651	425.38
308.881	410.38
309.111	417.38
309.341	436.38
309.571	445.38
309.8	477.38
310.03	447.38
310.26	486.38
310.49	480.38
310.72	500.38
310.949	507.38
311.179	493.38
311.409	462.38
311.639	461.38
311.868	476.38
312.098	489.38
312.328	527.38
312.557	553.38
312.787	541.38
313.017	499.38
313.246	507.38
313.476	469.38
313.706	490.38
313.935	505.38
314.165	512.38
314.394	519.38
314.624	503.38
314.853	491.38
315.083	472.38
315.312	460.38
315.542	465.38
315.771	454.38
316.001	439.38
316.23	467.38
316.46	447.38
316.689	467.38
316.919	493.38
317.148	491.38
317.377	496.38
317.607	493.38
317.836	463.38
318.065	447.38
318.295	476.38
318.524	475.38
318.753	464.38
318.983	466.38
319.212	480.38
319.441	500.38
319.67	492.38
319.9	473.38
320.129	477.38
320.358	485.38
320.587	496.38
320.816	515.38
321.046	510.38
321.275	487.38
321.504	503.38
321.733	511.38
321.962	547.38
322.191	573.38
322.42	548.38
322.649	591.38
322.878	632.38
323.108	646.38
323.337	677.38
323.566	741.38
323.795	836.38
324.024	1101.38
324.253	1904.38
324.482	3240.38
324.71	4880.38
324.939	4283.38
325.168	1873.38
325.397	961.38
325.626	727.38
325.855	685.38
326.084	688.38
326.313	715.38
326.542	772.38
326.77	1055.38
326.999	1807.38
327.228	2804.38
327.457	3623.38
327.686	2325.38
327.914	1143.38
328.143	878.38
328.372	796.38
328.6	775.38
328.829	815.38
329.058	843.38
329.287	759.38
329.515	671.38
329.744	641.38
329.972	624.38
330.201	667.38
330.43	760.38
330.658	877.38
330.887	924.38
331.115	792.38
331.344	656.38
331.572	673.38
331.801	675.38
332.03	626.38
332.258	610.38
332.486	614.38
332.715	647.38
332.943	648.38
333.172	635.38
333.4	661.38
333.629	653.38
333.857	689.38
334.085	673.38
334.314	669.38
334.542	646.38
334.771	658.38
334.999	681.38
335.227	656.38
335.455	619.38
335.684	628.38
335.912	614.38
336.14	628.38
336.369	651.38
336.597	656.38
336.825	645.38
337.053	593.38
337.281	609.38
337.51	590.38
337.738	609.38
337.966	621.38
338.194	612.38
338.422	611.38
338.65	600.38
338.878	559.38
339.106	575.38
339.334	598.38
339.562	553.38
339.79	566.38
340.018	579.38
340.246	585.38
340.474	587.38
340.702	597.38
340.93	574.38
341.158	581.38
341.386	578.38
341.614	563.38
341.842	575.38
342.07	567.38
342.298	575.38
342.526	569.38
342.754	552.38
342.981	559.38
343.209	573.38
343.437	594.38
343.665	623.38
343.893	631.38
344.12	642.38
344.348	621.38
344.576	639.38
344.804	639.38
345.031	633.38
345.259	614.38
345.487	611.38
345.714	582.38
345.942	571.38
346.17	600.38
346.397	555.38
346.625	571.38
346.853	571.38
347.08	572.38
347.308	570.38
347.535	594.38
347.763	597.38
347.99	597.38
348.218	616.38
348.445	616.38
348.673	571.38
348.9	570.38
349.128	550.38
349.355	557.38
349.583	559.38
349.81	552.38
350.037	545.38
350.265	537.38
350.492	535.38
350.72	573.38
350.947	593.38
351.174	605.38
351.402	608.38
351.629	591.38
351.856	587.38
352.083	622.38
352.311	630.38
352.538	611.38
352.765	586.38
352.992	611.38
353.22	574.38
353.447	566.38
353.674	560.38
353.901	543.38
354.128	540.38
354.355	528.38
354.583	532.38
354.81	513.38
355.037	524.38
355.264	517.38
355.491	501.38
355.718	512.38
355.945	515.38
356.172	534.38
356.399	533.38
356.626	548.38
356.853	498.38
357.08	517.38
357.307	540.38
357.534	533.38
357.761	546.38
357.988	535.38
358.215	547.38
358.441	527.38
358.668	551.38
358.895	563.38
359.122	569.38
359.349	588.38
359.576	620.38
359.802	702.38
360.029	733.38
360.256	715.38
360.483	635.38
360.709	619.38
360.936	582.38
361.163	595.38
361.39	615.38
361.616	584.38
361.843	581.38
362.07	609.38
362.296	615.38
362.523	591.38
362.749	569.38
362.976	561.38
363.203	571.38
363.429	566.38
363.656	561.38
363.882	563.38
364.109	570.38
364.335	557.38
364.562	581.38
364.788	577.38
365.015	581.38
365.241	590.38
365.468	611.38
365.694	595.38
365.92	565.38
366.147	573.38
366.373	555.38
366.599	539.38
366.826	559.38
367.052	549.38
367.278	555.38
367.505	575.38
367.731	546.38
367.957	565.38
368.184	579.38
368.41	595.38
368.636	603.38
368.862	586.38
369.089	574.38
369.315	563.38
369.541	563.38
369.767	588.38
369.993	580.38
370.219	572.38
370.445	564.38
370.672	560.38
370.898	572.38
371.124	579.38
371.35	577.38
371.576	569.38
371.802	578.38
372.028	557.38
372.254	582.38
372.48	590.38
372.706	589.38
372.932	587.38
373.158	584.38
373.384	578.38
373.61	596.38
373.835	595.38
374.061	589.38
374.287	604.38
374.513	606.38
374.739	603.38
374.965	639.38
375.191	598.38
375.416	607.38
375.642	595.38
375.868	581.38
376.094	593.38
376.319	604.38
376.545	569.38
376.771	568.38
376.997	578.38
377.222	585.38
377.448	593.38
377.674	592.38
377.899	576.38
378.125	556.38
378.35	572.38
378.576	571.38
378.802	584.38
379.027	593.38
379.253	572.38
379.478	562.38
379.704	577.38
379.929	585.38
380.155	592.38
380.38	590.38
380.606	585.38
380.831	591.38
381.057	579.38
381.282	568.38
381.507	582.38
381.733	607.38
381.958	600.38
382.184	610.38
382.409	614.38
382.634	587.38
382.86	617.38
383.085	585.38
383.31	613.38
383.535	633.38
383.761	621.38
383.986	639.38
384.211	640.38
384.436	620.38
384.662	659.38
384.887	664.38
385.112	649.38
385.337	686.38
385.562	655.38
385.787	692.38
386.013	684.38
386.238	712.38
386.463	683.38
386.688	691.38
386.913	654.38
387.138	659.38
387.363	650.38
387.588	653.38
387.813	658.38
388.038	678.38
388.263	664.38
388.488	663.38
388.713	665.38
388.938	677.38
389.163	679.38
389.387	647.38
389.612	661.38
389.837	664.38
390.062	682.38
390.287	680.38
390.512	667.38
390.736	697.38
390.961	673.38
391.186	711.38
391.411	737.38
391.636	710.38
391.86	741.38
392.085	743.38
392.31	723.38
392.534	721.38
392.759	723.38
392.984	696.38
393.208	700.38
393.433	705.38
393.658	699.38
393.882	693.38
394.107	696.38
394.331	719.38
394.556	686.38
394.78	713.38
395.005	716.38
395.229	712.38
395.454	756.38
395.678	747.38
395.903	740.38
396.127	751.38
396.352	761.38
396.576	706.38
396.801	733.38
397.025	719.38
397.249	739.38
397.474	770.38
397.698	751.38
397.922	780.38
398.147	768.38
398.371	777.38
398.595	807.38
398.82	864.38
399.044	915.38
399.268	1035.38
399.492	1097.38
399.717	1088.38
399.941	1053.38
400.165	1000.38
400.389	971.38
400.613	893.38
400.837	848.38
401.062	838.38
401.286	847.38
401.51	829.38
401.734	832.38
401.958	865.38
402.182	900.38
402.406	939.38
402.63	888.38
402.854	857.38
403.078	898.38
403.302	896.38
403.526	919.38
403.75	913.38
403.974	918.38
404.198	927.38
404.422	937.38
404.645	900.38
404.869	905.38
405.093	925.38
405.317	944.38
405.541	929.38
405.765	917.38
405.988	996.38
406.212	1040.38
406.436	1084.38
406.66	1073.38
406.883	1029.38
407.107	1089.38
407.331	1095.38
407.555	1153.38
407.778	1100.38
408.002	999.38
408.226	1019.38
408.449	952.38
408.673	975.38
408.896	970.38
409.12	953.38
409.344	915.38
409.567	876.38
409.791	881.38
410.014	867.38
410.238	873.38
410.461	876.38
410.685	894.38
410.908	923.38
411.132	909.38
411.355	898.38
411.578	857.38
411.802	836.38
412.025	835.38
412.249	828.38
412.472	832.38
412.695	821.38
412.919	811.38
413.142	799.38
413.365	781.38
413.589	801.38
413.812	790.38
414.035	807.38
414.258	795.38
414.482	792.38
414.705	825.38
414.928	807.38
415.151	800.38
415.374	803.38
415.597	801.38
415.821	796.38
416.044	792.38
416.267	772.38
416.49	784.38
416.713	785.38
416.936	813.38
417.159	791.38
417.382	806.38
417.605	807.38
417.828	827.38
418.051	825.38
418.274	843.38
418.497	819.38
418.72	820.38
418.943	821.38
419.166	854.38
419.389	852.38
419.611	841.38
419.834	855.38
420.057	830.38
420.28	811.38
420.503	837.38
420.726	820.38
420.948	851.38
421.171	895.38
421.394	894.38
421.617	845.38
421.839	793.38
422.062	853.38
422.285	854.38
422.507	959.38
422.73	980.38
422.953	886.38
423.175	871.38
423.398	884.38
423.621	886.38
423.843	904.38
424.066	905.38
424.288	884.38
424.511	949.38
424.733	994.38
424.956	1039.38
425.178	1007.38
425.401	991.38
425.623	958.38
425.846	855.38
426.068	855.38
426.291	833.38
426.513	829.38
426.735	873.38
426.958	985.38
427.18	1083.38
427.402	1234.38
427.625	1278.38
427.847	993.38
428.069	853.38
428.292	810.38
428.514	756.38
428.736	750.38
428.958	744.38
429.181	729.38
429.403	745.38
429.625	779.38
429.847	859.38
430.069	873.38
430.292	789.38
430.514	739.38
430.736	748.38
430.958	752.38
431.18	719.38
431.402	749.38
431.624	727.38
431.846	724.38
432.068	698.38
432.29	755.38
432.512	747.38
432.734	773.38
432.956	767.38
433.178	765.38
433.4	752.38
433.622	731.38
433.844	743.38
434.066	737.38
434.287	742.38
434.509	757.38
434.731	797.38
434.953	823.38
435.175	833.38
435.397	823.38
435.618	855.38
435.84	933.38
436.062	1027.38
436.284	968.38
436.505	879.38
436.727	813.38
436.949	757.38
437.17	772.38
437.392	765.38
437.614	824.38
437.835	944.38
438.057	1065.38
438.278	1078.38
438.5	1071.38
438.721	1130.38
438.943	957.38
439.165	796.38
439.386	823.38
439.608	835.38
439.829	899.38
440.05	968.38
440.272	979.38
440.493	823.38
440.715	772.38
440.936	803.38
441.158	788.38
441.379	811.38
441.6	855.38
441.822	930.38
442.043	1007.38
442.264	1060.38
442.486	965.38
442.707	877.38
442.928	912.38
443.149	969.38
443.371	989.38
443.592	1059.38
443.813	1144.38
444.034	1052.38
444.255	941.38
444.476	916.38
444.698	937.38
444.919	944.38
445.14	972.38
445.361	971.38
445.582	1061.38
445.803	1175.38
446.024	1233.38
446.245	1149.38
446.466	960.38
446.687	834.38
446.908	778.38
447.129	777.38
447.35	752.38
447.571	746.38
447.792	749.38
448.013	785.38
448.234	844.38
448.455	929.38
448.675	1055.38
448.896	1049.38
449.117	898.38
449.338	981.38
449.559	1058.38
449.779	1033.38
450	843.38
450.221	754.38
450.442	721.38
450.662	770.38
450.883	813.38
451.104	820.38
451.324	753.38
451.545	717.38
451.766	681.38
451.986	673.38
452.207	671.38
452.428	690.38
452.648	694.38
452.869	706.38
453.089	737.38
453.31	707.38
453.53	687.38
453.751	711.38
453.971	742.38
454.192	762.38
454.412	657.38
454.633	656.38
454.853	647.38
455.073	674.38
455.294	726.38
455.514	775.38
455.734	715.38
455.955	610.38
456.175	599.38
456.395	604.38
456.616	619.38
456.836	607.38
457.056	614.38
457.276	610.38
457.497	621.38
457.717	645.38
457.937	641.38
458.157	660.38
458.377	700.38
458.598	800.38
458.818	980.38
459.038	1014.38
459.258	889.38
459.478	762.38
459.698	751.38
459.918	734.38
460.138	782.38
460.358	797.38
460.578	803.38
460.798	810.38
461.018	805.38
461.238	787.38
461.458	789.38
461.678	804.38
461.898	800.38
462.118	801.38
462.338	851.38
462.558	867.38
462.777	877.38
462.997	966.38
463.217	966.38
463.437	953.38
463.657	885.38
463.876	896.38
464.096	897.38
464.316	939.38
464.536	923.38
464.755	912.38
464.975	985.38
465.195	1169.38
465.414	1087.38
465.634	829.38
465.854	768.38
466.073	720.38
466.293	750.38
466.512	695.38
466.732	699.38
466.951	719.38
467.171	707.38
467.391	727.38
467.61	766.38
467.829	731.38
468.049	684.38
468.268	681.38
468.488	657.38
468.707	667.38
468.927	656.38
469.146	673.38
469.365	682.38
469.585	701.38
469.804	742.38
470.023	747.38
470.243	721.38
470.462	783.38
470.681	803.38
470.901	744.38
471.12	739.38
471.339	710.38
471.558	701.38
471.777	681.38
471.997	667.38
472.216	650.38
472.435	640.38
472.654	627.38
472.873	644.38
473.092	667.38
473.311	658.38
473.53	661.38
473.749	677.38
473.968	809.38
474.187	902.38
474.406	793.38
474.625	682.38
474.844	667.38
475.063	676.38
475.282	674.38
475.501	662.38
475.72	697.38
475.939	664.38
476.158	705.38
476.377	691.38
476.596	694.38
476.814	714.38
477.033	719.38
477.252	719.38
477.471	727.38
477.69	748.38
477.908	767.38
478.127	788.38
478.346	784.38
478.564	774.38
478.783	798.38
479.002	822.38
479.22	853.38
479.439	862.38
479.658	868.38
479.876	867.38
480.095	900.38
480.313	921.38
480.532	899.38
480.751	848.38
480.969	840.38
481.188	841.38
481.406	811.38
481.624	774.38
481.843	748.38
482.061	779.38
482.28	766.38
482.498	755.38
482.717	759.38
482.935	756.38
483.153	755.38
483.372	804.38
483.59	755.38
483.808	765.38
484.027	798.38
484.245	769.38
484.463	795.38
484.681	799.38
484.9	800.38
485.118	821.38
485.336	807.38
485.554	819.38
485.772	821.38
485.99	828.38
486.209	825.38
486.427	824.38
486.645	863.38
486.863	896.38
487.081	863.38
487.299	845.38
487.517	836.38
487.735	839.38
487.953	855.38
488.171	873.38
488.389	839.38
488.607	819.38
488.825	815.38
489.043	807.38
489.261	808.38
489.479	821.38
489.696	836.38
489.914	833.38
490.132	856.38
490.35	855.38
490.568	896.38
490.786	883.38
491.003	879.38
491.221	945.38
491.439	949.38
491.657	966.38
491.874	975.38
492.092	970.38
492.31	959.38
492.527	948.38
492.745	952.38
492.963	952.38
493.18	928.38
493.398	985.38
493.615	968.38
493.833	961.38
494.05	983.38
494.268	974.38
494.485	970.38
494.703	961.38
494.92	969.38
495.138	973.38
495.355	982.38
495.573	984.38
495.79	976.38
496.008	966.38
496.225	928.38
496.442	954.38
496.66	981.38
496.877	972.38
497.094	992.38
497.312	1008.38
497.529	1043.38
497.746	1073.38
497.963	1081.38
498.181	1120.38
498.398	1166.38
498.615	1225.38
498.832	1215.38
499.049	1317.38
499.267	1411.38
499.484	1474.38
499.701	1564.38
499.918	1656.38
500.135	1802.38
500.352	1936.38
500.569	1902.38
500.786	1880.38
501.003	1753.38
501.22	1684.38
501.437	1551.38
501.654	1469.38
