Data from TestCu_HRD10591_00063.txt Node
Date: Thu Oct 05 14:05:43 EDT 2023
User: Yrep
Spectrometer: HR+D1059
Trigger mode: 1
Integration Time (sec): 1.000000E-1
Scans to average: 1
Electric dark correction enabled: true
Nonlinearity correction enabled: false
Boxcar width: 0
XAxis mode: Wavelengths
Number of Pixels in Spectrum: 2048
>>>>>Begin Spectral Data<<<<<
223.165	-22.62
223.4	-22.62
223.635	-22.62
223.869	-24.62
224.104	-7.62
224.338	-14.62
224.573	-15.62
224.808	-12.62
225.042	-14.62
225.277	-7.62
225.511	8.38
225.746	6.38
225.98	12.38
226.215	-7.62
226.449	12.38
226.683	21.38
226.918	37.38
227.152	29.38
227.387	43.38
227.621	39.38
227.856	43.38
228.09	43.38
228.324	45.38
228.559	48.38
228.793	71.38
229.027	107.38
229.262	107.38
229.496	126.38
229.73	165.38
229.964	149.38
230.199	107.38
230.433	120.38
230.667	118.38
230.901	118.38
231.136	110.38
231.37	102.38
231.604	112.38
231.838	104.38
232.072	108.38
232.306	103.38
232.541	103.38
232.775	123.38
233.009	121.38
233.243	116.38
233.477	115.38
233.711	113.38
233.945	118.38
234.179	120.38
234.413	125.38
234.647	111.38
234.881	119.38
235.115	113.38
235.349	112.38
235.583	147.38
235.817	128.38
236.051	130.38
236.285	119.38
236.519	132.38
236.753	150.38
236.987	177.38
237.221	213.38
237.455	235.38
237.689	169.38
237.922	135.38
238.156	123.38
238.39	111.38
238.624	120.38
238.858	121.38
239.091	131.38
239.325	131.38
239.559	132.38
239.793	142.38
240.027	139.38
240.26	155.38
240.494	158.38
240.728	160.38
240.961	150.38
241.195	128.38
241.429	139.38
241.662	140.38
241.896	136.38
242.13	141.38
242.363	134.38
242.597	132.38
242.83	132.38
243.064	133.38
243.298	129.38
243.531	130.38
243.765	124.38
243.998	141.38
244.232	137.38
244.465	146.38
244.699	144.38
244.932	145.38
245.166	144.38
245.399	152.38
245.633	136.38
245.866	128.38
246.099	149.38
246.333	145.38
246.566	180.38
246.8	150.38
247.033	140.38
247.266	165.38
247.5	166.38
247.733	173.38
247.966	179.38
248.2	155.38
248.433	174.38
248.666	170.38
248.899	201.38
249.133	194.38
249.366	209.38
249.599	177.38
249.832	167.38
250.066	165.38
250.299	182.38
250.532	194.38
250.765	194.38
250.998	212.38
251.231	205.38
251.465	179.38
251.698	174.38
251.931	195.38
252.164	183.38
252.397	190.38
252.63	193.38
252.863	200.38
253.096	212.38
253.329	207.38
253.562	205.38
253.795	198.38
254.028	211.38
254.261	214.38
254.494	225.38
254.727	264.38
254.96	263.38
255.193	216.38
255.426	208.38
255.659	177.38
255.892	202.38
256.124	195.38
256.357	199.38
256.59	207.38
256.823	204.38
257.056	197.38
257.289	192.38
257.521	179.38
257.754	195.38
257.987	192.38
258.22	206.38
258.452	185.38
258.685	189.38
258.918	199.38
259.151	208.38
259.383	214.38
259.616	231.38
259.849	225.38
260.081	244.38
260.314	254.38
260.547	233.38
260.779	232.38
261.012	213.38
261.244	208.38
261.477	232.38
261.71	248.38
261.942	270.38
262.175	251.38
262.407	233.38
262.64	211.38
262.872	218.38
263.105	219.38
263.337	215.38
263.57	203.38
263.802	221.38
264.035	201.38
264.267	223.38
264.499	211.38
264.732	217.38
264.964	227.38
265.197	227.38
265.429	218.38
265.661	216.38
265.894	212.38
266.126	216.38
266.358	227.38
266.591	224.38
266.823	230.38
267.055	225.38
267.287	221.38
267.52	222.38
267.752	239.38
267.984	227.38
268.216	245.38
268.448	244.38
268.681	258.38
268.913	258.38
269.145	269.38
269.377	273.38
269.609	280.38
269.841	289.38
270.073	301.38
270.306	329.38
270.538	317.38
270.77	302.38
271.002	288.38
271.234	294.38
271.466	300.38
271.698	323.38
271.93	303.38
272.162	307.38
272.394	319.38
272.626	280.38
272.858	276.38
273.09	276.38
273.322	273.38
273.553	260.38
273.785	268.38
274.017	266.38
274.249	271.38
274.481	282.38
274.713	265.38
274.945	278.38
275.176	279.38
275.408	280.38
275.64	260.38
275.872	277.38
276.104	292.38
276.335	295.38
276.567	327.38
276.799	362.38
277.031	349.38
277.262	342.38
277.494	316.38
277.726	289.38
277.957	281.38
278.189	283.38
278.421	295.38
278.652	266.38
278.884	264.38
279.115	274.38
279.347	275.38
279.579	280.38
279.81	277.38
280.042	283.38
280.273	289.38
280.505	274.38
280.736	285.38
280.968	263.38
281.199	283.38
281.431	280.38
281.662	270.38
281.894	311.38
282.125	308.38
282.356	353.38
282.588	353.38
282.819	327.38
283.051	300.38
283.282	315.38
283.513	312.38
283.745	296.38
283.976	304.38
284.207	294.38
284.439	296.38
284.67	317.38
284.901	311.38
285.132	321.38
285.364	308.38
285.595	297.38
285.826	319.38
286.057	297.38
286.288	314.38
286.52	332.38
286.751	300.38
286.982	301.38
287.213	321.38
287.444	323.38
287.675	320.38
287.906	344.38
288.138	337.38
288.369	317.38
288.6	336.38
288.831	322.38
289.062	322.38
289.293	316.38
289.524	312.38
289.755	333.38
289.986	344.38
290.217	329.38
290.448	322.38
290.679	336.38
290.91	330.38
291.141	321.38
291.371	338.38
291.602	328.38
291.833	339.38
292.064	351.38
292.295	334.38
292.526	338.38
292.757	333.38
292.987	338.38
293.218	322.38
293.449	343.38
293.68	352.38
293.91	329.38
294.141	345.38
294.372	343.38
294.603	336.38
294.833	344.38
295.064	332.38
295.295	343.38
295.525	347.38
295.756	376.38
295.987	387.38
296.217	415.38
296.448	417.38
296.679	358.38
296.909	364.38
297.14	351.38
297.37	364.38
297.601	378.38
297.831	369.38
298.062	363.38
298.292	385.38
298.523	369.38
298.753	376.38
298.984	377.38
299.214	363.38
299.445	379.38
299.675	376.38
299.905	386.38
300.136	380.38
300.366	373.38
300.597	380.38
300.827	408.38
301.057	404.38
301.288	429.38
301.518	404.38
301.748	386.38
301.979	392.38
302.209	407.38
302.439	405.38
302.669	391.38
302.9	408.38
303.13	405.38
303.36	416.38
303.59	416.38
303.82	407.38
304.051	408.38
304.281	410.38
304.511	411.38
304.741	404.38
304.971	414.38
305.201	387.38
305.431	415.38
305.661	412.38
305.891	419.38
306.121	419.38
306.352	412.38
306.582	425.38
306.812	402.38
307.042	398.38
307.272	391.38
307.502	414.38
307.731	411.38
307.961	402.38
308.191	421.38
308.421	404.38
308.651	401.38
308.881	438.38
309.111	437.38
309.341	447.38
309.571	447.38
309.8	481.38
310.03	484.38
310.26	472.38
310.49	491.38
310.72	517.38
310.949	514.38
311.179	505.38
311.409	459.38
311.639	463.38
311.868	478.38
312.098	489.38
312.328	523.38
312.557	534.38
312.787	549.38
313.017	502.38
313.246	469.38
313.476	465.38
313.706	469.38
313.935	525.38
314.165	561.38
314.394	533.38
314.624	496.38
314.853	493.38
315.083	477.38
315.312	476.38
315.542	460.38
315.771	465.38
316.001	475.38
316.23	465.38
316.46	462.38
316.689	499.38
316.919	474.38
317.148	485.38
317.377	477.38
317.607	477.38
317.836	468.38
318.065	485.38
318.295	485.38
318.524	478.38
318.753	491.38
318.983	490.38
319.212	509.38
319.441	513.38
319.67	472.38
319.9	467.38
320.129	488.38
320.358	479.38
320.587	480.38
320.816	497.38
321.046	526.38
321.275	532.38
321.504	523.38
321.733	524.38
321.962	533.38
322.191	574.38
322.42	579.38
322.649	605.38
322.878	627.38
323.108	677.38
323.337	718.38
323.566	758.38
323.795	899.38
324.024	1179.38
324.253	1992.38
324.482	3397.38
324.71	4979.38
324.939	4478.38
325.168	1957.38
325.397	956.38
325.626	736.38
325.855	701.38
326.084	683.38
326.313	740.38
326.542	813.38
326.77	1144.38
326.999	1866.38
327.228	2959.38
327.457	3698.38
327.686	2420.38
327.914	1155.38
328.143	919.38
328.372	823.38
328.6	787.38
328.829	838.38
329.058	870.38
329.287	806.38
329.515	676.38
329.744	663.38
329.972	646.38
330.201	712.38
330.43	824.38
330.658	918.38
330.887	918.38
331.115	797.38
331.344	693.38
331.572	693.38
331.801	712.38
332.03	660.38
332.258	640.38
332.486	628.38
332.715	601.38
332.943	659.38
333.172	678.38
333.4	662.38
333.629	684.38
333.857	704.38
334.085	664.38
334.314	653.38
334.542	663.38
334.771	659.38
334.999	671.38
335.227	653.38
335.455	633.38
335.684	624.38
335.912	641.38
336.14	619.38
336.369	642.38
336.597	672.38
336.825	622.38
337.053	596.38
337.281	623.38
337.51	601.38
337.738	621.38
337.966	648.38
338.194	640.38
338.422	613.38
338.65	571.38
338.878	588.38
339.106	581.38
339.334	579.38
339.562	572.38
339.79	579.38
340.018	601.38
340.246	612.38
340.474	607.38
340.702	612.38
340.93	593.38
341.158	598.38
341.386	605.38
341.614	603.38
341.842	589.38
342.07	568.38
342.298	581.38
342.526	556.38
342.754	553.38
342.981	578.38
343.209	580.38
343.437	637.38
343.665	633.38
343.893	670.38
344.12	647.38
344.348	611.38
344.576	625.38
344.804	654.38
345.031	663.38
345.259	649.38
345.487	601.38
345.714	578.38
345.942	567.38
346.17	583.38
346.397	563.38
346.625	579.38
346.853	572.38
347.08	603.38
347.308	581.38
347.535	628.38
347.763	601.38
347.99	625.38
348.218	633.38
348.445	616.38
348.673	588.38
348.9	579.38
349.128	549.38
349.355	564.38
349.583	574.38
349.81	556.38
350.037	541.38
350.265	528.38
350.492	559.38
350.72	587.38
350.947	595.38
351.174	615.38
351.402	600.38
351.629	597.38
351.856	625.38
352.083	607.38
352.311	629.38
352.538	647.38
352.765	603.38
352.992	612.38
353.22	583.38
353.447	571.38
353.674	541.38
353.901	575.38
354.128	527.38
354.355	537.38
354.583	524.38
354.81	542.38
355.037	528.38
355.264	525.38
355.491	526.38
355.718	542.38
355.945	524.38
356.172	542.38
356.399	515.38
356.626	534.38
356.853	543.38
357.08	536.38
357.307	531.38
357.534	518.38
357.761	520.38
357.988	555.38
358.215	526.38
358.441	537.38
358.668	552.38
358.895	553.38
359.122	574.38
359.349	605.38
359.576	663.38
359.802	706.38
360.029	780.38
360.256	750.38
360.483	651.38
360.709	583.38
360.936	622.38
361.163	632.38
361.39	631.38
361.616	599.38
361.843	616.38
362.07	631.38
362.296	634.38
362.523	607.38
362.749	582.38
362.976	582.38
363.203	585.38
363.429	574.38
363.656	601.38
363.882	562.38
364.109	579.38
364.335	561.38
364.562	563.38
364.788	575.38
365.015	556.38
365.241	585.38
365.468	603.38
365.694	598.38
365.92	631.38
366.147	570.38
366.373	577.38
366.599	544.38
366.826	560.38
367.052	552.38
367.278	591.38
367.505	576.38
367.731	584.38
367.957	579.38
368.184	591.38
368.41	592.38
368.636	619.38
368.862	612.38
369.089	581.38
369.315	581.38
369.541	581.38
369.767	564.38
369.993	572.38
370.219	579.38
370.445	573.38
370.672	588.38
370.898	555.38
371.124	593.38
371.35	574.38
371.576	596.38
371.802	562.38
372.028	581.38
372.254	584.38
372.48	578.38
372.706	593.38
372.932	591.38
373.158	604.38
373.384	593.38
373.61	579.38
373.835	585.38
374.061	601.38
374.287	617.38
374.513	623.38
374.739	627.38
374.965	623.38
375.191	615.38
375.416	615.38
375.642	588.38
375.868	597.38
376.094	593.38
376.319	590.38
376.545	608.38
376.771	594.38
376.997	585.38
377.222	587.38
377.448	575.38
377.674	547.38
377.899	563.38
378.125	565.38
378.35	564.38
378.576	565.38
378.802	574.38
379.027	591.38
379.253	578.38
379.478	577.38
379.704	599.38
379.929	603.38
380.155	599.38
380.38	579.38
380.606	592.38
380.831	603.38
381.057	595.38
381.282	601.38
381.507	585.38
381.733	609.38
381.958	597.38
382.184	619.38
382.409	609.38
382.634	609.38
382.86	636.38
383.085	653.38
383.31	645.38
383.535	620.38
383.761	655.38
383.986	646.38
384.211	650.38
384.436	639.38
384.662	661.38
384.887	677.38
385.112	691.38
385.337	669.38
385.562	668.38
385.787	703.38
386.013	747.38
386.238	724.38
386.463	686.38
386.688	701.38
386.913	691.38
387.138	679.38
387.363	657.38
387.588	678.38
387.813	660.38
388.038	700.38
388.263	702.38
388.488	705.38
388.713	681.38
388.938	682.38
389.163	668.38
389.387	674.38
389.612	682.38
389.837	679.38
390.062	660.38
390.287	691.38
390.512	673.38
390.736	673.38
390.961	690.38
391.186	715.38
391.411	721.38
391.636	747.38
391.86	752.38
392.085	756.38
392.31	744.38
392.534	703.38
392.759	712.38
392.984	701.38
393.208	700.38
393.433	716.38
393.658	719.38
393.882	715.38
394.107	713.38
394.331	708.38
394.556	698.38
394.78	734.38
395.005	742.38
395.229	706.38
395.454	766.38
395.678	747.38
395.903	761.38
396.127	753.38
396.352	760.38
396.576	714.38
396.801	707.38
397.025	738.38
397.249	745.38
397.474	773.38
397.698	749.38
397.922	768.38
398.147	791.38
398.371	812.38
398.595	833.38
398.82	856.38
399.044	914.38
399.268	1015.38
399.492	1072.38
399.717	1141.38
399.941	1082.38
400.165	1027.38
400.389	973.38
400.613	895.38
400.837	887.38
401.062	848.38
401.286	878.38
401.51	849.38
401.734	841.38
401.958	869.38
402.182	915.38
402.406	969.38
402.63	915.38
402.854	912.38
403.078	923.38
403.302	907.38
403.526	915.38
403.75	939.38
403.974	941.38
404.198	918.38
404.422	987.38
404.645	944.38
404.869	941.38
405.093	966.38
405.317	973.38
405.541	967.38
405.765	911.38
405.988	943.38
406.212	1057.38
406.436	1092.38
406.66	1067.38
406.883	1037.38
407.107	1093.38
407.331	1139.38
407.555	1135.38
407.778	1100.38
408.002	1003.38
408.226	981.38
408.449	987.38
408.673	973.38
408.896	976.38
409.12	1013.38
409.344	929.38
409.567	891.38
409.791	899.38
410.014	859.38
410.238	882.38
410.461	878.38
410.685	891.38
410.908	903.38
411.132	966.38
411.355	929.38
411.578	861.38
411.802	851.38
412.025	826.38
412.249	851.38
412.472	855.38
412.695	837.38
412.919	822.38
413.142	801.38
413.365	811.38
413.589	811.38
413.812	838.38
414.035	824.38
414.258	821.38
414.482	812.38
414.705	823.38
414.928	827.38
415.151	823.38
415.374	803.38
415.597	784.38
415.821	786.38
416.044	784.38
416.267	813.38
416.49	778.38
416.713	780.38
416.936	814.38
417.159	803.38
417.382	803.38
417.605	822.38
417.828	876.38
418.051	846.38
418.274	840.38
418.497	807.38
418.72	815.38
418.943	832.38
419.166	841.38
419.389	868.38
419.611	869.38
419.834	837.38
420.057	872.38
420.28	830.38
420.503	832.38
420.726	850.38
420.948	859.38
421.171	890.38
421.394	906.38
421.617	852.38
421.839	845.38
422.062	856.38
422.285	890.38
422.507	968.38
422.73	1004.38
422.953	911.38
423.175	880.38
423.398	885.38
423.621	886.38
423.843	963.38
424.066	892.38
424.288	912.38
424.511	946.38
424.733	1018.38
424.956	1069.38
425.178	1014.38
425.401	1012.38
425.623	984.38
425.846	893.38
426.068	844.38
426.291	862.38
426.513	837.38
426.735	899.38
426.958	999.38
427.18	1107.38
427.402	1308.38
427.625	1312.38
427.847	1007.38
428.069	875.38
428.292	822.38
428.514	773.38
428.736	765.38
428.958	779.38
429.181	753.38
429.403	743.38
429.625	775.38
429.847	856.38
430.069	877.38
430.292	824.38
430.514	755.38
430.736	752.38
430.958	755.38
431.18	724.38
431.402	755.38
431.624	759.38
431.846	745.38
432.068	753.38
432.29	737.38
432.512	761.38
432.734	741.38
432.956	758.38
433.178	782.38
433.4	763.38
433.622	735.38
433.844	738.38
434.066	758.38
434.287	768.38
434.509	798.38
434.731	823.38
434.953	817.38
435.175	818.38
435.397	854.38
435.618	855.38
435.84	953.38
436.062	1033.38
436.284	965.38
436.505	847.38
436.727	824.38
436.949	772.38
437.17	774.38
437.392	783.38
437.614	843.38
437.835	946.38
438.057	1055.38
438.278	1121.38
438.5	1075.38
438.721	1147.38
438.943	950.38
439.165	854.38
439.386	823.38
439.608	863.38
439.829	895.38
440.05	964.38
440.272	999.38
440.493	881.38
440.715	812.38
440.936	825.38
441.158	823.38
441.379	840.38
441.6	861.38
441.822	909.38
442.043	1015.38
442.264	1074.38
442.486	998.38
442.707	897.38
442.928	941.38
443.149	966.38
443.371	1002.38
443.592	1061.38
443.813	1168.38
444.034	1094.38
444.255	933.38
444.476	943.38
444.698	949.38
444.919	921.38
445.14	988.38
445.361	992.38
445.582	1066.38
445.803	1235.38
446.024	1272.38
446.245	1152.38
446.466	960.38
446.687	837.38
446.908	808.38
447.129	758.38
447.35	785.38
447.571	747.38
447.792	767.38
448.013	772.38
448.234	826.38
448.455	954.38
448.675	1070.38
448.896	1061.38
449.117	916.38
449.338	988.38
449.559	1154.38
449.779	1053.38
450	829.38
450.221	757.38
450.442	780.38
450.662	770.38
450.883	832.38
451.104	845.38
451.324	776.38
451.545	728.38
451.766	700.38
451.986	704.38
452.207	687.38
452.428	677.38
452.648	697.38
452.869	722.38
453.089	735.38
453.31	760.38
453.53	687.38
453.751	685.38
453.971	733.38
454.192	792.38
454.412	686.38
454.633	703.38
454.853	655.38
455.073	697.38
455.294	752.38
455.514	804.38
455.734	684.38
455.955	630.38
456.175	632.38
456.395	608.38
456.616	615.38
456.836	607.38
457.056	629.38
457.276	623.38
457.497	625.38
457.717	659.38
457.937	646.38
458.157	683.38
458.377	711.38
458.598	800.38
458.818	1013.38
459.038	1039.38
459.258	922.38
459.478	799.38
459.698	768.38
459.918	779.38
460.138	792.38
460.358	806.38
460.578	821.38
460.798	840.38
461.018	819.38
461.238	790.38
461.458	801.38
461.678	784.38
461.898	795.38
462.118	837.38
462.338	844.38
462.558	854.38
462.777	911.38
462.997	972.38
463.217	955.38
463.437	931.38
463.657	884.38
463.876	914.38
464.096	914.38
464.316	919.38
464.536	917.38
464.755	928.38
464.975	973.38
465.195	1215.38
465.414	1111.38
465.634	840.38
465.854	783.38
466.073	763.38
466.293	724.38
466.512	709.38
466.732	719.38
466.951	731.38
467.171	704.38
467.391	773.38
467.61	802.38
467.829	761.38
468.049	728.38
468.268	689.38
468.488	712.38
468.707	684.38
468.927	677.38
469.146	693.38
469.365	688.38
469.585	706.38
469.804	756.38
470.023	749.38
470.243	759.38
470.462	785.38
470.681	793.38
470.901	761.38
471.12	719.38
471.339	725.38
471.558	701.38
471.777	695.38
471.997	667.38
472.216	664.38
472.435	658.38
472.654	664.38
472.873	645.38
473.092	664.38
473.311	695.38
473.53	674.38
473.749	715.38
473.968	804.38
474.187	898.38
474.406	811.38
474.625	737.38
474.844	684.38
475.063	699.38
475.282	686.38
475.501	662.38
475.72	704.38
475.939	693.38
476.158	703.38
476.377	687.38
476.596	729.38
476.814	751.38
477.033	760.38
477.252	757.38
477.471	752.38
477.69	795.38
477.908	761.38
478.127	769.38
478.346	767.38
478.564	814.38
478.783	824.38
479.002	833.38
479.22	883.38
479.439	886.38
479.658	896.38
479.876	896.38
480.095	873.38
480.313	925.38
480.532	880.38
480.751	897.38
480.969	872.38
481.188	854.38
481.406	812.38
481.624	811.38
481.843	785.38
482.061	792.38
482.28	780.38
482.498	771.38
482.717	778.38
482.935	787.38
483.153	790.38
483.372	792.38
483.59	812.38
483.808	792.38
484.027	795.38
484.245	803.38
484.463	788.38
484.681	824.38
484.9	811.38
485.118	837.38
485.336	823.38
485.554	817.38
485.772	816.38
485.99	835.38
486.209	842.38
486.427	843.38
486.645	888.38
486.863	908.38
487.081	862.38
487.299	852.38
487.517	861.38
487.735	849.38
487.953	866.38
488.171	847.38
488.389	837.38
488.607	859.38
488.825	848.38
489.043	831.38
489.261	846.38
489.479	834.38
489.696	831.38
489.914	864.38
490.132	867.38
490.35	921.38
490.568	900.38
490.786	922.38
491.003	912.38
491.221	953.38
491.439	975.38
491.657	984.38
491.874	1005.38
492.092	1012.38
492.31	996.38
492.527	973.38
492.745	973.38
492.963	993.38
493.18	981.38
493.398	1007.38
493.615	1029.38
493.833	1019.38
494.05	1017.38
494.268	978.38
494.485	959.38
494.703	1007.38
494.92	989.38
495.138	983.38
495.355	980.38
495.573	1005.38
495.79	984.38
496.008	991.38
496.225	1012.38
496.442	984.38
496.66	1002.38
496.877	994.38
497.094	998.38
497.312	1004.38
497.529	1020.38
497.746	1076.38
497.963	1053.38
498.181	1125.38
498.398	1159.38
498.615	1257.38
498.832	1292.38
499.049	1298.38
499.267	1380.38
499.484	1436.38
499.701	1564.38
499.918	1724.38
500.135	1854.38
500.352	1963.38
500.569	1981.38
500.786	1899.38
501.003	1791.38
501.22	1697.38
501.437	1567.38
