Data from TestCu_HRD10591_00041.txt Node
Date: Thu Oct 05 14:05:21 EDT 2023
User: Yrep
Spectrometer: HR+D1059
Trigger mode: 1
Integration Time (sec): 1.000000E-1
Scans to average: 1
Electric dark correction enabled: true
Nonlinearity correction enabled: false
Boxcar width: 0
XAxis mode: Wavelengths
Number of Pixels in Spectrum: 2048
>>>>>Begin Spectral Data<<<<<
223.165	-11.12
223.4	-11.12
223.635	-11.12
223.869	-30.12
224.104	-26.12
224.338	-21.12
224.573	-12.12
224.808	-22.12
225.042	0.88
225.277	0.88
225.511	1.88
225.746	-2.12
225.98	11.88
226.215	6.88
226.449	11.88
226.683	22.88
226.918	28.88
227.152	38.88
227.387	23.88
227.621	35.88
227.856	38.88
228.09	43.88
228.324	56.88
228.559	53.88
228.793	65.88
229.027	96.88
229.262	125.88
229.496	128.88
229.73	147.88
229.964	149.88
230.199	124.88
230.433	95.88
230.667	111.88
230.901	105.88
231.136	100.88
231.37	113.88
231.604	105.88
231.838	100.88
232.072	108.88
232.306	116.88
232.541	112.88
232.775	107.88
233.009	104.88
233.243	97.88
233.477	104.88
233.711	106.88
233.945	122.88
234.179	120.88
234.413	117.88
234.647	136.88
234.881	114.88
235.115	117.88
235.349	119.88
235.583	122.88
235.817	119.88
236.051	117.88
236.285	127.88
236.519	113.88
236.753	141.88
236.987	169.88
237.221	211.88
237.455	211.88
237.689	150.88
237.922	132.88
238.156	131.88
238.39	109.88
238.624	111.88
238.858	126.88
239.091	112.88
239.325	128.88
239.559	118.88
239.793	139.88
240.027	155.88
240.26	147.88
240.494	152.88
240.728	145.88
240.961	116.88
241.195	132.88
241.429	129.88
241.662	131.88
241.896	121.88
242.13	125.88
242.363	140.88
242.597	132.88
242.83	142.88
243.064	132.88
243.298	142.88
243.531	123.88
243.765	117.88
243.998	129.88
244.232	132.88
244.465	145.88
244.699	149.88
244.932	132.88
245.166	114.88
245.399	137.88
245.633	137.88
245.866	143.88
246.099	152.88
246.333	140.88
246.566	145.88
246.8	159.88
247.033	152.88
247.266	141.88
247.5	152.88
247.733	152.88
247.966	156.88
248.2	141.88
248.433	152.88
248.666	170.88
248.899	178.88
249.133	212.88
249.366	208.88
249.599	195.88
249.832	162.88
250.066	165.88
250.299	177.88
250.532	168.88
250.765	181.88
250.998	206.88
251.231	192.88
251.465	173.88
251.698	179.88
251.931	168.88
252.164	160.88
252.397	166.88
252.63	197.88
252.863	200.88
253.096	208.88
253.329	204.88
253.562	224.88
253.795	208.88
254.028	185.88
254.261	200.88
254.494	218.88
254.727	264.88
254.96	233.88
255.193	225.88
255.426	196.88
255.659	196.88
255.892	191.88
256.124	188.88
256.357	180.88
256.59	194.88
256.823	187.88
257.056	206.88
257.289	186.88
257.521	178.88
257.754	184.88
257.987	181.88
258.22	178.88
258.452	196.88
258.685	197.88
258.918	189.88
259.151	205.88
259.383	214.88
259.616	195.88
259.849	202.88
260.081	227.88
260.314	232.88
260.547	227.88
260.779	208.88
261.012	216.88
261.244	197.88
261.477	204.88
261.71	227.88
261.942	241.88
262.175	242.88
262.407	213.88
262.64	195.88
262.872	211.88
263.105	206.88
263.337	207.88
263.57	202.88
263.802	200.88
264.035	211.88
264.267	218.88
264.499	227.88
264.732	197.88
264.964	221.88
265.197	202.88
265.429	194.88
265.661	200.88
265.894	221.88
266.126	201.88
266.358	212.88
266.591	214.88
266.823	226.88
267.055	225.88
267.287	217.88
267.52	213.88
267.752	247.88
267.984	241.88
268.216	219.88
268.448	233.88
268.681	245.88
268.913	270.88
269.145	272.88
269.377	274.88
269.609	248.88
269.841	268.88
270.073	283.88
270.306	302.88
270.538	322.88
270.77	278.88
271.002	277.88
271.234	290.88
271.466	300.88
271.698	312.88
271.93	314.88
272.162	284.88
272.394	310.88
272.626	277.88
272.858	266.88
273.09	252.88
273.322	259.88
273.553	260.88
273.785	257.88
274.017	260.88
274.249	257.88
274.481	260.88
274.713	254.88
274.945	272.88
275.176	258.88
275.408	270.88
275.64	259.88
275.872	259.88
276.104	269.88
276.335	280.88
276.567	285.88
276.799	313.88
277.031	349.88
277.262	324.88
277.494	307.88
277.726	291.88
277.957	285.88
278.189	267.88
278.421	271.88
278.652	276.88
278.884	270.88
279.115	249.88
279.347	260.88
279.579	272.88
279.81	261.88
280.042	257.88
280.273	278.88
280.505	275.88
280.736	264.88
280.968	259.88
281.199	280.88
281.431	272.88
281.662	280.88
281.894	283.88
282.125	309.88
282.356	345.88
282.588	360.88
282.819	329.88
283.051	289.88
283.282	292.88
283.513	299.88
283.745	300.88
283.976	316.88
284.207	290.88
284.439	293.88
284.67	271.88
284.901	296.88
285.132	286.88
285.364	305.88
285.595	288.88
285.826	302.88
286.057	317.88
286.288	291.88
286.52	303.88
286.751	300.88
286.982	294.88
287.213	297.88
287.444	324.88
287.675	310.88
287.906	334.88
288.138	329.88
288.369	326.88
288.6	317.88
288.831	318.88
289.062	314.88
289.293	313.88
289.524	307.88
289.755	311.88
289.986	315.88
290.217	317.88
290.448	301.88
290.679	317.88
290.91	296.88
291.141	319.88
291.371	331.88
291.602	315.88
291.833	316.88
292.064	315.88
292.295	336.88
292.526	343.88
292.757	316.88
292.987	332.88
293.218	327.88
293.449	320.88
293.68	345.88
293.91	326.88
294.141	325.88
294.372	317.88
294.603	331.88
294.833	329.88
295.064	325.88
295.295	331.88
295.525	340.88
295.756	364.88
295.987	370.88
296.217	393.88
296.448	364.88
296.679	354.88
296.909	340.88
297.14	326.88
297.37	335.88
297.601	356.88
297.831	356.88
298.062	337.88
298.292	360.88
298.523	346.88
298.753	374.88
298.984	354.88
299.214	352.88
299.445	359.88
299.675	371.88
299.905	364.88
300.136	356.88
300.366	362.88
300.597	377.88
300.827	390.88
301.057	398.88
301.288	391.88
301.518	367.88
301.748	375.88
301.979	410.88
302.209	403.88
302.439	398.88
302.669	399.88
302.9	372.88
303.13	365.88
303.36	385.88
303.59	402.88
303.82	412.88
304.051	414.88
304.281	401.88
304.511	379.88
304.741	360.88
304.971	356.88
305.201	377.88
305.431	352.88
305.661	373.88
305.891	394.88
306.121	377.88
306.352	416.88
306.582	380.88
306.812	397.88
307.042	399.88
307.272	384.88
307.502	378.88
307.731	397.88
307.961	402.88
308.191	392.88
308.421	397.88
308.651	400.88
308.881	379.88
309.111	414.88
309.341	420.88
309.571	416.88
309.8	448.88
310.03	475.88
310.26	447.88
310.49	476.88
310.72	486.88
310.949	498.88
311.179	475.88
311.409	438.88
311.639	462.88
311.868	453.88
312.098	480.88
312.328	486.88
312.557	525.88
312.787	508.88
313.017	478.88
313.246	454.88
313.476	469.88
313.706	478.88
313.935	483.88
314.165	489.88
314.394	497.88
314.624	487.88
314.853	467.88
315.083	451.88
315.312	438.88
315.542	447.88
315.771	424.88
316.001	445.88
316.23	438.88
316.46	454.88
316.689	468.88
316.919	465.88
317.148	492.88
317.377	490.88
317.607	476.88
317.836	475.88
318.065	447.88
318.295	447.88
318.524	445.88
318.753	444.88
318.983	465.88
319.212	478.88
319.441	496.88
319.67	480.88
319.9	454.88
320.129	463.88
320.358	469.88
320.587	489.88
320.816	483.88
321.046	492.88
321.275	500.88
321.504	495.88
321.733	520.88
321.962	530.88
322.191	542.88
322.42	561.88
322.649	596.88
322.878	609.88
323.108	625.88
323.337	668.88
323.566	725.88
323.795	826.88
324.024	1116.88
324.253	1927.88
324.482	3288.88
324.71	4859.88
324.939	4209.88
325.168	1872.88
325.397	910.88
325.626	706.88
325.855	645.88
326.084	620.88
326.313	684.88
326.542	808.88
326.77	1050.88
326.999	1780.88
327.228	2810.88
327.457	3488.88
327.686	2297.88
327.914	1114.88
328.143	862.88
328.372	794.88
328.6	788.88
328.829	801.88
329.058	841.88
329.287	778.88
329.515	689.88
329.744	602.88
329.972	629.88
330.201	690.88
330.43	764.88
330.658	883.88
330.887	913.88
331.115	750.88
331.344	673.88
331.572	642.88
331.801	676.88
332.03	643.88
332.258	616.88
332.486	593.88
332.715	585.88
332.943	623.88
333.172	643.88
333.4	641.88
333.629	642.88
333.857	649.88
334.085	636.88
334.314	630.88
334.542	612.88
334.771	638.88
334.999	622.88
335.227	613.88
335.455	611.88
335.684	594.88
335.912	593.88
336.14	616.88
336.369	612.88
336.597	652.88
336.825	604.88
337.053	605.88
337.281	580.88
337.51	582.88
337.738	582.88
337.966	598.88
338.194	573.88
338.422	583.88
338.65	573.88
338.878	572.88
339.106	570.88
339.334	548.88
339.562	547.88
339.79	580.88
340.018	593.88
340.246	598.88
340.474	574.88
340.702	546.88
340.93	549.88
341.158	588.88
341.386	576.88
341.614	584.88
341.842	557.88
342.07	536.88
342.298	546.88
342.526	540.88
342.754	560.88
342.981	552.88
343.209	541.88
343.437	589.88
343.665	590.88
343.893	622.88
344.12	620.88
344.348	598.88
344.576	588.88
344.804	654.88
345.031	608.88
345.259	579.88
345.487	598.88
345.714	570.88
345.942	529.88
346.17	562.88
346.397	556.88
346.625	546.88
346.853	553.88
347.08	555.88
347.308	571.88
347.535	585.88
347.763	584.88
347.99	584.88
348.218	611.88
348.445	603.88
348.673	568.88
348.9	560.88
349.128	520.88
349.355	525.88
349.583	536.88
349.81	531.88
350.037	512.88
350.265	524.88
350.492	520.88
350.72	526.88
350.947	563.88
351.174	622.88
351.402	570.88
351.629	562.88
351.856	615.88
352.083	614.88
352.311	589.88
352.538	596.88
352.765	560.88
352.992	587.88
353.22	574.88
353.447	564.88
353.674	549.88
353.901	518.88
354.128	492.88
354.355	524.88
354.583	525.88
354.81	534.88
355.037	530.88
355.264	509.88
355.491	502.88
355.718	504.88
355.945	501.88
356.172	502.88
356.399	505.88
356.626	496.88
356.853	492.88
357.08	525.88
357.307	508.88
357.534	502.88
357.761	516.88
357.988	513.88
358.215	520.88
358.441	508.88
358.668	530.88
358.895	533.88
359.122	542.88
359.349	586.88
359.576	617.88
359.802	682.88
360.029	707.88
360.256	688.88
360.483	585.88
360.709	572.88
360.936	562.88
361.163	590.88
361.39	583.88
361.616	566.88
361.843	558.88
362.07	587.88
362.296	600.88
362.523	574.88
362.749	573.88
362.976	576.88
363.203	546.88
363.429	543.88
363.656	547.88
363.882	529.88
364.109	548.88
364.335	552.88
364.562	553.88
364.788	550.88
365.015	525.88
365.241	562.88
365.468	586.88
365.694	565.88
365.92	565.88
366.147	561.88
366.373	566.88
366.599	528.88
366.826	540.88
367.052	544.88
367.278	539.88
367.505	576.88
367.731	572.88
367.957	533.88
368.184	564.88
368.41	575.88
368.636	581.88
368.862	579.88
369.089	552.88
369.315	539.88
369.541	565.88
369.767	567.88
369.993	559.88
370.219	578.88
370.445	565.88
370.672	545.88
370.898	543.88
371.124	542.88
371.35	543.88
371.576	554.88
371.802	542.88
372.028	565.88
372.254	567.88
372.48	548.88
372.706	596.88
372.932	572.88
373.158	575.88
373.384	552.88
373.61	584.88
373.835	576.88
374.061	581.88
374.287	588.88
374.513	582.88
374.739	593.88
374.965	604.88
375.191	573.88
375.416	592.88
375.642	570.88
375.868	554.88
376.094	543.88
376.319	565.88
376.545	597.88
376.771	586.88
376.997	551.88
377.222	567.88
377.448	564.88
377.674	553.88
377.899	561.88
378.125	564.88
378.35	547.88
378.576	541.88
378.802	544.88
379.027	550.88
379.253	563.88
379.478	552.88
379.704	555.88
379.929	575.88
380.155	581.88
380.38	555.88
380.606	562.88
380.831	578.88
381.057	581.88
381.282	554.88
381.507	595.88
381.733	600.88
381.958	581.88
382.184	578.88
382.409	574.88
382.634	593.88
382.86	582.88
383.085	597.88
383.31	614.88
383.535	615.88
383.761	611.88
383.986	618.88
384.211	634.88
384.436	627.88
384.662	636.88
384.887	647.88
385.112	660.88
385.337	648.88
385.562	640.88
385.787	643.88
386.013	684.88
386.238	686.88
386.463	660.88
386.688	642.88
386.913	655.88
387.138	648.88
387.363	640.88
387.588	646.88
387.813	653.88
388.038	640.88
388.263	649.88
388.488	643.88
388.713	645.88
388.938	657.88
389.163	656.88
389.387	650.88
389.612	622.88
389.837	649.88
390.062	666.88
390.287	645.88
390.512	676.88
390.736	682.88
390.961	659.88
391.186	670.88
391.411	674.88
391.636	694.88
391.86	699.88
392.085	700.88
392.31	692.88
392.534	676.88
392.759	666.88
392.984	651.88
393.208	676.88
393.433	676.88
393.658	659.88
393.882	685.88
394.107	678.88
394.331	692.88
394.556	683.88
394.78	701.88
395.005	698.88
395.229	681.88
395.454	713.88
395.678	733.88
395.903	696.88
396.127	714.88
396.352	704.88
396.576	686.88
396.801	690.88
397.025	696.88
397.249	705.88
397.474	723.88
397.698	736.88
397.922	736.88
398.147	760.88
398.371	795.88
398.595	780.88
398.82	811.88
399.044	870.88
399.268	932.88
399.492	1083.88
399.717	1088.88
399.941	1026.88
400.165	997.88
400.389	934.88
400.613	874.88
400.837	829.88
401.062	815.88
401.286	810.88
401.51	804.88
401.734	812.88
401.958	830.88
402.182	853.88
402.406	908.88
402.63	882.88
402.854	874.88
403.078	847.88
403.302	868.88
403.526	864.88
403.75	857.88
403.974	878.88
404.198	883.88
404.422	896.88
404.645	869.88
404.869	905.88
405.093	899.88
405.317	908.88
405.541	881.88
405.765	912.88
405.988	936.88
406.212	1007.88
406.436	1059.88
406.66	1011.88
406.883	1002.88
407.107	1048.88
407.331	1055.88
407.555	1096.88
407.778	1078.88
408.002	978.88
408.226	916.88
408.449	929.88
408.673	922.88
408.896	930.88
409.12	948.88
409.344	874.88
409.567	832.88
409.791	827.88
410.014	843.88
410.238	831.88
410.461	856.88
410.685	842.88
410.908	870.88
411.132	895.88
411.355	860.88
411.578	844.88
411.802	801.88
412.025	808.88
412.249	830.88
412.472	825.88
412.695	788.88
412.919	775.88
413.142	797.88
413.365	762.88
413.589	788.88
413.812	763.88
414.035	782.88
414.258	782.88
414.482	775.88
414.705	792.88
414.928	754.88
415.151	798.88
415.374	798.88
415.597	794.88
415.821	780.88
416.044	752.88
416.267	732.88
416.49	761.88
416.713	766.88
416.936	787.88
417.159	767.88
417.382	750.88
417.605	782.88
417.828	800.88
418.051	800.88
418.274	798.88
418.497	786.88
418.72	777.88
418.943	792.88
419.166	791.88
419.389	833.88
419.611	823.88
419.834	826.88
420.057	786.88
420.28	811.88
420.503	775.88
420.726	796.88
420.948	818.88
421.171	841.88
421.394	832.88
421.617	778.88
421.839	781.88
422.062	830.88
422.285	861.88
422.507	909.88
422.73	957.88
422.953	865.88
423.175	828.88
423.398	840.88
423.621	838.88
423.843	853.88
424.066	865.88
424.288	855.88
424.511	901.88
424.733	964.88
424.956	1024.88
425.178	972.88
425.401	949.88
425.623	933.88
425.846	834.88
426.068	841.88
426.291	794.88
426.513	797.88
426.735	842.88
426.958	937.88
427.18	1043.88
427.402	1201.88
427.625	1228.88
427.847	967.88
428.069	808.88
428.292	794.88
428.514	749.88
428.736	745.88
428.958	744.88
429.181	708.88
429.403	748.88
429.625	790.88
429.847	812.88
430.069	835.88
430.292	770.88
430.514	744.88
430.736	736.88
430.958	707.88
431.18	710.88
431.402	674.88
431.624	691.88
431.846	702.88
432.068	716.88
432.29	721.88
432.512	726.88
432.734	718.88
432.956	757.88
433.178	742.88
433.4	756.88
433.622	719.88
433.844	699.88
434.066	738.88
434.287	725.88
434.509	755.88
434.731	749.88
434.953	795.88
435.175	785.88
435.397	792.88
435.618	835.88
435.84	909.88
436.062	964.88
436.284	916.88
436.505	834.88
436.727	766.88
436.949	741.88
437.17	757.88
437.392	730.88
437.614	772.88
437.835	869.88
438.057	982.88
438.278	1067.88
438.5	1027.88
438.721	1085.88
438.943	910.88
439.165	795.88
439.386	785.88
439.608	816.88
439.829	887.88
440.05	936.88
440.272	960.88
440.493	810.88
440.715	759.88
440.936	749.88
441.158	773.88
441.379	800.88
441.6	859.88
441.822	885.88
442.043	946.88
442.264	996.88
442.486	934.88
442.707	867.88
442.928	867.88
443.149	905.88
443.371	954.88
443.592	1026.88
443.813	1112.88
444.034	1036.88
444.255	904.88
444.476	911.88
444.698	901.88
444.919	885.88
445.14	926.88
445.361	945.88
445.582	1022.88
445.803	1149.88
446.024	1161.88
446.245	1089.88
446.466	954.88
446.687	783.88
446.908	784.88
447.129	740.88
447.35	714.88
447.571	738.88
447.792	724.88
448.013	744.88
448.234	788.88
448.455	892.88
448.675	1021.88
448.896	976.88
449.117	850.88
449.338	975.88
449.559	1100.88
449.779	1002.88
450	800.88
450.221	750.88
450.442	734.88
450.662	734.88
450.883	794.88
451.104	822.88
451.324	728.88
451.545	695.88
451.766	654.88
451.986	661.88
452.207	641.88
452.428	676.88
452.648	676.88
452.869	668.88
453.089	684.88
453.31	713.88
453.53	661.88
453.751	667.88
453.971	713.88
454.192	699.88
454.412	653.88
454.633	659.88
454.853	634.88
455.073	658.88
455.294	698.88
455.514	750.88
455.734	674.88
455.955	619.88
456.175	604.88
456.395	589.88
456.616	594.88
456.836	578.88
457.056	590.88
457.276	574.88
457.497	622.88
457.717	624.88
457.937	622.88
458.157	643.88
458.377	666.88
458.598	755.88
458.818	964.88
459.038	1000.88
459.258	868.88
459.478	757.88
459.698	720.88
459.918	744.88
460.138	732.88
460.358	781.88
460.578	742.88
460.798	764.88
461.018	788.88
461.238	748.88
461.458	761.88
461.678	765.88
461.898	742.88
462.118	777.88
462.338	792.88
462.558	826.88
462.777	845.88
462.997	919.88
463.217	937.88
463.437	872.88
463.657	826.88
463.876	849.88
464.096	860.88
464.316	864.88
464.536	873.88
464.755	888.88
464.975	941.88
465.195	1124.88
465.414	1052.88
465.634	828.88
465.854	742.88
466.073	728.88
466.293	688.88
466.512	666.88
466.732	668.88
466.951	670.88
467.171	670.88
467.391	717.88
467.61	738.88
467.829	724.88
468.049	677.88
468.268	670.88
468.488	666.88
468.707	640.88
468.927	646.88
469.146	651.88
469.365	672.88
469.585	672.88
469.804	727.88
470.023	738.88
470.243	703.88
470.462	774.88
470.681	772.88
470.901	715.88
471.12	690.88
471.339	702.88
471.558	645.88
471.777	647.88
471.997	667.88
472.216	646.88
472.435	640.88
472.654	622.88
472.873	645.88
473.092	649.88
473.311	634.88
473.53	669.88
473.749	690.88
473.968	760.88
474.187	870.88
474.406	776.88
474.625	666.88
474.844	653.88
475.063	639.88
475.282	627.88
475.501	647.88
475.72	686.88
475.939	663.88
476.158	673.88
476.377	676.88
476.596	686.88
476.814	710.88
477.033	723.88
477.252	699.88
477.471	729.88
477.69	757.88
477.908	753.88
478.127	755.88
478.346	750.88
478.564	774.88
478.783	777.88
479.002	790.88
479.22	788.88
479.439	848.88
479.658	846.88
479.876	816.88
480.095	862.88
480.313	883.88
480.532	863.88
480.751	818.88
480.969	809.88
481.188	767.88
481.406	798.88
481.624	762.88
481.843	747.88
482.061	764.88
482.28	757.88
482.498	734.88
482.717	746.88
482.935	731.88
483.153	725.88
483.372	749.88
483.59	754.88
483.808	739.88
484.027	752.88
484.245	748.88
484.463	784.88
484.681	774.88
484.9	786.88
485.118	776.88
485.336	761.88
485.554	761.88
485.772	784.88
485.99	820.88
486.209	803.88
486.427	826.88
486.645	846.88
486.863	852.88
487.081	829.88
487.299	828.88
487.517	802.88
487.735	809.88
487.953	805.88
488.171	835.88
488.389	814.88
488.607	802.88
488.825	821.88
489.043	805.88
489.261	793.88
489.479	800.88
489.696	810.88
489.914	812.88
490.132	813.88
490.35	845.88
490.568	832.88
490.786	860.88
491.003	905.88
491.221	900.88
491.439	925.88
491.657	918.88
491.874	964.88
492.092	932.88
492.31	936.88
492.527	929.88
492.745	940.88
492.963	973.88
493.18	970.88
493.398	958.88
493.615	950.88
493.833	972.88
494.05	962.88
494.268	982.88
494.485	957.88
494.703	918.88
494.92	922.88
495.138	948.88
495.355	940.88
495.573	970.88
495.79	973.88
496.008	948.88
496.225	949.88
496.442	957.88
496.66	945.88
496.877	940.88
497.094	971.88
497.312	961.88
497.529	993.88
497.746	1015.88
497.963	1067.88
498.181	1082.88
498.398	1110.88
498.615	1167.88
498.832	1198.88
499.049	1240.88
499.267	1315.88
499.484	1414.88
499.701	1517.88
499.918	1628.88
500.135	1772.88
500.352	1854.88
500.569	1855.88
500.786	1793.88
501.003	1706.88
501.22	1580.88
501.437	1519.88
501.654	1454.88
501.871	1381.88
