Data from TestCu_HRD10591_00027.txt Node
Date: Thu Oct 05 14:05:08 EDT 2023
User: Yrep
Spectrometer: HR+D1059
Trigger mode: 1
Integration Time (sec): 1.000000E-1
Scans to average: 1
Electric dark correction enabled: true
Nonlinearity correction enabled: false
Boxcar width: 0
XAxis mode: Wavelengths
Number of Pixels in Spectrum: 2048
>>>>>Begin Spectral Data<<<<<
223.165	-5.44
223.4	-5.44
223.635	-5.44
223.869	-11.44
224.104	-30.44
224.338	-24.44
224.573	-14.44
224.808	-29.44
225.042	-6.44
225.277	-2.44
225.511	10.56
225.746	8.56
225.98	12.56
226.215	11.56
226.449	15.56
226.683	12.56
226.918	37.56
227.152	15.56
227.387	41.56
227.621	39.56
227.856	54.56
228.09	43.56
228.324	48.56
228.559	69.56
228.793	57.56
229.027	110.56
229.262	112.56
229.496	138.56
229.73	173.56
229.964	155.56
230.199	116.56
230.433	111.56
230.667	125.56
230.901	106.56
231.136	115.56
231.37	115.56
231.604	102.56
231.838	111.56
232.072	106.56
232.306	110.56
232.541	121.56
232.775	135.56
233.009	112.56
233.243	109.56
233.477	89.56
233.711	109.56
233.945	122.56
234.179	124.56
234.413	109.56
234.647	113.56
234.881	108.56
235.115	124.56
235.349	110.56
235.583	122.56
235.817	125.56
236.051	132.56
236.285	123.56
236.519	119.56
236.753	135.56
236.987	176.56
237.221	242.56
237.455	234.56
237.689	154.56
237.922	140.56
238.156	125.56
238.39	138.56
238.624	125.56
238.858	134.56
239.091	124.56
239.325	140.56
239.559	139.56
239.793	134.56
240.027	159.56
240.26	155.56
240.494	167.56
240.728	146.56
240.961	144.56
241.195	143.56
241.429	129.56
241.662	141.56
241.896	128.56
242.13	123.56
242.363	138.56
242.597	133.56
242.83	146.56
243.064	141.56
243.298	119.56
243.531	140.56
243.765	134.56
243.998	127.56
244.232	141.56
244.465	142.56
244.699	141.56
244.932	122.56
245.166	116.56
245.399	129.56
245.633	137.56
245.866	133.56
246.099	143.56
246.333	148.56
246.566	157.56
246.8	141.56
247.033	145.56
247.266	167.56
247.5	167.56
247.733	181.56
247.966	163.56
248.2	169.56
248.433	171.56
248.666	180.56
248.899	184.56
249.133	217.56
249.366	217.56
249.599	205.56
249.832	175.56
250.066	199.56
250.299	166.56
250.532	207.56
250.765	209.56
250.998	225.56
251.231	201.56
251.465	191.56
251.698	198.56
251.931	190.56
252.164	194.56
252.397	188.56
252.63	203.56
252.863	218.56
253.096	212.56
253.329	218.56
253.562	190.56
253.795	198.56
254.028	202.56
254.261	228.56
254.494	265.56
254.727	281.56
254.96	253.56
255.193	222.56
255.426	209.56
255.659	193.56
255.892	203.56
256.124	176.56
256.357	197.56
256.59	196.56
256.823	191.56
257.056	194.56
257.289	198.56
257.521	207.56
257.754	197.56
257.987	190.56
258.22	207.56
258.452	198.56
258.685	177.56
258.918	191.56
259.151	203.56
259.383	224.56
259.616	221.56
259.849	226.56
260.081	252.56
260.314	249.56
260.547	244.56
260.779	227.56
261.012	217.56
261.244	207.56
261.477	199.56
261.71	235.56
261.942	258.56
262.175	269.56
262.407	223.56
262.64	215.56
262.872	207.56
263.105	197.56
263.337	194.56
263.57	224.56
263.802	215.56
264.035	224.56
264.267	214.56
264.499	221.56
264.732	223.56
264.964	209.56
265.197	211.56
265.429	204.56
265.661	212.56
265.894	210.56
266.126	223.56
266.358	225.56
266.591	213.56
266.823	231.56
267.055	229.56
267.287	242.56
267.52	227.56
267.752	227.56
267.984	222.56
268.216	237.56
268.448	234.56
268.681	230.56
268.913	271.56
269.145	290.56
269.377	265.56
269.609	267.56
269.841	271.56
270.073	303.56
270.306	343.56
270.538	315.56
270.77	321.56
271.002	292.56
271.234	291.56
271.466	313.56
271.698	327.56
271.93	300.56
272.162	320.56
272.394	299.56
272.626	299.56
272.858	251.56
273.09	283.56
273.322	263.56
273.553	264.56
273.785	264.56
274.017	277.56
274.249	265.56
274.481	278.56
274.713	257.56
274.945	284.56
275.176	281.56
275.408	277.56
275.64	265.56
275.872	269.56
276.104	283.56
276.335	289.56
276.567	321.56
276.799	346.56
277.031	363.56
277.262	323.56
277.494	331.56
277.726	283.56
277.957	289.56
278.189	293.56
278.421	270.56
278.652	274.56
278.884	279.56
279.115	274.56
279.347	284.56
279.579	292.56
279.81	284.56
280.042	272.56
280.273	278.56
280.505	281.56
280.736	287.56
280.968	293.56
281.199	283.56
281.431	296.56
281.662	302.56
281.894	302.56
282.125	325.56
282.356	362.56
282.588	367.56
282.819	327.56
283.051	298.56
283.282	302.56
283.513	307.56
283.745	305.56
283.976	333.56
284.207	325.56
284.439	293.56
284.67	304.56
284.901	306.56
285.132	299.56
285.364	293.56
285.595	316.56
285.826	300.56
286.057	294.56
286.288	316.56
286.52	299.56
286.751	321.56
286.982	324.56
287.213	298.56
287.444	321.56
287.675	345.56
287.906	345.56
288.138	341.56
288.369	348.56
288.6	334.56
288.831	331.56
289.062	315.56
289.293	348.56
289.524	333.56
289.755	318.56
289.986	329.56
290.217	307.56
290.448	314.56
290.679	322.56
290.91	338.56
291.141	333.56
291.371	313.56
291.602	338.56
291.833	325.56
292.064	345.56
292.295	329.56
292.526	327.56
292.757	331.56
292.987	346.56
293.218	337.56
293.449	334.56
293.68	341.56
293.91	344.56
294.141	345.56
294.372	325.56
294.603	342.56
294.833	326.56
295.064	327.56
295.295	347.56
295.525	345.56
295.756	381.56
295.987	397.56
296.217	429.56
296.448	388.56
296.679	365.56
296.909	352.56
297.14	359.56
297.37	361.56
297.601	361.56
297.831	358.56
298.062	369.56
298.292	369.56
298.523	373.56
298.753	389.56
298.984	373.56
299.214	375.56
299.445	386.56
299.675	384.56
299.905	389.56
300.136	368.56
300.366	379.56
300.597	360.56
300.827	382.56
301.057	404.56
301.288	409.56
301.518	413.56
301.748	392.56
301.979	438.56
302.209	427.56
302.439	388.56
302.669	397.56
302.9	411.56
303.13	394.56
303.36	398.56
303.59	429.56
303.82	422.56
304.051	394.56
304.281	402.56
304.511	410.56
304.741	401.56
304.971	405.56
305.201	395.56
305.431	405.56
305.661	416.56
305.891	410.56
306.121	404.56
306.352	417.56
306.582	401.56
306.812	399.56
307.042	395.56
307.272	400.56
307.502	379.56
307.731	405.56
307.961	395.56
308.191	408.56
308.421	416.56
308.651	412.56
308.881	421.56
309.111	413.56
309.341	443.56
309.571	471.56
309.8	475.56
310.03	491.56
310.26	497.56
310.49	474.56
310.72	508.56
310.949	528.56
311.179	507.56
311.409	473.56
311.639	491.56
311.868	479.56
312.098	480.56
312.328	541.56
312.557	546.56
312.787	566.56
313.017	501.56
313.246	475.56
313.476	484.56
313.706	498.56
313.935	518.56
314.165	554.56
314.394	519.56
314.624	514.56
314.853	506.56
315.083	482.56
315.312	465.56
315.542	459.56
315.771	473.56
316.001	459.56
316.23	471.56
316.46	463.56
316.689	484.56
316.919	513.56
317.148	494.56
317.377	503.56
317.607	485.56
317.836	498.56
318.065	476.56
318.295	464.56
318.524	492.56
318.753	460.56
318.983	474.56
319.212	489.56
319.441	501.56
319.67	497.56
319.9	486.56
320.129	474.56
320.358	502.56
320.587	504.56
320.816	527.56
321.046	523.56
321.275	499.56
321.504	509.56
321.733	514.56
321.962	534.56
322.191	571.56
322.42	595.56
322.649	609.56
322.878	631.56
323.108	660.56
323.337	726.56
323.566	812.56
323.795	900.56
324.024	1179.56
324.253	2053.56
324.482	3536.56
324.71	5117.56
324.939	4525.56
325.168	2002.56
325.397	947.56
325.626	747.56
325.855	657.56
326.084	678.56
326.313	729.56
326.542	825.56
326.77	1086.56
326.999	1897.56
327.228	3009.56
327.457	3781.56
327.686	2527.56
327.914	1174.56
328.143	905.56
328.372	829.56
328.6	841.56
328.829	833.56
329.058	880.56
329.287	794.56
329.515	710.56
329.744	657.56
329.972	668.56
330.201	718.56
330.43	829.56
330.658	969.56
330.887	967.56
331.115	802.56
331.344	723.56
331.572	709.56
331.801	709.56
332.03	653.56
332.258	625.56
332.486	634.56
332.715	641.56
332.943	658.56
333.172	700.56
333.4	634.56
333.629	687.56
333.857	695.56
334.085	670.56
334.314	650.56
334.542	653.56
334.771	678.56
334.999	679.56
335.227	641.56
335.455	637.56
335.684	631.56
335.912	629.56
336.14	642.56
336.369	627.56
336.597	657.56
336.825	641.56
337.053	623.56
337.281	589.56
337.51	611.56
337.738	631.56
337.966	648.56
338.194	646.56
338.422	618.56
338.65	619.56
338.878	590.56
339.106	598.56
339.334	609.56
339.562	581.56
339.79	609.56
340.018	586.56
340.246	594.56
340.474	596.56
340.702	572.56
340.93	574.56
341.158	578.56
341.386	586.56
341.614	608.56
341.842	584.56
342.07	576.56
342.298	564.56
342.526	553.56
342.754	567.56
342.981	585.56
343.209	600.56
343.437	625.56
343.665	630.56
343.893	651.56
344.12	647.56
344.348	621.56
344.576	614.56
344.804	652.56
345.031	694.56
345.259	637.56
345.487	631.56
345.714	582.56
345.942	568.56
346.17	592.56
346.397	577.56
346.625	587.56
346.853	572.56
347.08	601.56
347.308	607.56
347.535	615.56
347.763	630.56
347.99	627.56
348.218	647.56
348.445	640.56
348.673	595.56
348.9	566.56
349.128	576.56
349.355	551.56
349.583	559.56
349.81	560.56
350.037	541.56
350.265	567.56
350.492	550.56
350.72	587.56
350.947	615.56
351.174	619.56
351.402	588.56
351.629	584.56
351.856	616.56
352.083	645.56
352.311	658.56
352.538	647.56
352.765	625.56
352.992	617.56
353.22	570.56
353.447	581.56
353.674	588.56
353.901	565.56
354.128	510.56
354.355	521.56
354.583	543.56
354.81	549.56
355.037	539.56
355.264	534.56
355.491	542.56
355.718	537.56
355.945	531.56
356.172	541.56
356.399	543.56
356.626	509.56
356.853	512.56
357.08	527.56
357.307	556.56
357.534	540.56
357.761	530.56
357.988	535.56
358.215	524.56
358.441	525.56
358.668	541.56
358.895	559.56
359.122	567.56
359.349	591.56
359.576	677.56
359.802	729.56
360.029	746.56
360.256	731.56
360.483	645.56
360.709	607.56
360.936	607.56
361.163	596.56
361.39	608.56
361.616	608.56
361.843	627.56
362.07	636.56
362.296	622.56
362.523	602.56
362.749	584.56
362.976	571.56
363.203	590.56
363.429	572.56
363.656	597.56
363.882	565.56
364.109	590.56
364.335	576.56
364.562	567.56
364.788	567.56
365.015	557.56
365.241	590.56
365.468	597.56
365.694	609.56
365.92	581.56
366.147	585.56
366.373	568.56
366.599	571.56
366.826	551.56
367.052	546.56
367.278	566.56
367.505	574.56
367.731	547.56
367.957	566.56
368.184	597.56
368.41	612.56
368.636	611.56
368.862	608.56
369.089	586.56
369.315	564.56
369.541	574.56
369.767	612.56
369.993	587.56
370.219	592.56
370.445	585.56
370.672	583.56
370.898	566.56
371.124	582.56
371.35	605.56
371.576	589.56
371.802	565.56
372.028	573.56
372.254	589.56
372.48	583.56
372.706	581.56
372.932	588.56
373.158	588.56
373.384	571.56
373.61	605.56
373.835	585.56
374.061	591.56
374.287	602.56
374.513	616.56
374.739	627.56
374.965	638.56
375.191	604.56
375.416	602.56
375.642	590.56
375.868	601.56
376.094	625.56
376.319	593.56
376.545	570.56
376.771	583.56
376.997	574.56
377.222	575.56
377.448	563.56
377.674	564.56
377.899	577.56
378.125	573.56
378.35	582.56
378.576	550.56
378.802	573.56
379.027	597.56
379.253	585.56
379.478	581.56
379.704	577.56
379.929	580.56
380.155	572.56
380.38	597.56
380.606	611.56
380.831	599.56
381.057	603.56
381.282	605.56
381.507	590.56
381.733	585.56
381.958	553.56
382.184	586.56
382.409	628.56
382.634	606.56
382.86	605.56
383.085	621.56
383.31	629.56
383.535	631.56
383.761	649.56
383.986	660.56
384.211	650.56
384.436	646.56
384.662	648.56
384.887	681.56
385.112	681.56
385.337	685.56
385.562	659.56
385.787	693.56
386.013	711.56
386.238	717.56
386.463	707.56
386.688	710.56
386.913	689.56
387.138	687.56
387.363	667.56
387.588	665.56
387.813	684.56
388.038	671.56
388.263	653.56
388.488	665.56
388.713	676.56
388.938	678.56
389.163	677.56
389.387	657.56
389.612	649.56
389.837	645.56
390.062	645.56
390.287	680.56
390.512	668.56
390.736	663.56
390.961	703.56
391.186	710.56
391.411	702.56
391.636	745.56
391.86	713.56
392.085	720.56
392.31	727.56
392.534	733.56
392.759	715.56
392.984	697.56
393.208	699.56
393.433	683.56
393.658	707.56
393.882	727.56
394.107	713.56
394.331	719.56
394.556	717.56
394.78	705.56
395.005	713.56
395.229	742.56
395.454	759.56
395.678	727.56
395.903	741.56
396.127	770.56
396.352	718.56
396.576	701.56
396.801	737.56
397.025	720.56
397.249	774.56
397.474	773.56
397.698	749.56
397.922	762.56
398.147	781.56
398.371	811.56
398.595	823.56
398.82	860.56
399.044	934.56
399.268	997.56
399.492	1095.56
399.717	1103.56
399.941	1091.56
400.165	1023.56
400.389	995.56
400.613	902.56
400.837	837.56
401.062	852.56
401.286	836.56
401.51	823.56
401.734	845.56
401.958	850.56
402.182	891.56
402.406	929.56
402.63	919.56
402.854	923.56
403.078	906.56
403.302	938.56
403.526	954.56
403.75	926.56
403.974	923.56
404.198	913.56
404.422	942.56
404.645	904.56
404.869	923.56
405.093	942.56
405.317	958.56
405.541	958.56
405.765	928.56
405.988	991.56
406.212	1054.56
406.436	1111.56
406.66	1073.56
406.883	1018.56
407.107	1083.56
407.331	1125.56
407.555	1155.56
407.778	1119.56
408.002	1029.56
408.226	973.56
408.449	980.56
408.673	941.56
408.896	975.56
409.12	989.56
409.344	922.56
409.567	887.56
409.791	903.56
410.014	886.56
410.238	864.56
410.461	879.56
410.685	874.56
410.908	909.56
411.132	936.56
411.355	924.56
411.578	861.56
411.802	855.56
412.025	809.56
412.249	841.56
412.472	844.56
412.695	836.56
412.919	802.56
413.142	819.56
413.365	821.56
413.589	813.56
413.812	830.56
414.035	833.56
414.258	799.56
414.482	825.56
414.705	813.56
414.928	802.56
415.151	786.56
415.374	832.56
415.597	814.56
415.821	800.56
416.044	806.56
416.267	813.56
416.49	763.56
416.713	781.56
416.936	806.56
417.159	791.56
417.382	824.56
417.605	829.56
417.828	849.56
418.051	857.56
418.274	817.56
418.497	827.56
418.72	827.56
418.943	802.56
419.166	862.56
419.389	863.56
419.611	868.56
419.834	832.56
420.057	832.56
420.28	835.56
420.503	771.56
420.726	828.56
420.948	871.56
421.171	893.56
421.394	884.56
421.617	816.56
421.839	815.56
422.062	851.56
422.285	890.56
422.507	990.56
422.73	983.56
422.953	916.56
423.175	875.56
423.398	906.56
423.621	891.56
423.843	914.56
424.066	897.56
424.288	896.56
424.511	968.56
424.733	1012.56
424.956	1028.56
425.178	1012.56
425.401	1015.56
425.623	974.56
425.846	887.56
426.068	865.56
426.291	860.56
426.513	847.56
426.735	899.56
426.958	978.56
427.18	1121.56
427.402	1302.56
427.625	1317.56
427.847	1023.56
428.069	864.56
428.292	803.56
428.514	773.56
428.736	759.56
428.958	745.56
429.181	752.56
429.403	770.56
429.625	793.56
429.847	819.56
430.069	881.56
430.292	837.56
430.514	759.56
430.736	754.56
430.958	732.56
431.18	729.56
431.402	717.56
431.624	733.56
431.846	754.56
432.068	724.56
432.29	736.56
432.512	735.56
432.734	750.56
432.956	763.56
433.178	777.56
433.4	758.56
433.622	751.56
433.844	738.56
434.066	745.56
434.287	791.56
434.509	799.56
434.731	821.56
434.953	837.56
435.175	834.56
435.397	845.56
435.618	886.56
435.84	967.56
436.062	1053.56
436.284	1003.56
436.505	839.56
436.727	797.56
436.949	830.56
437.17	783.56
437.392	759.56
437.614	836.56
437.835	960.56
438.057	1067.56
438.278	1079.56
438.5	1075.56
438.721	1118.56
438.943	973.56
439.165	826.56
439.386	821.56
439.608	858.56
439.829	898.56
440.05	987.56
440.272	1007.56
440.493	868.56
440.715	806.56
440.936	809.56
441.158	787.56
441.379	835.56
441.6	881.56
441.822	939.56
442.043	989.56
442.264	1073.56
442.486	966.56
442.707	909.56
442.928	943.56
443.149	949.56
443.371	1037.56
443.592	1082.56
443.813	1135.56
444.034	1089.56
444.255	942.56
444.476	863.56
444.698	921.56
444.919	931.56
445.14	973.56
445.361	995.56
445.582	1070.56
445.803	1203.56
446.024	1269.56
446.245	1167.56
446.466	1002.56
446.687	869.56
446.908	803.56
447.129	779.56
447.35	751.56
447.571	755.56
447.792	728.56
448.013	773.56
448.234	857.56
448.455	970.56
448.675	1067.56
448.896	1050.56
449.117	909.56
449.338	1010.56
449.559	1168.56
449.779	1068.56
450	873.56
450.221	767.56
450.442	744.56
450.662	770.56
450.883	854.56
451.104	831.56
451.324	765.56
451.545	717.56
451.766	689.56
451.986	692.56
452.207	673.56
452.428	684.56
452.648	689.56
452.869	718.56
453.089	735.56
453.31	729.56
453.53	703.56
453.751	702.56
453.971	750.56
454.192	776.56
454.412	698.56
454.633	680.56
454.853	649.56
455.073	669.56
455.294	747.56
455.514	802.56
455.734	681.56
455.955	633.56
456.175	618.56
456.395	615.56
456.616	623.56
456.836	617.56
457.056	622.56
457.276	617.56
457.497	619.56
457.717	635.56
457.937	641.56
458.157	666.56
458.377	696.56
458.598	824.56
458.818	1030.56
459.038	1065.56
459.258	927.56
459.478	773.56
459.698	750.56
459.918	767.56
460.138	795.56
460.358	805.56
460.578	787.56
460.798	827.56
461.018	757.56
461.238	804.56
461.458	804.56
461.678	809.56
461.898	785.56
462.118	805.56
462.338	820.56
462.558	869.56
462.777	909.56
462.997	942.56
463.217	982.56
463.437	928.56
463.657	905.56
463.876	910.56
464.096	903.56
464.316	918.56
464.536	915.56
464.755	917.56
464.975	975.56
465.195	1203.56
465.414	1102.56
465.634	855.56
465.854	768.56
466.073	753.56
466.293	721.56
466.512	710.56
466.732	723.56
466.951	708.56
467.171	709.56
467.391	740.56
467.61	759.56
467.829	717.56
468.049	709.56
468.268	678.56
468.488	669.56
468.707	667.56
468.927	693.56
469.146	673.56
469.365	690.56
469.585	689.56
469.804	745.56
470.023	765.56
470.243	743.56
470.462	791.56
470.681	795.56
470.901	741.56
471.12	709.56
471.339	709.56
471.558	703.56
471.777	706.56
471.997	667.56
472.216	663.56
472.435	651.56
472.654	668.56
472.873	617.56
473.092	670.56
473.311	680.56
473.53	682.56
473.749	740.56
473.968	837.56
474.187	927.56
474.406	823.56
474.625	696.56
474.844	695.56
475.063	686.56
475.282	685.56
475.501	666.56
475.72	676.56
475.939	682.56
476.158	691.56
476.377	696.56
476.596	701.56
476.814	741.56
477.033	723.56
477.252	738.56
477.471	747.56
477.69	763.56
477.908	787.56
478.127	780.56
478.346	795.56
478.564	793.56
478.783	833.56
479.002	836.56
479.22	849.56
479.439	901.56
479.658	896.56
479.876	857.56
480.095	906.56
480.313	893.56
480.532	886.56
480.751	870.56
480.969	877.56
481.188	793.56
481.406	824.56
481.624	794.56
481.843	784.56
482.061	770.56
482.28	752.56
482.498	753.56
482.717	762.56
482.935	788.56
483.153	794.56
483.372	790.56
483.59	789.56
483.808	793.56
484.027	801.56
484.245	821.56
484.463	806.56
484.681	799.56
484.9	821.56
485.118	801.56
485.336	819.56
485.554	819.56
485.772	817.56
485.99	786.56
486.209	829.56
486.427	881.56
486.645	850.56
486.863	890.56
487.081	884.56
487.299	827.56
487.517	825.56
487.735	882.56
487.953	854.56
488.171	843.56
488.389	834.56
488.607	828.56
488.825	823.56
489.043	826.56
489.261	833.56
489.479	845.56
489.696	852.56
489.914	878.56
490.132	881.56
490.35	853.56
490.568	888.56
490.786	918.56
491.003	938.56
491.221	976.56
491.439	966.56
491.657	983.56
491.874	987.56
492.092	1007.56
492.31	991.56
492.527	973.56
492.745	972.56
492.963	985.56
493.18	1019.56
493.398	1009.56
493.615	1023.56
493.833	1014.56
494.05	984.56
494.268	1016.56
494.485	966.56
494.703	968.56
494.92	966.56
495.138	968.56
495.355	1018.56
495.573	1014.56
495.79	975.56
496.008	1011.56
496.225	990.56
496.442	995.56
496.66	994.56
496.877	991.56
497.094	1018.56
497.312	1011.56
497.529	1029.56
497.746	1066.56
497.963	1087.56
498.181	1161.56
498.398	1147.56
498.615	1218.56
498.832	1265.56
499.049	1310.56
499.267	1390.56
499.484	1476.56
499.701	1579.56
499.918	1716.56
500.135	1810.56
500.352	1975.56
500.569	1932.56
500.786	1895.56
501.003	1785.56
501.22	1691.56
501.437	1597.56
