Data from TestCu_HRD10591_00056.txt Node
Date: Thu Oct 05 14:05:36 EDT 2023
User: Yrep
Spectrometer: HR+D1059
Trigger mode: 1
Integration Time (sec): 1.000000E-1
Scans to average: 1
Electric dark correction enabled: true
Nonlinearity correction enabled: false
Boxcar width: 0
XAxis mode: Wavelengths
Number of Pixels in Spectrum: 2048
>>>>>Begin Spectral Data<<<<<
223.165	-9.25
223.4	-9.25
223.635	-9.25
223.869	-22.25
224.104	-17.25
224.338	-28.25
224.573	-20.25
224.808	-11.25
225.042	-3.25
225.277	-12.25
225.511	2.75
225.746	-9.25
225.98	1.75
226.215	25.75
226.449	1.75
226.683	25.75
226.918	30.75
227.152	44.75
227.387	30.75
227.621	46.75
227.856	31.75
228.09	48.75
228.324	38.75
228.559	49.75
228.793	67.75
229.027	111.75
229.262	106.75
229.496	140.75
229.73	166.75
229.964	166.75
230.199	110.75
230.433	113.75
230.667	102.75
230.901	105.75
231.136	107.75
231.37	91.75
231.604	95.75
231.838	109.75
232.072	123.75
232.306	107.75
232.541	118.75
232.775	109.75
233.009	107.75
233.243	114.75
233.477	106.75
233.711	89.75
233.945	105.75
234.179	112.75
234.413	113.75
234.647	105.75
234.881	123.75
235.115	112.75
235.349	114.75
235.583	124.75
235.817	131.75
236.051	138.75
236.285	116.75
236.519	122.75
236.753	150.75
236.987	168.75
237.221	206.75
237.455	225.75
237.689	145.75
237.922	130.75
238.156	118.75
238.39	108.75
238.624	122.75
238.858	113.75
239.091	125.75
239.325	99.75
239.559	127.75
239.793	128.75
240.027	148.75
240.26	163.75
240.494	168.75
240.728	156.75
240.961	143.75
241.195	134.75
241.429	140.75
241.662	122.75
241.896	138.75
242.13	118.75
242.363	112.75
242.597	129.75
242.83	146.75
243.064	147.75
243.298	150.75
243.531	142.75
243.765	134.75
243.998	132.75
244.232	135.75
244.465	146.75
244.699	139.75
244.932	137.75
245.166	134.75
245.399	144.75
245.633	141.75
245.866	138.75
246.099	139.75
246.333	115.75
246.566	135.75
246.8	134.75
247.033	152.75
247.266	155.75
247.5	145.75
247.733	143.75
247.966	163.75
248.2	158.75
248.433	151.75
248.666	168.75
248.899	187.75
249.133	195.75
249.366	201.75
249.599	190.75
249.832	166.75
250.066	156.75
250.299	181.75
250.532	162.75
250.765	194.75
250.998	218.75
251.231	195.75
251.465	178.75
251.698	169.75
251.931	152.75
252.164	180.75
252.397	172.75
252.63	180.75
252.863	206.75
253.096	207.75
253.329	223.75
253.562	193.75
253.795	192.75
254.028	189.75
254.261	225.75
254.494	238.75
254.727	258.75
254.96	252.75
255.193	220.75
255.426	202.75
255.659	190.75
255.892	207.75
256.124	184.75
256.357	180.75
256.59	187.75
256.823	176.75
257.056	179.75
257.289	192.75
257.521	194.75
257.754	182.75
257.987	193.75
258.22	190.75
258.452	189.75
258.685	198.75
258.918	207.75
259.151	202.75
259.383	210.75
259.616	214.75
259.849	229.75
260.081	232.75
260.314	252.75
260.547	230.75
260.779	216.75
261.012	197.75
261.244	219.75
261.477	222.75
261.71	230.75
261.942	217.75
262.175	250.75
262.407	216.75
262.64	223.75
262.872	215.75
263.105	211.75
263.337	199.75
263.57	196.75
263.802	204.75
264.035	217.75
264.267	221.75
264.499	207.75
264.732	224.75
264.964	206.75
265.197	210.75
265.429	215.75
265.661	210.75
265.894	208.75
266.126	220.75
266.358	214.75
266.591	210.75
266.823	220.75
267.055	229.75
267.287	239.75
267.52	229.75
267.752	214.75
267.984	222.75
268.216	239.75
268.448	230.75
268.681	245.75
268.913	260.75
269.145	284.75
269.377	287.75
269.609	254.75
269.841	284.75
270.073	288.75
270.306	323.75
270.538	307.75
270.77	288.75
271.002	264.75
271.234	290.75
271.466	307.75
271.698	296.75
271.93	308.75
272.162	307.75
272.394	302.75
272.626	271.75
272.858	253.75
273.09	252.75
273.322	253.75
273.553	247.75
273.785	253.75
274.017	261.75
274.249	269.75
274.481	265.75
274.713	281.75
274.945	282.75
275.176	282.75
275.408	250.75
275.64	254.75
275.872	245.75
276.104	281.75
276.335	283.75
276.567	318.75
276.799	342.75
277.031	336.75
277.262	347.75
277.494	323.75
277.726	265.75
277.957	280.75
278.189	279.75
278.421	263.75
278.652	262.75
278.884	273.75
279.115	282.75
279.347	262.75
279.579	283.75
279.81	267.75
280.042	272.75
280.273	265.75
280.505	272.75
280.736	256.75
280.968	282.75
281.199	277.75
281.431	277.75
281.662	282.75
281.894	295.75
282.125	316.75
282.356	366.75
282.588	355.75
282.819	328.75
283.051	286.75
283.282	296.75
283.513	290.75
283.745	308.75
283.976	285.75
284.207	310.75
284.439	288.75
284.67	306.75
284.901	287.75
285.132	286.75
285.364	307.75
285.595	293.75
285.826	297.75
286.057	290.75
286.288	299.75
286.52	318.75
286.751	302.75
286.982	321.75
287.213	315.75
287.444	319.75
287.675	323.75
287.906	329.75
288.138	338.75
288.369	338.75
288.6	328.75
288.831	301.75
289.062	330.75
289.293	330.75
289.524	313.75
289.755	314.75
289.986	318.75
290.217	307.75
290.448	327.75
290.679	324.75
290.91	305.75
291.141	327.75
291.371	332.75
291.602	299.75
291.833	300.75
292.064	319.75
292.295	324.75
292.526	323.75
292.757	336.75
292.987	320.75
293.218	307.75
293.449	334.75
293.68	313.75
293.91	325.75
294.141	328.75
294.372	335.75
294.603	333.75
294.833	327.75
295.064	336.75
295.295	328.75
295.525	348.75
295.756	367.75
295.987	374.75
296.217	406.75
296.448	379.75
296.679	349.75
296.909	339.75
297.14	341.75
297.37	334.75
297.601	360.75
297.831	357.75
298.062	344.75
298.292	361.75
298.523	356.75
298.753	358.75
298.984	359.75
299.214	365.75
299.445	351.75
299.675	361.75
299.905	388.75
300.136	380.75
300.366	370.75
300.597	374.75
300.827	383.75
301.057	395.75
301.288	407.75
301.518	377.75
301.748	408.75
301.979	415.75
302.209	396.75
302.439	413.75
302.669	390.75
302.9	372.75
303.13	398.75
303.36	390.75
303.59	388.75
303.82	376.75
304.051	396.75
304.281	412.75
304.511	403.75
304.741	397.75
304.971	370.75
305.201	403.75
305.431	380.75
305.661	406.75
305.891	396.75
306.121	394.75
306.352	360.75
306.582	390.75
306.812	391.75
307.042	399.75
307.272	387.75
307.502	393.75
307.731	393.75
307.961	386.75
308.191	396.75
308.421	391.75
308.651	406.75
308.881	406.75
309.111	429.75
309.341	417.75
309.571	449.75
309.8	468.75
310.03	471.75
310.26	466.75
310.49	463.75
310.72	504.75
310.949	500.75
311.179	489.75
311.409	449.75
311.639	465.75
311.868	466.75
312.098	478.75
312.328	497.75
312.557	530.75
312.787	540.75
313.017	497.75
313.246	486.75
313.476	455.75
313.706	474.75
313.935	505.75
314.165	514.75
314.394	509.75
314.624	506.75
314.853	490.75
315.083	474.75
315.312	444.75
315.542	465.75
315.771	444.75
316.001	459.75
316.23	437.75
316.46	463.75
316.689	467.75
316.919	487.75
317.148	479.75
317.377	498.75
317.607	493.75
317.836	457.75
318.065	458.75
318.295	460.75
318.524	446.75
318.753	463.75
318.983	464.75
319.212	476.75
319.441	467.75
319.67	459.75
319.9	460.75
320.129	460.75
320.358	479.75
320.587	491.75
320.816	510.75
321.046	501.75
321.275	493.75
321.504	503.75
321.733	510.75
321.962	508.75
322.191	550.75
322.42	583.75
322.649	596.75
322.878	602.75
323.108	643.75
323.337	660.75
323.566	749.75
323.795	836.75
324.024	1098.75
324.253	1928.75
324.482	3271.75
324.71	4823.75
324.939	4186.75
325.168	1854.75
325.397	888.75
325.626	712.75
325.855	648.75
326.084	652.75
326.313	686.75
326.542	802.75
326.77	1080.75
326.999	1768.75
327.228	2848.75
327.457	3580.75
327.686	2298.75
327.914	1097.75
328.143	858.75
328.372	798.75
328.6	784.75
328.829	822.75
329.058	840.75
329.287	809.75
329.515	665.75
329.744	638.75
329.972	643.75
330.201	671.75
330.43	772.75
330.658	877.75
330.887	901.75
331.115	777.75
331.344	666.75
331.572	688.75
331.801	662.75
332.03	637.75
332.258	596.75
332.486	619.75
332.715	632.75
332.943	625.75
333.172	643.75
333.4	663.75
333.629	672.75
333.857	656.75
334.085	646.75
334.314	628.75
334.542	656.75
334.771	680.75
334.999	660.75
335.227	648.75
335.455	628.75
335.684	614.75
335.912	613.75
336.14	617.75
336.369	631.75
336.597	646.75
336.825	603.75
337.053	608.75
337.281	603.75
337.51	605.75
337.738	619.75
337.966	632.75
338.194	634.75
338.422	599.75
338.65	595.75
338.878	563.75
339.106	572.75
339.334	573.75
339.562	576.75
339.79	550.75
340.018	580.75
340.246	563.75
340.474	604.75
340.702	557.75
340.93	558.75
341.158	577.75
341.386	576.75
341.614	587.75
341.842	580.75
342.07	543.75
342.298	595.75
342.526	545.75
342.754	550.75
342.981	555.75
343.209	563.75
343.437	592.75
343.665	610.75
343.893	643.75
344.12	616.75
344.348	622.75
344.576	616.75
344.804	643.75
345.031	629.75
345.259	595.75
345.487	593.75
345.714	594.75
345.942	547.75
346.17	546.75
346.397	576.75
346.625	562.75
346.853	562.75
347.08	550.75
347.308	571.75
347.535	586.75
347.763	585.75
347.99	612.75
348.218	624.75
348.445	616.75
348.673	584.75
348.9	559.75
349.128	540.75
349.355	540.75
349.583	513.75
349.81	505.75
350.037	522.75
350.265	529.75
350.492	529.75
350.72	548.75
350.947	570.75
351.174	600.75
351.402	610.75
351.629	582.75
351.856	580.75
352.083	598.75
352.311	620.75
352.538	618.75
352.765	611.75
352.992	590.75
353.22	562.75
353.447	547.75
353.674	547.75
353.901	525.75
354.128	519.75
354.355	514.75
354.583	546.75
354.81	528.75
355.037	513.75
355.264	508.75
355.491	537.75
355.718	531.75
355.945	511.75
356.172	512.75
356.399	540.75
356.626	510.75
356.853	521.75
357.08	495.75
357.307	507.75
357.534	520.75
357.761	515.75
357.988	512.75
358.215	520.75
358.441	541.75
358.668	502.75
358.895	525.75
359.122	526.75
359.349	611.75
359.576	632.75
359.802	710.75
360.029	732.75
360.256	698.75
360.483	630.75
360.709	590.75
360.936	592.75
361.163	587.75
361.39	576.75
361.616	585.75
361.843	596.75
362.07	612.75
362.296	593.75
362.523	594.75
362.749	580.75
362.976	564.75
363.203	562.75
363.429	534.75
363.656	562.75
363.882	559.75
364.109	558.75
364.335	548.75
364.562	557.75
364.788	562.75
365.015	574.75
365.241	559.75
365.468	578.75
365.694	594.75
365.92	575.75
366.147	551.75
366.373	536.75
366.599	538.75
366.826	561.75
367.052	564.75
367.278	540.75
367.505	547.75
367.731	532.75
367.957	562.75
368.184	560.75
368.41	599.75
368.636	595.75
368.862	582.75
369.089	586.75
369.315	571.75
369.541	555.75
369.767	562.75
369.993	584.75
370.219	569.75
370.445	546.75
370.672	556.75
370.898	551.75
371.124	569.75
371.35	560.75
371.576	574.75
371.802	560.75
372.028	557.75
372.254	574.75
372.48	563.75
372.706	572.75
372.932	602.75
373.158	568.75
373.384	594.75
373.61	572.75
373.835	590.75
374.061	585.75
374.287	597.75
374.513	611.75
374.739	585.75
374.965	608.75
375.191	574.75
375.416	605.75
375.642	607.75
375.868	577.75
376.094	577.75
376.319	585.75
376.545	584.75
376.771	586.75
376.997	567.75
377.222	574.75
377.448	574.75
377.674	564.75
377.899	574.75
378.125	575.75
378.35	540.75
378.576	559.75
378.802	550.75
379.027	542.75
379.253	572.75
379.478	560.75
379.704	579.75
379.929	589.75
380.155	561.75
380.38	585.75
380.606	577.75
380.831	572.75
381.057	594.75
381.282	579.75
381.507	585.75
381.733	578.75
381.958	599.75
382.184	587.75
382.409	609.75
382.634	590.75
382.86	615.75
383.085	590.75
383.31	607.75
383.535	606.75
383.761	611.75
383.986	616.75
384.211	641.75
384.436	639.75
384.662	632.75
384.887	647.75
385.112	653.75
385.337	673.75
385.562	670.75
385.787	698.75
386.013	705.75
386.238	691.75
386.463	680.75
386.688	685.75
386.913	649.75
387.138	652.75
387.363	661.75
387.588	654.75
387.813	648.75
388.038	658.75
388.263	670.75
388.488	660.75
388.713	658.75
388.938	665.75
389.163	666.75
389.387	659.75
389.612	658.75
389.837	663.75
390.062	639.75
390.287	669.75
390.512	650.75
390.736	656.75
390.961	698.75
391.186	679.75
391.411	725.75
391.636	696.75
391.86	695.75
392.085	730.75
392.31	721.75
392.534	722.75
392.759	738.75
392.984	686.75
393.208	692.75
393.433	669.75
393.658	662.75
393.882	689.75
394.107	699.75
394.331	711.75
394.556	699.75
394.78	701.75
395.005	734.75
395.229	698.75
395.454	730.75
395.678	743.75
395.903	713.75
396.127	714.75
396.352	718.75
396.576	711.75
396.801	706.75
397.025	707.75
397.249	734.75
397.474	748.75
397.698	739.75
397.922	758.75
398.147	770.75
398.371	782.75
398.595	825.75
398.82	832.75
399.044	931.75
399.268	998.75
399.492	1066.75
399.717	1067.75
399.941	1013.75
400.165	998.75
400.389	925.75
400.613	873.75
400.837	835.75
401.062	826.75
401.286	832.75
401.51	792.75
401.734	821.75
401.958	860.75
402.182	896.75
402.406	905.75
402.63	920.75
402.854	896.75
403.078	890.75
403.302	895.75
403.526	882.75
403.75	926.75
403.974	907.75
404.198	944.75
404.422	939.75
404.645	910.75
404.869	898.75
405.093	949.75
405.317	948.75
405.541	919.75
405.765	902.75
405.988	930.75
406.212	1008.75
406.436	1068.75
406.66	1024.75
406.883	1019.75
407.107	1056.75
407.331	1091.75
407.555	1118.75
407.778	1077.75
408.002	1002.75
408.226	936.75
408.449	975.75
408.673	941.75
408.896	942.75
409.12	961.75
409.344	909.75
409.567	882.75
409.791	842.75
410.014	856.75
410.238	863.75
410.461	885.75
410.685	874.75
410.908	914.75
411.132	933.75
411.355	907.75
411.578	843.75
411.802	840.75
412.025	848.75
412.249	833.75
412.472	839.75
412.695	823.75
412.919	809.75
413.142	807.75
413.365	823.75
413.589	808.75
413.812	788.75
414.035	800.75
414.258	801.75
414.482	818.75
414.705	812.75
414.928	803.75
415.151	769.75
415.374	815.75
415.597	784.75
415.821	770.75
416.044	766.75
416.267	798.75
416.49	781.75
416.713	785.75
416.936	793.75
417.159	762.75
417.382	798.75
417.605	820.75
417.828	793.75
418.051	814.75
418.274	792.75
418.497	796.75
418.72	801.75
418.943	798.75
419.166	821.75
419.389	864.75
419.611	830.75
419.834	834.75
420.057	820.75
420.28	805.75
420.503	762.75
420.726	818.75
420.948	841.75
421.171	883.75
421.394	870.75
421.617	808.75
421.839	806.75
422.062	841.75
422.285	862.75
422.507	920.75
422.73	940.75
422.953	903.75
423.175	866.75
423.398	896.75
423.621	860.75
423.843	891.75
424.066	844.75
424.288	889.75
424.511	940.75
424.733	990.75
424.956	1006.75
425.178	1019.75
425.401	966.75
425.623	936.75
425.846	830.75
426.068	839.75
426.291	824.75
426.513	839.75
426.735	832.75
426.958	944.75
427.18	1081.75
427.402	1243.75
427.625	1291.75
427.847	953.75
428.069	824.75
428.292	807.75
428.514	754.75
428.736	746.75
428.958	742.75
429.181	718.75
429.403	756.75
429.625	796.75
429.847	828.75
430.069	873.75
430.292	813.75
430.514	753.75
430.736	727.75
430.958	749.75
431.18	697.75
431.402	747.75
431.624	719.75
431.846	702.75
432.068	700.75
432.29	713.75
432.512	733.75
432.734	728.75
432.956	737.75
433.178	744.75
433.4	749.75
433.622	760.75
433.844	732.75
434.066	736.75
434.287	746.75
434.509	782.75
434.731	765.75
434.953	781.75
435.175	825.75
435.397	851.75
435.618	855.75
435.84	948.75
436.062	1016.75
436.284	982.75
436.505	850.75
436.727	806.75
436.949	755.75
437.17	743.75
437.392	756.75
437.614	802.75
437.835	939.75
438.057	1019.75
438.278	1072.75
438.5	1057.75
438.721	1111.75
438.943	956.75
439.165	828.75
439.386	801.75
439.608	818.75
439.829	887.75
440.05	942.75
440.272	962.75
440.493	853.75
440.715	789.75
440.936	783.75
441.158	796.75
441.379	804.75
441.6	866.75
441.822	930.75
442.043	978.75
442.264	1058.75
442.486	942.75
442.707	883.75
442.928	918.75
443.149	954.75
443.371	985.75
443.592	1040.75
443.813	1131.75
444.034	1058.75
444.255	940.75
444.476	900.75
444.698	911.75
444.919	915.75
445.14	951.75
445.361	974.75
445.582	1038.75
445.803	1146.75
446.024	1209.75
446.245	1141.75
446.466	971.75
446.687	812.75
446.908	799.75
447.129	744.75
447.35	748.75
447.571	742.75
447.792	751.75
448.013	762.75
448.234	815.75
448.455	940.75
448.675	1064.75
448.896	1017.75
449.117	891.75
449.338	976.75
449.559	1123.75
449.779	1036.75
450	802.75
450.221	743.75
450.442	710.75
450.662	748.75
450.883	812.75
451.104	830.75
451.324	767.75
451.545	708.75
451.766	679.75
451.986	698.75
452.207	636.75
452.428	659.75
452.648	683.75
452.869	696.75
453.089	698.75
453.31	724.75
453.53	689.75
453.751	678.75
453.971	722.75
454.192	738.75
454.412	679.75
454.633	644.75
454.853	637.75
455.073	645.75
455.294	738.75
455.514	768.75
455.734	683.75
455.955	625.75
456.175	621.75
456.395	609.75
456.616	602.75
456.836	611.75
457.056	595.75
457.276	610.75
457.497	614.75
457.717	629.75
457.937	646.75
458.157	657.75
458.377	673.75
458.598	780.75
458.818	966.75
459.038	996.75
459.258	882.75
459.478	761.75
459.698	752.75
459.918	744.75
460.138	792.75
460.358	792.75
460.578	783.75
460.798	810.75
461.018	772.75
461.238	780.75
461.458	775.75
461.678	774.75
461.898	799.75
462.118	816.75
462.338	835.75
462.558	854.75
462.777	888.75
462.997	935.75
463.217	952.75
463.437	930.75
463.657	877.75
463.876	873.75
464.096	875.75
464.316	892.75
464.536	893.75
464.755	898.75
464.975	963.75
465.195	1134.75
465.414	1051.75
465.634	846.75
465.854	779.75
466.073	743.75
466.293	711.75
466.512	714.75
466.732	712.75
466.951	691.75
467.171	678.75
467.391	722.75
467.61	748.75
467.829	736.75
468.049	720.75
468.268	686.75
468.488	685.75
468.707	654.75
468.927	662.75
469.146	656.75
469.365	671.75
469.585	698.75
469.804	722.75
470.023	737.75
470.243	728.75
470.462	760.75
470.681	779.75
470.901	729.75
471.12	684.75
471.339	710.75
471.558	683.75
471.777	684.75
471.997	671.75
472.216	649.75
472.435	632.75
472.654	668.75
472.873	636.75
473.092	655.75
473.311	636.75
473.53	657.75
473.749	699.75
473.968	811.75
474.187	890.75
474.406	769.75
474.625	685.75
474.844	664.75
475.063	643.75
475.282	649.75
475.501	651.75
475.72	692.75
475.939	687.75
476.158	680.75
476.377	699.75
476.596	704.75
476.814	734.75
477.033	760.75
477.252	724.75
477.471	719.75
477.69	762.75
477.908	758.75
478.127	766.75
478.346	783.75
478.564	785.75
478.783	793.75
479.002	801.75
479.22	859.75
479.439	880.75
479.658	881.75
479.876	877.75
480.095	874.75
480.313	902.75
480.532	887.75
480.751	871.75
480.969	843.75
481.188	835.75
481.406	805.75
481.624	800.75
481.843	757.75
482.061	775.75
482.28	760.75
482.498	757.75
482.717	780.75
482.935	757.75
483.153	786.75
483.372	746.75
483.59	790.75
483.808	766.75
484.027	782.75
484.245	782.75
484.463	777.75
484.681	793.75
484.9	782.75
485.118	814.75
485.336	808.75
485.554	814.75
485.772	802.75
485.99	817.75
486.209	821.75
486.427	841.75
486.645	848.75
486.863	903.75
487.081	830.75
487.299	846.75
487.517	836.75
487.735	841.75
487.953	825.75
488.171	806.75
488.389	827.75
488.607	830.75
488.825	842.75
489.043	792.75
489.261	806.75
489.479	812.75
489.696	822.75
489.914	816.75
490.132	857.75
490.35	852.75
490.568	866.75
490.786	866.75
491.003	907.75
491.221	912.75
491.439	966.75
491.657	960.75
491.874	934.75
492.092	977.75
492.31	968.75
492.527	962.75
492.745	968.75
492.963	947.75
493.18	975.75
493.398	977.75
493.615	988.75
493.833	990.75
494.05	961.75
494.268	960.75
494.485	940.75
494.703	959.75
494.92	970.75
495.138	966.75
495.355	965.75
495.573	971.75
495.79	975.75
496.008	973.75
496.225	971.75
496.442	962.75
496.66	966.75
496.877	990.75
497.094	973.75
497.312	979.75
497.529	1008.75
497.746	1026.75
497.963	1063.75
498.181	1098.75
498.398	1119.75
498.615	1181.75
498.832	1234.75
499.049	1282.75
499.267	1377.75
499.484	1477.75
499.701	1552.75
499.918	1667.75
500.135	1794.75
500.352	1917.75
500.569	1921.75
500.786	1859.75
501.003	1762.75
501.22	1636.75
501.437	1550.75
501.654	1436.75
501.871	1411.75
