Data from TestCu_HRD10591_00015.txt Node
Date: Thu Oct 05 14:04:56 EDT 2023
User: Yrep
Spectrometer: HR+D1059
Trigger mode: 1
Integration Time (sec): 1.000000E-1
Scans to average: 1
Electric dark correction enabled: true
Nonlinearity correction enabled: false
Boxcar width: 0
XAxis mode: Wavelengths
Number of Pixels in Spectrum: 2048
>>>>>Begin Spectral Data<<<<<
223.165	-23
223.4	-23
223.635	-23
223.869	-12
224.104	-16
224.338	-16
224.573	-15
224.808	-18
225.042	-5
225.277	-6
225.511	2
225.746	12
225.98	-1
226.215	9
226.449	10
226.683	11
226.918	32
227.152	36
227.387	47
227.621	33
227.856	64
228.09	53
228.324	52
228.559	57
228.793	77
229.027	111
229.262	122
229.496	152
229.73	169
229.964	156
230.199	113
230.433	120
230.667	116
230.901	112
231.136	120
231.37	105
231.604	108
231.838	116
232.072	111
232.306	110
232.541	110
232.775	114
233.009	117
233.243	128
233.477	116
233.711	111
233.945	126
234.179	120
234.413	110
234.647	131
234.881	118
235.115	119
235.349	110
235.583	110
235.817	120
236.051	132
236.285	142
236.519	120
236.753	145
236.987	160
237.221	225
237.455	229
237.689	164
237.922	141
238.156	127
238.39	128
238.624	127
238.858	129
239.091	124
239.325	135
239.559	145
239.793	134
240.027	166
240.26	162
240.494	178
240.728	145
240.961	155
241.195	132
241.429	138
241.662	135
241.896	153
242.13	131
242.363	130
242.597	126
242.83	141
243.064	133
243.298	137
243.531	149
243.765	138
243.998	137
244.232	147
244.465	145
244.699	149
244.932	165
245.166	152
245.399	143
245.633	141
245.866	141
246.099	157
246.333	139
246.566	152
246.8	149
247.033	147
247.266	153
247.5	176
247.733	171
247.966	173
248.2	191
248.433	188
248.666	161
248.899	204
249.133	212
249.366	195
249.599	203
249.832	170
250.066	176
250.299	177
250.532	171
250.765	213
250.998	225
251.231	213
251.465	194
251.698	196
251.931	189
252.164	172
252.397	190
252.63	214
252.863	191
253.096	204
253.329	207
253.562	221
253.795	211
254.028	187
254.261	210
254.494	240
254.727	273
254.96	245
255.193	230
255.426	210
255.659	198
255.892	200
256.124	191
256.357	182
256.59	184
256.823	211
257.056	197
257.289	199
257.521	210
257.754	219
257.987	201
258.22	196
258.452	210
258.685	179
258.918	201
259.151	227
259.383	206
259.616	208
259.849	226
260.081	259
260.314	247
260.547	221
260.779	226
261.012	204
261.244	228
261.477	231
261.71	233
261.942	255
262.175	264
262.407	242
262.64	223
262.872	221
263.105	212
263.337	229
263.57	210
263.802	200
264.035	214
264.267	222
264.499	214
264.732	215
264.964	204
265.197	221
265.429	220
265.661	210
265.894	227
266.126	215
266.358	238
266.591	237
266.823	232
267.055	230
267.287	229
267.52	230
267.752	225
267.984	243
268.216	233
268.448	246
268.681	260
268.913	288
269.145	300
269.377	271
269.609	265
269.841	280
270.073	307
270.306	315
270.538	320
270.77	294
271.002	271
271.234	296
271.466	310
271.698	308
271.93	328
272.162	309
272.394	303
272.626	288
272.858	275
273.09	277
273.322	271
273.553	275
273.785	284
274.017	239
274.249	263
274.481	288
274.713	278
274.945	289
275.176	273
275.408	270
275.64	272
275.872	270
276.104	277
276.335	287
276.567	312
276.799	361
277.031	364
277.262	340
277.494	320
277.726	310
277.957	282
278.189	276
278.421	280
278.652	282
278.884	279
279.115	269
279.347	258
279.579	264
279.81	284
280.042	260
280.273	277
280.505	279
280.736	273
280.968	292
281.199	287
281.431	286
281.662	293
281.894	306
282.125	311
282.356	360
282.588	385
282.819	332
283.051	314
283.282	310
283.513	340
283.745	311
283.976	312
284.207	282
284.439	322
284.67	312
284.901	306
285.132	300
285.364	307
285.595	313
285.826	332
286.057	313
286.288	279
286.52	322
286.751	332
286.982	324
287.213	318
287.444	319
287.675	340
287.906	354
288.138	362
288.369	339
288.6	336
288.831	334
289.062	323
289.293	318
289.524	324
289.755	329
289.986	318
290.217	309
290.448	320
290.679	339
290.91	329
291.141	342
291.371	350
291.602	324
291.833	329
292.064	336
292.295	341
292.526	330
292.757	330
292.987	338
293.218	339
293.449	345
293.68	346
293.91	332
294.141	329
294.372	336
294.603	335
294.833	362
295.064	351
295.295	356
295.525	351
295.756	383
295.987	397
296.217	439
296.448	392
296.679	337
296.909	349
297.14	365
297.37	357
297.601	367
297.831	373
298.062	372
298.292	375
298.523	379
298.753	377
298.984	363
299.214	398
299.445	388
299.675	379
299.905	376
300.136	375
300.366	378
300.597	406
300.827	389
301.057	420
301.288	424
301.518	413
301.748	418
301.979	415
302.209	408
302.439	428
302.669	408
302.9	409
303.13	407
303.36	406
303.59	402
303.82	408
304.051	405
304.281	396
304.511	396
304.741	392
304.971	398
305.201	393
305.431	418
305.661	409
305.891	410
306.121	411
306.352	423
306.582	400
306.812	407
307.042	416
307.272	389
307.502	405
307.731	422
307.961	404
308.191	412
308.421	414
308.651	404
308.881	428
309.111	437
309.341	434
309.571	460
309.8	452
310.03	485
310.26	469
310.49	509
310.72	514
310.949	520
311.179	521
311.409	468
311.639	465
311.868	483
312.098	495
312.328	517
312.557	560
312.787	550
313.017	525
313.246	480
313.476	467
313.706	486
313.935	515
314.165	537
314.394	527
314.624	507
314.853	484
315.083	495
315.312	466
315.542	456
315.771	469
316.001	447
316.23	488
316.46	482
316.689	480
316.919	482
317.148	494
317.377	492
317.607	495
317.836	494
318.065	468
318.295	474
318.524	485
318.753	483
318.983	504
319.212	494
319.441	512
319.67	507
319.9	488
320.129	489
320.358	492
320.587	477
320.816	505
321.046	499
321.275	537
321.504	514
321.733	512
321.962	545
322.191	588
322.42	590
322.649	621
322.878	655
323.108	653
323.337	719
323.566	769
323.795	883
324.024	1162
324.253	2033
324.482	3444
324.71	5110
324.939	4463
325.168	2020
325.397	971
325.626	764
325.855	698
326.084	677
326.313	722
326.542	842
326.77	1138
326.999	1876
327.228	2992
327.457	3802
327.686	2506
327.914	1207
328.143	926
328.372	865
328.6	801
328.829	848
329.058	892
329.287	804
329.515	681
329.744	645
329.972	655
330.201	713
330.43	822
330.658	944
330.887	955
331.115	805
331.344	702
331.572	686
331.801	700
332.03	659
332.258	641
332.486	625
332.715	640
332.943	646
333.172	685
333.4	672
333.629	692
333.857	672
334.085	665
334.314	657
334.542	660
334.771	670
334.999	670
335.227	666
335.455	625
335.684	623
335.912	619
336.14	634
336.369	651
336.597	688
336.825	636
337.053	594
337.281	615
337.51	616
337.738	626
337.966	645
338.194	618
338.422	594
338.65	584
338.878	592
339.106	570
339.334	602
339.562	561
339.79	594
340.018	576
340.246	605
340.474	610
340.702	604
340.93	574
341.158	616
341.386	637
341.614	610
341.842	599
342.07	577
342.298	580
342.526	564
342.754	559
342.981	574
343.209	588
343.437	613
343.665	646
343.893	649
344.12	633
344.348	616
344.576	621
344.804	632
345.031	685
345.259	648
345.487	607
345.714	569
345.942	581
346.17	593
346.397	575
346.625	580
346.853	578
347.08	564
347.308	575
347.535	631
347.763	609
347.99	599
348.218	647
348.445	622
348.673	594
348.9	589
349.128	538
349.355	550
349.583	565
349.81	551
350.037	551
350.265	552
350.492	551
350.72	575
350.947	583
351.174	614
351.402	635
351.629	596
351.856	634
352.083	673
352.311	656
352.538	625
352.765	618
352.992	611
353.22	577
353.447	590
353.674	536
353.901	542
354.128	534
354.355	547
354.583	557
354.81	540
355.037	518
355.264	520
355.491	519
355.718	515
355.945	543
356.172	542
356.399	537
356.626	538
356.853	532
357.08	510
357.307	510
357.534	546
357.761	540
357.988	546
358.215	551
358.441	560
358.668	535
358.895	549
359.122	575
359.349	610
359.576	676
359.802	750
360.029	764
360.256	728
360.483	638
360.709	600
360.936	599
361.163	612
361.39	647
361.616	633
361.843	624
362.07	639
362.296	598
362.523	600
362.749	584
362.976	586
363.203	588
363.429	571
363.656	581
363.882	556
364.109	560
364.335	548
364.562	574
364.788	561
365.015	573
365.241	600
365.468	606
365.694	615
365.92	581
366.147	576
366.373	562
366.599	571
366.826	548
367.052	538
367.278	580
367.505	577
367.731	592
367.957	596
368.184	593
368.41	619
368.636	636
368.862	630
369.089	600
369.315	564
369.541	574
369.767	575
369.993	612
370.219	578
370.445	558
370.672	607
370.898	563
371.124	586
371.35	584
371.576	587
371.802	563
372.028	581
372.254	581
372.48	559
372.706	598
372.932	576
373.158	576
373.384	593
373.61	585
373.835	570
374.061	578
374.287	608
374.513	605
374.739	608
374.965	630
375.191	589
375.416	587
375.642	591
375.868	621
376.094	601
376.319	594
376.545	597
376.771	591
376.997	580
377.222	603
377.448	592
377.674	573
377.899	562
378.125	574
378.35	571
378.576	562
378.802	588
379.027	571
379.253	576
379.478	562
379.704	593
379.929	579
380.155	608
380.38	610
380.606	618
380.831	584
381.057	617
381.282	576
381.507	594
381.733	604
381.958	617
382.184	606
382.409	599
382.634	605
382.86	612
383.085	626
383.31	629
383.535	629
383.761	624
383.986	655
384.211	653
384.436	655
384.662	648
384.887	660
385.112	668
385.337	668
385.562	648
385.787	702
386.013	721
386.238	714
386.463	682
386.688	687
386.913	681
387.138	695
387.363	658
387.588	668
387.813	672
388.038	662
388.263	674
388.488	695
388.713	654
388.938	667
389.163	698
389.387	627
389.612	657
389.837	669
390.062	674
390.287	662
390.512	675
390.736	694
390.961	708
391.186	691
391.411	726
391.636	756
391.86	750
392.085	750
392.31	726
392.534	717
392.759	711
392.984	680
393.208	692
393.433	701
393.658	682
393.882	686
394.107	715
394.331	709
394.556	703
394.78	731
395.005	734
395.229	749
395.454	755
395.678	758
395.903	748
396.127	751
396.352	716
396.576	725
396.801	703
397.025	726
397.249	742
397.474	777
397.698	760
397.922	786
398.147	805
398.371	820
398.595	802
398.82	862
399.044	936
399.268	1034
399.492	1103
399.717	1116
399.941	1099
400.165	1049
400.389	960
400.613	897
400.837	850
401.062	870
401.286	845
401.51	846
401.734	844
401.958	896
402.182	933
402.406	951
402.63	919
402.854	887
403.078	906
403.302	905
403.526	918
403.75	894
403.974	952
404.198	947
404.422	926
404.645	941
404.869	905
405.093	932
405.317	958
405.541	966
405.765	953
405.988	968
406.212	1058
406.436	1120
406.66	1072
406.883	1040
407.107	1111
407.331	1133
407.555	1148
407.778	1068
408.002	1012
408.226	976
408.449	968
408.673	947
408.896	979
409.12	971
409.344	922
409.567	900
409.791	897
410.014	875
410.238	870
410.461	877
410.685	920
410.908	924
411.132	950
411.355	912
411.578	879
411.802	848
412.025	842
412.249	873
412.472	858
412.695	854
412.919	807
413.142	821
413.365	822
413.589	819
413.812	800
414.035	820
414.258	800
414.482	782
414.705	814
414.928	851
415.151	822
415.374	814
415.597	841
415.821	802
416.044	795
416.267	812
416.49	796
416.713	784
416.936	774
417.159	792
417.382	815
417.605	808
417.828	850
418.051	828
418.274	829
418.497	799
418.72	825
418.943	832
419.166	850
419.389	881
419.611	838
419.834	836
420.057	839
420.28	808
420.503	824
420.726	843
420.948	864
421.171	935
421.394	900
421.617	828
421.839	836
422.062	833
422.285	910
422.507	958
422.73	1012
422.953	894
423.175	866
423.398	868
423.621	894
423.843	905
424.066	898
424.288	888
424.511	972
424.733	1042
424.956	1100
425.178	1020
425.401	1011
425.623	950
425.846	881
426.068	865
426.291	846
426.513	848
426.735	895
426.958	981
427.18	1113
427.402	1285
427.625	1321
427.847	1030
428.069	868
428.292	832
428.514	801
428.736	758
428.958	757
429.181	760
429.403	739
429.625	801
429.847	841
430.069	877
430.292	825
430.514	742
430.736	738
430.958	756
431.18	752
431.402	740
431.624	725
431.846	738
432.068	713
432.29	755
432.512	736
432.734	767
432.956	767
433.178	770
433.4	763
433.622	754
433.844	744
434.066	746
434.287	757
434.509	780
434.731	800
434.953	822
435.175	834
435.397	850
435.618	883
435.84	981
436.062	1049
436.284	991
436.505	873
436.727	812
436.949	781
437.17	782
437.392	771
437.614	841
437.835	994
438.057	1069
438.278	1074
438.5	1049
438.721	1128
438.943	959
439.165	849
439.386	829
439.608	881
439.829	899
440.05	990
440.272	996
440.493	876
440.715	810
440.936	810
441.158	798
441.379	806
441.6	873
441.822	925
442.043	993
442.264	1058
442.486	1006
442.707	934
442.928	940
443.149	974
443.371	1028
443.592	1083
443.813	1146
444.034	1087
444.255	958
444.476	910
444.698	945
444.919	964
445.14	988
445.361	979
445.582	1072
445.803	1173
446.024	1259
446.245	1136
446.466	988
446.687	833
446.908	814
447.129	786
447.35	767
447.571	763
447.792	741
448.013	770
448.234	826
448.455	921
448.675	1064
448.896	1066
449.117	937
449.338	1019
449.559	1142
449.779	1056
450	830
450.221	786
450.442	764
450.662	772
450.883	834
451.104	872
451.324	751
451.545	715
451.766	705
451.986	699
452.207	689
452.428	666
452.648	695
452.869	741
453.089	755
453.31	743
453.53	723
453.751	702
453.971	760
454.192	780
454.412	684
454.633	665
454.853	659
455.073	702
455.294	756
455.514	806
455.734	712
455.955	634
456.175	619
456.395	624
456.616	637
456.836	644
457.056	623
457.276	615
457.497	640
457.717	631
457.937	644
458.157	661
458.377	709
458.598	813
458.818	1018
459.038	1066
459.258	911
459.478	786
459.698	762
459.918	807
460.138	793
460.358	808
460.578	807
460.798	847
461.018	809
461.238	777
461.458	791
461.678	768
461.898	786
462.118	835
462.338	836
462.558	866
462.777	893
462.997	945
463.217	976
463.437	930
463.657	882
463.876	884
464.096	916
464.316	907
464.536	924
464.755	911
464.975	1006
465.195	1215
465.414	1146
465.634	840
465.854	786
466.073	745
466.293	741
466.512	710
466.732	712
466.951	728
467.171	706
467.391	741
467.61	793
467.829	727
468.049	712
468.268	685
468.488	698
468.707	699
468.927	691
469.146	674
469.365	670
469.585	698
469.804	742
470.023	766
470.243	756
470.462	796
470.681	846
470.901	758
471.12	685
471.339	741
471.558	702
471.777	688
471.997	694
472.216	664
472.435	664
472.654	669
472.873	653
473.092	647
473.311	674
473.53	682
473.749	721
473.968	809
474.187	903
474.406	782
474.625	706
474.844	692
475.063	673
475.282	666
475.501	675
475.72	687
475.939	709
476.158	678
476.377	726
476.596	709
476.814	735
477.033	729
477.252	740
477.471	743
477.69	760
477.908	768
478.127	793
478.346	785
478.564	814
478.783	809
479.002	819
479.22	849
479.439	894
479.658	899
479.876	914
480.095	898
480.313	926
480.532	868
480.751	881
480.969	836
481.188	837
481.406	816
481.624	824
481.843	811
482.061	777
482.28	783
482.498	793
482.717	756
482.935	797
483.153	798
483.372	783
483.59	777
483.808	765
484.027	790
484.245	785
484.463	825
484.681	791
484.9	816
485.118	796
485.336	809
485.554	827
485.772	808
485.99	825
486.209	830
486.427	857
486.645	897
486.863	902
487.081	877
487.299	868
487.517	844
487.735	836
487.953	845
488.171	811
488.389	831
488.607	831
488.825	803
489.043	816
489.261	860
489.479	852
489.696	858
489.914	878
490.132	876
490.35	871
490.568	890
490.786	918
491.003	915
491.221	940
491.439	978
491.657	966
491.874	962
492.092	992
492.31	996
492.527	960
492.745	982
492.963	972
493.18	991
493.398	1044
493.615	1026
493.833	996
494.05	1030
494.268	1000
494.485	988
494.703	996
494.92	995
495.138	991
495.355	1000
495.573	1007
495.79	976
496.008	983
496.225	977
496.442	994
496.66	986
496.877	996
497.094	997
497.312	1034
497.529	1065
497.746	1078
497.963	1094
498.181	1159
498.398	1169
498.615	1246
498.832	1263
499.049	1294
499.267	1400
499.484	1502
499.701	1593
499.918	1742
500.135	1854
500.352	1992
500.569	1944
500.786	1863
501.003	1805
501.22	1644
501.437	1599
501.654	1518
501.871	1456
502.088	1329
502.305	1260
502.522	1217
502.739	1169
502.956	1098
503.172	1086
503.389	1061
503.606	1082
503.823	1080
504.04	1020
504.256	1028
504.473	1009
504.69	1015
504.907	996
505.123	984
505.34	1001
505.557	979
505.773	919
505.99	951
506.207	940
506.423	903
506.64	953
506.856	928
507.073	916
507.289	899
507.506	869
507.722	954
507.939	952
508.155	889
508.372	848
508.588	844
508.805	857
509.021	892
509.238	940
509.454	868
509.67	830
509.887	844
510.103	866
510.319	1002
510.536	1778
510.752	2983
510.968	1276
511.184	850
511.401	825
511.617	794
511.833	809
512.049	792
512.265	804
512.481	790
512.698	798
512.914	805
513.13	800
513.346	806
513.562	802
513.778	830
513.994	862
514.21	869
514.426	975
514.642	1086
514.858	1168
515.074	1347
515.29	2304
515.506	3456
515.721	1680
515.937	1116
516.153	1022
516.369	942
516.585	911
516.801	890
517.016	927
517.232	966
517.448	946
517.664	958
517.879	951
518.095	967
518.311	949
518.527	917
518.742	932
518.958	899
519.173	849
519.389	843
519.605	862
519.82	865
520.036	940
520.251	986
520.467	964
520.682	966
520.898	1025
521.113	1096
521.329	1253
521.544	1658
521.76	2989
521.975	5652
522.19	3196
522.406	1394
522.621	1008
522.836	895
523.052	836
523.267	781
523.482	769
523.698	768
523.913	770
524.128	756
524.343	745
524.559	708
524.774	716
524.989	750
525.204	752
525.419	733
525.634	683
525.849	688
526.064	670
526.28	671
526.495	686
526.71	654
526.925	661
527.14	660
527.355	660
527.57	677
527.785	668
527.999	660
528.214	665
528.429	708
528.644	692
528.859	679
529.074	713
529.289	845
529.503	1048
529.718	806
529.933	697
530.148	681
530.363	647
530.577	650
530.792	650
531.007	661
531.221	641
531.436	657
531.651	643
531.865	638
532.08	629
532.295	653
532.509	644
532.724	637
532.938	629
533.153	656
533.367	657
533.582	643
533.796	638
534.011	664
534.225	611
534.44	624
534.654	633
534.868	624
535.083	634
535.297	652
535.511	658
535.726	690
535.94	665
536.154	657
536.369	639
536.583	601
536.797	617
537.011	618
537.225	589
537.44	608
537.654	614
537.868	590
538.082	600
538.296	605
538.51	620
538.724	612
538.938	618
539.153	640
539.367	675
539.581	629
539.795	598
540.009	600
540.222	589
540.436	594
540.65	615
540.864	620
541.078	625
541.292	622
541.506	610
541.72	614
541.934	629
542.147	609
542.361	609
542.575	611
542.789	603
543.002	586
543.216	599
543.43	630
543.644	626
543.857	608
544.071	599
544.285	631
544.498	615
544.712	618
544.925	610
545.139	608
545.352	603
545.566	608
545.779	622
545.993	615
546.206	599
546.42	584
546.633	618
546.847	617
547.06	611
547.274	582
547.487	628
547.7	633
547.914	613
548.127	594
548.34	604
548.554	620
548.767	620
548.98	619
549.193	639
549.407	594
549.62	600
549.833	623
550.046	607
550.259	588
550.473	590
550.686	597
550.899	578
551.112	608
551.325	587
551.538	604
551.751	580
551.964	572
552.177	600
552.39	614
552.603	618
552.816	620
553.029	672
553.242	639
553.455	673
553.667	692
553.88	688
554.093	669
554.306	634
554.519	611
554.732	599
554.944	585
555.157	574
555.37	571
555.583	584
555.795	574
556.008	548
556.221	552
556.433	573
556.646	530
556.859	525
557.071	529
557.284	542
557.496	524
557.709	517
557.921	524
558.134	518
558.346	537
558.559	512
558.771	512
558.984	513
559.196	520
559.409	511
559.621	490
559.833	488
560.046	496
560.258	512
560.47	505
560.683	502
560.895	516
561.107	495
561.32	514
561.532	486
561.744	515
561.956	492
562.168	506
562.381	506
562.593	503
