Data from TestCu_HRD10591_00002.txt Node
Date: Thu Oct 05 14:04:29 EDT 2023
User: Yrep
Spectrometer: HR+D1059
Trigger mode: 1
Integration Time (sec): 1.000000E-1
Scans to average: 1
Electric dark correction enabled: true
Nonlinearity correction enabled: false
Boxcar width: 0
XAxis mode: Wavelengths
Number of Pixels in Spectrum: 2048
>>>>>Begin Spectral Data<<<<<
223.165	-15.81
223.4	-15.81
223.635	-15.81
223.869	-20.81
224.104	-16.81
224.338	-25.81
224.573	-15.81
224.808	-15.81
225.042	-10.81
225.277	-7.81
225.511	-2.81
225.746	6.19
225.98	14.19
226.215	12.19
226.449	13.19
226.683	18.19
226.918	34.19
227.152	34.19
227.387	35.19
227.621	34.19
227.856	35.19
228.09	61.19
228.324	54.19
228.559	59.19
228.793	68.19
229.027	78.19
229.262	118.19
229.496	133.19
229.73	149.19
229.964	167.19
230.199	118.19
230.433	110.19
230.667	111.19
230.901	119.19
231.136	100.19
231.37	105.19
231.604	111.19
231.838	115.19
232.072	107.19
232.306	98.19
232.541	107.19
232.775	105.19
233.009	104.19
233.243	124.19
233.477	106.19
233.711	122.19
233.945	106.19
234.179	109.19
234.413	111.19
234.647	123.19
234.881	110.19
235.115	118.19
235.349	109.19
235.583	113.19
235.817	115.19
236.051	126.19
236.285	137.19
236.519	133.19
236.753	137.19
236.987	175.19
237.221	215.19
237.455	212.19
237.689	158.19
237.922	143.19
238.156	126.19
238.39	123.19
238.624	123.19
238.858	127.19
239.091	119.19
239.325	123.19
239.559	138.19
239.793	147.19
240.027	159.19
240.26	162.19
240.494	170.19
240.728	162.19
240.961	142.19
241.195	134.19
241.429	133.19
241.662	120.19
241.896	123.19
242.13	138.19
242.363	135.19
242.597	125.19
242.83	140.19
243.064	128.19
243.298	135.19
243.531	124.19
243.765	124.19
243.998	147.19
244.232	150.19
244.465	149.19
244.699	134.19
244.932	130.19
245.166	121.19
245.399	127.19
245.633	145.19
245.866	139.19
246.099	113.19
246.333	150.19
246.566	139.19
246.8	155.19
247.033	164.19
247.266	158.19
247.5	143.19
247.733	162.19
247.966	155.19
248.2	160.19
248.433	152.19
248.666	156.19
248.899	190.19
249.133	206.19
249.366	192.19
249.599	193.19
249.832	178.19
250.066	168.19
250.299	172.19
250.532	191.19
250.765	204.19
250.998	225.19
251.231	196.19
251.465	197.19
251.698	179.19
251.931	175.19
252.164	181.19
252.397	184.19
252.63	192.19
252.863	208.19
253.096	216.19
253.329	212.19
253.562	202.19
253.795	199.19
254.028	188.19
254.261	213.19
254.494	232.19
254.727	258.19
254.96	253.19
255.193	220.19
255.426	209.19
255.659	192.19
255.892	200.19
256.124	191.19
256.357	188.19
256.59	197.19
256.823	189.19
257.056	182.19
257.289	184.19
257.521	184.19
257.754	200.19
257.987	190.19
258.22	197.19
258.452	190.19
258.685	212.19
258.918	200.19
259.151	216.19
259.383	216.19
259.616	207.19
259.849	213.19
260.081	239.19
260.314	260.19
260.547	236.19
260.779	208.19
261.012	221.19
261.244	211.19
261.477	208.19
261.71	227.19
261.942	252.19
262.175	254.19
262.407	205.19
262.64	199.19
262.872	198.19
263.105	210.19
263.337	201.19
263.57	186.19
263.802	211.19
264.035	210.19
264.267	207.19
264.499	211.19
264.732	211.19
264.964	213.19
265.197	200.19
265.429	218.19
265.661	226.19
265.894	215.19
266.126	207.19
266.358	211.19
266.591	231.19
266.823	245.19
267.055	237.19
267.287	226.19
267.52	217.19
267.752	234.19
267.984	236.19
268.216	222.19
268.448	238.19
268.681	247.19
268.913	256.19
269.145	284.19
269.377	260.19
269.609	259.19
269.841	282.19
270.073	286.19
270.306	333.19
270.538	320.19
270.77	284.19
271.002	276.19
271.234	272.19
271.466	311.19
271.698	318.19
271.93	288.19
272.162	312.19
272.394	291.19
272.626	277.19
272.858	263.19
273.09	252.19
273.322	264.19
273.553	267.19
273.785	271.19
274.017	255.19
274.249	275.19
274.481	259.19
274.713	248.19
274.945	264.19
275.176	254.19
275.408	264.19
275.64	285.19
275.872	268.19
276.104	286.19
276.335	294.19
276.567	310.19
276.799	346.19
277.031	348.19
277.262	334.19
277.494	303.19
277.726	292.19
277.957	284.19
278.189	272.19
278.421	273.19
278.652	290.19
278.884	258.19
279.115	299.19
279.347	268.19
279.579	286.19
279.81	276.19
280.042	268.19
280.273	266.19
280.505	279.19
280.736	271.19
280.968	287.19
281.199	272.19
281.431	277.19
281.662	300.19
281.894	286.19
282.125	318.19
282.356	348.19
282.588	369.19
282.819	336.19
283.051	282.19
283.282	302.19
283.513	315.19
283.745	330.19
283.976	318.19
284.207	319.19
284.439	286.19
284.67	297.19
284.901	296.19
285.132	298.19
285.364	304.19
285.595	315.19
285.826	288.19
286.057	307.19
286.288	301.19
286.52	305.19
286.751	305.19
286.982	312.19
287.213	318.19
287.444	334.19
287.675	328.19
287.906	325.19
288.138	328.19
288.369	335.19
288.6	348.19
288.831	330.19
289.062	335.19
289.293	315.19
289.524	317.19
289.755	307.19
289.986	328.19
290.217	306.19
290.448	319.19
290.679	346.19
290.91	316.19
291.141	318.19
291.371	324.19
291.602	321.19
291.833	317.19
292.064	324.19
292.295	338.19
292.526	332.19
292.757	327.19
292.987	350.19
293.218	318.19
293.449	327.19
293.68	332.19
293.91	345.19
294.141	326.19
294.372	322.19
294.603	331.19
294.833	334.19
295.064	346.19
295.295	346.19
295.525	344.19
295.756	360.19
295.987	409.19
296.217	400.19
296.448	389.19
296.679	355.19
296.909	328.19
297.14	351.19
297.37	369.19
297.601	359.19
297.831	365.19
298.062	359.19
298.292	357.19
298.523	363.19
298.753	348.19
298.984	358.19
299.214	381.19
299.445	398.19
299.675	373.19
299.905	375.19
300.136	386.19
300.366	379.19
300.597	387.19
300.827	383.19
301.057	401.19
301.288	404.19
301.518	401.19
301.748	385.19
301.979	413.19
302.209	405.19
302.439	405.19
302.669	405.19
302.9	395.19
303.13	391.19
303.36	405.19
303.59	424.19
303.82	410.19
304.051	370.19
304.281	389.19
304.511	386.19
304.741	374.19
304.971	395.19
305.201	385.19
305.431	374.19
305.661	404.19
305.891	410.19
306.121	395.19
306.352	405.19
306.582	418.19
306.812	402.19
307.042	382.19
307.272	405.19
307.502	403.19
307.731	402.19
307.961	412.19
308.191	400.19
308.421	381.19
308.651	405.19
308.881	408.19
309.111	424.19
309.341	432.19
309.571	428.19
309.8	449.19
310.03	471.19
310.26	495.19
310.49	485.19
310.72	503.19
310.949	488.19
311.179	485.19
311.409	463.19
311.639	469.19
311.868	472.19
312.098	480.19
312.328	507.19
312.557	531.19
312.787	536.19
313.017	498.19
313.246	476.19
313.476	456.19
313.706	486.19
313.935	518.19
314.165	514.19
314.394	508.19
314.624	523.19
314.853	475.19
315.083	480.19
315.312	478.19
315.542	454.19
315.771	434.19
316.001	452.19
316.23	458.19
316.46	461.19
316.689	492.19
316.919	483.19
317.148	487.19
317.377	495.19
317.607	496.19
317.836	475.19
318.065	453.19
318.295	447.19
318.524	474.19
318.753	466.19
318.983	464.19
319.212	484.19
319.441	500.19
319.67	483.19
319.9	486.19
320.129	469.19
320.358	471.19
320.587	481.19
320.816	508.19
321.046	512.19
321.275	486.19
321.504	499.19
321.733	515.19
321.962	538.19
322.191	542.19
322.42	564.19
322.649	595.19
322.878	615.19
323.108	654.19
323.337	718.19
323.566	762.19
323.795	852.19
324.024	1148.19
324.253	1888.19
324.482	3306.19
324.71	4806.19
324.939	4167.19
325.168	1888.19
325.397	922.19
325.626	738.19
325.855	693.19
326.084	683.19
326.313	707.19
326.542	782.19
326.77	1080.19
326.999	1819.19
327.228	2828.19
327.457	3575.19
327.686	2306.19
327.914	1132.19
328.143	851.19
328.372	816.19
328.6	776.19
328.829	823.19
329.058	851.19
329.287	763.19
329.515	678.19
329.744	628.19
329.972	646.19
330.201	675.19
330.43	783.19
330.658	896.19
330.887	902.19
331.115	756.19
331.344	666.19
331.572	653.19
331.801	686.19
332.03	662.19
332.258	632.19
332.486	619.19
332.715	653.19
332.943	652.19
333.172	644.19
333.4	655.19
333.629	668.19
333.857	660.19
334.085	670.19
334.314	622.19
334.542	636.19
334.771	639.19
334.999	692.19
335.227	626.19
335.455	664.19
335.684	615.19
335.912	614.19
336.14	630.19
336.369	616.19
336.597	635.19
336.825	620.19
337.053	599.19
337.281	599.19
337.51	596.19
337.738	620.19
337.966	628.19
338.194	612.19
338.422	607.19
338.65	588.19
338.878	602.19
339.106	586.19
339.334	594.19
339.562	590.19
339.79	589.19
340.018	553.19
340.246	592.19
340.474	574.19
340.702	599.19
340.93	559.19
341.158	582.19
341.386	613.19
341.614	610.19
341.842	557.19
342.07	553.19
342.298	565.19
342.526	564.19
342.754	560.19
342.981	562.19
343.209	566.19
343.437	607.19
343.665	618.19
343.893	615.19
344.12	632.19
344.348	609.19
344.576	629.19
344.804	636.19
345.031	637.19
345.259	622.19
345.487	590.19
345.714	588.19
345.942	582.19
346.17	572.19
346.397	568.19
346.625	561.19
346.853	571.19
347.08	581.19
347.308	574.19
347.535	609.19
347.763	619.19
347.99	595.19
348.218	602.19
348.445	631.19
348.673	591.19
348.9	566.19
349.128	568.19
349.355	540.19
349.583	546.19
349.81	546.19
350.037	553.19
350.265	540.19
350.492	546.19
350.72	552.19
350.947	563.19
351.174	615.19
351.402	595.19
351.629	594.19
351.856	608.19
352.083	594.19
352.311	604.19
352.538	629.19
352.765	612.19
352.992	594.19
353.22	562.19
353.447	561.19
353.674	540.19
353.901	532.19
354.128	541.19
354.355	535.19
354.583	536.19
354.81	508.19
355.037	509.19
355.264	519.19
355.491	528.19
355.718	510.19
355.945	519.19
356.172	517.19
356.399	533.19
356.626	520.19
356.853	519.19
357.08	503.19
357.307	530.19
357.534	532.19
357.761	512.19
357.988	520.19
358.215	530.19
358.441	546.19
358.668	537.19
358.895	552.19
359.122	565.19
359.349	622.19
359.576	641.19
359.802	717.19
360.029	761.19
360.256	707.19
360.483	625.19
360.709	590.19
360.936	583.19
361.163	620.19
361.39	599.19
361.616	581.19
361.843	588.19
362.07	590.19
362.296	613.19
362.523	589.19
362.749	572.19
362.976	587.19
363.203	569.19
363.429	578.19
363.656	568.19
363.882	576.19
364.109	574.19
364.335	572.19
364.562	559.19
364.788	587.19
365.015	573.19
365.241	550.19
365.468	588.19
365.694	579.19
365.92	610.19
366.147	540.19
366.373	552.19
366.599	574.19
366.826	561.19
367.052	563.19
367.278	577.19
367.505	553.19
367.731	573.19
367.957	568.19
368.184	592.19
368.41	578.19
368.636	587.19
368.862	581.19
369.089	580.19
369.315	577.19
369.541	566.19
369.767	560.19
369.993	595.19
370.219	572.19
370.445	555.19
370.672	533.19
370.898	580.19
371.124	560.19
371.35	574.19
371.576	577.19
371.802	573.19
372.028	555.19
372.254	568.19
372.48	587.19
372.706	574.19
372.932	618.19
373.158	582.19
373.384	586.19
373.61	580.19
373.835	594.19
374.061	581.19
374.287	587.19
374.513	594.19
374.739	600.19
374.965	611.19
375.191	619.19
375.416	587.19
375.642	584.19
375.868	581.19
376.094	582.19
376.319	577.19
376.545	568.19
376.771	582.19
376.997	590.19
377.222	571.19
377.448	577.19
377.674	579.19
377.899	556.19
378.125	578.19
378.35	576.19
378.576	573.19
378.802	563.19
379.027	591.19
379.253	552.19
379.478	553.19
379.704	566.19
379.929	586.19
380.155	587.19
380.38	610.19
380.606	581.19
380.831	591.19
381.057	599.19
381.282	560.19
381.507	580.19
381.733	580.19
381.958	612.19
382.184	585.19
382.409	598.19
382.634	631.19
382.86	586.19
383.085	619.19
383.31	584.19
383.535	660.19
383.761	623.19
383.986	632.19
384.211	635.19
384.436	646.19
384.662	679.19
384.887	668.19
385.112	655.19
385.337	651.19
385.562	689.19
385.787	694.19
386.013	708.19
386.238	707.19
386.463	674.19
386.688	667.19
386.913	653.19
387.138	649.19
387.363	671.19
387.588	646.19
387.813	697.19
388.038	682.19
388.263	681.19
388.488	680.19
388.713	674.19
388.938	696.19
389.163	686.19
389.387	663.19
389.612	658.19
389.837	668.19
390.062	663.19
390.287	666.19
390.512	658.19
390.736	686.19
390.961	669.19
391.186	675.19
391.411	726.19
391.636	717.19
391.86	722.19
392.085	755.19
392.31	694.19
392.534	713.19
392.759	669.19
392.984	672.19
393.208	706.19
393.433	696.19
393.658	670.19
393.882	688.19
394.107	706.19
394.331	709.19
394.556	725.19
394.78	708.19
395.005	693.19
395.229	723.19
395.454	736.19
395.678	732.19
395.903	718.19
396.127	695.19
396.352	705.19
396.576	722.19
396.801	699.19
397.025	716.19
397.249	720.19
397.474	749.19
397.698	746.19
397.922	759.19
398.147	791.19
398.371	787.19
398.595	829.19
398.82	838.19
399.044	925.19
399.268	1002.19
399.492	1098.19
399.717	1103.19
399.941	1091.19
400.165	1007.19
400.389	949.19
400.613	884.19
400.837	858.19
401.062	838.19
401.286	861.19
401.51	871.19
401.734	824.19
401.958	844.19
402.182	928.19
402.406	911.19
402.63	917.19
402.854	877.19
403.078	890.19
403.302	915.19
403.526	906.19
403.75	904.19
403.974	934.19
404.198	900.19
404.422	936.19
404.645	912.19
404.869	919.19
405.093	939.19
405.317	934.19
405.541	965.19
405.765	938.19
405.988	999.19
406.212	1045.19
406.436	1095.19
406.66	1057.19
406.883	1019.19
407.107	1044.19
407.331	1105.19
407.555	1157.19
407.778	1068.19
408.002	983.19
408.226	946.19
408.449	928.19
408.673	955.19
408.896	941.19
409.12	966.19
409.344	960.19
409.567	868.19
409.791	865.19
410.014	866.19
410.238	870.19
410.461	881.19
410.685	882.19
410.908	891.19
411.132	938.19
411.355	898.19
411.578	874.19
411.802	848.19
412.025	830.19
412.249	848.19
412.472	828.19
412.695	811.19
412.919	810.19
413.142	822.19
413.365	790.19
413.589	814.19
413.812	782.19
414.035	778.19
414.258	794.19
414.482	796.19
414.705	772.19
414.928	811.19
415.151	798.19
415.374	815.19
415.597	798.19
415.821	790.19
416.044	750.19
416.267	772.19
416.49	780.19
416.713	782.19
416.936	787.19
417.159	807.19
417.382	794.19
417.605	825.19
417.828	830.19
418.051	818.19
418.274	828.19
418.497	823.19
418.72	810.19
418.943	815.19
419.166	858.19
419.389	858.19
419.611	866.19
419.834	849.19
420.057	836.19
420.28	805.19
420.503	784.19
420.726	824.19
420.948	850.19
421.171	890.19
421.394	848.19
421.617	801.19
421.839	815.19
422.062	838.19
422.285	877.19
422.507	938.19
422.73	988.19
422.953	884.19
423.175	855.19
423.398	885.19
423.621	867.19
423.843	892.19
424.066	862.19
424.288	863.19
424.511	915.19
424.733	992.19
424.956	1048.19
425.178	998.19
425.401	971.19
425.623	949.19
425.846	854.19
426.068	844.19
426.291	835.19
426.513	837.19
426.735	876.19
426.958	946.19
427.18	1077.19
427.402	1221.19
427.625	1269.19
427.847	988.19
428.069	813.19
428.292	780.19
428.514	780.19
428.736	774.19
428.958	743.19
429.181	743.19
429.403	752.19
429.625	804.19
429.847	850.19
430.069	883.19
430.292	788.19
430.514	732.19
430.736	744.19
430.958	740.19
431.18	734.19
431.402	735.19
431.624	726.19
431.846	730.19
432.068	724.19
432.29	732.19
432.512	742.19
432.734	773.19
432.956	756.19
433.178	764.19
433.4	775.19
433.622	744.19
433.844	720.19
434.066	743.19
434.287	763.19
434.509	758.19
434.731	805.19
434.953	818.19
435.175	844.19
435.397	840.19
435.618	860.19
435.84	935.19
436.062	986.19
436.284	931.19
436.505	820.19
436.727	803.19
436.949	756.19
437.17	743.19
437.392	782.19
437.614	806.19
437.835	917.19
438.057	1023.19
438.278	1066.19
438.5	1062.19
438.721	1095.19
438.943	917.19
439.165	804.19
439.386	836.19
439.608	850.19
439.829	891.19
440.05	951.19
440.272	952.19
440.493	829.19
440.715	776.19
440.936	771.19
441.158	823.19
441.379	836.19
441.6	862.19
441.822	909.19
442.043	992.19
442.264	1027.19
442.486	971.19
442.707	872.19
442.928	896.19
443.149	966.19
443.371	973.19
443.592	1067.19
443.813	1110.19
444.034	1047.19
444.255	938.19
444.476	945.19
444.698	915.19
444.919	908.19
445.14	961.19
445.361	970.19
445.582	1038.19
445.803	1171.19
446.024	1186.19
446.245	1114.19
446.466	967.19
446.687	808.19
446.908	787.19
447.129	752.19
447.35	748.19
447.571	733.19
447.792	738.19
448.013	750.19
448.234	810.19
448.455	928.19
448.675	1051.19
448.896	1015.19
449.117	868.19
449.338	981.19
449.559	1098.19
449.779	1043.19
450	859.19
450.221	764.19
450.442	731.19
450.662	759.19
450.883	798.19
451.104	791.19
451.324	753.19
451.545	712.19
451.766	698.19
451.986	684.19
452.207	642.19
452.428	678.19
452.648	691.19
452.869	696.19
453.089	708.19
453.31	704.19
453.53	692.19
453.751	703.19
453.971	728.19
454.192	740.19
454.412	674.19
454.633	687.19
454.853	650.19
455.073	698.19
455.294	741.19
455.514	773.19
455.734	694.19
455.955	610.19
456.175	626.19
456.395	627.19
456.616	642.19
456.836	615.19
457.056	604.19
457.276	599.19
457.497	633.19
457.717	632.19
457.937	656.19
458.157	668.19
458.377	686.19
458.598	792.19
458.818	1002.19
459.038	1007.19
459.258	909.19
459.478	780.19
459.698	739.19
459.918	734.19
460.138	771.19
460.358	780.19
460.578	804.19
460.798	820.19
461.018	775.19
461.238	787.19
461.458	772.19
461.678	799.19
461.898	806.19
462.118	799.19
462.338	850.19
462.558	867.19
462.777	898.19
462.997	950.19
463.217	978.19
463.437	959.19
463.657	874.19
463.876	864.19
464.096	906.19
464.316	911.19
464.536	935.19
464.755	886.19
464.975	989.19
465.195	1166.19
465.414	1088.19
465.634	835.19
465.854	754.19
466.073	731.19
466.293	720.19
466.512	724.19
466.732	692.19
466.951	693.19
467.171	688.19
467.391	734.19
467.61	780.19
467.829	733.19
468.049	685.19
468.268	680.19
468.488	670.19
468.707	667.19
468.927	698.19
469.146	708.19
469.365	692.19
469.585	720.19
469.804	733.19
470.023	764.19
470.243	746.19
470.462	792.19
470.681	772.19
470.901	747.19
471.12	705.19
471.339	692.19
471.558	707.19
471.777	672.19
471.997	643.19
472.216	661.19
472.435	661.19
472.654	644.19
472.873	642.19
473.092	628.19
473.311	672.19
473.53	659.19
473.749	693.19
473.968	811.19
474.187	879.19
474.406	807.19
474.625	686.19
474.844	678.19
475.063	672.19
475.282	670.19
475.501	675.19
475.72	690.19
475.939	691.19
476.158	682.19
476.377	696.19
476.596	699.19
476.814	738.19
477.033	711.19
477.252	721.19
477.471	748.19
477.69	738.19
477.908	763.19
478.127	783.19
478.346	801.19
478.564	809.19
478.783	799.19
479.002	834.19
479.22	825.19
479.439	873.19
479.658	923.19
479.876	867.19
480.095	903.19
480.313	926.19
480.532	872.19
480.751	866.19
480.969	843.19
481.188	817.19
481.406	810.19
481.624	774.19
481.843	771.19
482.061	783.19
482.28	762.19
482.498	767.19
482.717	720.19
482.935	767.19
483.153	784.19
483.372	751.19
483.59	758.19
483.808	775.19
484.027	767.19
484.245	778.19
484.463	792.19
484.681	808.19
484.9	816.19
485.118	813.19
485.336	804.19
485.554	788.19
485.772	822.19
485.99	815.19
486.209	832.19
486.427	836.19
486.645	873.19
486.863	885.19
487.081	881.19
487.299	839.19
487.517	837.19
487.735	832.19
487.953	835.19
488.171	828.19
488.389	821.19
488.607	861.19
488.825	822.19
489.043	825.19
489.261	818.19
489.479	851.19
489.696	839.19
489.914	829.19
490.132	870.19
490.35	849.19
490.568	866.19
490.786	901.19
491.003	920.19
491.221	933.19
491.439	953.19
491.657	947.19
491.874	957.19
492.092	983.19
492.31	963.19
492.527	922.19
492.745	944.19
492.963	955.19
493.18	978.19
493.398	1005.19
493.615	1024.19
493.833	1002.19
494.05	970.19
494.268	972.19
494.485	971.19
494.703	941.19
494.92	956.19
495.138	978.19
495.355	988.19
495.573	962.19
495.79	1025.19
496.008	962.19
496.225	962.19
496.442	981.19
496.66	958.19
496.877	996.19
497.094	995.19
497.312	1014.19
497.529	1030.19
497.746	1059.19
497.963	1070.19
498.181	1109.19
498.398	1120.19
498.615	1206.19
498.832	1252.19
499.049	1290.19
499.267	1331.19
499.484	1440.19
499.701	1556.19
499.918	1678.19
500.135	1825.19
500.352	1926.19
500.569	1886.19
500.786	1914.19
501.003	1798.19
501.22	1689.19
501.437	1568.19
501.654	1486.19
