Data from TestCu_HRD10591_00017.txt Node
Date: Thu Oct 05 14:04:58 EDT 2023
User: Yrep
Spectrometer: HR+D1059
Trigger mode: 1
Integration Time (sec): 1.000000E-1
Scans to average: 1
Electric dark correction enabled: true
Nonlinearity correction enabled: false
Boxcar width: 0
XAxis mode: Wavelengths
Number of Pixels in Spectrum: 2048
>>>>>Begin Spectral Data<<<<<
223.165	-25.69
223.4	-25.69
223.635	-25.69
223.869	-16.69
224.104	-11.69
224.338	-18.69
224.573	-9.69
224.808	-29.69
225.042	3.31
225.277	-2.69
225.511	-3.69
225.746	-7.69
225.98	15.31
226.215	0.31
226.449	20.31
226.683	26.31
226.918	23.31
227.152	37.31
227.387	35.31
227.621	41.31
227.856	45.31
228.09	51.31
228.324	54.31
228.559	65.31
228.793	79.31
229.027	93.31
229.262	118.31
229.496	138.31
229.73	174.31
229.964	159.31
230.199	113.31
230.433	108.31
230.667	115.31
230.901	108.31
231.136	121.31
231.37	106.31
231.604	121.31
231.838	111.31
232.072	99.31
232.306	107.31
232.541	106.31
232.775	109.31
233.009	102.31
233.243	107.31
233.477	103.31
233.711	108.31
233.945	106.31
234.179	112.31
234.413	123.31
234.647	106.31
234.881	110.31
235.115	114.31
235.349	117.31
235.583	126.31
235.817	130.31
236.051	129.31
236.285	126.31
236.519	126.31
236.753	142.31
236.987	183.31
237.221	224.31
237.455	206.31
237.689	157.31
237.922	123.31
238.156	116.31
238.39	122.31
238.624	116.31
238.858	137.31
239.091	122.31
239.325	112.31
239.559	139.31
239.793	138.31
240.027	139.31
240.26	144.31
240.494	168.31
240.728	142.31
240.961	155.31
241.195	153.31
241.429	133.31
241.662	139.31
241.896	142.31
242.13	127.31
242.363	130.31
242.597	141.31
242.83	131.31
243.064	143.31
243.298	129.31
243.531	131.31
243.765	119.31
243.998	134.31
244.232	142.31
244.465	147.31
244.699	141.31
244.932	124.31
245.166	144.31
245.399	139.31
245.633	131.31
245.866	142.31
246.099	138.31
246.333	135.31
246.566	149.31
246.8	135.31
247.033	155.31
247.266	157.31
247.5	167.31
247.733	157.31
247.966	142.31
248.2	167.31
248.433	165.31
248.666	178.31
248.899	176.31
249.133	192.31
249.366	197.31
249.599	190.31
249.832	175.31
250.066	159.31
250.299	187.31
250.532	201.31
250.765	199.31
250.998	217.31
251.231	197.31
251.465	190.31
251.698	175.31
251.931	174.31
252.164	176.31
252.397	181.31
252.63	184.31
252.863	203.31
253.096	213.31
253.329	212.31
253.562	188.31
253.795	194.31
254.028	192.31
254.261	221.31
254.494	240.31
254.727	263.31
254.96	251.31
255.193	213.31
255.426	198.31
255.659	183.31
255.892	197.31
256.124	178.31
256.357	193.31
256.59	193.31
256.823	188.31
257.056	181.31
257.289	193.31
257.521	177.31
257.754	192.31
257.987	170.31
258.22	200.31
258.452	192.31
258.685	195.31
258.918	196.31
259.151	214.31
259.383	208.31
259.616	210.31
259.849	212.31
260.081	245.31
260.314	251.31
260.547	231.31
260.779	221.31
261.012	199.31
261.244	217.31
261.477	215.31
261.71	211.31
261.942	239.31
262.175	244.31
262.407	212.31
262.64	227.31
262.872	203.31
263.105	225.31
263.337	217.31
263.57	203.31
263.802	214.31
264.035	177.31
264.267	214.31
264.499	197.31
264.732	209.31
264.964	207.31
265.197	212.31
265.429	222.31
265.661	213.31
265.894	199.31
266.126	222.31
266.358	224.31
266.591	225.31
266.823	202.31
267.055	211.31
267.287	211.31
267.52	224.31
267.752	235.31
267.984	226.31
268.216	219.31
268.448	231.31
268.681	241.31
268.913	269.31
269.145	277.31
269.377	276.31
269.609	257.31
269.841	286.31
270.073	269.31
270.306	313.31
270.538	309.31
270.77	294.31
271.002	283.31
271.234	274.31
271.466	319.31
271.698	306.31
271.93	302.31
272.162	300.31
272.394	290.31
272.626	271.31
272.858	258.31
273.09	264.31
273.322	259.31
273.553	259.31
273.785	277.31
274.017	272.31
274.249	258.31
274.481	244.31
274.713	263.31
274.945	286.31
275.176	289.31
275.408	263.31
275.64	264.31
275.872	274.31
276.104	287.31
276.335	260.31
276.567	301.31
276.799	359.31
277.031	338.31
277.262	328.31
277.494	318.31
277.726	297.31
277.957	282.31
278.189	259.31
278.421	266.31
278.652	253.31
278.884	269.31
279.115	259.31
279.347	262.31
279.579	260.31
279.81	261.31
280.042	264.31
280.273	257.31
280.505	269.31
280.736	257.31
280.968	251.31
281.199	260.31
281.431	266.31
281.662	283.31
281.894	293.31
282.125	298.31
282.356	350.31
282.588	357.31
282.819	320.31
283.051	299.31
283.282	299.31
283.513	291.31
283.745	297.31
283.976	284.31
284.207	300.31
284.439	292.31
284.67	306.31
284.901	289.31
285.132	301.31
285.364	292.31
285.595	313.31
285.826	303.31
286.057	296.31
286.288	297.31
286.52	312.31
286.751	295.31
286.982	297.31
287.213	310.31
287.444	315.31
287.675	308.31
287.906	341.31
288.138	341.31
288.369	342.31
288.6	318.31
288.831	322.31
289.062	330.31
289.293	328.31
289.524	312.31
289.755	317.31
289.986	312.31
290.217	306.31
290.448	320.31
290.679	316.31
290.91	313.31
291.141	328.31
291.371	331.31
291.602	322.31
291.833	310.31
292.064	322.31
292.295	331.31
292.526	314.31
292.757	320.31
292.987	318.31
293.218	326.31
293.449	320.31
293.68	329.31
293.91	331.31
294.141	319.31
294.372	311.31
294.603	323.31
294.833	311.31
295.064	346.31
295.295	334.31
295.525	353.31
295.756	353.31
295.987	386.31
296.217	413.31
296.448	356.31
296.679	340.31
296.909	333.31
297.14	321.31
297.37	345.31
297.601	333.31
297.831	362.31
298.062	341.31
298.292	360.31
298.523	350.31
298.753	383.31
298.984	365.31
299.214	369.31
299.445	373.31
299.675	372.31
299.905	371.31
300.136	361.31
300.366	347.31
300.597	379.31
300.827	380.31
301.057	409.31
301.288	396.31
301.518	374.31
301.748	368.31
301.979	399.31
302.209	416.31
302.439	413.31
302.669	374.31
302.9	374.31
303.13	384.31
303.36	403.31
303.59	409.31
303.82	418.31
304.051	372.31
304.281	404.31
304.511	377.31
304.741	374.31
304.971	370.31
305.201	363.31
305.431	385.31
305.661	385.31
305.891	399.31
306.121	389.31
306.352	422.31
306.582	387.31
306.812	379.31
307.042	400.31
307.272	391.31
307.502	377.31
307.731	375.31
307.961	390.31
308.191	391.31
308.421	396.31
308.651	408.31
308.881	394.31
309.111	385.31
309.341	404.31
309.571	434.31
309.8	445.31
310.03	445.31
310.26	474.31
310.49	463.31
310.72	511.31
310.949	518.31
311.179	487.31
311.409	449.31
311.639	462.31
311.868	477.31
312.098	460.31
312.328	494.31
312.557	513.31
312.787	520.31
313.017	481.31
313.246	477.31
313.476	445.31
313.706	466.31
313.935	493.31
314.165	517.31
314.394	513.31
314.624	470.31
314.853	471.31
315.083	455.31
315.312	459.31
315.542	439.31
315.771	459.31
316.001	441.31
316.23	446.31
316.46	425.31
316.689	455.31
316.919	481.31
317.148	488.31
317.377	476.31
317.607	466.31
317.836	461.31
318.065	444.31
318.295	465.31
318.524	469.31
318.753	454.31
318.983	444.31
319.212	482.31
319.441	485.31
319.67	495.31
319.9	478.31
320.129	478.31
320.358	458.31
320.587	482.31
320.816	502.31
321.046	489.31
321.275	501.31
321.504	494.31
321.733	499.31
321.962	532.31
322.191	541.31
322.42	575.31
322.649	581.31
322.878	570.31
323.108	634.31
323.337	673.31
323.566	729.31
323.795	851.31
324.024	1101.31
324.253	1930.31
324.482	3192.31
324.71	4627.31
324.939	4125.31
325.168	1841.31
325.397	912.31
325.626	709.31
325.855	645.31
326.084	641.31
326.313	683.31
326.542	804.31
326.77	1068.31
326.999	1772.31
327.228	2761.31
327.457	3501.31
327.686	2237.31
327.914	1098.31
328.143	866.31
328.372	810.31
328.6	788.31
328.829	815.31
329.058	837.31
329.287	765.31
329.515	653.31
329.744	615.31
329.972	629.31
330.201	671.31
330.43	779.31
330.658	866.31
330.887	910.31
331.115	754.31
331.344	667.31
331.572	656.31
331.801	670.31
332.03	647.31
332.258	597.31
332.486	594.31
332.715	609.31
332.943	624.31
333.172	642.31
333.4	642.31
333.629	653.31
333.857	662.31
334.085	635.31
334.314	635.31
334.542	637.31
334.771	631.31
334.999	645.31
335.227	615.31
335.455	619.31
335.684	601.31
335.912	597.31
336.14	616.31
336.369	629.31
336.597	628.31
336.825	595.31
337.053	587.31
337.281	598.31
337.51	606.31
337.738	611.31
337.966	593.31
338.194	613.31
338.422	589.31
338.65	567.31
338.878	582.31
339.106	554.31
339.334	568.31
339.562	555.31
339.79	550.31
340.018	569.31
340.246	569.31
340.474	543.31
340.702	549.31
340.93	574.31
341.158	568.31
341.386	582.31
341.614	576.31
341.842	578.31
342.07	553.31
342.298	567.31
342.526	534.31
342.754	545.31
342.981	560.31
343.209	586.31
343.437	618.31
343.665	586.31
343.893	610.31
344.12	633.31
344.348	589.31
344.576	593.31
344.804	603.31
345.031	639.31
345.259	615.31
345.487	565.31
345.714	567.31
345.942	558.31
346.17	560.31
346.397	553.31
346.625	565.31
346.853	547.31
347.08	573.31
347.308	579.31
347.535	568.31
347.763	578.31
347.99	574.31
348.218	607.31
348.445	590.31
348.673	573.31
348.9	548.31
349.128	546.31
349.355	520.31
349.583	535.31
349.81	541.31
350.037	529.31
350.265	527.31
350.492	555.31
350.72	533.31
350.947	569.31
351.174	626.31
351.402	586.31
351.629	568.31
351.856	586.31
352.083	611.31
352.311	611.31
352.538	594.31
352.765	599.31
352.992	580.31
353.22	575.31
353.447	563.31
353.674	521.31
353.901	541.31
354.128	518.31
354.355	516.31
354.583	529.31
354.81	500.31
355.037	533.31
355.264	522.31
355.491	500.31
355.718	509.31
355.945	510.31
356.172	527.31
356.399	532.31
356.626	530.31
356.853	534.31
357.08	530.31
357.307	510.31
357.534	519.31
357.761	505.31
357.988	530.31
358.215	518.31
358.441	516.31
358.668	517.31
358.895	548.31
359.122	532.31
359.349	595.31
359.576	604.31
359.802	695.31
360.029	726.31
360.256	703.31
360.483	614.31
360.709	551.31
360.936	564.31
361.163	602.31
361.39	593.31
361.616	568.31
361.843	586.31
362.07	607.31
362.296	591.31
362.523	577.31
362.749	565.31
362.976	551.31
363.203	548.31
363.429	558.31
363.656	546.31
363.882	551.31
364.109	564.31
364.335	544.31
364.562	525.31
364.788	561.31
365.015	563.31
365.241	578.31
365.468	566.31
365.694	574.31
365.92	575.31
366.147	558.31
366.373	541.31
366.599	554.31
366.826	522.31
367.052	535.31
367.278	537.31
367.505	567.31
367.731	564.31
367.957	533.31
368.184	561.31
368.41	559.31
368.636	579.31
368.862	603.31
369.089	591.31
369.315	550.31
369.541	560.31
369.767	529.31
369.993	571.31
370.219	573.31
370.445	553.31
370.672	538.31
370.898	558.31
371.124	561.31
371.35	560.31
371.576	558.31
371.802	568.31
372.028	563.31
372.254	565.31
372.48	571.31
372.706	576.31
372.932	562.31
373.158	550.31
373.384	575.31
373.61	567.31
373.835	564.31
374.061	587.31
374.287	589.31
374.513	601.31
374.739	607.31
374.965	616.31
375.191	606.31
375.416	609.31
375.642	586.31
375.868	558.31
376.094	587.31
376.319	568.31
376.545	555.31
376.771	542.31
376.997	556.31
377.222	570.31
377.448	564.31
377.674	569.31
377.899	544.31
378.125	536.31
378.35	545.31
378.576	560.31
378.802	573.31
379.027	548.31
379.253	568.31
379.478	554.31
379.704	564.31
379.929	562.31
380.155	553.31
380.38	562.31
380.606	573.31
380.831	567.31
381.057	561.31
381.282	564.31
381.507	555.31
381.733	555.31
381.958	589.31
382.184	606.31
382.409	611.31
382.634	595.31
382.86	593.31
383.085	598.31
383.31	597.31
383.535	625.31
383.761	612.31
383.986	623.31
384.211	637.31
384.436	656.31
384.662	648.31
384.887	659.31
385.112	667.31
385.337	648.31
385.562	665.31
385.787	678.31
386.013	700.31
386.238	692.31
386.463	627.31
386.688	681.31
386.913	642.31
387.138	646.31
387.363	634.31
387.588	661.31
387.813	639.31
388.038	659.31
388.263	645.31
388.488	660.31
388.713	658.31
388.938	647.31
389.163	662.31
389.387	654.31
389.612	644.31
389.837	643.31
390.062	650.31
390.287	646.31
390.512	657.31
390.736	651.31
390.961	660.31
391.186	679.31
391.411	699.31
391.636	737.31
391.86	729.31
392.085	730.31
392.31	705.31
392.534	703.31
392.759	705.31
392.984	659.31
393.208	675.31
393.433	648.31
393.658	669.31
393.882	683.31
394.107	682.31
394.331	663.31
394.556	679.31
394.78	678.31
395.005	714.31
395.229	699.31
395.454	705.31
395.678	704.31
395.903	736.31
396.127	708.31
396.352	715.31
396.576	706.31
396.801	705.31
397.025	713.31
397.249	733.31
397.474	730.31
397.698	758.31
397.922	770.31
398.147	744.31
398.371	788.31
398.595	793.31
398.82	842.31
399.044	897.31
399.268	976.31
399.492	1065.31
399.717	1082.31
399.941	1027.31
400.165	969.31
400.389	919.31
400.613	870.31
400.837	797.31
401.062	818.31
401.286	820.31
401.51	826.31
401.734	822.31
401.958	857.31
402.182	889.31
402.406	900.31
402.63	889.31
402.854	901.31
403.078	886.31
403.302	886.31
403.526	878.31
403.75	890.31
403.974	916.31
404.198	909.31
404.422	905.31
404.645	875.31
404.869	877.31
405.093	915.31
405.317	917.31
405.541	901.31
405.765	905.31
405.988	917.31
406.212	1044.31
406.436	1030.31
406.66	1027.31
406.883	988.31
407.107	1038.31
407.331	1134.31
407.555	1119.31
407.778	1068.31
408.002	957.31
408.226	919.31
408.449	925.31
408.673	937.31
408.896	937.31
409.12	981.31
409.344	871.31
409.567	860.31
409.791	875.31
410.014	829.31
410.238	831.31
410.461	862.31
410.685	846.31
410.908	873.31
411.132	893.31
411.355	885.31
411.578	829.31
411.802	845.31
412.025	817.31
412.249	831.31
412.472	811.31
412.695	788.31
412.919	766.31
413.142	784.31
413.365	795.31
413.589	809.31
413.812	766.31
414.035	787.31
414.258	786.31
414.482	813.31
414.705	779.31
414.928	789.31
415.151	775.31
415.374	777.31
415.597	774.31
415.821	762.31
416.044	758.31
416.267	766.31
416.49	790.31
416.713	752.31
416.936	770.31
417.159	756.31
417.382	807.31
417.605	791.31
417.828	827.31
418.051	843.31
418.274	824.31
418.497	772.31
418.72	804.31
418.943	774.31
419.166	841.31
419.389	851.31
419.611	817.31
419.834	819.31
420.057	831.31
420.28	802.31
420.503	809.31
420.726	835.31
420.948	819.31
421.171	864.31
421.394	833.31
421.617	832.31
421.839	797.31
422.062	818.31
422.285	878.31
422.507	932.31
422.73	951.31
422.953	867.31
423.175	850.31
423.398	862.31
423.621	852.31
423.843	867.31
424.066	866.31
424.288	866.31
424.511	883.31
424.733	961.31
424.956	1001.31
425.178	975.31
425.401	943.31
425.623	886.31
425.846	820.31
426.068	829.31
426.291	807.31
426.513	830.31
426.735	852.31
426.958	941.31
427.18	1056.31
427.402	1208.31
427.625	1232.31
427.847	978.31
428.069	831.31
428.292	770.31
428.514	753.31
428.736	745.31
428.958	746.31
429.181	729.31
429.403	746.31
429.625	769.31
429.847	785.31
430.069	847.31
430.292	767.31
430.514	711.31
430.736	747.31
430.958	733.31
431.18	729.31
431.402	719.31
431.624	687.31
431.846	705.31
432.068	715.31
432.29	717.31
432.512	717.31
432.734	739.31
432.956	742.31
433.178	746.31
433.4	750.31
433.622	717.31
433.844	715.31
434.066	752.31
434.287	759.31
434.509	751.31
434.731	777.31
434.953	794.31
435.175	805.31
435.397	824.31
435.618	863.31
435.84	893.31
436.062	1001.31
436.284	958.31
436.505	824.31
436.727	781.31
436.949	766.31
437.17	747.31
437.392	749.31
437.614	805.31
437.835	900.31
438.057	1005.31
438.278	1051.31
438.5	1046.31
438.721	1078.31
438.943	923.31
439.165	805.31
439.386	774.31
439.608	826.31
439.829	875.31
440.05	917.31
440.272	950.31
440.493	827.31
440.715	781.31
440.936	745.31
441.158	793.31
441.379	802.31
441.6	854.31
441.822	891.31
442.043	943.31
442.264	1002.31
442.486	964.31
442.707	860.31
442.928	865.31
443.149	919.31
443.371	962.31
443.592	1029.31
443.813	1095.31
444.034	1026.31
444.255	922.31
444.476	897.31
444.698	897.31
444.919	904.31
445.14	966.31
445.361	970.31
445.582	1030.31
445.803	1142.31
446.024	1180.31
446.245	1085.31
446.466	934.31
446.687	854.31
446.908	773.31
447.129	735.31
447.35	753.31
447.571	727.31
447.792	747.31
448.013	765.31
448.234	790.31
448.455	898.31
448.675	1030.31
448.896	1010.31
449.117	911.31
449.338	971.31
449.559	1076.31
449.779	1039.31
450	818.31
450.221	764.31
450.442	715.31
450.662	722.31
450.883	830.31
451.104	798.31
451.324	746.31
451.545	705.31
451.766	673.31
451.986	662.31
452.207	677.31
452.428	669.31
452.648	672.31
452.869	691.31
453.089	728.31
453.31	707.31
453.53	688.31
453.751	666.31
453.971	700.31
454.192	740.31
454.412	655.31
454.633	629.31
454.853	644.31
455.073	662.31
455.294	719.31
455.514	798.31
455.734	691.31
455.955	619.31
456.175	617.31
456.395	600.31
456.616	610.31
456.836	591.31
457.056	609.31
457.276	582.31
457.497	606.31
457.717	603.31
457.937	621.31
458.157	641.31
458.377	676.31
458.598	776.31
458.818	970.31
459.038	1024.31
459.258	872.31
459.478	753.31
459.698	737.31
459.918	726.31
460.138	737.31
460.358	771.31
460.578	770.31
460.798	809.31
461.018	761.31
461.238	779.31
461.458	765.31
461.678	769.31
461.898	779.31
462.118	806.31
462.338	814.31
462.558	829.31
462.777	882.31
462.997	903.31
463.217	906.31
463.437	897.31
463.657	873.31
463.876	856.31
464.096	865.31
464.316	881.31
464.536	902.31
464.755	871.31
464.975	953.31
465.195	1152.31
465.414	1062.31
465.634	830.31
465.854	760.31
466.073	727.31
466.293	700.31
466.512	677.31
466.732	677.31
466.951	689.31
467.171	678.31
467.391	745.31
467.61	754.31
467.829	739.31
468.049	711.31
468.268	647.31
468.488	665.31
468.707	645.31
468.927	649.31
469.146	619.31
469.365	655.31
469.585	684.31
469.804	739.31
470.023	763.31
470.243	747.31
470.462	758.31
470.681	789.31
470.901	750.31
471.12	701.31
471.339	695.31
471.558	695.31
471.777	685.31
471.997	675.31
472.216	657.31
472.435	656.31
472.654	653.31
472.873	625.31
473.092	646.31
473.311	654.31
473.53	645.31
473.749	676.31
473.968	803.31
474.187	862.31
474.406	770.31
474.625	656.31
474.844	667.31
475.063	659.31
475.282	652.31
475.501	682.31
475.72	674.31
475.939	670.31
476.158	678.31
476.377	685.31
476.596	685.31
476.814	725.31
477.033	699.31
477.252	722.31
477.471	724.31
477.69	744.31
477.908	756.31
478.127	742.31
478.346	775.31
478.564	771.31
478.783	800.31
479.002	798.31
479.22	795.31
479.439	841.31
479.658	873.31
479.876	854.31
480.095	870.31
480.313	878.31
480.532	867.31
480.751	826.31
480.969	817.31
481.188	802.31
481.406	773.31
481.624	777.31
481.843	778.31
482.061	760.31
482.28	758.31
482.498	737.31
482.717	744.31
482.935	755.31
483.153	772.31
483.372	763.31
483.59	757.31
483.808	748.31
484.027	752.31
484.245	793.31
484.463	778.31
484.681	804.31
484.9	786.31
485.118	778.31
485.336	800.31
485.554	805.31
485.772	788.31
485.99	823.31
486.209	810.31
486.427	801.31
486.645	857.31
486.863	880.31
487.081	876.31
487.299	857.31
487.517	790.31
487.735	827.31
487.953	822.31
488.171	818.31
488.389	803.31
488.607	811.31
488.825	812.31
489.043	803.31
489.261	805.31
489.479	820.31
489.696	808.31
489.914	819.31
490.132	823.31
490.35	848.31
490.568	888.31
490.786	877.31
491.003	925.31
491.221	932.31
491.439	932.31
491.657	940.31
491.874	942.31
492.092	941.31
492.31	969.31
492.527	959.31
492.745	951.31
492.963	963.31
493.18	946.31
493.398	975.31
493.615	973.31
493.833	965.31
494.05	979.31
494.268	945.31
494.485	968.31
494.703	931.31
494.92	946.31
495.138	916.31
495.355	957.31
495.573	941.31
495.79	966.31
496.008	967.31
496.225	986.31
496.442	948.31
496.66	947.31
496.877	980.31
497.094	1004.31
497.312	995.31
497.529	1003.31
497.746	1054.31
497.963	1036.31
498.181	1100.31
498.398	1130.31
498.615	1147.31
498.832	1237.31
499.049	1269.31
499.267	1348.31
499.484	1408.31
499.701	1524.31
499.918	1643.31
500.135	1779.31
500.352	1886.31
500.569	1841.31
500.786	1817.31
501.003	1753.31
501.22	1630.31
501.437	1535.31
501.654	1431.31
501.871	1416.31
