Data from TestCu_HRD10591_00088.txt Node
Date: Thu Oct 05 14:06:08 EDT 2023
User: Yrep
Spectrometer: HR+D1059
Trigger mode: 1
Integration Time (sec): 1.000000E-1
Scans to average: 1
Electric dark correction enabled: true
Nonlinearity correction enabled: false
Boxcar width: 0
XAxis mode: Wavelengths
Number of Pixels in Spectrum: 2048
>>>>>Begin Spectral Data<<<<<
223.165	-24.31
223.4	-24.31
223.635	-24.31
223.869	-22.31
224.104	-12.31
224.338	-6.31
224.573	-8.31
224.808	-21.31
225.042	-6.31
225.277	5.69
225.511	2.69
225.746	-5.31
225.98	2.69
226.215	-0.31
226.449	11.69
226.683	30.69
226.918	26.69
227.152	26.69
227.387	31.69
227.621	48.69
227.856	39.69
228.09	45.69
228.324	53.69
228.559	52.69
228.793	62.69
229.027	113.69
229.262	122.69
229.496	138.69
229.73	153.69
229.964	142.69
230.199	107.69
230.433	97.69
230.667	103.69
230.901	89.69
231.136	103.69
231.37	113.69
231.604	112.69
231.838	126.69
232.072	115.69
232.306	121.69
232.541	119.69
232.775	112.69
233.009	114.69
233.243	108.69
233.477	91.69
233.711	111.69
233.945	113.69
234.179	117.69
234.413	100.69
234.647	95.69
234.881	107.69
235.115	115.69
235.349	120.69
235.583	134.69
235.817	137.69
236.051	111.69
236.285	115.69
236.519	121.69
236.753	151.69
236.987	177.69
237.221	214.69
237.455	225.69
237.689	144.69
237.922	133.69
238.156	118.69
238.39	111.69
238.624	125.69
238.858	117.69
239.091	116.69
239.325	130.69
239.559	141.69
239.793	145.69
240.027	145.69
240.26	148.69
240.494	158.69
240.728	157.69
240.961	131.69
241.195	132.69
241.429	131.69
241.662	123.69
241.896	155.69
242.13	135.69
242.363	131.69
242.597	140.69
242.83	145.69
243.064	140.69
243.298	140.69
243.531	129.69
243.765	137.69
243.998	146.69
244.232	146.69
244.465	141.69
244.699	143.69
244.932	141.69
245.166	134.69
245.399	139.69
245.633	155.69
245.866	147.69
246.099	131.69
246.333	142.69
246.566	155.69
246.8	151.69
247.033	136.69
247.266	160.69
247.5	159.69
247.733	175.69
247.966	140.69
248.2	166.69
248.433	173.69
248.666	173.69
248.899	182.69
249.133	193.69
249.366	195.69
249.599	195.69
249.832	184.69
250.066	159.69
250.299	167.69
250.532	174.69
250.765	197.69
250.998	205.69
251.231	178.69
251.465	179.69
251.698	163.69
251.931	173.69
252.164	189.69
252.397	179.69
252.63	191.69
252.863	207.69
253.096	223.69
253.329	213.69
253.562	191.69
253.795	192.69
254.028	200.69
254.261	213.69
254.494	243.69
254.727	255.69
254.96	253.69
255.193	215.69
255.426	219.69
255.659	195.69
255.892	189.69
256.124	181.69
256.357	188.69
256.59	195.69
256.823	190.69
257.056	193.69
257.289	182.69
257.521	221.69
257.754	193.69
257.987	191.69
258.22	190.69
258.452	189.69
258.685	210.69
258.918	205.69
259.151	219.69
259.383	203.69
259.616	203.69
259.849	220.69
260.081	247.69
260.314	242.69
260.547	228.69
260.779	202.69
261.012	221.69
261.244	214.69
261.477	205.69
261.71	234.69
261.942	242.69
262.175	236.69
262.407	220.69
262.64	205.69
262.872	198.69
263.105	221.69
263.337	210.69
263.57	201.69
263.802	227.69
264.035	209.69
264.267	207.69
264.499	210.69
264.732	214.69
264.964	209.69
265.197	216.69
265.429	210.69
265.661	196.69
265.894	207.69
266.126	218.69
266.358	208.69
266.591	221.69
266.823	245.69
267.055	231.69
267.287	227.69
267.52	214.69
267.752	234.69
267.984	231.69
268.216	217.69
268.448	234.69
268.681	256.69
268.913	255.69
269.145	279.69
269.377	274.69
269.609	263.69
269.841	269.69
270.073	293.69
270.306	313.69
270.538	316.69
270.77	293.69
271.002	273.69
271.234	288.69
271.466	299.69
271.698	308.69
271.93	303.69
272.162	320.69
272.394	297.69
272.626	285.69
272.858	273.69
273.09	271.69
273.322	267.69
273.553	237.69
273.785	266.69
274.017	249.69
274.249	265.69
274.481	258.69
274.713	261.69
274.945	278.69
275.176	260.69
275.408	268.69
275.64	259.69
275.872	268.69
276.104	286.69
276.335	280.69
276.567	320.69
276.799	365.69
277.031	357.69
277.262	341.69
277.494	299.69
277.726	307.69
277.957	269.69
278.189	293.69
278.421	275.69
278.652	281.69
278.884	269.69
279.115	277.69
279.347	264.69
279.579	275.69
279.81	272.69
280.042	281.69
280.273	277.69
280.505	272.69
280.736	283.69
280.968	283.69
281.199	277.69
281.431	286.69
281.662	278.69
281.894	298.69
282.125	293.69
282.356	342.69
282.588	367.69
282.819	347.69
283.051	299.69
283.282	289.69
283.513	303.69
283.745	321.69
283.976	295.69
284.207	283.69
284.439	293.69
284.67	303.69
284.901	286.69
285.132	299.69
285.364	294.69
285.595	285.69
285.826	293.69
286.057	297.69
286.288	305.69
286.52	311.69
286.751	305.69
286.982	313.69
287.213	302.69
287.444	319.69
287.675	330.69
287.906	335.69
288.138	332.69
288.369	342.69
288.6	333.69
288.831	319.69
289.062	313.69
289.293	308.69
289.524	312.69
289.755	327.69
289.986	309.69
290.217	307.69
290.448	319.69
290.679	312.69
290.91	307.69
291.141	329.69
291.371	334.69
291.602	321.69
291.833	338.69
292.064	314.69
292.295	331.69
292.526	320.69
292.757	309.69
292.987	339.69
293.218	343.69
293.449	332.69
293.68	319.69
293.91	327.69
294.141	342.69
294.372	328.69
294.603	331.69
294.833	315.69
295.064	336.69
295.295	340.69
295.525	340.69
295.756	352.69
295.987	393.69
296.217	424.69
296.448	403.69
296.679	359.69
296.909	360.69
297.14	331.69
297.37	351.69
297.601	359.69
297.831	373.69
298.062	351.69
298.292	356.69
298.523	390.69
298.753	358.69
298.984	377.69
299.214	374.69
299.445	361.69
299.675	380.69
299.905	369.69
300.136	381.69
300.366	371.69
300.597	361.69
300.827	376.69
301.057	397.69
301.288	406.69
301.518	383.69
301.748	389.69
301.979	407.69
302.209	394.69
302.439	403.69
302.669	396.69
302.9	388.69
303.13	404.69
303.36	387.69
303.59	415.69
303.82	412.69
304.051	385.69
304.281	389.69
304.511	381.69
304.741	385.69
304.971	380.69
305.201	380.69
305.431	363.69
305.661	390.69
305.891	397.69
306.121	407.69
306.352	429.69
306.582	423.69
306.812	395.69
307.042	396.69
307.272	390.69
307.502	408.69
307.731	408.69
307.961	383.69
308.191	409.69
308.421	381.69
308.651	385.69
308.881	404.69
309.111	416.69
309.341	435.69
309.571	441.69
309.8	448.69
310.03	451.69
310.26	472.69
310.49	488.69
310.72	500.69
310.949	500.69
311.179	506.69
311.409	447.69
311.639	481.69
311.868	470.69
312.098	475.69
312.328	497.69
312.557	563.69
312.787	533.69
313.017	528.69
313.246	473.69
313.476	472.69
313.706	479.69
313.935	517.69
314.165	544.69
314.394	522.69
314.624	499.69
314.853	477.69
315.083	477.69
315.312	468.69
315.542	477.69
315.771	461.69
316.001	467.69
316.23	464.69
316.46	473.69
316.689	446.69
316.919	501.69
317.148	475.69
317.377	485.69
317.607	453.69
317.836	473.69
318.065	475.69
318.295	447.69
318.524	457.69
318.753	464.69
318.983	466.69
319.212	465.69
319.441	493.69
319.67	487.69
319.9	482.69
320.129	448.69
320.358	467.69
320.587	485.69
320.816	487.69
321.046	497.69
321.275	493.69
321.504	486.69
321.733	517.69
321.962	508.69
322.191	566.69
322.42	617.69
322.649	602.69
322.878	616.69
323.108	660.69
323.337	714.69
323.566	755.69
323.795	869.69
324.024	1146.69
324.253	1981.69
324.482	3367.69
324.71	4996.69
324.939	4425.69
325.168	1950.69
325.397	925.69
325.626	713.69
325.855	649.69
326.084	689.69
326.313	721.69
326.542	791.69
326.77	1085.69
326.999	1794.69
327.228	2950.69
327.457	3755.69
327.686	2438.69
327.914	1158.69
328.143	869.69
328.372	800.69
328.6	770.69
328.829	815.69
329.058	831.69
329.287	765.69
329.515	673.69
329.744	641.69
329.972	655.69
330.201	694.69
330.43	770.69
330.658	911.69
330.887	910.69
331.115	761.69
331.344	671.69
331.572	647.69
331.801	681.69
332.03	669.69
332.258	633.69
332.486	622.69
332.715	647.69
332.943	631.69
333.172	654.69
333.4	659.69
333.629	676.69
333.857	667.69
334.085	651.69
334.314	629.69
334.542	679.69
334.771	665.69
334.999	643.69
335.227	621.69
335.455	636.69
335.684	630.69
335.912	623.69
336.14	613.69
336.369	629.69
336.597	641.69
336.825	631.69
337.053	604.69
337.281	615.69
337.51	596.69
337.738	633.69
337.966	624.69
338.194	621.69
338.422	585.69
338.65	596.69
338.878	562.69
339.106	554.69
339.334	569.69
339.562	571.69
339.79	561.69
340.018	556.69
340.246	591.69
340.474	610.69
340.702	598.69
340.93	568.69
341.158	562.69
341.386	592.69
341.614	596.69
341.842	579.69
342.07	570.69
342.298	563.69
342.526	567.69
342.754	553.69
342.981	566.69
343.209	559.69
343.437	591.69
343.665	619.69
343.893	635.69
344.12	620.69
344.348	576.69
344.576	597.69
344.804	635.69
345.031	660.69
345.259	625.69
345.487	614.69
345.714	589.69
345.942	557.69
346.17	566.69
346.397	571.69
346.625	575.69
346.853	555.69
347.08	549.69
347.308	579.69
347.535	597.69
347.763	598.69
347.99	605.69
348.218	611.69
348.445	606.69
348.673	577.69
348.9	552.69
349.128	557.69
349.355	545.69
349.583	531.69
349.81	547.69
350.037	555.69
350.265	527.69
350.492	532.69
350.72	566.69
350.947	576.69
351.174	614.69
351.402	597.69
351.629	581.69
351.856	603.69
352.083	617.69
352.311	615.69
352.538	609.69
352.765	609.69
352.992	582.69
353.22	559.69
353.447	563.69
353.674	534.69
353.901	525.69
354.128	527.69
354.355	547.69
354.583	539.69
354.81	532.69
355.037	543.69
355.264	509.69
355.491	507.69
355.718	519.69
355.945	509.69
356.172	537.69
356.399	528.69
356.626	533.69
356.853	539.69
357.08	507.69
357.307	519.69
357.534	536.69
357.761	545.69
357.988	519.69
358.215	515.69
358.441	541.69
358.668	532.69
358.895	557.69
359.122	546.69
359.349	567.69
359.576	643.69
359.802	697.69
360.029	722.69
360.256	671.69
360.483	613.69
360.709	587.69
360.936	573.69
361.163	593.69
361.39	592.69
361.616	594.69
361.843	586.69
362.07	613.69
362.296	605.69
362.523	590.69
362.749	595.69
362.976	561.69
363.203	569.69
363.429	554.69
363.656	547.69
363.882	557.69
364.109	546.69
364.335	526.69
364.562	569.69
364.788	555.69
365.015	570.69
365.241	560.69
365.468	609.69
365.694	595.69
365.92	583.69
366.147	563.69
366.373	553.69
366.599	547.69
366.826	547.69
367.052	575.69
367.278	565.69
367.505	549.69
367.731	552.69
367.957	565.69
368.184	563.69
368.41	609.69
368.636	594.69
368.862	568.69
369.089	584.69
369.315	554.69
369.541	565.69
369.767	581.69
369.993	586.69
370.219	549.69
370.445	565.69
370.672	563.69
370.898	540.69
371.124	579.69
371.35	565.69
371.576	565.69
371.802	565.69
372.028	568.69
372.254	570.69
372.48	575.69
372.706	592.69
372.932	576.69
373.158	588.69
373.384	591.69
373.61	565.69
373.835	576.69
374.061	577.69
374.287	611.69
374.513	589.69
374.739	626.69
374.965	613.69
375.191	596.69
375.416	589.69
375.642	582.69
375.868	585.69
376.094	556.69
376.319	561.69
376.545	592.69
376.771	587.69
376.997	570.69
377.222	570.69
377.448	549.69
377.674	567.69
377.899	571.69
378.125	561.69
378.35	546.69
378.576	569.69
378.802	547.69
379.027	564.69
379.253	565.69
379.478	569.69
379.704	570.69
379.929	568.69
380.155	573.69
380.38	571.69
380.606	571.69
380.831	574.69
381.057	570.69
381.282	577.69
381.507	591.69
381.733	586.69
381.958	596.69
382.184	594.69
382.409	601.69
382.634	597.69
382.86	587.69
383.085	610.69
383.31	594.69
383.535	620.69
383.761	618.69
383.986	661.69
384.211	625.69
384.436	667.69
384.662	657.69
384.887	661.69
385.112	644.69
385.337	659.69
385.562	680.69
385.787	645.69
386.013	693.69
386.238	685.69
386.463	694.69
386.688	673.69
386.913	653.69
387.138	683.69
387.363	678.69
387.588	667.69
387.813	672.69
388.038	653.69
388.263	678.69
388.488	652.69
388.713	658.69
388.938	633.69
389.163	670.69
389.387	677.69
389.612	638.69
389.837	642.69
390.062	637.69
390.287	675.69
390.512	657.69
390.736	632.69
390.961	683.69
391.186	659.69
391.411	715.69
391.636	713.69
391.86	740.69
392.085	727.69
392.31	694.69
392.534	697.69
392.759	686.69
392.984	671.69
393.208	693.69
393.433	686.69
393.658	691.69
393.882	661.69
394.107	692.69
394.331	693.69
394.556	688.69
394.78	705.69
395.005	691.69
395.229	703.69
395.454	714.69
395.678	729.69
395.903	728.69
396.127	744.69
396.352	724.69
396.576	713.69
396.801	716.69
397.025	721.69
397.249	731.69
397.474	753.69
397.698	731.69
397.922	759.69
398.147	766.69
398.371	779.69
398.595	798.69
398.82	823.69
399.044	913.69
399.268	987.69
399.492	1086.69
399.717	1127.69
399.941	1067.69
400.165	1007.69
400.389	928.69
400.613	863.69
400.837	836.69
401.062	842.69
401.286	827.69
401.51	812.69
401.734	833.69
401.958	823.69
402.182	886.69
402.406	900.69
402.63	890.69
402.854	896.69
403.078	894.69
403.302	879.69
403.526	888.69
403.75	907.69
403.974	931.69
404.198	889.69
404.422	902.69
404.645	892.69
404.869	917.69
405.093	899.69
405.317	931.69
405.541	919.69
405.765	906.69
405.988	913.69
406.212	1010.69
406.436	1060.69
406.66	1017.69
406.883	1002.69
407.107	1056.69
407.331	1107.69
407.555	1129.69
407.778	1054.69
408.002	1006.69
408.226	942.69
408.449	963.69
408.673	953.69
408.896	967.69
409.12	937.69
409.344	918.69
409.567	864.69
409.791	874.69
410.014	869.69
410.238	875.69
410.461	883.69
410.685	849.69
410.908	900.69
411.132	902.69
411.355	883.69
411.578	839.69
411.802	835.69
412.025	834.69
412.249	841.69
412.472	814.69
412.695	782.69
412.919	785.69
413.142	780.69
413.365	807.69
413.589	807.69
413.812	783.69
414.035	756.69
414.258	800.69
414.482	784.69
414.705	787.69
414.928	800.69
415.151	795.69
415.374	801.69
415.597	788.69
415.821	751.69
416.044	762.69
416.267	772.69
416.49	764.69
416.713	771.69
416.936	764.69
417.159	788.69
417.382	811.69
417.605	822.69
417.828	800.69
418.051	828.69
418.274	795.69
418.497	791.69
418.72	796.69
418.943	815.69
419.166	829.69
419.389	848.69
419.611	823.69
419.834	817.69
420.057	821.69
420.28	804.69
420.503	780.69
420.726	807.69
420.948	806.69
421.171	861.69
421.394	849.69
421.617	814.69
421.839	851.69
422.062	836.69
422.285	872.69
422.507	936.69
422.73	956.69
422.953	884.69
423.175	857.69
423.398	843.69
423.621	865.69
423.843	875.69
424.066	896.69
424.288	880.69
424.511	906.69
424.733	1001.69
424.956	1035.69
425.178	1012.69
425.401	989.69
425.623	923.69
425.846	841.69
426.068	827.69
426.291	834.69
426.513	822.69
426.735	846.69
426.958	969.69
427.18	1077.69
427.402	1263.69
427.625	1277.69
427.847	1004.69
428.069	820.69
428.292	808.69
428.514	749.69
428.736	755.69
428.958	767.69
429.181	744.69
429.403	744.69
429.625	781.69
429.847	829.69
430.069	861.69
430.292	811.69
430.514	737.69
430.736	723.69
430.958	740.69
431.18	730.69
431.402	714.69
431.624	724.69
431.846	726.69
432.068	709.69
432.29	736.69
432.512	712.69
432.734	732.69
432.956	752.69
433.178	765.69
433.4	757.69
433.622	741.69
433.844	718.69
434.066	739.69
434.287	731.69
434.509	764.69
434.731	787.69
434.953	818.69
435.175	799.69
435.397	819.69
435.618	854.69
435.84	929.69
436.062	1046.69
436.284	958.69
436.505	851.69
436.727	804.69
436.949	771.69
437.17	761.69
437.392	759.69
437.614	811.69
437.835	947.69
438.057	1055.69
438.278	1090.69
438.5	1062.69
438.721	1107.69
438.943	945.69
439.165	819.69
439.386	811.69
439.608	823.69
439.829	861.69
440.05	947.69
440.272	993.69
440.493	854.69
440.715	797.69
440.936	784.69
441.158	768.69
441.379	822.69
441.6	852.69
441.822	870.69
442.043	995.69
442.264	1037.69
442.486	945.69
442.707	886.69
442.928	912.69
443.149	971.69
443.371	976.69
443.592	1053.69
443.813	1091.69
444.034	1055.69
444.255	923.69
444.476	899.69
444.698	890.69
444.919	922.69
445.14	991.69
445.361	973.69
445.582	1047.69
445.803	1169.69
446.024	1225.69
446.245	1159.69
446.466	973.69
446.687	833.69
446.908	780.69
447.129	754.69
447.35	743.69
447.571	761.69
447.792	720.69
448.013	757.69
448.234	811.69
448.455	913.69
448.675	1051.69
448.896	1035.69
449.117	897.69
449.338	989.69
449.559	1140.69
449.779	1059.69
450	816.69
450.221	771.69
450.442	722.69
450.662	764.69
450.883	797.69
451.104	812.69
451.324	742.69
451.545	701.69
451.766	662.69
451.986	654.69
452.207	675.69
452.428	683.69
452.648	664.69
452.869	696.69
453.089	724.69
453.31	725.69
453.53	690.69
453.751	698.69
453.971	716.69
454.192	724.69
454.412	697.69
454.633	655.69
454.853	658.69
455.073	644.69
455.294	733.69
455.514	757.69
455.734	702.69
455.955	634.69
456.175	626.69
456.395	626.69
456.616	596.69
456.836	617.69
457.056	619.69
457.276	637.69
457.497	609.69
457.717	613.69
457.937	626.69
458.157	652.69
458.377	660.69
458.598	796.69
458.818	975.69
459.038	1045.69
459.258	876.69
459.478	773.69
459.698	754.69
459.918	743.69
460.138	768.69
460.358	779.69
460.578	799.69
460.798	789.69
461.018	795.69
461.238	759.69
461.458	762.69
461.678	764.69
461.898	776.69
462.118	818.69
462.338	831.69
462.558	817.69
462.777	875.69
462.997	945.69
463.217	947.69
463.437	908.69
463.657	878.69
463.876	874.69
464.096	870.69
464.316	912.69
464.536	902.69
464.755	891.69
464.975	959.69
465.195	1184.69
465.414	1094.69
465.634	841.69
465.854	771.69
466.073	716.69
466.293	711.69
466.512	671.69
466.732	698.69
466.951	698.69
467.171	704.69
467.391	728.69
467.61	755.69
467.829	735.69
468.049	691.69
468.268	653.69
468.488	656.69
468.707	681.69
468.927	647.69
469.146	652.69
469.365	670.69
469.585	682.69
469.804	730.69
470.023	764.69
470.243	759.69
470.462	768.69
470.681	782.69
470.901	727.69
471.12	699.69
471.339	711.69
471.558	713.69
471.777	685.69
471.997	666.69
472.216	655.69
472.435	651.69
472.654	642.69
472.873	631.69
473.092	652.69
473.311	649.69
473.53	667.69
473.749	683.69
473.968	796.69
474.187	881.69
474.406	804.69
474.625	721.69
474.844	667.69
475.063	649.69
475.282	645.69
475.501	651.69
475.72	687.69
475.939	698.69
476.158	693.69
476.377	704.69
476.596	699.69
476.814	729.69
477.033	740.69
477.252	713.69
477.471	716.69
477.69	757.69
477.908	758.69
478.127	748.69
478.346	760.69
478.564	760.69
478.783	771.69
479.002	822.69
479.22	800.69
479.439	855.69
479.658	883.69
479.876	872.69
480.095	867.69
480.313	855.69
480.532	861.69
480.751	827.69
480.969	841.69
481.188	813.69
481.406	792.69
481.624	765.69
481.843	770.69
482.061	768.69
482.28	783.69
482.498	741.69
482.717	761.69
482.935	767.69
483.153	755.69
483.372	775.69
483.59	782.69
483.808	752.69
484.027	775.69
484.245	791.69
484.463	788.69
484.681	791.69
484.9	822.69
485.118	773.69
485.336	771.69
485.554	789.69
485.772	808.69
485.99	811.69
486.209	819.69
486.427	827.69
486.645	861.69
486.863	886.69
487.081	859.69
487.299	813.69
487.517	826.69
487.735	819.69
487.953	839.69
488.171	851.69
488.389	793.69
488.607	834.69
488.825	800.69
489.043	800.69
489.261	821.69
489.479	821.69
489.696	816.69
489.914	860.69
490.132	847.69
490.35	853.69
490.568	881.69
490.786	907.69
491.003	884.69
491.221	952.69
491.439	975.69
491.657	943.69
491.874	968.69
492.092	959.69
492.31	974.69
492.527	958.69
492.745	971.69
492.963	935.69
493.18	990.69
493.398	1025.69
493.615	987.69
493.833	1002.69
494.05	1008.69
494.268	943.69
494.485	961.69
494.703	945.69
494.92	973.69
495.138	953.69
495.355	967.69
495.573	984.69
495.79	938.69
496.008	1007.69
496.225	966.69
496.442	967.69
496.66	963.69
496.877	1006.69
497.094	952.69
497.312	968.69
497.529	1039.69
497.746	1042.69
497.963	1092.69
498.181	1112.69
498.398	1132.69
498.615	1194.69
498.832	1205.69
499.049	1252.69
499.267	1335.69
499.484	1431.69
499.701	1519.69
499.918	1620.69
500.135	1775.69
500.352	1888.69
500.569	1913.69
500.786	1829.69
501.003	1719.69
501.22	1635.69
501.437	1549.69
501.654	1476.69
