Data from TestCu_HRD10591_00089.txt Node
Date: Thu Oct 05 14:06:09 EDT 2023
User: Yrep
Spectrometer: HR+D1059
Trigger mode: 1
Integration Time (sec): 1.000000E-1
Scans to average: 1
Electric dark correction enabled: true
Nonlinearity correction enabled: false
Boxcar width: 0
XAxis mode: Wavelengths
Number of Pixels in Spectrum: 2048
>>>>>Begin Spectral Data<<<<<
223.165	-26.81
223.4	-26.81
223.635	-26.81
223.869	-17.81
224.104	-6.81
224.338	-12.81
224.573	-7.81
224.808	-12.81
225.042	-9.81
225.277	-2.81
225.511	-12.81
225.746	7.19
225.98	2.19
226.215	19.19
226.449	20.19
226.683	23.19
226.918	15.19
227.152	23.19
227.387	53.19
227.621	42.19
227.856	53.19
228.09	46.19
228.324	62.19
228.559	55.19
228.793	75.19
229.027	107.19
229.262	119.19
229.496	145.19
229.73	148.19
229.964	163.19
230.199	124.19
230.433	102.19
230.667	108.19
230.901	122.19
231.136	110.19
231.37	114.19
231.604	113.19
231.838	112.19
232.072	99.19
232.306	121.19
232.541	137.19
232.775	112.19
233.009	113.19
233.243	103.19
233.477	106.19
233.711	129.19
233.945	113.19
234.179	126.19
234.413	124.19
234.647	112.19
234.881	107.19
235.115	121.19
235.349	143.19
235.583	128.19
235.817	136.19
236.051	140.19
236.285	121.19
236.519	117.19
236.753	147.19
236.987	188.19
237.221	226.19
237.455	238.19
237.689	149.19
237.922	153.19
238.156	136.19
238.39	133.19
238.624	130.19
238.858	134.19
239.091	113.19
239.325	132.19
239.559	135.19
239.793	142.19
240.027	141.19
240.26	155.19
240.494	170.19
240.728	146.19
240.961	159.19
241.195	130.19
241.429	123.19
241.662	124.19
241.896	128.19
242.13	128.19
242.363	137.19
242.597	130.19
242.83	146.19
243.064	142.19
243.298	144.19
243.531	143.19
243.765	153.19
243.998	134.19
244.232	132.19
244.465	162.19
244.699	143.19
244.932	151.19
245.166	155.19
245.399	145.19
245.633	136.19
245.866	146.19
246.099	160.19
246.333	147.19
246.566	145.19
246.8	151.19
247.033	158.19
247.266	153.19
247.5	156.19
247.733	161.19
247.966	168.19
248.2	170.19
248.433	188.19
248.666	192.19
248.899	188.19
249.133	212.19
249.366	197.19
249.599	192.19
249.832	168.19
250.066	177.19
250.299	182.19
250.532	186.19
250.765	212.19
250.998	226.19
251.231	204.19
251.465	199.19
251.698	179.19
251.931	177.19
252.164	179.19
252.397	180.19
252.63	187.19
252.863	226.19
253.096	208.19
253.329	222.19
253.562	211.19
253.795	206.19
254.028	204.19
254.261	225.19
254.494	244.19
254.727	269.19
254.96	245.19
255.193	227.19
255.426	207.19
255.659	201.19
255.892	167.19
256.124	203.19
256.357	192.19
256.59	200.19
256.823	207.19
257.056	196.19
257.289	194.19
257.521	204.19
257.754	198.19
257.987	192.19
258.22	198.19
258.452	194.19
258.685	204.19
258.918	199.19
259.151	210.19
259.383	222.19
259.616	224.19
259.849	215.19
260.081	251.19
260.314	260.19
260.547	230.19
260.779	215.19
261.012	222.19
261.244	216.19
261.477	231.19
261.71	219.19
261.942	252.19
262.175	275.19
262.407	253.19
262.64	232.19
262.872	210.19
263.105	220.19
263.337	226.19
263.57	213.19
263.802	207.19
264.035	204.19
264.267	203.19
264.499	216.19
264.732	229.19
264.964	233.19
265.197	234.19
265.429	224.19
265.661	210.19
265.894	212.19
266.126	211.19
266.358	224.19
266.591	219.19
266.823	230.19
267.055	228.19
267.287	234.19
267.52	232.19
267.752	225.19
267.984	230.19
268.216	255.19
268.448	242.19
268.681	252.19
268.913	268.19
269.145	289.19
269.377	272.19
269.609	264.19
269.841	280.19
270.073	312.19
270.306	325.19
270.538	327.19
270.77	297.19
271.002	278.19
271.234	278.19
271.466	295.19
271.698	328.19
271.93	320.19
272.162	307.19
272.394	316.19
272.626	289.19
272.858	271.19
273.09	249.19
273.322	267.19
273.553	268.19
273.785	265.19
274.017	266.19
274.249	275.19
274.481	263.19
274.713	262.19
274.945	268.19
275.176	277.19
275.408	277.19
275.64	267.19
275.872	276.19
276.104	292.19
276.335	293.19
276.567	323.19
276.799	348.19
277.031	367.19
277.262	355.19
277.494	315.19
277.726	304.19
277.957	291.19
278.189	278.19
278.421	281.19
278.652	289.19
278.884	268.19
279.115	286.19
279.347	290.19
279.579	294.19
279.81	271.19
280.042	286.19
280.273	287.19
280.505	290.19
280.736	276.19
280.968	268.19
281.199	296.19
281.431	286.19
281.662	316.19
281.894	300.19
282.125	316.19
282.356	356.19
282.588	374.19
282.819	330.19
283.051	312.19
283.282	324.19
283.513	309.19
283.745	312.19
283.976	297.19
284.207	298.19
284.439	322.19
284.67	302.19
284.901	313.19
285.132	278.19
285.364	290.19
285.595	312.19
285.826	325.19
286.057	325.19
286.288	315.19
286.52	313.19
286.751	299.19
286.982	320.19
287.213	332.19
287.444	338.19
287.675	344.19
287.906	343.19
288.138	343.19
288.369	325.19
288.6	341.19
288.831	326.19
289.062	324.19
289.293	344.19
289.524	327.19
289.755	323.19
289.986	330.19
290.217	326.19
290.448	332.19
290.679	312.19
290.91	307.19
291.141	316.19
291.371	328.19
291.602	324.19
291.833	335.19
292.064	346.19
292.295	350.19
292.526	332.19
292.757	343.19
292.987	364.19
293.218	338.19
293.449	343.19
293.68	341.19
293.91	360.19
294.141	347.19
294.372	337.19
294.603	343.19
294.833	346.19
295.064	339.19
295.295	350.19
295.525	354.19
295.756	383.19
295.987	394.19
296.217	440.19
296.448	388.19
296.679	373.19
296.909	358.19
297.14	352.19
297.37	343.19
297.601	372.19
297.831	383.19
298.062	366.19
298.292	371.19
298.523	370.19
298.753	374.19
298.984	358.19
299.214	390.19
299.445	381.19
299.675	401.19
299.905	384.19
300.136	381.19
300.366	374.19
300.597	409.19
300.827	402.19
301.057	415.19
301.288	398.19
301.518	404.19
301.748	389.19
301.979	416.19
302.209	422.19
302.439	438.19
302.669	400.19
302.9	412.19
303.13	401.19
303.36	426.19
303.59	443.19
303.82	405.19
304.051	399.19
304.281	420.19
304.511	396.19
304.741	398.19
304.971	402.19
305.201	415.19
305.431	380.19
305.661	405.19
305.891	400.19
306.121	412.19
306.352	416.19
306.582	418.19
306.812	379.19
307.042	398.19
307.272	402.19
307.502	422.19
307.731	410.19
307.961	409.19
308.191	402.19
308.421	435.19
308.651	427.19
308.881	434.19
309.111	438.19
309.341	447.19
309.571	445.19
309.8	479.19
310.03	482.19
310.26	492.19
310.49	490.19
310.72	520.19
310.949	513.19
311.179	523.19
311.409	483.19
311.639	457.19
311.868	494.19
312.098	479.19
312.328	519.19
312.557	554.19
312.787	545.19
313.017	518.19
313.246	468.19
313.476	473.19
313.706	513.19
313.935	516.19
314.165	523.19
314.394	534.19
314.624	514.19
314.853	508.19
315.083	472.19
315.312	475.19
315.542	462.19
315.771	454.19
316.001	445.19
316.23	485.19
316.46	484.19
316.689	502.19
316.919	488.19
317.148	507.19
317.377	506.19
317.607	481.19
317.836	464.19
318.065	472.19
318.295	475.19
318.524	469.19
318.753	482.19
318.983	469.19
319.212	498.19
319.441	512.19
319.67	495.19
319.9	480.19
320.129	481.19
320.358	480.19
320.587	501.19
320.816	530.19
321.046	516.19
321.275	502.19
321.504	504.19
321.733	523.19
321.962	547.19
322.191	593.19
322.42	603.19
322.649	601.19
322.878	636.19
323.108	668.19
323.337	716.19
323.566	791.19
323.795	856.19
324.024	1147.19
324.253	2034.19
324.482	3425.19
324.71	5007.19
324.939	4443.19
325.168	1974.19
325.397	962.19
325.626	729.19
325.855	662.19
326.084	692.19
326.313	718.19
326.542	828.19
326.77	1112.19
326.999	1894.19
327.228	3012.19
327.457	3715.19
327.686	2441.19
327.914	1165.19
328.143	891.19
328.372	838.19
328.6	832.19
328.829	853.19
329.058	862.19
329.287	805.19
329.515	689.19
329.744	662.19
329.972	652.19
330.201	717.19
330.43	789.19
330.658	918.19
330.887	984.19
331.115	779.19
331.344	680.19
331.572	675.19
331.801	691.19
332.03	668.19
332.258	621.19
332.486	632.19
332.715	630.19
332.943	647.19
333.172	674.19
333.4	674.19
333.629	672.19
333.857	700.19
334.085	663.19
334.314	648.19
334.542	667.19
334.771	658.19
334.999	627.19
335.227	642.19
335.455	642.19
335.684	640.19
335.912	640.19
336.14	627.19
336.369	646.19
336.597	657.19
336.825	645.19
337.053	616.19
337.281	600.19
337.51	612.19
337.738	642.19
337.966	637.19
338.194	639.19
338.422	628.19
338.65	579.19
338.878	583.19
339.106	578.19
339.334	580.19
339.562	572.19
339.79	590.19
340.018	589.19
340.246	599.19
340.474	616.19
340.702	591.19
340.93	582.19
341.158	620.19
341.386	597.19
341.614	592.19
341.842	585.19
342.07	558.19
342.298	583.19
342.526	567.19
342.754	558.19
342.981	583.19
343.209	594.19
343.437	619.19
343.665	632.19
343.893	621.19
344.12	639.19
344.348	634.19
344.576	654.19
344.804	658.19
345.031	657.19
345.259	650.19
345.487	617.19
345.714	585.19
345.942	570.19
346.17	571.19
346.397	590.19
346.625	574.19
346.853	606.19
347.08	577.19
347.308	602.19
347.535	604.19
347.763	619.19
347.99	580.19
348.218	636.19
348.445	617.19
348.673	621.19
348.9	577.19
349.128	561.19
349.355	573.19
349.583	549.19
349.81	563.19
350.037	572.19
350.265	557.19
350.492	550.19
350.72	547.19
350.947	600.19
351.174	608.19
351.402	620.19
351.629	611.19
351.856	633.19
352.083	634.19
352.311	646.19
352.538	634.19
352.765	613.19
352.992	606.19
353.22	603.19
353.447	578.19
353.674	542.19
353.901	550.19
354.128	528.19
354.355	552.19
354.583	533.19
354.81	570.19
355.037	516.19
355.264	544.19
355.491	539.19
355.718	535.19
355.945	564.19
356.172	543.19
356.399	523.19
356.626	566.19
356.853	534.19
357.08	523.19
357.307	538.19
357.534	547.19
357.761	522.19
357.988	554.19
358.215	564.19
358.441	563.19
358.668	555.19
358.895	562.19
359.122	586.19
359.349	594.19
359.576	651.19
359.802	713.19
360.029	758.19
360.256	748.19
360.483	649.19
360.709	604.19
360.936	586.19
361.163	587.19
361.39	641.19
361.616	602.19
361.843	588.19
362.07	606.19
362.296	601.19
362.523	581.19
362.749	595.19
362.976	595.19
363.203	552.19
363.429	551.19
363.656	562.19
363.882	545.19
364.109	560.19
364.335	546.19
364.562	584.19
364.788	563.19
365.015	575.19
365.241	579.19
365.468	603.19
365.694	596.19
365.92	581.19
366.147	584.19
366.373	549.19
366.599	578.19
366.826	562.19
367.052	568.19
367.278	590.19
367.505	571.19
367.731	574.19
367.957	562.19
368.184	600.19
368.41	621.19
368.636	607.19
368.862	612.19
369.089	582.19
369.315	575.19
369.541	561.19
369.767	582.19
369.993	590.19
370.219	587.19
370.445	583.19
370.672	586.19
370.898	582.19
371.124	589.19
371.35	576.19
371.576	553.19
371.802	566.19
372.028	560.19
372.254	575.19
372.48	585.19
372.706	589.19
372.932	584.19
373.158	627.19
373.384	617.19
373.61	573.19
373.835	584.19
374.061	587.19
374.287	610.19
374.513	610.19
374.739	599.19
374.965	619.19
375.191	609.19
375.416	614.19
375.642	594.19
375.868	614.19
376.094	601.19
376.319	568.19
376.545	574.19
376.771	590.19
376.997	609.19
377.222	578.19
377.448	587.19
377.674	590.19
377.899	569.19
378.125	588.19
378.35	554.19
378.576	575.19
378.802	558.19
379.027	570.19
379.253	595.19
379.478	573.19
379.704	599.19
379.929	594.19
380.155	570.19
380.38	602.19
380.606	594.19
380.831	584.19
381.057	601.19
381.282	590.19
381.507	587.19
381.733	603.19
381.958	603.19
382.184	617.19
382.409	624.19
382.634	599.19
382.86	612.19
383.085	610.19
383.31	599.19
383.535	627.19
383.761	620.19
383.986	656.19
384.211	639.19
384.436	655.19
384.662	632.19
384.887	673.19
385.112	662.19
385.337	679.19
385.562	682.19
385.787	690.19
386.013	723.19
386.238	724.19
386.463	667.19
386.688	670.19
386.913	663.19
387.138	651.19
387.363	671.19
387.588	655.19
387.813	673.19
388.038	671.19
388.263	696.19
388.488	680.19
388.713	665.19
388.938	689.19
389.163	682.19
389.387	687.19
389.612	666.19
389.837	668.19
390.062	673.19
390.287	674.19
390.512	667.19
390.736	675.19
390.961	698.19
391.186	700.19
391.411	707.19
391.636	726.19
391.86	747.19
392.085	748.19
392.31	746.19
392.534	694.19
392.759	712.19
392.984	696.19
393.208	710.19
393.433	676.19
393.658	705.19
393.882	699.19
394.107	706.19
394.331	714.19
394.556	710.19
394.78	714.19
395.005	710.19
395.229	726.19
395.454	753.19
395.678	761.19
395.903	763.19
396.127	761.19
396.352	726.19
396.576	735.19
396.801	704.19
397.025	718.19
397.249	735.19
397.474	782.19
397.698	768.19
397.922	795.19
398.147	765.19
398.371	818.19
398.595	852.19
398.82	879.19
399.044	935.19
399.268	1002.19
399.492	1111.19
399.717	1110.19
399.941	1060.19
400.165	1035.19
400.389	977.19
400.613	902.19
400.837	858.19
401.062	862.19
401.286	875.19
401.51	825.19
401.734	834.19
401.958	876.19
402.182	934.19
402.406	948.19
402.63	915.19
402.854	907.19
403.078	914.19
403.302	914.19
403.526	932.19
403.75	934.19
403.974	938.19
404.198	923.19
404.422	951.19
404.645	894.19
404.869	924.19
405.093	945.19
405.317	942.19
405.541	934.19
405.765	970.19
405.988	935.19
406.212	1038.19
406.436	1102.19
406.66	1066.19
406.883	1020.19
407.107	1090.19
407.331	1104.19
407.555	1190.19
407.778	1108.19
408.002	1006.19
408.226	946.19
408.449	988.19
408.673	966.19
408.896	966.19
409.12	948.19
409.344	927.19
409.567	883.19
409.791	874.19
410.014	878.19
410.238	881.19
410.461	880.19
410.685	912.19
410.908	917.19
411.132	956.19
411.355	883.19
411.578	864.19
411.802	851.19
412.025	850.19
412.249	849.19
412.472	849.19
412.695	818.19
412.919	802.19
413.142	817.19
413.365	811.19
413.589	794.19
413.812	793.19
414.035	817.19
414.258	808.19
414.482	802.19
414.705	820.19
414.928	798.19
415.151	790.19
415.374	820.19
415.597	804.19
415.821	783.19
416.044	820.19
416.267	771.19
416.49	763.19
416.713	786.19
416.936	819.19
417.159	814.19
417.382	799.19
417.605	807.19
417.828	841.19
418.051	858.19
418.274	832.19
418.497	815.19
418.72	826.19
418.943	828.19
419.166	856.19
419.389	867.19
419.611	858.19
419.834	863.19
420.057	835.19
420.28	786.19
420.503	817.19
420.726	802.19
420.948	828.19
421.171	901.19
421.394	899.19
421.617	818.19
421.839	848.19
422.062	843.19
422.285	913.19
422.507	955.19
422.73	1006.19
422.953	898.19
423.175	856.19
423.398	906.19
423.621	890.19
423.843	935.19
424.066	914.19
424.288	912.19
424.511	946.19
424.733	1020.19
424.956	1035.19
425.178	1018.19
425.401	986.19
425.623	948.19
425.846	849.19
426.068	828.19
426.291	821.19
426.513	835.19
426.735	895.19
426.958	953.19
427.18	1117.19
427.402	1258.19
427.625	1306.19
427.847	990.19
428.069	848.19
428.292	807.19
428.514	786.19
428.736	774.19
428.958	775.19
429.181	734.19
429.403	759.19
429.625	787.19
429.847	854.19
430.069	880.19
430.292	822.19
430.514	754.19
430.736	744.19
430.958	746.19
431.18	720.19
431.402	718.19
431.624	738.19
431.846	720.19
432.068	744.19
432.29	749.19
432.512	741.19
432.734	732.19
432.956	774.19
433.178	779.19
433.4	776.19
433.622	770.19
433.844	772.19
434.066	758.19
434.287	758.19
434.509	788.19
434.731	805.19
434.953	828.19
435.175	849.19
435.397	841.19
435.618	887.19
435.84	946.19
436.062	1041.19
436.284	965.19
436.505	844.19
436.727	800.19
436.949	757.19
437.17	763.19
437.392	774.19
437.614	809.19
437.835	952.19
438.057	1049.19
438.278	1088.19
438.5	1082.19
438.721	1130.19
438.943	983.19
439.165	846.19
439.386	810.19
439.608	832.19
439.829	903.19
440.05	958.19
440.272	987.19
440.493	870.19
440.715	812.19
440.936	787.19
441.158	792.19
441.379	817.19
441.6	870.19
441.822	920.19
442.043	955.19
442.264	1064.19
442.486	988.19
442.707	898.19
442.928	929.19
443.149	964.19
443.371	1009.19
443.592	1080.19
443.813	1118.19
444.034	1066.19
444.255	923.19
444.476	944.19
444.698	942.19
444.919	939.19
445.14	961.19
445.361	948.19
445.582	1066.19
445.803	1192.19
446.024	1243.19
446.245	1174.19
446.466	994.19
446.687	836.19
446.908	790.19
447.129	772.19
447.35	776.19
447.571	768.19
447.792	785.19
448.013	774.19
448.234	837.19
448.455	955.19
448.675	1046.19
448.896	1043.19
449.117	910.19
449.338	1014.19
449.559	1108.19
449.779	1090.19
450	864.19
450.221	753.19
450.442	737.19
450.662	756.19
450.883	841.19
451.104	842.19
451.324	751.19
451.545	710.19
451.766	694.19
451.986	698.19
452.207	682.19
452.428	698.19
452.648	739.19
452.869	718.19
453.089	742.19
453.31	751.19
453.53	700.19
453.751	696.19
453.971	726.19
454.192	748.19
454.412	707.19
454.633	671.19
454.853	674.19
455.073	703.19
455.294	734.19
455.514	815.19
455.734	748.19
455.955	641.19
456.175	622.19
456.395	624.19
456.616	616.19
456.836	616.19
457.056	629.19
457.276	604.19
457.497	633.19
457.717	659.19
457.937	658.19
458.157	639.19
458.377	698.19
458.598	818.19
458.818	1012.19
459.038	1035.19
459.258	882.19
459.478	771.19
459.698	739.19
459.918	763.19
460.138	791.19
460.358	818.19
460.578	810.19
460.798	795.19
461.018	816.19
461.238	806.19
461.458	799.19
461.678	783.19
461.898	793.19
462.118	834.19
462.338	846.19
462.558	862.19
462.777	890.19
462.997	971.19
463.217	956.19
463.437	908.19
463.657	895.19
463.876	894.19
464.096	900.19
464.316	895.19
464.536	938.19
464.755	911.19
464.975	1022.19
465.195	1216.19
465.414	1110.19
465.634	866.19
465.854	787.19
466.073	778.19
466.293	730.19
466.512	709.19
466.732	709.19
466.951	699.19
467.171	715.19
467.391	743.19
467.61	769.19
467.829	739.19
468.049	707.19
468.268	694.19
468.488	674.19
468.707	682.19
468.927	704.19
469.146	673.19
469.365	707.19
469.585	689.19
469.804	750.19
470.023	738.19
470.243	734.19
470.462	795.19
470.681	806.19
470.901	754.19
471.12	720.19
471.339	722.19
471.558	717.19
471.777	678.19
471.997	669.19
472.216	672.19
472.435	678.19
472.654	654.19
472.873	643.19
473.092	662.19
473.311	668.19
473.53	692.19
473.749	707.19
473.968	828.19
474.187	890.19
474.406	803.19
474.625	710.19
474.844	684.19
475.063	692.19
475.282	696.19
475.501	674.19
475.72	694.19
475.939	699.19
476.158	688.19
476.377	708.19
476.596	707.19
476.814	743.19
477.033	748.19
477.252	741.19
477.471	744.19
477.69	775.19
477.908	779.19
478.127	789.19
478.346	786.19
478.564	810.19
478.783	804.19
479.002	814.19
479.22	846.19
479.439	894.19
479.658	894.19
479.876	878.19
480.095	887.19
480.313	928.19
480.532	869.19
480.751	871.19
480.969	855.19
481.188	814.19
481.406	845.19
481.624	793.19
481.843	773.19
482.061	768.19
482.28	756.19
482.498	788.19
482.717	737.19
482.935	790.19
483.153	785.19
483.372	791.19
483.59	773.19
483.808	776.19
484.027	771.19
484.245	809.19
484.463	808.19
484.681	801.19
484.9	813.19
485.118	821.19
485.336	817.19
485.554	817.19
485.772	812.19
485.99	825.19
486.209	858.19
486.427	835.19
486.645	879.19
486.863	914.19
487.081	886.19
487.299	856.19
487.517	865.19
487.735	846.19
487.953	834.19
488.171	848.19
488.389	838.19
488.607	833.19
488.825	840.19
489.043	825.19
489.261	838.19
489.479	822.19
489.696	826.19
489.914	844.19
490.132	899.19
490.35	879.19
490.568	876.19
490.786	913.19
491.003	905.19
491.221	958.19
491.439	946.19
491.657	990.19
491.874	986.19
492.092	982.19
492.31	976.19
492.527	963.19
492.745	977.19
492.963	976.19
493.18	990.19
493.398	1004.19
493.615	993.19
493.833	1000.19
494.05	1006.19
494.268	977.19
494.485	978.19
494.703	974.19
494.92	1022.19
495.138	978.19
495.355	998.19
495.573	1027.19
495.79	983.19
496.008	977.19
496.225	981.19
496.442	1011.19
496.66	1009.19
496.877	986.19
497.094	1015.19
497.312	1036.19
497.529	1027.19
497.746	1047.19
497.963	1075.19
498.181	1140.19
498.398	1162.19
498.615	1208.19
498.832	1247.19
499.049	1295.19
499.267	1364.19
499.484	1463.19
499.701	1561.19
499.918	1679.19
500.135	1846.19
500.352	1924.19
500.569	1935.19
500.786	1873.19
501.003	1783.19
501.22	1678.19
501.437	1586.19
501.654	1495.19
