Data from TestCu_HRD10591_00105.txt Node
Date: Thu Oct 05 14:06:25 EDT 2023
User: Yrep
Spectrometer: HR+D1059
Trigger mode: 1
Integration Time (sec): 1.000000E-1
Scans to average: 1
Electric dark correction enabled: true
Nonlinearity correction enabled: false
Boxcar width: 0
XAxis mode: Wavelengths
Number of Pixels in Spectrum: 2048
>>>>>Begin Spectral Data<<<<<
223.165	-8.81
223.4	-8.81
223.635	-8.81
223.869	-12.81
224.104	-29.81
224.338	-29.81
224.573	2.19
224.808	-12.81
225.042	-1.81
225.277	-13.81
225.511	-13.81
225.746	11.19
225.98	7.19
226.215	2.19
226.449	21.19
226.683	16.19
226.918	23.19
227.152	40.19
227.387	26.19
227.621	28.19
227.856	35.19
228.09	37.19
228.324	52.19
228.559	56.19
228.793	63.19
229.027	106.19
229.262	113.19
229.496	135.19
229.73	151.19
229.964	154.19
230.199	125.19
230.433	116.19
230.667	116.19
230.901	119.19
231.136	103.19
231.37	109.19
231.604	107.19
231.838	100.19
232.072	122.19
232.306	109.19
232.541	124.19
232.775	114.19
233.009	101.19
233.243	112.19
233.477	121.19
233.711	127.19
233.945	109.19
234.179	101.19
234.413	115.19
234.647	98.19
234.881	118.19
235.115	120.19
235.349	110.19
235.583	133.19
235.817	124.19
236.051	139.19
236.285	133.19
236.519	130.19
236.753	160.19
236.987	180.19
237.221	228.19
237.455	218.19
237.689	152.19
237.922	131.19
238.156	122.19
238.39	134.19
238.624	120.19
238.858	125.19
239.091	123.19
239.325	115.19
239.559	122.19
239.793	144.19
240.027	150.19
240.26	171.19
240.494	172.19
240.728	142.19
240.961	130.19
241.195	135.19
241.429	132.19
241.662	133.19
241.896	134.19
242.13	125.19
242.363	138.19
242.597	143.19
242.83	137.19
243.064	135.19
243.298	129.19
243.531	143.19
243.765	128.19
243.998	127.19
244.232	143.19
244.465	136.19
244.699	139.19
244.932	136.19
245.166	136.19
245.399	144.19
245.633	158.19
245.866	139.19
246.099	140.19
246.333	151.19
246.566	142.19
246.8	136.19
247.033	137.19
247.266	168.19
247.5	170.19
247.733	159.19
247.966	172.19
248.2	154.19
248.433	165.19
248.666	161.19
248.899	180.19
249.133	201.19
249.366	212.19
249.599	175.19
249.832	173.19
250.066	163.19
250.299	172.19
250.532	181.19
250.765	202.19
250.998	205.19
251.231	184.19
251.465	183.19
251.698	168.19
251.931	176.19
252.164	199.19
252.397	177.19
252.63	180.19
252.863	194.19
253.096	208.19
253.329	199.19
253.562	197.19
253.795	185.19
254.028	199.19
254.261	222.19
254.494	237.19
254.727	268.19
254.96	254.19
255.193	224.19
255.426	200.19
255.659	196.19
255.892	206.19
256.124	195.19
256.357	172.19
256.59	198.19
256.823	180.19
257.056	180.19
257.289	199.19
257.521	182.19
257.754	194.19
257.987	192.19
258.22	206.19
258.452	214.19
258.685	211.19
258.918	218.19
259.151	201.19
259.383	219.19
259.616	223.19
259.849	233.19
260.081	247.19
260.314	251.19
260.547	222.19
260.779	220.19
261.012	226.19
261.244	214.19
261.477	216.19
261.71	237.19
261.942	245.19
262.175	236.19
262.407	226.19
262.64	185.19
262.872	195.19
263.105	204.19
263.337	214.19
263.57	210.19
263.802	208.19
264.035	210.19
264.267	224.19
264.499	211.19
264.732	198.19
264.964	204.19
265.197	204.19
265.429	214.19
265.661	201.19
265.894	234.19
266.126	231.19
266.358	204.19
266.591	232.19
266.823	238.19
267.055	212.19
267.287	224.19
267.52	236.19
267.752	228.19
267.984	229.19
268.216	234.19
268.448	226.19
268.681	247.19
268.913	271.19
269.145	288.19
269.377	273.19
269.609	259.19
269.841	270.19
270.073	283.19
270.306	307.19
270.538	325.19
270.77	301.19
271.002	277.19
271.234	273.19
271.466	309.19
271.698	322.19
271.93	327.19
272.162	329.19
272.394	275.19
272.626	287.19
272.858	263.19
273.09	259.19
273.322	244.19
273.553	250.19
273.785	261.19
274.017	266.19
274.249	268.19
274.481	259.19
274.713	277.19
274.945	251.19
275.176	272.19
275.408	279.19
275.64	274.19
275.872	283.19
276.104	284.19
276.335	291.19
276.567	318.19
276.799	357.19
277.031	349.19
277.262	344.19
277.494	300.19
277.726	292.19
277.957	277.19
278.189	294.19
278.421	284.19
278.652	297.19
278.884	264.19
279.115	267.19
279.347	272.19
279.579	289.19
279.81	271.19
280.042	271.19
280.273	270.19
280.505	295.19
280.736	293.19
280.968	290.19
281.199	273.19
281.431	297.19
281.662	268.19
281.894	298.19
282.125	311.19
282.356	366.19
282.588	370.19
282.819	334.19
283.051	307.19
283.282	306.19
283.513	305.19
283.745	308.19
283.976	312.19
284.207	291.19
284.439	314.19
284.67	309.19
284.901	308.19
285.132	319.19
285.364	303.19
285.595	312.19
285.826	306.19
286.057	310.19
286.288	318.19
286.52	324.19
286.751	309.19
286.982	311.19
287.213	326.19
287.444	322.19
287.675	318.19
287.906	339.19
288.138	351.19
288.369	336.19
288.6	339.19
288.831	328.19
289.062	338.19
289.293	321.19
289.524	332.19
289.755	303.19
289.986	296.19
290.217	335.19
290.448	319.19
290.679	319.19
290.91	306.19
291.141	311.19
291.371	325.19
291.602	316.19
291.833	335.19
292.064	336.19
292.295	333.19
292.526	343.19
292.757	322.19
292.987	319.19
293.218	324.19
293.449	310.19
293.68	328.19
293.91	334.19
294.141	346.19
294.372	341.19
294.603	348.19
294.833	339.19
295.064	344.19
295.295	342.19
295.525	353.19
295.756	371.19
295.987	392.19
296.217	418.19
296.448	392.19
296.679	350.19
296.909	352.19
297.14	329.19
297.37	347.19
297.601	368.19
297.831	362.19
298.062	353.19
298.292	362.19
298.523	382.19
298.753	369.19
298.984	372.19
299.214	370.19
299.445	369.19
299.675	357.19
299.905	369.19
300.136	367.19
300.366	370.19
300.597	403.19
300.827	419.19
301.057	399.19
301.288	412.19
301.518	403.19
301.748	410.19
301.979	401.19
302.209	416.19
302.439	403.19
302.669	400.19
302.9	414.19
303.13	395.19
303.36	412.19
303.59	402.19
303.82	415.19
304.051	428.19
304.281	378.19
304.511	393.19
304.741	374.19
304.971	375.19
305.201	389.19
305.431	378.19
305.661	395.19
305.891	394.19
306.121	422.19
306.352	399.19
306.582	402.19
306.812	402.19
307.042	392.19
307.272	399.19
307.502	397.19
307.731	398.19
307.961	399.19
308.191	391.19
308.421	403.19
308.651	407.19
308.881	422.19
309.111	411.19
309.341	408.19
309.571	458.19
309.8	446.19
310.03	483.19
310.26	480.19
310.49	487.19
310.72	510.19
310.949	512.19
311.179	487.19
311.409	458.19
311.639	470.19
311.868	467.19
312.098	486.19
312.328	491.19
312.557	540.19
312.787	540.19
313.017	503.19
313.246	480.19
313.476	451.19
313.706	482.19
313.935	517.19
314.165	526.19
314.394	503.19
314.624	538.19
314.853	484.19
315.083	466.19
315.312	487.19
315.542	461.19
315.771	454.19
316.001	472.19
316.23	451.19
316.46	460.19
316.689	472.19
316.919	471.19
317.148	494.19
317.377	507.19
317.607	510.19
317.836	488.19
318.065	462.19
318.295	466.19
318.524	452.19
318.753	466.19
318.983	460.19
319.212	504.19
319.441	496.19
319.67	467.19
319.9	470.19
320.129	493.19
320.358	474.19
320.587	492.19
320.816	496.19
321.046	513.19
321.275	484.19
321.504	507.19
321.733	510.19
321.962	542.19
322.191	566.19
322.42	603.19
322.649	609.19
322.878	630.19
323.108	652.19
323.337	711.19
323.566	763.19
323.795	890.19
324.024	1166.19
324.253	2053.19
324.482	3431.19
324.71	5096.19
324.939	4423.19
325.168	1960.19
325.397	939.19
325.626	722.19
325.855	656.19
326.084	663.19
326.313	715.19
326.542	807.19
326.77	1101.19
326.999	1858.19
327.228	2946.19
327.457	3772.19
327.686	2440.19
327.914	1125.19
328.143	895.19
328.372	840.19
328.6	814.19
328.829	819.19
329.058	864.19
329.287	812.19
329.515	702.19
329.744	631.19
329.972	634.19
330.201	686.19
330.43	820.19
330.658	917.19
330.887	913.19
331.115	778.19
331.344	656.19
331.572	686.19
331.801	711.19
332.03	656.19
332.258	637.19
332.486	622.19
332.715	618.19
332.943	636.19
333.172	663.19
333.4	655.19
333.629	702.19
333.857	653.19
334.085	650.19
334.314	621.19
334.542	626.19
334.771	658.19
334.999	657.19
335.227	632.19
335.455	638.19
335.684	632.19
335.912	604.19
336.14	596.19
336.369	625.19
336.597	648.19
336.825	619.19
337.053	603.19
337.281	615.19
337.51	604.19
337.738	609.19
337.966	636.19
338.194	625.19
338.422	599.19
338.65	573.19
338.878	569.19
339.106	549.19
339.334	586.19
339.562	592.19
339.79	586.19
340.018	578.19
340.246	598.19
340.474	605.19
340.702	560.19
340.93	556.19
341.158	588.19
341.386	597.19
341.614	596.19
341.842	572.19
342.07	588.19
342.298	588.19
342.526	556.19
342.754	547.19
342.981	547.19
343.209	589.19
343.437	595.19
343.665	608.19
343.893	616.19
344.12	622.19
344.348	595.19
344.576	639.19
344.804	668.19
345.031	647.19
345.259	599.19
345.487	604.19
345.714	572.19
345.942	568.19
346.17	559.19
346.397	576.19
346.625	559.19
346.853	578.19
347.08	583.19
347.308	587.19
347.535	603.19
347.763	596.19
347.99	606.19
348.218	642.19
348.445	620.19
348.673	602.19
348.9	555.19
349.128	533.19
349.355	544.19
349.583	556.19
349.81	565.19
350.037	555.19
350.265	559.19
350.492	546.19
350.72	559.19
350.947	577.19
351.174	602.19
351.402	613.19
351.629	611.19
351.856	584.19
352.083	623.19
352.311	646.19
352.538	664.19
352.765	612.19
352.992	589.19
353.22	574.19
353.447	569.19
353.674	558.19
353.901	535.19
354.128	525.19
354.355	533.19
354.583	551.19
354.81	516.19
355.037	512.19
355.264	525.19
355.491	534.19
355.718	508.19
355.945	527.19
356.172	494.19
356.399	517.19
356.626	511.19
356.853	516.19
357.08	540.19
357.307	517.19
357.534	526.19
357.761	534.19
357.988	515.19
358.215	517.19
358.441	510.19
358.668	545.19
358.895	550.19
359.122	552.19
359.349	588.19
359.576	631.19
359.802	714.19
360.029	773.19
360.256	717.19
360.483	621.19
360.709	580.19
360.936	570.19
361.163	588.19
361.39	612.19
361.616	586.19
361.843	615.19
362.07	631.19
362.296	624.19
362.523	597.19
362.749	594.19
362.976	574.19
363.203	563.19
363.429	558.19
363.656	575.19
363.882	550.19
364.109	572.19
364.335	560.19
364.562	574.19
364.788	558.19
365.015	546.19
365.241	572.19
365.468	587.19
365.694	591.19
365.92	579.19
366.147	570.19
366.373	567.19
366.599	564.19
366.826	553.19
367.052	559.19
367.278	554.19
367.505	560.19
367.731	568.19
367.957	559.19
368.184	577.19
368.41	609.19
368.636	617.19
368.862	607.19
369.089	566.19
369.315	583.19
369.541	581.19
369.767	569.19
369.993	578.19
370.219	569.19
370.445	559.19
370.672	568.19
370.898	564.19
371.124	554.19
371.35	572.19
371.576	580.19
371.802	575.19
372.028	576.19
372.254	566.19
372.48	596.19
372.706	571.19
372.932	590.19
373.158	590.19
373.384	583.19
373.61	592.19
373.835	600.19
374.061	614.19
374.287	599.19
374.513	576.19
374.739	623.19
374.965	615.19
375.191	591.19
375.416	580.19
375.642	598.19
375.868	587.19
376.094	578.19
376.319	574.19
376.545	592.19
376.771	584.19
376.997	561.19
377.222	571.19
377.448	590.19
377.674	568.19
377.899	567.19
378.125	578.19
378.35	576.19
378.576	567.19
378.802	560.19
379.027	570.19
379.253	574.19
379.478	555.19
379.704	541.19
379.929	581.19
380.155	575.19
380.38	592.19
380.606	589.19
380.831	587.19
381.057	576.19
381.282	589.19
381.507	565.19
381.733	592.19
381.958	576.19
382.184	606.19
382.409	599.19
382.634	608.19
382.86	615.19
383.085	607.19
383.31	616.19
383.535	603.19
383.761	625.19
383.986	623.19
384.211	651.19
384.436	667.19
384.662	640.19
384.887	669.19
385.112	664.19
385.337	672.19
385.562	666.19
385.787	698.19
386.013	697.19
386.238	708.19
386.463	693.19
386.688	690.19
386.913	668.19
387.138	662.19
387.363	658.19
387.588	654.19
387.813	638.19
388.038	655.19
388.263	684.19
388.488	670.19
388.713	671.19
388.938	662.19
389.163	696.19
389.387	686.19
389.612	671.19
389.837	656.19
390.062	686.19
390.287	667.19
390.512	677.19
390.736	688.19
390.961	674.19
391.186	668.19
391.411	718.19
391.636	709.19
391.86	760.19
392.085	734.19
392.31	712.19
392.534	724.19
392.759	693.19
392.984	679.19
393.208	669.19
393.433	705.19
393.658	673.19
393.882	687.19
394.107	676.19
394.331	710.19
394.556	700.19
394.78	713.19
395.005	710.19
395.229	711.19
395.454	754.19
395.678	719.19
395.903	720.19
396.127	759.19
396.352	724.19
396.576	721.19
396.801	710.19
397.025	732.19
397.249	743.19
397.474	742.19
397.698	759.19
397.922	787.19
398.147	791.19
398.371	796.19
398.595	806.19
398.82	832.19
399.044	905.19
399.268	1002.19
399.492	1078.19
399.717	1107.19
399.941	1077.19
400.165	1007.19
400.389	972.19
400.613	891.19
400.837	842.19
401.062	834.19
401.286	816.19
401.51	835.19
401.734	810.19
401.958	869.19
402.182	885.19
402.406	938.19
402.63	897.19
402.854	879.19
403.078	897.19
403.302	912.19
403.526	915.19
403.75	901.19
403.974	916.19
404.198	903.19
404.422	911.19
404.645	919.19
404.869	906.19
405.093	903.19
405.317	928.19
405.541	915.19
405.765	942.19
405.988	981.19
406.212	1031.19
406.436	1099.19
406.66	1042.19
406.883	1013.19
407.107	1087.19
407.331	1122.19
407.555	1128.19
407.778	1091.19
408.002	983.19
408.226	974.19
408.449	947.19
408.673	954.19
408.896	976.19
409.12	954.19
409.344	922.19
409.567	853.19
409.791	883.19
410.014	854.19
410.238	868.19
410.461	862.19
410.685	868.19
410.908	883.19
411.132	917.19
411.355	903.19
411.578	875.19
411.802	848.19
412.025	823.19
412.249	844.19
412.472	822.19
412.695	818.19
412.919	795.19
413.142	788.19
413.365	818.19
413.589	830.19
413.812	765.19
414.035	779.19
414.258	800.19
414.482	806.19
414.705	787.19
414.928	808.19
415.151	797.19
415.374	800.19
415.597	798.19
415.821	766.19
416.044	795.19
416.267	789.19
416.49	786.19
416.713	781.19
416.936	816.19
417.159	799.19
417.382	806.19
417.605	828.19
417.828	860.19
418.051	847.19
418.274	828.19
418.497	790.19
418.72	794.19
418.943	808.19
419.166	831.19
419.389	853.19
419.611	834.19
419.834	855.19
420.057	828.19
420.28	817.19
420.503	782.19
420.726	814.19
420.948	858.19
421.171	903.19
421.394	880.19
421.617	823.19
421.839	833.19
422.062	847.19
422.285	903.19
422.507	923.19
422.73	974.19
422.953	916.19
423.175	864.19
423.398	854.19
423.621	860.19
423.843	879.19
424.066	867.19
424.288	865.19
424.511	954.19
424.733	1005.19
424.956	1022.19
425.178	1010.19
425.401	982.19
425.623	966.19
425.846	822.19
426.068	821.19
426.291	848.19
426.513	817.19
426.735	853.19
426.958	942.19
427.18	1107.19
427.402	1262.19
427.625	1264.19
427.847	1013.19
428.069	832.19
428.292	806.19
428.514	771.19
428.736	739.19
428.958	723.19
429.181	748.19
429.403	758.19
429.625	799.19
429.847	834.19
430.069	852.19
430.292	826.19
430.514	753.19
430.736	754.19
430.958	720.19
431.18	720.19
431.402	722.19
431.624	714.19
431.846	742.19
432.068	728.19
432.29	712.19
432.512	722.19
432.734	743.19
432.956	743.19
433.178	735.19
433.4	763.19
433.622	730.19
433.844	758.19
434.066	736.19
434.287	741.19
434.509	768.19
434.731	796.19
434.953	818.19
435.175	848.19
435.397	838.19
435.618	850.19
435.84	916.19
436.062	1015.19
436.284	979.19
436.505	824.19
436.727	830.19
436.949	765.19
437.17	748.19
437.392	726.19
437.614	813.19
437.835	956.19
438.057	1029.19
438.278	1094.19
438.5	1063.19
438.721	1103.19
438.943	945.19
439.165	830.19
439.386	796.19
439.608	836.19
439.829	906.19
440.05	967.19
440.272	991.19
440.493	868.19
440.715	794.19
440.936	790.19
441.158	812.19
441.379	812.19
441.6	869.19
441.822	919.19
442.043	983.19
442.264	1031.19
442.486	970.19
442.707	884.19
442.928	924.19
443.149	957.19
443.371	1036.19
443.592	1054.19
443.813	1143.19
444.034	1044.19
444.255	941.19
444.476	932.19
444.698	954.19
444.919	920.19
445.14	982.19
445.361	981.19
445.582	1077.19
445.803	1180.19
446.024	1248.19
446.245	1125.19
446.466	1007.19
446.687	814.19
446.908	792.19
447.129	774.19
447.35	755.19
447.571	743.19
447.792	744.19
448.013	765.19
448.234	839.19
448.455	940.19
448.675	1066.19
448.896	1048.19
449.117	894.19
449.338	1004.19
449.559	1143.19
449.779	1060.19
450	820.19
450.221	748.19
450.442	732.19
450.662	772.19
450.883	819.19
451.104	831.19
451.324	741.19
451.545	703.19
451.766	700.19
451.986	668.19
452.207	654.19
452.428	690.19
452.648	700.19
452.869	715.19
453.089	714.19
453.31	710.19
453.53	693.19
453.751	690.19
453.971	742.19
454.192	783.19
454.412	684.19
454.633	653.19
454.853	654.19
455.073	671.19
455.294	741.19
455.514	785.19
455.734	711.19
455.955	631.19
456.175	622.19
456.395	600.19
456.616	599.19
456.836	588.19
457.056	615.19
457.276	596.19
457.497	635.19
457.717	645.19
457.937	627.19
458.157	659.19
458.377	712.19
458.598	802.19
458.818	1011.19
459.038	1055.19
459.258	903.19
459.478	789.19
459.698	743.19
459.918	766.19
460.138	764.19
460.358	792.19
460.578	808.19
460.798	791.19
461.018	789.19
461.238	805.19
461.458	778.19
461.678	781.19
461.898	778.19
462.118	792.19
462.338	829.19
462.558	883.19
462.777	907.19
462.997	952.19
463.217	954.19
463.437	938.19
463.657	887.19
463.876	889.19
464.096	907.19
464.316	895.19
464.536	909.19
464.755	892.19
464.975	994.19
465.195	1220.19
465.414	1107.19
465.634	841.19
465.854	775.19
466.073	731.19
466.293	718.19
466.512	719.19
466.732	671.19
466.951	704.19
467.171	685.19
467.391	716.19
467.61	794.19
467.829	731.19
468.049	706.19
468.268	691.19
468.488	666.19
468.707	643.19
468.927	678.19
469.146	660.19
469.365	692.19
469.585	704.19
469.804	746.19
470.023	784.19
470.243	747.19
470.462	808.19
470.681	788.19
470.901	739.19
471.12	715.19
471.339	708.19
471.558	703.19
471.777	707.19
471.997	654.19
472.216	660.19
472.435	659.19
472.654	656.19
472.873	622.19
473.092	648.19
473.311	636.19
473.53	652.19
473.749	713.19
473.968	803.19
474.187	892.19
474.406	799.19
474.625	698.19
474.844	660.19
475.063	662.19
475.282	671.19
475.501	661.19
475.72	695.19
475.939	658.19
476.158	692.19
476.377	701.19
476.596	720.19
476.814	759.19
477.033	744.19
477.252	742.19
477.471	765.19
477.69	764.19
477.908	770.19
478.127	783.19
478.346	774.19
478.564	805.19
478.783	816.19
479.002	814.19
479.22	842.19
479.439	861.19
479.658	868.19
479.876	878.19
480.095	903.19
480.313	909.19
480.532	874.19
480.751	850.19
480.969	862.19
481.188	845.19
481.406	829.19
481.624	780.19
481.843	773.19
482.061	749.19
482.28	749.19
482.498	752.19
482.717	725.19
482.935	791.19
483.153	779.19
483.372	781.19
483.59	773.19
483.808	759.19
484.027	798.19
484.245	796.19
484.463	792.19
484.681	802.19
484.9	787.19
485.118	804.19
485.336	790.19
485.554	810.19
485.772	806.19
485.99	819.19
486.209	808.19
486.427	830.19
486.645	872.19
486.863	887.19
487.081	855.19
487.299	847.19
487.517	842.19
487.735	824.19
487.953	844.19
488.171	831.19
488.389	845.19
488.607	830.19
488.825	806.19
489.043	808.19
489.261	835.19
489.479	843.19
489.696	849.19
489.914	842.19
490.132	873.19
490.35	863.19
490.568	889.19
490.786	903.19
491.003	926.19
491.221	947.19
491.439	976.19
491.657	935.19
491.874	946.19
492.092	992.19
492.31	965.19
492.527	962.19
492.745	966.19
492.963	959.19
493.18	1002.19
493.398	1013.19
493.615	1000.19
493.833	1004.19
494.05	983.19
494.268	974.19
494.485	977.19
494.703	936.19
494.92	959.19
495.138	979.19
495.355	1010.19
495.573	1019.19
495.79	971.19
496.008	994.19
496.225	949.19
496.442	980.19
496.66	987.19
496.877	989.19
497.094	1002.19
497.312	991.19
497.529	1062.19
497.746	1058.19
497.963	1072.19
498.181	1107.19
498.398	1141.19
498.615	1175.19
498.832	1220.19
499.049	1286.19
499.267	1345.19
499.484	1442.19
499.701	1545.19
499.918	1696.19
500.135	1805.19
500.352	1878.19
500.569	1910.19
500.786	1833.19
501.003	1773.19
501.22	1637.19
501.437	1554.19
501.654	1489.19
