Data from TestCu_HRD10591_00005.txt Node
Date: Thu Oct 05 14:04:32 EDT 2023
User: Yrep
Spectrometer: HR+D1059
Trigger mode: 1
Integration Time (sec): 1.000000E-1
Scans to average: 1
Electric dark correction enabled: true
Nonlinearity correction enabled: false
Boxcar width: 0
XAxis mode: Wavelengths
Number of Pixels in Spectrum: 2048
>>>>>Begin Spectral Data<<<<<
223.165	-19.62
223.4	-19.62
223.635	-19.62
223.869	-29.62
224.104	-15.62
224.338	-9.62
224.573	-13.62
224.808	-14.62
225.042	-0.62
225.277	-4.62
225.511	10.38
225.746	11.38
225.98	15.38
226.215	2.38
226.449	14.38
226.683	17.38
226.918	16.38
227.152	20.38
227.387	42.38
227.621	53.38
227.856	39.38
228.09	52.38
228.324	66.38
228.559	61.38
228.793	57.38
229.027	99.38
229.262	132.38
229.496	139.38
229.73	171.38
229.964	150.38
230.199	122.38
230.433	107.38
230.667	114.38
230.901	98.38
231.136	117.38
231.37	112.38
231.604	125.38
231.838	111.38
232.072	113.38
232.306	133.38
232.541	105.38
232.775	121.38
233.009	123.38
233.243	107.38
233.477	108.38
233.711	106.38
233.945	103.38
234.179	116.38
234.413	124.38
234.647	116.38
234.881	114.38
235.115	114.38
235.349	117.38
235.583	126.38
235.817	133.38
236.051	138.38
236.285	123.38
236.519	135.38
236.753	148.38
236.987	197.38
237.221	222.38
237.455	233.38
237.689	148.38
237.922	141.38
238.156	140.38
238.39	129.38
238.624	126.38
238.858	131.38
239.091	119.38
239.325	130.38
239.559	125.38
239.793	138.38
240.027	158.38
240.26	175.38
240.494	175.38
240.728	153.38
240.961	153.38
241.195	134.38
241.429	121.38
241.662	134.38
241.896	144.38
242.13	121.38
242.363	140.38
242.597	119.38
242.83	137.38
243.064	129.38
243.298	135.38
243.531	121.38
243.765	131.38
243.998	136.38
244.232	137.38
244.465	134.38
244.699	150.38
244.932	136.38
245.166	128.38
245.399	145.38
245.633	134.38
245.866	153.38
246.099	143.38
246.333	142.38
246.566	145.38
246.8	158.38
247.033	145.38
247.266	167.38
247.5	142.38
247.733	169.38
247.966	166.38
248.2	158.38
248.433	168.38
248.666	194.38
248.899	180.38
249.133	208.38
249.366	210.38
249.599	212.38
249.832	176.38
250.066	181.38
250.299	149.38
250.532	194.38
250.765	205.38
250.998	213.38
251.231	204.38
251.465	179.38
251.698	187.38
251.931	174.38
252.164	187.38
252.397	193.38
252.63	187.38
252.863	194.38
253.096	214.38
253.329	212.38
253.562	190.38
253.795	187.38
254.028	201.38
254.261	202.38
254.494	251.38
254.727	258.38
254.96	259.38
255.193	229.38
255.426	210.38
255.659	183.38
255.892	192.38
256.124	204.38
256.357	191.38
256.59	193.38
256.823	169.38
257.056	191.38
257.289	197.38
257.521	202.38
257.754	198.38
257.987	186.38
258.22	211.38
258.452	191.38
258.685	192.38
258.918	200.38
259.151	219.38
259.383	221.38
259.616	218.38
259.849	230.38
260.081	251.38
260.314	244.38
260.547	221.38
260.779	218.38
261.012	217.38
261.244	210.38
261.477	220.38
261.71	222.38
261.942	251.38
262.175	254.38
262.407	223.38
262.64	200.38
262.872	223.38
263.105	221.38
263.337	205.38
263.57	214.38
263.802	210.38
264.035	208.38
264.267	208.38
264.499	203.38
264.732	210.38
264.964	197.38
265.197	209.38
265.429	211.38
265.661	214.38
265.894	228.38
266.126	226.38
266.358	213.38
266.591	221.38
266.823	223.38
267.055	229.38
267.287	233.38
267.52	224.38
267.752	213.38
267.984	245.38
268.216	227.38
268.448	233.38
268.681	248.38
268.913	269.38
269.145	276.38
269.377	274.38
269.609	264.38
269.841	268.38
270.073	302.38
270.306	317.38
270.538	313.38
270.77	290.38
271.002	293.38
271.234	303.38
271.466	305.38
271.698	321.38
271.93	298.38
272.162	323.38
272.394	295.38
272.626	287.38
272.858	272.38
273.09	276.38
273.322	278.38
273.553	247.38
273.785	265.38
274.017	270.38
274.249	273.38
274.481	263.38
274.713	275.38
274.945	276.38
275.176	275.38
275.408	276.38
275.64	270.38
275.872	255.38
276.104	278.38
276.335	303.38
276.567	325.38
276.799	333.38
277.031	359.38
277.262	344.38
277.494	327.38
277.726	288.38
277.957	278.38
278.189	282.38
278.421	284.38
278.652	277.38
278.884	287.38
279.115	282.38
279.347	297.38
279.579	276.38
279.81	281.38
280.042	281.38
280.273	265.38
280.505	275.38
280.736	275.38
280.968	276.38
281.199	287.38
281.431	277.38
281.662	273.38
281.894	295.38
282.125	334.38
282.356	367.38
282.588	394.38
282.819	330.38
283.051	293.38
283.282	303.38
283.513	315.38
283.745	324.38
283.976	315.38
284.207	310.38
284.439	305.38
284.67	287.38
284.901	299.38
285.132	287.38
285.364	310.38
285.595	303.38
285.826	297.38
286.057	307.38
286.288	326.38
286.52	338.38
286.751	308.38
286.982	317.38
287.213	313.38
287.444	330.38
287.675	340.38
287.906	352.38
288.138	345.38
288.369	345.38
288.6	339.38
288.831	321.38
289.062	329.38
289.293	344.38
289.524	313.38
289.755	326.38
289.986	321.38
290.217	321.38
290.448	326.38
290.679	306.38
290.91	317.38
291.141	346.38
291.371	314.38
291.602	308.38
291.833	326.38
292.064	341.38
292.295	342.38
292.526	336.38
292.757	358.38
292.987	323.38
293.218	332.38
293.449	333.38
293.68	348.38
293.91	338.38
294.141	350.38
294.372	326.38
294.603	329.38
294.833	330.38
295.064	330.38
295.295	341.38
295.525	352.38
295.756	389.38
295.987	411.38
296.217	417.38
296.448	391.38
296.679	352.38
296.909	350.38
297.14	370.38
297.37	357.38
297.601	371.38
297.831	367.38
298.062	350.38
298.292	359.38
298.523	370.38
298.753	371.38
298.984	375.38
299.214	372.38
299.445	386.38
299.675	379.38
299.905	388.38
300.136	377.38
300.366	365.38
300.597	384.38
300.827	398.38
301.057	403.38
301.288	398.38
301.518	398.38
301.748	396.38
301.979	425.38
302.209	417.38
302.439	415.38
302.669	385.38
302.9	398.38
303.13	383.38
303.36	410.38
303.59	401.38
303.82	427.38
304.051	410.38
304.281	408.38
304.511	401.38
304.741	387.38
304.971	389.38
305.201	390.38
305.431	381.38
305.661	389.38
305.891	396.38
306.121	403.38
306.352	414.38
306.582	417.38
306.812	381.38
307.042	415.38
307.272	409.38
307.502	427.38
307.731	409.38
307.961	389.38
308.191	394.38
308.421	417.38
308.651	422.38
308.881	444.38
309.111	417.38
309.341	427.38
309.571	448.38
309.8	443.38
310.03	488.38
310.26	477.38
310.49	477.38
310.72	537.38
310.949	525.38
311.179	495.38
311.409	474.38
311.639	478.38
311.868	477.38
312.098	471.38
312.328	516.38
312.557	547.38
312.787	556.38
313.017	501.38
313.246	478.38
313.476	479.38
313.706	500.38
313.935	512.38
314.165	530.38
314.394	530.38
314.624	526.38
314.853	482.38
315.083	463.38
315.312	473.38
315.542	479.38
315.771	461.38
316.001	452.38
316.23	473.38
316.46	483.38
316.689	498.38
316.919	491.38
317.148	490.38
317.377	477.38
317.607	479.38
317.836	508.38
318.065	465.38
318.295	460.38
318.524	463.38
318.753	446.38
318.983	484.38
319.212	492.38
319.441	489.38
319.67	481.38
319.9	495.38
320.129	450.38
320.358	479.38
320.587	500.38
320.816	499.38
321.046	520.38
321.275	519.38
321.504	492.38
321.733	492.38
321.962	527.38
322.191	551.38
322.42	587.38
322.649	602.38
322.878	620.38
323.108	646.38
323.337	717.38
323.566	771.38
323.795	857.38
324.024	1129.38
324.253	1975.38
324.482	3332.38
324.71	4874.38
324.939	4277.38
325.168	1961.38
325.397	923.38
325.626	733.38
325.855	673.38
326.084	669.38
326.313	700.38
326.542	802.38
326.77	1089.38
326.999	1805.38
327.228	2871.38
327.457	3678.38
327.686	2383.38
327.914	1177.38
328.143	908.38
328.372	819.38
328.6	801.38
328.829	819.38
329.058	863.38
329.287	806.38
329.515	692.38
329.744	657.38
329.972	632.38
330.201	711.38
330.43	797.38
330.658	951.38
330.887	945.38
331.115	773.38
331.344	689.38
331.572	646.38
331.801	733.38
332.03	650.38
332.258	639.38
332.486	614.38
332.715	646.38
332.943	653.38
333.172	655.38
333.4	677.38
333.629	673.38
333.857	709.38
334.085	626.38
334.314	615.38
334.542	641.38
334.771	684.38
334.999	686.38
335.227	641.38
335.455	645.38
335.684	621.38
335.912	643.38
336.14	614.38
336.369	638.38
336.597	657.38
336.825	613.38
337.053	619.38
337.281	585.38
337.51	618.38
337.738	620.38
337.966	621.38
338.194	620.38
338.422	607.38
338.65	598.38
338.878	579.38
339.106	588.38
339.334	581.38
339.562	562.38
339.79	576.38
340.018	585.38
340.246	603.38
340.474	594.38
340.702	586.38
340.93	579.38
341.158	592.38
341.386	590.38
341.614	601.38
341.842	599.38
342.07	553.38
342.298	563.38
342.526	562.38
342.754	564.38
342.981	567.38
343.209	585.38
343.437	607.38
343.665	639.38
343.893	638.38
344.12	647.38
344.348	598.38
344.576	621.38
344.804	657.38
345.031	649.38
345.259	611.38
345.487	622.38
345.714	589.38
345.942	554.38
346.17	573.38
346.397	565.38
346.625	578.38
346.853	544.38
347.08	564.38
347.308	607.38
347.535	622.38
347.763	611.38
347.99	601.38
348.218	623.38
348.445	639.38
348.673	579.38
348.9	570.38
349.128	547.38
349.355	540.38
349.583	543.38
349.81	544.38
350.037	553.38
350.265	553.38
350.492	548.38
350.72	564.38
350.947	593.38
351.174	603.38
351.402	621.38
351.629	613.38
351.856	601.38
352.083	617.38
352.311	635.38
352.538	623.38
352.765	597.38
352.992	592.38
353.22	617.38
353.447	578.38
353.674	541.38
353.901	544.38
354.128	513.38
354.355	525.38
354.583	561.38
354.81	531.38
355.037	540.38
355.264	532.38
355.491	529.38
355.718	530.38
355.945	517.38
356.172	543.38
356.399	523.38
356.626	502.38
356.853	537.38
357.08	532.38
357.307	521.38
357.534	527.38
357.761	524.38
357.988	541.38
358.215	534.38
358.441	539.38
358.668	549.38
358.895	557.38
359.122	582.38
359.349	591.38
359.576	631.38
359.802	703.38
360.029	767.38
360.256	702.38
360.483	640.38
360.709	599.38
360.936	580.38
361.163	577.38
361.39	615.38
361.616	602.38
361.843	599.38
362.07	618.38
362.296	621.38
362.523	611.38
362.749	564.38
362.976	581.38
363.203	575.38
363.429	561.38
363.656	554.38
363.882	551.38
364.109	568.38
364.335	567.38
364.562	566.38
364.788	568.38
365.015	581.38
365.241	576.38
365.468	596.38
365.694	596.38
365.92	572.38
366.147	567.38
366.373	559.38
366.599	560.38
366.826	555.38
367.052	573.38
367.278	565.38
367.505	585.38
367.731	580.38
367.957	574.38
368.184	593.38
368.41	617.38
368.636	592.38
368.862	592.38
369.089	577.38
369.315	603.38
369.541	555.38
369.767	572.38
369.993	603.38
370.219	591.38
370.445	555.38
370.672	545.38
370.898	584.38
371.124	578.38
371.35	559.38
371.576	580.38
371.802	566.38
372.028	580.38
372.254	564.38
372.48	574.38
372.706	591.38
372.932	583.38
373.158	585.38
373.384	559.38
373.61	598.38
373.835	601.38
374.061	610.38
374.287	630.38
374.513	603.38
374.739	606.38
374.965	635.38
375.191	575.38
375.416	594.38
375.642	605.38
375.868	595.38
376.094	571.38
376.319	598.38
376.545	568.38
376.771	573.38
376.997	558.38
377.222	575.38
377.448	584.38
377.674	568.38
377.899	556.38
378.125	576.38
378.35	558.38
378.576	571.38
378.802	546.38
379.027	594.38
379.253	594.38
379.478	576.38
379.704	577.38
379.929	570.38
380.155	587.38
380.38	578.38
380.606	584.38
380.831	596.38
381.057	585.38
381.282	594.38
381.507	592.38
381.733	610.38
381.958	599.38
382.184	603.38
382.409	604.38
382.634	594.38
382.86	610.38
383.085	605.38
383.31	594.38
383.535	628.38
383.761	657.38
383.986	623.38
384.211	632.38
384.436	647.38
384.662	637.38
384.887	661.38
385.112	663.38
385.337	667.38
385.562	693.38
385.787	679.38
386.013	721.38
386.238	723.38
386.463	699.38
386.688	682.38
386.913	649.38
387.138	673.38
387.363	660.38
387.588	673.38
387.813	639.38
388.038	661.38
388.263	685.38
388.488	651.38
388.713	660.38
388.938	652.38
389.163	670.38
389.387	665.38
389.612	666.38
389.837	650.38
390.062	657.38
390.287	678.38
390.512	689.38
390.736	671.38
390.961	690.38
391.186	698.38
391.411	732.38
391.636	713.38
391.86	746.38
392.085	725.38
392.31	725.38
392.534	720.38
392.759	703.38
392.984	672.38
393.208	721.38
393.433	708.38
393.658	675.38
393.882	698.38
394.107	717.38
394.331	710.38
394.556	692.38
394.78	697.38
395.005	709.38
395.229	701.38
395.454	735.38
395.678	735.38
395.903	753.38
396.127	770.38
396.352	715.38
396.576	719.38
396.801	740.38
397.025	747.38
397.249	757.38
397.474	743.38
397.698	774.38
397.922	774.38
398.147	794.38
398.371	802.38
398.595	828.38
398.82	851.38
399.044	908.38
399.268	1008.38
399.492	1096.38
399.717	1086.38
399.941	1065.38
400.165	1049.38
400.389	965.38
400.613	893.38
400.837	845.38
401.062	812.38
401.286	825.38
401.51	849.38
401.734	823.38
401.958	895.38
402.182	915.38
402.406	940.38
402.63	897.38
402.854	887.38
403.078	902.38
403.302	926.38
403.526	926.38
403.75	914.38
403.974	964.38
404.198	916.38
404.422	944.38
404.645	905.38
404.869	949.38
405.093	964.38
405.317	961.38
405.541	958.38
405.765	927.38
405.988	950.38
406.212	1010.38
406.436	1087.38
406.66	1054.38
406.883	998.38
407.107	1061.38
407.331	1122.38
407.555	1181.38
407.778	1090.38
408.002	985.38
408.226	977.38
408.449	980.38
408.673	978.38
408.896	963.38
409.12	975.38
409.344	906.38
409.567	873.38
409.791	857.38
410.014	833.38
410.238	842.38
410.461	860.38
410.685	903.38
410.908	899.38
411.132	907.38
411.355	926.38
411.578	893.38
411.802	841.38
412.025	843.38
412.249	848.38
412.472	846.38
412.695	839.38
412.919	811.38
413.142	805.38
413.365	827.38
413.589	837.38
413.812	838.38
414.035	820.38
414.258	781.38
414.482	790.38
414.705	802.38
414.928	794.38
415.151	789.38
415.374	819.38
415.597	811.38
415.821	789.38
416.044	783.38
416.267	802.38
416.49	783.38
416.713	790.38
416.936	787.38
417.159	798.38
417.382	839.38
417.605	801.38
417.828	844.38
418.051	869.38
418.274	818.38
418.497	807.38
418.72	834.38
418.943	834.38
419.166	826.38
419.389	869.38
419.611	868.38
419.834	833.38
420.057	816.38
420.28	827.38
420.503	802.38
420.726	832.38
420.948	861.38
421.171	867.38
421.394	894.38
421.617	840.38
421.839	799.38
422.062	865.38
422.285	911.38
422.507	962.38
422.73	969.38
422.953	910.38
423.175	857.38
423.398	879.38
423.621	890.38
423.843	911.38
424.066	914.38
424.288	914.38
424.511	970.38
424.733	1036.38
424.956	1052.38
425.178	1026.38
425.401	1013.38
425.623	955.38
425.846	861.38
426.068	839.38
426.291	853.38
426.513	818.38
426.735	878.38
426.958	989.38
427.18	1114.38
427.402	1270.38
427.625	1301.38
427.847	1034.38
428.069	848.38
428.292	788.38
428.514	771.38
428.736	761.38
428.958	787.38
429.181	756.38
429.403	765.38
429.625	806.38
429.847	849.38
430.069	865.38
430.292	837.38
430.514	741.38
430.736	743.38
430.958	732.38
431.18	732.38
431.402	749.38
431.624	713.38
431.846	718.38
432.068	720.38
432.29	739.38
432.512	756.38
432.734	755.38
432.956	738.38
433.178	770.38
433.4	782.38
433.622	763.38
433.844	742.38
434.066	764.38
434.287	782.38
434.509	780.38
434.731	806.38
434.953	830.38
435.175	823.38
435.397	837.38
435.618	887.38
435.84	973.38
436.062	1011.38
436.284	1011.38
436.505	869.38
436.727	813.38
436.949	781.38
437.17	753.38
437.392	749.38
437.614	837.38
437.835	947.38
438.057	1046.38
438.278	1083.38
438.5	1066.38
438.721	1120.38
438.943	947.38
439.165	809.38
439.386	805.38
439.608	837.38
439.829	901.38
440.05	949.38
440.272	1001.38
440.493	841.38
440.715	811.38
440.936	794.38
441.158	810.38
441.379	830.38
441.6	875.38
441.822	911.38
442.043	975.38
442.264	1038.38
442.486	974.38
442.707	893.38
442.928	928.38
443.149	978.38
443.371	1036.38
443.592	1080.38
443.813	1161.38
444.034	1080.38
444.255	962.38
444.476	895.38
444.698	943.38
444.919	933.38
445.14	999.38
445.361	983.38
445.582	1089.38
445.803	1199.38
446.024	1233.38
446.245	1153.38
446.466	970.38
446.687	822.38
446.908	788.38
447.129	784.38
447.35	775.38
447.571	762.38
447.792	750.38
448.013	778.38
448.234	851.38
448.455	949.38
448.675	1068.38
448.896	1069.38
449.117	899.38
449.338	1000.38
449.559	1139.38
449.779	1089.38
450	847.38
450.221	768.38
450.442	761.38
450.662	778.38
450.883	848.38
451.104	828.38
451.324	767.38
451.545	710.38
451.766	717.38
451.986	704.38
452.207	682.38
452.428	681.38
452.648	718.38
452.869	702.38
453.089	718.38
453.31	716.38
453.53	691.38
453.751	695.38
453.971	769.38
454.192	768.38
454.412	683.38
454.633	682.38
454.853	677.38
455.073	681.38
455.294	750.38
455.514	826.38
455.734	705.38
455.955	637.38
456.175	623.38
456.395	597.38
456.616	626.38
456.836	605.38
457.056	613.38
457.276	607.38
457.497	638.38
457.717	625.38
457.937	670.38
458.157	665.38
458.377	707.38
458.598	812.38
458.818	1019.38
459.038	1056.38
459.258	913.38
459.478	806.38
459.698	747.38
459.918	717.38
460.138	808.38
460.358	781.38
460.578	809.38
460.798	817.38
461.018	822.38
461.238	784.38
461.458	767.38
461.678	796.38
461.898	776.38
462.118	814.38
462.338	857.38
462.558	860.38
462.777	894.38
462.997	948.38
463.217	973.38
463.437	928.38
463.657	866.38
463.876	879.38
464.096	893.38
464.316	914.38
464.536	910.38
464.755	896.38
464.975	952.38
465.195	1195.38
465.414	1068.38
465.634	837.38
465.854	768.38
466.073	730.38
466.293	710.38
466.512	729.38
466.732	713.38
466.951	671.38
467.171	733.38
467.391	735.38
467.61	770.38
467.829	729.38
468.049	678.38
468.268	667.38
468.488	688.38
468.707	683.38
468.927	669.38
469.146	668.38
469.365	681.38
469.585	675.38
469.804	731.38
470.023	734.38
470.243	747.38
470.462	789.38
470.681	817.38
470.901	769.38
471.12	716.38
471.339	701.38
471.558	699.38
471.777	695.38
471.997	690.38
472.216	690.38
472.435	647.38
472.654	685.38
472.873	670.38
473.092	644.38
473.311	658.38
473.53	683.38
473.749	727.38
473.968	812.38
474.187	931.38
474.406	809.38
474.625	688.38
474.844	684.38
475.063	678.38
475.282	659.38
475.501	692.38
475.72	696.38
475.939	683.38
476.158	699.38
476.377	712.38
476.596	684.38
476.814	751.38
477.033	735.38
477.252	738.38
477.471	731.38
477.69	748.38
477.908	772.38
478.127	776.38
478.346	754.38
478.564	817.38
478.783	803.38
479.002	817.38
479.22	816.38
479.439	890.38
479.658	870.38
479.876	881.38
480.095	874.38
480.313	909.38
480.532	888.38
480.751	871.38
480.969	845.38
481.188	837.38
481.406	810.38
481.624	772.38
481.843	777.38
482.061	753.38
482.28	757.38
482.498	737.38
482.717	746.38
482.935	773.38
483.153	806.38
483.372	769.38
483.59	757.38
483.808	780.38
484.027	790.38
484.245	765.38
484.463	778.38
484.681	810.38
484.9	803.38
485.118	796.38
485.336	811.38
485.554	811.38
485.772	816.38
485.99	820.38
486.209	842.38
486.427	814.38
486.645	887.38
486.863	904.38
487.081	865.38
487.299	827.38
487.517	821.38
487.735	841.38
487.953	861.38
488.171	853.38
488.389	828.38
488.607	837.38
488.825	823.38
489.043	814.38
489.261	863.38
489.479	807.38
489.696	835.38
489.914	849.38
490.132	864.38
490.35	886.38
490.568	889.38
490.786	899.38
491.003	917.38
491.221	925.38
491.439	969.38
491.657	926.38
491.874	959.38
492.092	968.38
492.31	971.38
492.527	973.38
492.745	971.38
492.963	981.38
493.18	1014.38
493.398	991.38
493.615	994.38
493.833	1003.38
494.05	1019.38
494.268	968.38
494.485	992.38
494.703	993.38
494.92	993.38
495.138	986.38
495.355	1005.38
495.573	1014.38
495.79	977.38
496.008	1007.38
496.225	993.38
496.442	971.38
496.66	970.38
496.877	988.38
497.094	1026.38
497.312	1035.38
497.529	1049.38
497.746	1058.38
497.963	1078.38
498.181	1117.38
498.398	1141.38
498.615	1214.38
498.832	1253.38
499.049	1293.38
499.267	1392.38
499.484	1469.38
499.701	1549.38
499.918	1676.38
500.135	1819.38
500.352	1925.38
500.569	1933.38
500.786	1896.38
501.003	1791.38
501.22	1643.38
501.437	1564.38
501.654	1480.38
