Data from TestCu_HRD10591_00062.txt Node
Date: Thu Oct 05 14:05:42 EDT 2023
User: Yrep
Spectrometer: HR+D1059
Trigger mode: 1
Integration Time (sec): 1.000000E-1
Scans to average: 1
Electric dark correction enabled: true
Nonlinearity correction enabled: false
Boxcar width: 0
XAxis mode: Wavelengths
Number of Pixels in Spectrum: 2048
>>>>>Begin Spectral Data<<<<<
223.165	-16.56
223.4	-16.56
223.635	-16.56
223.869	-28.56
224.104	-21.56
224.338	-10.56
224.573	-4.56
224.808	-13.56
225.042	-15.56
225.277	-6.56
225.511	-3.56
225.746	6.44
225.98	13.44
226.215	5.44
226.449	28.44
226.683	10.44
226.918	17.44
227.152	39.44
227.387	40.44
227.621	50.44
227.856	46.44
228.09	38.44
228.324	50.44
228.559	58.44
228.793	72.44
229.027	81.44
229.262	122.44
229.496	143.44
229.73	176.44
229.964	176.44
230.199	138.44
230.433	124.44
230.667	107.44
230.901	110.44
231.136	109.44
231.37	119.44
231.604	102.44
231.838	105.44
232.072	108.44
232.306	107.44
232.541	110.44
232.775	113.44
233.009	105.44
233.243	101.44
233.477	114.44
233.711	101.44
233.945	108.44
234.179	108.44
234.413	140.44
234.647	130.44
234.881	130.44
235.115	106.44
235.349	121.44
235.583	104.44
235.817	114.44
236.051	134.44
236.285	121.44
236.519	135.44
236.753	143.44
236.987	164.44
237.221	214.44
237.455	214.44
237.689	154.44
237.922	132.44
238.156	110.44
238.39	114.44
238.624	126.44
238.858	127.44
239.091	114.44
239.325	122.44
239.559	124.44
239.793	136.44
240.027	130.44
240.26	144.44
240.494	163.44
240.728	155.44
240.961	136.44
241.195	138.44
241.429	144.44
241.662	125.44
241.896	116.44
242.13	136.44
242.363	136.44
242.597	120.44
242.83	139.44
243.064	142.44
243.298	130.44
243.531	135.44
243.765	119.44
243.998	132.44
244.232	156.44
244.465	155.44
244.699	132.44
244.932	131.44
245.166	137.44
245.399	139.44
245.633	135.44
245.866	131.44
246.099	141.44
246.333	145.44
246.566	141.44
246.8	144.44
247.033	144.44
247.266	165.44
247.5	150.44
247.733	161.44
247.966	149.44
248.2	144.44
248.433	145.44
248.666	156.44
248.899	183.44
249.133	204.44
249.366	201.44
249.599	178.44
249.832	156.44
250.066	172.44
250.299	187.44
250.532	176.44
250.765	199.44
250.998	219.44
251.231	200.44
251.465	185.44
251.698	165.44
251.931	170.44
252.164	170.44
252.397	181.44
252.63	176.44
252.863	206.44
253.096	222.44
253.329	205.44
253.562	185.44
253.795	200.44
254.028	202.44
254.261	211.44
254.494	232.44
254.727	248.44
254.96	235.44
255.193	210.44
255.426	205.44
255.659	203.44
255.892	206.44
256.124	191.44
256.357	188.44
256.59	196.44
256.823	181.44
257.056	166.44
257.289	186.44
257.521	204.44
257.754	185.44
257.987	198.44
258.22	196.44
258.452	199.44
258.685	202.44
258.918	203.44
259.151	210.44
259.383	223.44
259.616	215.44
259.849	223.44
260.081	233.44
260.314	251.44
260.547	225.44
260.779	227.44
261.012	208.44
261.244	207.44
261.477	225.44
261.71	236.44
261.942	254.44
262.175	253.44
262.407	209.44
262.64	212.44
262.872	213.44
263.105	226.44
263.337	208.44
263.57	209.44
263.802	205.44
264.035	203.44
264.267	203.44
264.499	212.44
264.732	205.44
264.964	196.44
265.197	198.44
265.429	216.44
265.661	196.44
265.894	213.44
266.126	216.44
266.358	221.44
266.591	224.44
266.823	224.44
267.055	229.44
267.287	224.44
267.52	227.44
267.752	216.44
267.984	229.44
268.216	240.44
268.448	232.44
268.681	238.44
268.913	268.44
269.145	267.44
269.377	269.44
269.609	267.44
269.841	266.44
270.073	290.44
270.306	300.44
270.538	302.44
270.77	271.44
271.002	282.44
271.234	284.44
271.466	285.44
271.698	310.44
271.93	316.44
272.162	306.44
272.394	300.44
272.626	258.44
272.858	272.44
273.09	266.44
273.322	261.44
273.553	246.44
273.785	247.44
274.017	265.44
274.249	251.44
274.481	270.44
274.713	254.44
274.945	258.44
275.176	255.44
275.408	263.44
275.64	257.44
275.872	260.44
276.104	266.44
276.335	290.44
276.567	292.44
276.799	332.44
277.031	352.44
277.262	318.44
277.494	317.44
277.726	302.44
277.957	277.44
278.189	275.44
278.421	293.44
278.652	271.44
278.884	276.44
279.115	271.44
279.347	270.44
279.579	272.44
279.81	284.44
280.042	262.44
280.273	274.44
280.505	277.44
280.736	278.44
280.968	255.44
281.199	276.44
281.431	274.44
281.662	284.44
281.894	297.44
282.125	336.44
282.356	350.44
282.588	369.44
282.819	321.44
283.051	291.44
283.282	277.44
283.513	277.44
283.745	299.44
283.976	286.44
284.207	302.44
284.439	283.44
284.67	289.44
284.901	299.44
285.132	294.44
285.364	304.44
285.595	298.44
285.826	300.44
286.057	305.44
286.288	309.44
286.52	290.44
286.751	294.44
286.982	296.44
287.213	292.44
287.444	309.44
287.675	326.44
287.906	316.44
288.138	332.44
288.369	333.44
288.6	316.44
288.831	315.44
289.062	307.44
289.293	321.44
289.524	315.44
289.755	320.44
289.986	320.44
290.217	320.44
290.448	316.44
290.679	311.44
290.91	313.44
291.141	325.44
291.371	309.44
291.602	316.44
291.833	306.44
292.064	320.44
292.295	315.44
292.526	336.44
292.757	332.44
292.987	335.44
293.218	324.44
293.449	302.44
293.68	311.44
293.91	339.44
294.141	320.44
294.372	312.44
294.603	336.44
294.833	332.44
295.064	328.44
295.295	322.44
295.525	320.44
295.756	362.44
295.987	388.44
296.217	404.44
296.448	390.44
296.679	357.44
296.909	341.44
297.14	364.44
297.37	350.44
297.601	361.44
297.831	364.44
298.062	343.44
298.292	346.44
298.523	370.44
298.753	361.44
298.984	367.44
299.214	347.44
299.445	349.44
299.675	353.44
299.905	365.44
300.136	355.44
300.366	389.44
300.597	354.44
300.827	374.44
301.057	397.44
301.288	391.44
301.518	376.44
301.748	389.44
301.979	405.44
302.209	386.44
302.439	391.44
302.669	388.44
302.9	387.44
303.13	387.44
303.36	388.44
303.59	393.44
303.82	397.44
304.051	376.44
304.281	396.44
304.511	396.44
304.741	384.44
304.971	377.44
305.201	370.44
305.431	358.44
305.661	388.44
305.891	383.44
306.121	403.44
306.352	410.44
306.582	391.44
306.812	388.44
307.042	385.44
307.272	391.44
307.502	384.44
307.731	399.44
307.961	375.44
308.191	393.44
308.421	391.44
308.651	400.44
308.881	403.44
309.111	406.44
309.341	413.44
309.571	439.44
309.8	445.44
310.03	439.44
310.26	471.44
310.49	453.44
310.72	491.44
310.949	515.44
311.179	485.44
311.409	481.44
311.639	463.44
311.868	451.44
312.098	472.44
312.328	504.44
312.557	529.44
312.787	531.44
313.017	498.44
313.246	466.44
313.476	467.44
313.706	493.44
313.935	492.44
314.165	514.44
314.394	512.44
314.624	519.44
314.853	466.44
315.083	459.44
315.312	452.44
315.542	432.44
315.771	423.44
316.001	444.44
316.23	457.44
316.46	459.44
316.689	457.44
316.919	473.44
317.148	469.44
317.377	469.44
317.607	481.44
317.836	458.44
318.065	458.44
318.295	449.44
318.524	443.44
318.753	454.44
318.983	455.44
319.212	474.44
319.441	478.44
319.67	479.44
319.9	451.44
320.129	476.44
320.358	477.44
320.587	504.44
320.816	491.44
321.046	500.44
321.275	475.44
321.504	487.44
321.733	492.44
321.962	511.44
322.191	523.44
322.42	546.44
322.649	606.44
322.878	607.44
323.108	653.44
323.337	694.44
323.566	752.44
323.795	851.44
324.024	1108.44
324.253	1920.44
324.482	3303.44
324.71	4926.44
324.939	4355.44
325.168	1918.44
325.397	905.44
325.626	701.44
325.855	666.44
326.084	657.44
326.313	708.44
326.542	791.44
326.77	1065.44
326.999	1718.44
327.228	2863.44
327.457	3648.44
327.686	2332.44
327.914	1096.44
328.143	866.44
328.372	791.44
328.6	755.44
328.829	794.44
329.058	845.44
329.287	776.44
329.515	674.44
329.744	598.44
329.972	629.44
330.201	688.44
330.43	759.44
330.658	869.44
330.887	851.44
331.115	753.44
331.344	666.44
331.572	673.44
331.801	678.44
332.03	639.44
332.258	610.44
332.486	607.44
332.715	590.44
332.943	605.44
333.172	658.44
333.4	650.44
333.629	682.44
333.857	663.44
334.085	646.44
334.314	640.44
334.542	630.44
334.771	608.44
334.999	650.44
335.227	625.44
335.455	613.44
335.684	612.44
335.912	606.44
336.14	595.44
336.369	646.44
336.597	623.44
336.825	616.44
337.053	593.44
337.281	574.44
337.51	589.44
337.738	610.44
337.966	622.44
338.194	626.44
338.422	582.44
338.65	582.44
338.878	558.44
339.106	576.44
339.334	563.44
339.562	561.44
339.79	549.44
340.018	566.44
340.246	580.44
340.474	572.44
340.702	575.44
340.93	544.44
341.158	569.44
341.386	590.44
341.614	567.44
341.842	566.44
342.07	559.44
342.298	555.44
342.526	519.44
342.754	544.44
342.981	544.44
343.209	555.44
343.437	597.44
343.665	629.44
343.893	644.44
344.12	608.44
344.348	588.44
344.576	602.44
344.804	602.44
345.031	602.44
345.259	610.44
345.487	569.44
345.714	573.44
345.942	567.44
346.17	545.44
346.397	546.44
346.625	573.44
346.853	550.44
347.08	550.44
347.308	582.44
347.535	596.44
347.763	593.44
347.99	581.44
348.218	570.44
348.445	607.44
348.673	552.44
348.9	577.44
349.128	531.44
349.355	506.44
349.583	532.44
349.81	531.44
350.037	523.44
350.265	512.44
350.492	518.44
350.72	554.44
350.947	582.44
351.174	578.44
351.402	596.44
351.629	597.44
351.856	598.44
352.083	596.44
352.311	630.44
352.538	579.44
352.765	578.44
352.992	586.44
353.22	571.44
353.447	566.44
353.674	548.44
353.901	532.44
354.128	518.44
354.355	523.44
354.583	519.44
354.81	516.44
355.037	497.44
355.264	504.44
355.491	505.44
355.718	498.44
355.945	519.44
356.172	524.44
356.399	510.44
356.626	499.44
356.853	504.44
357.08	510.44
357.307	539.44
357.534	500.44
357.761	521.44
357.988	512.44
358.215	528.44
358.441	504.44
358.668	540.44
358.895	525.44
359.122	534.44
359.349	596.44
359.576	633.44
359.802	694.44
360.029	711.44
360.256	693.44
360.483	612.44
360.709	564.44
360.936	564.44
361.163	602.44
361.39	594.44
361.616	565.44
361.843	568.44
362.07	568.44
362.296	585.44
362.523	573.44
362.749	582.44
362.976	553.44
363.203	562.44
363.429	518.44
363.656	569.44
363.882	548.44
364.109	562.44
364.335	526.44
364.562	530.44
364.788	533.44
365.015	530.44
365.241	559.44
365.468	564.44
365.694	564.44
365.92	569.44
366.147	547.44
366.373	511.44
366.599	534.44
366.826	543.44
367.052	549.44
367.278	548.44
367.505	556.44
367.731	566.44
367.957	543.44
368.184	543.44
368.41	588.44
368.636	559.44
368.862	558.44
369.089	560.44
369.315	547.44
369.541	560.44
369.767	549.44
369.993	553.44
370.219	568.44
370.445	552.44
370.672	564.44
370.898	561.44
371.124	554.44
371.35	561.44
371.576	542.44
371.802	552.44
372.028	564.44
372.254	554.44
372.48	568.44
372.706	572.44
372.932	588.44
373.158	567.44
373.384	575.44
373.61	552.44
373.835	546.44
374.061	583.44
374.287	604.44
374.513	591.44
374.739	589.44
374.965	583.44
375.191	603.44
375.416	590.44
375.642	590.44
375.868	573.44
376.094	572.44
376.319	569.44
376.545	586.44
376.771	558.44
376.997	567.44
377.222	536.44
377.448	572.44
377.674	543.44
377.899	541.44
378.125	566.44
378.35	542.44
378.576	546.44
378.802	538.44
379.027	549.44
379.253	553.44
379.478	550.44
379.704	565.44
379.929	578.44
380.155	598.44
380.38	566.44
380.606	566.44
380.831	566.44
381.057	568.44
381.282	557.44
381.507	595.44
381.733	578.44
381.958	576.44
382.184	568.44
382.409	604.44
382.634	607.44
382.86	590.44
383.085	604.44
383.31	606.44
383.535	596.44
383.761	620.44
383.986	612.44
384.211	642.44
384.436	630.44
384.662	626.44
384.887	637.44
385.112	635.44
385.337	657.44
385.562	647.44
385.787	641.44
386.013	716.44
386.238	698.44
386.463	658.44
386.688	662.44
386.913	635.44
387.138	636.44
387.363	664.44
387.588	682.44
387.813	642.44
388.038	637.44
388.263	645.44
388.488	651.44
388.713	664.44
388.938	662.44
389.163	642.44
389.387	652.44
389.612	650.44
389.837	653.44
390.062	642.44
390.287	668.44
390.512	651.44
390.736	639.44
390.961	653.44
391.186	659.44
391.411	670.44
391.636	707.44
391.86	709.44
392.085	703.44
392.31	686.44
392.534	687.44
392.759	684.44
392.984	658.44
393.208	675.44
393.433	654.44
393.658	671.44
393.882	691.44
394.107	654.44
394.331	694.44
394.556	697.44
394.78	692.44
395.005	694.44
395.229	691.44
395.454	715.44
395.678	722.44
395.903	717.44
396.127	726.44
396.352	722.44
396.576	691.44
396.801	705.44
397.025	725.44
397.249	693.44
397.474	751.44
397.698	738.44
397.922	766.44
398.147	783.44
398.371	783.44
398.595	801.44
398.82	800.44
399.044	879.44
399.268	967.44
399.492	1077.44
399.717	1067.44
399.941	1044.44
400.165	1003.44
400.389	923.44
400.613	878.44
400.837	834.44
401.062	819.44
401.286	811.44
401.51	804.44
401.734	808.44
401.958	827.44
402.182	871.44
402.406	892.44
402.63	874.44
402.854	862.44
403.078	868.44
403.302	876.44
403.526	918.44
403.75	892.44
403.974	890.44
404.198	910.44
404.422	915.44
404.645	881.44
404.869	886.44
405.093	903.44
405.317	891.44
405.541	910.44
405.765	897.44
405.988	948.44
406.212	1016.44
406.436	1069.44
406.66	1034.44
406.883	961.44
407.107	1013.44
407.331	1068.44
407.555	1137.44
407.778	1081.44
408.002	988.44
408.226	940.44
408.449	912.44
408.673	934.44
408.896	923.44
409.12	942.44
409.344	862.44
409.567	853.44
409.791	873.44
410.014	846.44
410.238	842.44
410.461	846.44
410.685	857.44
410.908	878.44
411.132	875.44
411.355	865.44
411.578	829.44
411.802	798.44
412.025	806.44
412.249	813.44
412.472	823.44
412.695	781.44
412.919	769.44
413.142	775.44
413.365	769.44
413.589	801.44
413.812	778.44
414.035	783.44
414.258	789.44
414.482	778.44
414.705	805.44
414.928	769.44
415.151	746.44
415.374	775.44
415.597	774.44
415.821	781.44
416.044	751.44
416.267	754.44
416.49	764.44
416.713	746.44
416.936	758.44
417.159	766.44
417.382	776.44
417.605	771.44
417.828	824.44
418.051	806.44
418.274	786.44
418.497	806.44
418.72	804.44
418.943	781.44
419.166	834.44
419.389	861.44
419.611	821.44
419.834	813.44
420.057	806.44
420.28	770.44
420.503	764.44
420.726	783.44
420.948	841.44
421.171	877.44
421.394	880.44
421.617	803.44
421.839	820.44
422.062	828.44
422.285	855.44
422.507	890.44
422.73	940.44
422.953	872.44
423.175	811.44
423.398	826.44
423.621	836.44
423.843	858.44
424.066	866.44
424.288	854.44
424.511	934.44
424.733	983.44
424.956	1030.44
425.178	978.44
425.401	948.44
425.623	947.44
425.846	839.44
426.068	859.44
426.291	789.44
426.513	796.44
426.735	844.44
426.958	935.44
427.18	1063.44
427.402	1204.44
427.625	1261.44
427.847	980.44
428.069	813.44
428.292	792.44
428.514	763.44
428.736	734.44
428.958	732.44
429.181	697.44
429.403	702.44
429.625	770.44
429.847	812.44
430.069	854.44
430.292	784.44
430.514	709.44
430.736	727.44
430.958	716.44
431.18	709.44
431.402	712.44
431.624	709.44
431.846	700.44
432.068	697.44
432.29	736.44
432.512	716.44
432.734	730.44
432.956	732.44
433.178	737.44
433.4	751.44
433.622	727.44
433.844	712.44
434.066	720.44
434.287	734.44
434.509	767.44
434.731	766.44
434.953	816.44
435.175	794.44
435.397	830.44
435.618	846.44
435.84	943.44
436.062	1014.44
436.284	943.44
436.505	788.44
436.727	772.44
436.949	763.44
437.17	752.44
437.392	749.44
437.614	790.44
437.835	915.44
438.057	1016.44
438.278	1026.44
438.5	1043.44
438.721	1075.44
438.943	925.44
439.165	802.44
439.386	807.44
439.608	823.44
439.829	880.44
440.05	906.44
440.272	956.44
440.493	839.44
440.715	804.44
440.936	745.44
441.158	750.44
441.379	774.44
441.6	808.44
441.822	895.44
442.043	946.44
442.264	967.44
442.486	946.44
442.707	870.44
442.928	867.44
443.149	940.44
443.371	953.44
443.592	1008.44
443.813	1088.44
444.034	1042.44
444.255	910.44
444.476	898.44
444.698	904.44
444.919	916.44
445.14	964.44
445.361	955.44
445.582	1044.44
445.803	1146.44
446.024	1186.44
446.245	1103.44
446.466	961.44
446.687	804.44
446.908	769.44
447.129	752.44
447.35	717.44
447.571	734.44
447.792	722.44
448.013	728.44
448.234	790.44
448.455	891.44
448.675	1015.44
448.896	1029.44
449.117	901.44
449.338	979.44
449.559	1090.44
449.779	1028.44
450	798.44
450.221	745.44
450.442	705.44
450.662	757.44
450.883	804.44
451.104	799.44
451.324	753.44
451.545	684.44
451.766	700.44
451.986	674.44
452.207	647.44
452.428	668.44
452.648	691.44
452.869	698.44
453.089	700.44
453.31	704.44
453.53	672.44
453.751	677.44
453.971	708.44
454.192	747.44
454.412	675.44
454.633	661.44
454.853	623.44
455.073	658.44
455.294	734.44
455.514	774.44
455.734	696.44
455.955	605.44
456.175	596.44
456.395	602.44
456.616	600.44
456.836	614.44
457.056	598.44
457.276	596.44
457.497	638.44
457.717	586.44
457.937	637.44
458.157	631.44
458.377	631.44
458.598	767.44
458.818	938.44
459.038	1002.44
459.258	874.44
459.478	744.44
459.698	724.44
459.918	712.44
460.138	734.44
460.358	767.44
460.578	759.44
460.798	785.44
461.018	766.44
461.238	766.44
461.458	790.44
461.678	763.44
461.898	774.44
462.118	760.44
462.338	812.44
462.558	823.44
462.777	871.44
462.997	944.44
463.217	940.44
463.437	896.44
463.657	870.44
463.876	851.44
464.096	870.44
464.316	882.44
464.536	886.44
464.755	879.44
464.975	912.44
465.195	1122.44
465.414	1064.44
465.634	844.44
465.854	759.44
466.073	698.44
466.293	686.44
466.512	656.44
466.732	671.44
466.951	682.44
467.171	702.44
467.391	705.44
467.61	759.44
467.829	702.44
468.049	679.44
468.268	651.44
468.488	668.44
468.707	660.44
468.927	631.44
469.146	640.44
469.365	676.44
469.585	691.44
469.804	710.44
470.023	736.44
470.243	724.44
470.462	767.44
470.681	770.44
470.901	738.44
471.12	680.44
471.339	687.44
471.558	687.44
471.777	660.44
471.997	641.44
472.216	615.44
472.435	646.44
472.654	629.44
472.873	629.44
473.092	644.44
473.311	652.44
473.53	628.44
473.749	670.44
473.968	792.44
474.187	894.44
474.406	770.44
474.625	682.44
474.844	670.44
475.063	633.44
475.282	616.44
475.501	639.44
475.72	641.44
475.939	644.44
476.158	670.44
476.377	703.44
476.596	674.44
476.814	720.44
477.033	728.44
477.252	707.44
477.471	716.44
477.69	736.44
477.908	749.44
478.127	754.44
478.346	782.44
478.564	773.44
478.783	779.44
479.002	816.44
479.22	812.44
479.439	860.44
479.658	852.44
479.876	847.44
480.095	876.44
480.313	896.44
480.532	862.44
480.751	831.44
480.969	801.44
481.188	795.44
481.406	778.44
481.624	756.44
481.843	770.44
482.061	761.44
482.28	750.44
482.498	742.44
482.717	726.44
482.935	740.44
483.153	735.44
483.372	771.44
483.59	754.44
483.808	770.44
484.027	737.44
484.245	746.44
484.463	779.44
484.681	761.44
484.9	791.44
485.118	801.44
485.336	755.44
485.554	772.44
485.772	775.44
485.99	775.44
486.209	770.44
486.427	791.44
486.645	844.44
486.863	861.44
487.081	820.44
487.299	823.44
487.517	787.44
487.735	791.44
487.953	814.44
488.171	832.44
488.389	822.44
488.607	824.44
488.825	799.44
489.043	781.44
489.261	791.44
489.479	806.44
489.696	818.44
489.914	813.44
490.132	828.44
490.35	836.44
490.568	827.44
490.786	881.44
491.003	909.44
491.221	932.44
491.439	925.44
491.657	934.44
491.874	925.44
492.092	939.44
492.31	923.44
492.527	952.44
492.745	933.44
492.963	926.44
493.18	947.44
493.398	968.44
493.615	978.44
493.833	948.44
494.05	932.44
494.268	956.44
494.485	938.44
494.703	966.44
494.92	944.44
495.138	963.44
495.355	926.44
495.573	944.44
495.79	955.44
496.008	941.44
496.225	945.44
496.442	968.44
496.66	962.44
496.877	954.44
497.094	968.44
497.312	972.44
497.529	1017.44
497.746	1012.44
497.963	1041.44
498.181	1072.44
498.398	1115.44
498.615	1146.44
498.832	1182.44
499.049	1252.44
499.267	1347.44
499.484	1416.44
499.701	1494.44
499.918	1621.44
500.135	1742.44
500.352	1806.44
500.569	1884.44
500.786	1828.44
501.003	1733.44
501.22	1606.44
501.437	1538.44
501.654	1438.44
501.871	1383.44
