Data from TestCu_HRD10591_00023.txt Node
Date: Thu Oct 05 14:05:04 EDT 2023
User: Yrep
Spectrometer: HR+D1059
Trigger mode: 1
Integration Time (sec): 1.000000E-1
Scans to average: 1
Electric dark correction enabled: true
Nonlinearity correction enabled: false
Boxcar width: 0
XAxis mode: Wavelengths
Number of Pixels in Spectrum: 2048
>>>>>Begin Spectral Data<<<<<
223.165	-21
223.4	-21
223.635	-21
223.869	-25
224.104	-11
224.338	-26
224.573	-3
224.808	-10
225.042	-2
225.277	-1
225.511	-3
225.746	-7
225.98	6
226.215	19
226.449	12
226.683	19
226.918	15
227.152	38
227.387	46
227.621	54
227.856	41
228.09	45
228.324	53
228.559	64
228.793	81
229.027	111
229.262	101
229.496	129
229.73	157
229.964	157
230.199	109
230.433	117
230.667	112
230.901	121
231.136	133
231.37	110
231.604	115
231.838	116
232.072	108
232.306	107
232.541	102
232.775	108
233.009	120
233.243	118
233.477	101
233.711	104
233.945	109
234.179	118
234.413	125
234.647	115
234.881	114
235.115	138
235.349	123
235.583	113
235.817	135
236.051	135
236.285	137
236.519	142
236.753	127
236.987	160
237.221	205
237.455	229
237.689	169
237.922	139
238.156	138
238.39	130
238.624	125
238.858	123
239.091	123
239.325	125
239.559	140
239.793	114
240.027	162
240.26	172
240.494	160
240.728	145
240.961	135
241.195	132
241.429	134
241.662	118
241.896	145
242.13	131
242.363	135
242.597	130
242.83	134
243.064	134
243.298	126
243.531	138
243.765	142
243.998	130
244.232	131
244.465	136
244.699	139
244.932	146
245.166	139
245.399	139
245.633	139
245.866	146
246.099	153
246.333	150
246.566	140
246.8	137
247.033	174
247.266	158
247.5	162
247.733	153
247.966	176
248.2	181
248.433	181
248.666	177
248.899	183
249.133	214
249.366	214
249.599	193
249.832	162
250.066	178
250.299	178
250.532	178
250.765	203
250.998	209
251.231	204
251.465	175
251.698	167
251.931	181
252.164	183
252.397	195
252.63	202
252.863	204
253.096	219
253.329	225
253.562	198
253.795	197
254.028	215
254.261	208
254.494	231
254.727	255
254.96	255
255.193	214
255.426	214
255.659	189
255.892	195
256.124	198
256.357	192
256.59	183
256.823	195
257.056	217
257.289	203
257.521	202
257.754	199
257.987	191
258.22	204
258.452	199
258.685	189
258.918	221
259.151	213
259.383	202
259.616	203
259.849	209
260.081	244
260.314	259
260.547	240
260.779	225
261.012	217
261.244	219
261.477	226
261.71	241
261.942	248
262.175	253
262.407	220
262.64	207
262.872	219
263.105	217
263.337	222
263.57	217
263.802	206
264.035	206
264.267	197
264.499	215
264.732	211
264.964	216
265.197	217
265.429	226
265.661	204
265.894	208
266.126	225
266.358	210
266.591	234
266.823	225
267.055	236
267.287	226
267.52	234
267.752	229
267.984	215
268.216	242
268.448	226
268.681	256
268.913	270
269.145	279
269.377	278
269.609	274
269.841	276
270.073	295
270.306	337
270.538	321
270.77	301
271.002	301
271.234	294
271.466	312
271.698	302
271.93	320
272.162	305
272.394	282
272.626	290
272.858	276
273.09	287
273.322	260
273.553	271
273.785	270
274.017	254
274.249	278
274.481	283
274.713	276
274.945	276
275.176	271
275.408	253
275.64	253
275.872	275
276.104	285
276.335	305
276.567	309
276.799	345
277.031	351
277.262	348
277.494	331
277.726	281
277.957	290
278.189	295
278.421	298
278.652	286
278.884	286
279.115	292
279.347	282
279.579	276
279.81	255
280.042	279
280.273	292
280.505	261
280.736	268
280.968	293
281.199	281
281.431	291
281.662	283
281.894	284
282.125	321
282.356	339
282.588	368
282.819	333
283.051	311
283.282	294
283.513	302
283.745	314
283.976	304
284.207	303
284.439	273
284.67	305
284.901	305
285.132	312
285.364	295
285.595	302
285.826	318
286.057	295
286.288	325
286.52	288
286.751	303
286.982	315
287.213	308
287.444	322
287.675	333
287.906	328
288.138	342
288.369	367
288.6	326
288.831	317
289.062	330
289.293	328
289.524	342
289.755	332
289.986	336
290.217	318
290.448	344
290.679	323
290.91	329
291.141	330
291.371	324
291.602	323
291.833	327
292.064	331
292.295	344
292.526	321
292.757	341
292.987	325
293.218	353
293.449	323
293.68	325
293.91	332
294.141	329
294.372	335
294.603	326
294.833	342
295.064	342
295.295	352
295.525	354
295.756	375
295.987	387
296.217	417
296.448	398
296.679	346
296.909	360
297.14	351
297.37	376
297.601	366
297.831	363
298.062	375
298.292	366
298.523	344
298.753	353
298.984	369
299.214	387
299.445	359
299.675	380
299.905	380
300.136	371
300.366	376
300.597	367
300.827	375
301.057	407
301.288	395
301.518	394
301.748	406
301.979	402
302.209	400
302.439	402
302.669	391
302.9	391
303.13	377
303.36	410
303.59	425
303.82	415
304.051	388
304.281	383
304.511	394
304.741	396
304.971	377
305.201	375
305.431	395
305.661	415
305.891	385
306.121	401
306.352	429
306.582	419
306.812	383
307.042	407
307.272	409
307.502	393
307.731	383
307.961	407
308.191	418
308.421	403
308.651	407
308.881	405
309.111	427
309.341	441
309.571	441
309.8	452
310.03	463
310.26	471
310.49	483
310.72	517
310.949	526
311.179	507
311.409	489
311.639	467
311.868	461
312.098	470
312.328	517
312.557	551
312.787	534
313.017	487
313.246	491
313.476	466
313.706	496
313.935	499
314.165	532
314.394	532
314.624	506
314.853	503
315.083	485
315.312	460
315.542	455
315.771	466
316.001	457
316.23	461
316.46	462
316.689	486
316.919	509
317.148	491
317.377	503
317.607	497
317.836	479
318.065	447
318.295	465
318.524	467
318.753	462
318.983	478
319.212	492
319.441	506
319.67	493
319.9	471
320.129	488
320.358	485
320.587	504
320.816	505
321.046	527
321.275	515
321.504	526
321.733	531
321.962	542
322.191	557
322.42	607
322.649	619
322.878	649
323.108	646
323.337	707
323.566	771
323.795	864
324.024	1121
324.253	1969
324.482	3354
324.71	5007
324.939	4401
325.168	1950
325.397	941
325.626	735
325.855	673
326.084	655
326.313	713
326.542	818
326.77	1123
326.999	1832
327.228	2896
327.457	3717
327.686	2410
327.914	1137
328.143	914
328.372	825
328.6	785
328.829	823
329.058	861
329.287	796
329.515	699
329.744	636
329.972	649
330.201	681
330.43	799
330.658	890
330.887	917
331.115	779
331.344	681
331.572	677
331.801	689
332.03	659
332.258	617
332.486	627
332.715	629
332.943	639
333.172	645
333.4	687
333.629	674
333.857	672
334.085	663
334.314	644
334.542	651
334.771	660
334.999	640
335.227	632
335.455	618
335.684	611
335.912	637
336.14	627
336.369	641
336.597	637
336.825	633
337.053	577
337.281	605
337.51	593
337.738	602
337.966	605
338.194	607
338.422	613
338.65	574
338.878	595
339.106	586
339.334	582
339.562	589
339.79	598
340.018	578
340.246	608
340.474	591
340.702	609
340.93	575
341.158	591
341.386	597
341.614	595
341.842	592
342.07	566
342.298	564
342.526	569
342.754	551
342.981	586
343.209	571
343.437	616
343.665	607
343.893	607
344.12	625
344.348	612
344.576	641
344.804	641
345.031	654
345.259	645
345.487	602
345.714	611
345.942	574
346.17	576
346.397	566
346.625	573
346.853	576
347.08	573
347.308	613
347.535	603
347.763	587
347.99	618
348.218	630
348.445	618
348.673	590
348.9	582
349.128	526
349.355	541
349.583	549
349.81	546
350.037	548
350.265	549
350.492	562
350.72	569
350.947	591
351.174	610
351.402	615
351.629	617
351.856	631
352.083	610
352.311	616
352.538	645
352.765	591
352.992	594
353.22	611
353.447	567
353.674	540
353.901	524
354.128	549
354.355	542
354.583	560
354.81	529
355.037	533
355.264	515
355.491	527
355.718	535
355.945	518
356.172	529
356.399	526
356.626	521
356.853	509
357.08	524
357.307	529
357.534	520
357.761	499
357.988	539
358.215	539
358.441	529
358.668	543
358.895	549
359.122	550
359.349	608
359.576	641
359.802	713
360.029	735
360.256	694
360.483	628
360.709	607
360.936	628
361.163	605
361.39	608
361.616	593
361.843	601
362.07	602
362.296	607
362.523	601
362.749	594
362.976	577
363.203	565
363.429	565
363.656	570
363.882	557
364.109	564
364.335	567
364.562	570
364.788	577
365.015	577
365.241	566
365.468	608
365.694	595
365.92	593
366.147	560
366.373	551
366.599	542
366.826	548
367.052	547
367.278	542
367.505	555
367.731	565
367.957	583
368.184	573
368.41	601
368.636	596
368.862	574
369.089	570
369.315	577
369.541	576
369.767	598
369.993	582
370.219	559
370.445	560
370.672	572
370.898	563
371.124	577
371.35	555
371.576	583
371.802	583
372.028	583
372.254	585
372.48	576
372.706	603
372.932	566
373.158	595
373.384	566
373.61	574
373.835	582
374.061	582
374.287	596
374.513	607
374.739	601
374.965	632
375.191	589
375.416	607
375.642	581
375.868	592
376.094	601
376.319	571
376.545	576
376.771	582
376.997	560
377.222	555
377.448	562
377.674	574
377.899	582
378.125	579
378.35	573
378.576	575
378.802	545
379.027	592
379.253	581
379.478	558
379.704	587
379.929	584
380.155	582
380.38	582
380.606	598
380.831	555
381.057	599
381.282	587
381.507	573
381.733	593
381.958	621
382.184	615
382.409	579
382.634	598
382.86	626
383.085	599
383.31	613
383.535	625
383.761	637
383.986	638
384.211	631
384.436	655
384.662	656
384.887	671
385.112	653
385.337	676
385.562	689
385.787	686
386.013	704
386.238	722
386.463	659
386.688	695
386.913	670
387.138	664
387.363	647
387.588	671
387.813	642
388.038	662
388.263	670
388.488	647
388.713	673
388.938	667
389.163	655
389.387	660
389.612	666
389.837	643
390.062	669
390.287	685
390.512	662
390.736	670
390.961	686
391.186	699
391.411	704
391.636	730
391.86	719
392.085	736
392.31	703
392.534	738
392.759	723
392.984	685
393.208	681
393.433	675
393.658	690
393.882	683
394.107	701
394.331	732
394.556	690
394.78	719
395.005	712
395.229	741
395.454	755
395.678	740
395.903	720
396.127	759
396.352	721
396.576	715
396.801	700
397.025	735
397.249	731
397.474	751
397.698	760
397.922	767
398.147	781
398.371	783
398.595	795
398.82	837
399.044	903
399.268	997
399.492	1079
399.717	1092
399.941	1051
400.165	1046
400.389	936
400.613	892
400.837	844
401.062	846
401.286	850
401.51	838
401.734	846
401.958	824
402.182	888
402.406	902
402.63	946
402.854	903
403.078	877
403.302	926
403.526	923
403.75	913
403.974	928
404.198	927
404.422	941
404.645	901
404.869	900
405.093	935
405.317	939
405.541	945
405.765	932
405.988	931
406.212	1025
406.436	1090
406.66	1038
406.883	993
407.107	1095
407.331	1085
407.555	1146
407.778	1081
408.002	990
408.226	954
408.449	965
408.673	949
408.896	974
409.12	969
409.344	912
409.567	874
409.791	897
410.014	880
410.238	872
410.461	874
410.685	869
410.908	883
411.132	898
411.355	905
411.578	870
411.802	839
412.025	829
412.249	831
412.472	857
412.695	819
412.919	803
413.142	825
413.365	810
413.589	815
413.812	789
414.035	816
414.258	825
414.482	811
414.705	808
414.928	781
415.151	780
415.374	798
415.597	774
415.821	800
416.044	807
416.267	793
416.49	765
416.713	780
416.936	777
417.159	810
417.382	804
417.605	804
417.828	857
418.051	838
418.274	815
418.497	799
418.72	806
418.943	814
419.166	846
419.389	841
419.611	834
419.834	824
420.057	800
420.28	812
420.503	822
420.726	813
420.948	847
421.171	885
421.394	865
421.617	828
421.839	837
422.062	837
422.285	875
422.507	951
422.73	1005
422.953	886
423.175	899
423.398	864
423.621	883
423.843	905
424.066	882
424.288	871
424.511	939
424.733	992
424.956	1038
425.178	986
425.401	977
425.623	978
425.846	868
426.068	839
426.291	827
426.513	843
426.735	877
426.958	943
427.18	1072
427.402	1209
427.625	1257
427.847	1002
428.069	830
428.292	799
428.514	795
428.736	758
428.958	754
429.181	755
429.403	770
429.625	807
429.847	827
430.069	841
430.292	817
430.514	767
430.736	733
430.958	741
431.18	737
431.402	739
431.624	730
431.846	733
432.068	737
432.29	765
432.512	729
432.734	742
432.956	758
433.178	751
433.4	775
433.622	763
433.844	731
434.066	748
434.287	713
434.509	766
434.731	805
434.953	831
435.175	823
435.397	823
435.618	862
435.84	959
436.062	1035
436.284	971
436.505	852
436.727	781
436.949	761
437.17	772
437.392	782
437.614	782
437.835	930
438.057	1025
438.278	1088
438.5	1059
438.721	1088
438.943	903
439.165	811
439.386	831
439.608	868
439.829	892
440.05	945
440.272	1005
440.493	854
440.715	798
440.936	805
441.158	797
441.379	811
441.6	861
441.822	908
442.043	985
442.264	1045
442.486	962
442.707	897
442.928	900
443.149	959
443.371	1028
443.592	1071
443.813	1109
444.034	1071
444.255	926
444.476	923
444.698	918
444.919	916
445.14	992
445.361	986
445.582	1045
445.803	1203
446.024	1243
446.245	1129
446.466	949
446.687	836
446.908	802
447.129	767
447.35	779
447.571	751
447.792	753
448.013	770
448.234	854
448.455	929
448.675	1076
448.896	1037
449.117	898
449.338	1015
449.559	1098
449.779	1041
450	807
450.221	750
450.442	760
450.662	772
450.883	810
451.104	837
451.324	751
451.545	709
451.766	683
451.986	692
452.207	677
452.428	686
452.648	700
452.869	701
453.089	726
453.31	709
453.53	684
453.751	701
453.971	737
454.192	749
454.412	691
454.633	653
454.853	654
455.073	707
455.294	751
455.514	790
455.734	689
455.955	631
456.175	615
456.395	624
456.616	596
456.836	617
457.056	638
457.276	628
457.497	622
457.717	620
457.937	622
458.157	652
458.377	692
458.598	831
458.818	988
459.038	981
459.258	863
459.478	763
459.698	753
459.918	769
460.138	773
460.358	790
460.578	811
460.798	825
461.018	827
461.238	770
461.458	798
461.678	776
461.898	789
462.118	804
462.338	813
462.558	841
462.777	927
462.997	943
463.217	973
463.437	912
463.657	900
463.876	890
464.096	885
464.316	909
464.536	917
464.755	892
464.975	960
465.195	1170
465.414	1093
465.634	818
465.854	758
466.073	744
466.293	722
466.512	689
466.732	729
466.951	703
467.171	719
467.391	738
467.61	761
467.829	750
468.049	693
468.268	670
468.488	688
468.707	669
468.927	675
469.146	671
469.365	676
469.585	693
469.804	741
470.023	773
470.243	748
470.462	787
470.681	781
470.901	733
471.12	721
471.339	710
471.558	688
471.777	681
471.997	686
472.216	677
472.435	644
472.654	642
472.873	629
473.092	665
473.311	676
473.53	675
473.749	715
473.968	820
474.187	890
474.406	786
474.625	692
474.844	642
475.063	639
475.282	657
475.501	690
475.72	670
475.939	677
476.158	687
476.377	705
476.596	729
476.814	717
477.033	749
477.252	733
477.471	733
477.69	773
477.908	781
478.127	750
478.346	759
478.564	791
478.783	806
479.002	835
479.22	830
479.439	877
479.658	887
479.876	882
480.095	892
480.313	919
480.532	873
480.751	871
480.969	838
481.188	829
481.406	811
481.624	798
481.843	761
482.061	758
482.28	777
482.498	770
482.717	758
482.935	769
483.153	765
483.372	774
483.59	776
483.808	770
484.027	773
484.245	785
484.463	801
484.681	773
484.9	801
485.118	807
485.336	806
485.554	820
485.772	826
485.99	836
486.209	796
486.427	851
486.645	861
486.863	901
487.081	866
487.299	839
487.517	817
487.735	833
487.953	843
488.171	823
488.389	852
488.607	821
488.825	805
489.043	833
489.261	839
489.479	840
489.696	845
489.914	848
490.132	891
490.35	864
490.568	861
490.786	894
491.003	939
491.221	945
491.439	965
491.657	970
491.874	991
492.092	966
492.31	977
492.527	967
492.745	965
492.963	959
493.18	1006
493.398	1003
493.615	1025
493.833	1030
494.05	1002
494.268	977
494.485	1002
494.703	966
494.92	999
495.138	974
495.355	963
495.573	972
495.79	985
496.008	972
496.225	973
496.442	982
496.66	981
496.877	998
497.094	979
497.312	1047
497.529	1047
497.746	1080
497.963	1029
498.181	1131
498.398	1141
498.615	1201
498.832	1282
499.049	1300
499.267	1344
499.484	1471
499.701	1606
499.918	1678
500.135	1793
500.352	1915
500.569	1925
500.786	1839
501.003	1805
501.22	1653
501.437	1549
501.654	1458
501.871	1438
502.088	1311
502.305	1253
502.522	1169
502.739	1118
502.956	1067
503.172	1080
503.389	1086
503.606	1075
503.823	1039
504.04	1014
504.256	1026
504.473	1060
504.69	1017
504.907	987
505.123	954
505.34	949
505.557	934
505.773	951
505.99	926
506.207	905
506.423	912
506.64	886
506.856	918
507.073	903
507.289	883
507.506	883
507.722	937
507.939	973
508.155	891
508.372	827
508.588	840
508.805	820
509.021	843
509.238	886
509.454	875
509.67	862
509.887	828
510.103	850
510.319	989
510.536	1759
510.752	2740
510.968	1253
511.184	841
511.401	820
511.617	781
511.833	771
512.049	761
512.265	777
512.481	786
512.698	775
512.914	780
513.13	779
513.346	790
513.562	790
513.778	812
513.994	876
514.21	883
514.426	948
514.642	1074
514.858	1083
515.074	1301
515.29	2111
515.506	3218
515.721	1611
515.937	1065
516.153	965
516.369	909
516.585	898
516.801	876
517.016	918
517.232	934
517.448	971
517.664	953
517.879	961
518.095	915
518.311	934
518.527	902
518.742	907
518.958	852
519.173	851
519.389	847
519.605	822
519.82	861
520.036	897
520.251	956
520.467	953
520.682	945
520.898	957
521.113	1038
521.329	1211
521.544	1588
521.76	2811
521.975	5249
522.19	2943
522.406	1323
522.621	967
522.836	852
523.052	803
523.267	778
523.482	751
523.698	770
523.913	753
524.128	749
524.343	707
524.559	689
524.774	700
524.989	702
525.204	741
525.419	735
525.634	706
525.849	686
526.064	674
526.28	684
526.495	671
526.71	672
526.925	654
527.14	642
527.355	650
527.57	631
527.785	646
527.999	651
528.214	670
528.429	662
528.644	673
528.859	675
529.074	702
529.289	873
529.503	1013
529.718	790
529.933	688
530.148	683
530.363	678
530.577	663
530.792	643
531.007	639
531.221	654
531.436	638
531.651	641
531.865	638
532.08	643
532.295	628
532.509	630
532.724	638
532.938	623
533.153	641
533.367	616
533.582	623
533.796	647
534.011	624
534.225	634
534.44	613
534.654	627
534.868	622
535.083	655
535.297	660
535.511	679
535.726	661
535.94	650
536.154	646
536.369	642
536.583	611
536.797	629
537.011	598
537.225	617
537.44	590
537.654	608
537.868	609
538.082	623
538.296	620
538.51	597
538.724	607
538.938	615
539.153	625
539.367	669
539.581	631
539.795	601
540.009	580
540.222	597
540.436	611
540.65	591
540.864	610
541.078	623
541.292	628
541.506	607
541.72	593
541.934	573
542.147	601
542.361	617
542.575	593
542.789	593
543.002	590
543.216	601
543.43	609
543.644	595
543.857	607
544.071	603
544.285	603
544.498	593
544.712	595
544.925	619
545.139	607
545.352	599
545.566	621
545.779	594
545.993	591
546.206	606
546.42	601
546.633	604
546.847	615
547.06	614
547.274	621
547.487	604
547.7	607
547.914	575
548.127	578
548.34	613
548.554	625
548.767	598
548.98	605
549.193	611
549.407	603
549.62	619
549.833	612
550.046	607
550.259	614
550.473	604
550.686	602
550.899	588
551.112	585
551.325	571
551.538	575
551.751	580
551.964	576
552.177	606
552.39	589
552.603	607
552.816	640
553.029	649
553.242	636
553.455	650
553.667	704
553.88	683
554.093	643
554.306	633
554.519	601
554.732	588
554.944	597
555.157	573
555.37	586
555.583	581
555.795	547
556.008	566
556.221	515
556.433	554
556.646	527
556.859	524
557.071	534
557.284	542
557.496	532
557.709	527
557.921	531
558.134	518
558.346	498
558.559	487
558.771	491
558.984	521
559.196	487
559.409	507
559.621	483
559.833	497
560.046	518
560.258	498
560.47	487
560.683	488
560.895	495
561.107	476
561.32	481
561.532	492
561.744	490
561.956	504
562.168	504
562.381	491
562.593	480
562.805	479
