Data from TestCu_HRD10591_00094.txt Node
Date: Thu Oct 05 14:06:14 EDT 2023
User: Yrep
Spectrometer: HR+D1059
Trigger mode: 1
Integration Time (sec): 1.000000E-1
Scans to average: 1
Electric dark correction enabled: true
Nonlinearity correction enabled: false
Boxcar width: 0
XAxis mode: Wavelengths
Number of Pixels in Spectrum: 2048
>>>>>Begin Spectral Data<<<<<
223.165	-27.25
223.4	-27.25
223.635	-27.25
223.869	-16.25
224.104	-21.25
224.338	-13.25
224.573	-17.25
224.808	-16.25
225.042	-20.25
225.277	-3.25
225.511	6.75
225.746	10.75
225.98	6.75
226.215	15.75
226.449	13.75
226.683	15.75
226.918	24.75
227.152	40.75
227.387	45.75
227.621	34.75
227.856	41.75
228.09	56.75
228.324	49.75
228.559	63.75
228.793	74.75
229.027	94.75
229.262	108.75
229.496	139.75
229.73	180.75
229.964	156.75
230.199	116.75
230.433	104.75
230.667	116.75
230.901	139.75
231.136	110.75
231.37	112.75
231.604	110.75
231.838	110.75
232.072	104.75
232.306	109.75
232.541	111.75
232.775	111.75
233.009	127.75
233.243	103.75
233.477	117.75
233.711	112.75
233.945	114.75
234.179	106.75
234.413	121.75
234.647	116.75
234.881	132.75
235.115	116.75
235.349	122.75
235.583	114.75
235.817	133.75
236.051	124.75
236.285	120.75
236.519	142.75
236.753	161.75
236.987	196.75
237.221	235.75
237.455	250.75
237.689	143.75
237.922	132.75
238.156	126.75
238.39	123.75
238.624	133.75
238.858	132.75
239.091	114.75
239.325	132.75
239.559	138.75
239.793	146.75
240.027	163.75
240.26	152.75
240.494	177.75
240.728	167.75
240.961	150.75
241.195	140.75
241.429	129.75
241.662	127.75
241.896	109.75
242.13	138.75
242.363	139.75
242.597	144.75
242.83	124.75
243.064	120.75
243.298	131.75
243.531	140.75
243.765	145.75
243.998	134.75
244.232	146.75
244.465	150.75
244.699	138.75
244.932	143.75
245.166	155.75
245.399	134.75
245.633	147.75
245.866	141.75
246.099	123.75
246.333	155.75
246.566	156.75
246.8	145.75
247.033	144.75
247.266	160.75
247.5	164.75
247.733	170.75
247.966	158.75
248.2	163.75
248.433	159.75
248.666	187.75
248.899	187.75
249.133	216.75
249.366	222.75
249.599	196.75
249.832	169.75
250.066	174.75
250.299	190.75
250.532	187.75
250.765	188.75
250.998	228.75
251.231	213.75
251.465	193.75
251.698	198.75
251.931	176.75
252.164	182.75
252.397	183.75
252.63	198.75
252.863	212.75
253.096	208.75
253.329	226.75
253.562	205.75
253.795	200.75
254.028	206.75
254.261	229.75
254.494	252.75
254.727	301.75
254.96	276.75
255.193	237.75
255.426	206.75
255.659	199.75
255.892	192.75
256.124	194.75
256.357	199.75
256.59	215.75
256.823	211.75
257.056	206.75
257.289	216.75
257.521	206.75
257.754	195.75
257.987	185.75
258.22	215.75
258.452	197.75
258.685	200.75
258.918	202.75
259.151	221.75
259.383	219.75
259.616	235.75
259.849	253.75
260.081	261.75
260.314	257.75
260.547	242.75
260.779	226.75
261.012	219.75
261.244	222.75
261.477	215.75
261.71	227.75
261.942	254.75
262.175	255.75
262.407	231.75
262.64	207.75
262.872	237.75
263.105	230.75
263.337	218.75
263.57	207.75
263.802	215.75
264.035	204.75
264.267	208.75
264.499	203.75
264.732	214.75
264.964	211.75
265.197	212.75
265.429	211.75
265.661	218.75
265.894	219.75
266.126	211.75
266.358	212.75
266.591	231.75
266.823	230.75
267.055	220.75
267.287	234.75
267.52	208.75
267.752	224.75
267.984	230.75
268.216	244.75
268.448	232.75
268.681	241.75
268.913	279.75
269.145	291.75
269.377	293.75
269.609	272.75
269.841	294.75
270.073	302.75
270.306	316.75
270.538	336.75
270.77	301.75
271.002	299.75
271.234	285.75
271.466	318.75
271.698	339.75
271.93	319.75
272.162	337.75
272.394	302.75
272.626	295.75
272.858	261.75
273.09	268.75
273.322	266.75
273.553	272.75
273.785	284.75
274.017	263.75
274.249	266.75
274.481	270.75
274.713	262.75
274.945	275.75
275.176	286.75
275.408	298.75
275.64	288.75
275.872	258.75
276.104	289.75
276.335	274.75
276.567	326.75
276.799	349.75
277.031	375.75
277.262	360.75
277.494	318.75
277.726	290.75
277.957	280.75
278.189	269.75
278.421	293.75
278.652	279.75
278.884	295.75
279.115	280.75
279.347	292.75
279.579	288.75
279.81	302.75
280.042	291.75
280.273	281.75
280.505	290.75
280.736	292.75
280.968	296.75
281.199	280.75
281.431	292.75
281.662	300.75
281.894	308.75
282.125	335.75
282.356	358.75
282.588	374.75
282.819	336.75
283.051	311.75
283.282	295.75
283.513	313.75
283.745	302.75
283.976	317.75
284.207	317.75
284.439	319.75
284.67	307.75
284.901	306.75
285.132	302.75
285.364	294.75
285.595	304.75
285.826	304.75
286.057	332.75
286.288	297.75
286.52	312.75
286.751	320.75
286.982	306.75
287.213	317.75
287.444	331.75
287.675	347.75
287.906	352.75
288.138	349.75
288.369	350.75
288.6	347.75
288.831	328.75
289.062	339.75
289.293	343.75
289.524	319.75
289.755	328.75
289.986	327.75
290.217	337.75
290.448	331.75
290.679	341.75
290.91	319.75
291.141	326.75
291.371	334.75
291.602	348.75
291.833	323.75
292.064	367.75
292.295	333.75
292.526	346.75
292.757	322.75
292.987	322.75
293.218	325.75
293.449	351.75
293.68	331.75
293.91	335.75
294.141	345.75
294.372	329.75
294.603	342.75
294.833	336.75
295.064	335.75
295.295	344.75
295.525	347.75
295.756	369.75
295.987	397.75
296.217	436.75
296.448	397.75
296.679	384.75
296.909	347.75
297.14	356.75
297.37	366.75
297.601	356.75
297.831	355.75
298.062	367.75
298.292	396.75
298.523	375.75
298.753	369.75
298.984	382.75
299.214	396.75
299.445	379.75
299.675	375.75
299.905	382.75
300.136	375.75
300.366	399.75
300.597	389.75
300.827	394.75
301.057	411.75
301.288	412.75
301.518	396.75
301.748	385.75
301.979	407.75
302.209	396.75
302.439	414.75
302.669	414.75
302.9	401.75
303.13	394.75
303.36	399.75
303.59	431.75
303.82	419.75
304.051	426.75
304.281	396.75
304.511	400.75
304.741	388.75
304.971	390.75
305.201	397.75
305.431	394.75
305.661	392.75
305.891	383.75
306.121	419.75
306.352	418.75
306.582	410.75
306.812	401.75
307.042	395.75
307.272	410.75
307.502	396.75
307.731	406.75
307.961	400.75
308.191	407.75
308.421	418.75
308.651	406.75
308.881	421.75
309.111	426.75
309.341	455.75
309.571	463.75
309.8	465.75
310.03	482.75
310.26	478.75
310.49	483.75
310.72	525.75
310.949	535.75
311.179	516.75
311.409	484.75
311.639	460.75
311.868	491.75
312.098	498.75
312.328	520.75
312.557	548.75
312.787	567.75
313.017	512.75
313.246	501.75
313.476	489.75
313.706	505.75
313.935	527.75
314.165	543.75
314.394	519.75
314.624	517.75
314.853	496.75
315.083	484.75
315.312	469.75
315.542	455.75
315.771	477.75
316.001	461.75
316.23	482.75
316.46	471.75
316.689	471.75
316.919	504.75
317.148	488.75
317.377	495.75
317.607	523.75
317.836	468.75
318.065	479.75
318.295	476.75
318.524	469.75
318.753	483.75
318.983	496.75
319.212	480.75
319.441	523.75
319.67	514.75
319.9	469.75
320.129	488.75
320.358	493.75
320.587	495.75
320.816	532.75
321.046	519.75
321.275	527.75
321.504	501.75
321.733	526.75
321.962	523.75
322.191	564.75
322.42	605.75
322.649	607.75
322.878	660.75
323.108	671.75
323.337	738.75
323.566	786.75
323.795	904.75
324.024	1180.75
324.253	2048.75
324.482	3600.75
324.71	5296.75
324.939	4728.75
325.168	2036.75
325.397	951.75
325.626	750.75
325.855	696.75
326.084	685.75
326.313	708.75
326.542	874.75
326.77	1114.75
326.999	1933.75
327.228	3091.75
327.457	3948.75
327.686	2526.75
327.914	1192.75
328.143	933.75
328.372	866.75
328.6	826.75
328.829	871.75
329.058	913.75
329.287	837.75
329.515	706.75
329.744	643.75
329.972	644.75
330.201	721.75
330.43	823.75
330.658	961.75
330.887	982.75
331.115	786.75
331.344	698.75
331.572	679.75
331.801	712.75
332.03	683.75
332.258	650.75
332.486	631.75
332.715	648.75
332.943	655.75
333.172	696.75
333.4	671.75
333.629	682.75
333.857	700.75
334.085	695.75
334.314	676.75
334.542	636.75
334.771	692.75
334.999	675.75
335.227	645.75
335.455	639.75
335.684	626.75
335.912	636.75
336.14	641.75
336.369	664.75
336.597	644.75
336.825	656.75
337.053	632.75
337.281	613.75
337.51	608.75
337.738	614.75
337.966	643.75
338.194	656.75
338.422	622.75
338.65	616.75
338.878	594.75
339.106	580.75
339.334	600.75
339.562	592.75
339.79	574.75
340.018	607.75
340.246	615.75
340.474	606.75
340.702	591.75
340.93	598.75
341.158	590.75
341.386	612.75
341.614	604.75
341.842	599.75
342.07	589.75
342.298	558.75
342.526	552.75
342.754	554.75
342.981	562.75
343.209	606.75
343.437	618.75
343.665	644.75
343.893	641.75
344.12	637.75
344.348	623.75
344.576	634.75
344.804	638.75
345.031	666.75
345.259	668.75
345.487	612.75
345.714	608.75
345.942	588.75
346.17	576.75
346.397	572.75
346.625	592.75
346.853	566.75
347.08	592.75
347.308	603.75
347.535	622.75
347.763	622.75
347.99	592.75
348.218	637.75
348.445	642.75
348.673	606.75
348.9	568.75
349.128	573.75
349.355	551.75
349.583	536.75
349.81	546.75
350.037	529.75
350.265	558.75
350.492	585.75
350.72	588.75
350.947	588.75
351.174	610.75
351.402	615.75
351.629	582.75
351.856	607.75
352.083	641.75
352.311	666.75
352.538	644.75
352.765	600.75
352.992	587.75
353.22	592.75
353.447	561.75
353.674	541.75
353.901	538.75
354.128	548.75
354.355	543.75
354.583	554.75
354.81	561.75
355.037	557.75
355.264	528.75
355.491	538.75
355.718	512.75
355.945	534.75
356.172	522.75
356.399	538.75
356.626	554.75
356.853	531.75
357.08	516.75
357.307	533.75
357.534	546.75
357.761	534.75
357.988	552.75
358.215	525.75
358.441	526.75
358.668	547.75
358.895	554.75
359.122	570.75
359.349	612.75
359.576	677.75
359.802	726.75
360.029	779.75
360.256	714.75
360.483	639.75
360.709	607.75
360.936	618.75
361.163	630.75
361.39	632.75
361.616	621.75
361.843	622.75
362.07	616.75
362.296	609.75
362.523	612.75
362.749	594.75
362.976	587.75
363.203	584.75
363.429	590.75
363.656	586.75
363.882	587.75
364.109	551.75
364.335	552.75
364.562	583.75
364.788	572.75
365.015	605.75
365.241	575.75
365.468	610.75
365.694	575.75
365.92	583.75
366.147	568.75
366.373	572.75
366.599	562.75
366.826	565.75
367.052	568.75
367.278	571.75
367.505	571.75
367.731	569.75
367.957	586.75
368.184	583.75
368.41	583.75
368.636	605.75
368.862	597.75
369.089	585.75
369.315	574.75
369.541	570.75
369.767	573.75
369.993	599.75
370.219	569.75
370.445	586.75
370.672	600.75
370.898	600.75
371.124	586.75
371.35	587.75
371.576	587.75
371.802	578.75
372.028	575.75
372.254	566.75
372.48	588.75
372.706	584.75
372.932	583.75
373.158	573.75
373.384	608.75
373.61	597.75
373.835	607.75
374.061	628.75
374.287	603.75
374.513	623.75
374.739	608.75
374.965	629.75
375.191	605.75
375.416	607.75
375.642	602.75
375.868	594.75
376.094	597.75
376.319	569.75
376.545	601.75
376.771	592.75
376.997	568.75
377.222	581.75
377.448	583.75
377.674	583.75
377.899	575.75
378.125	590.75
378.35	576.75
378.576	556.75
378.802	569.75
379.027	576.75
379.253	571.75
379.478	551.75
379.704	583.75
379.929	586.75
380.155	602.75
380.38	607.75
380.606	592.75
380.831	606.75
381.057	612.75
381.282	608.75
381.507	605.75
381.733	611.75
381.958	614.75
382.184	587.75
382.409	611.75
382.634	605.75
382.86	624.75
383.085	616.75
383.31	606.75
383.535	630.75
383.761	613.75
383.986	631.75
384.211	638.75
384.436	678.75
384.662	660.75
384.887	670.75
385.112	680.75
385.337	677.75
385.562	673.75
385.787	711.75
386.013	734.75
386.238	712.75
386.463	703.75
386.688	705.75
386.913	671.75
387.138	662.75
387.363	669.75
387.588	655.75
387.813	659.75
388.038	671.75
388.263	710.75
388.488	694.75
388.713	709.75
388.938	688.75
389.163	674.75
389.387	676.75
389.612	682.75
389.837	685.75
390.062	668.75
390.287	684.75
390.512	689.75
390.736	692.75
390.961	692.75
391.186	706.75
391.411	712.75
391.636	744.75
391.86	736.75
392.085	719.75
392.31	725.75
392.534	726.75
392.759	715.75
392.984	700.75
393.208	712.75
393.433	698.75
393.658	686.75
393.882	702.75
394.107	736.75
394.331	700.75
394.556	711.75
394.78	723.75
395.005	741.75
395.229	732.75
395.454	768.75
395.678	739.75
395.903	753.75
396.127	749.75
396.352	736.75
396.576	738.75
396.801	733.75
397.025	740.75
397.249	789.75
397.474	766.75
397.698	764.75
397.922	813.75
398.147	816.75
398.371	797.75
398.595	827.75
398.82	861.75
399.044	938.75
399.268	1039.75
399.492	1115.75
399.717	1116.75
399.941	1103.75
400.165	1053.75
400.389	973.75
400.613	902.75
400.837	852.75
401.062	828.75
401.286	837.75
401.51	866.75
401.734	854.75
401.958	849.75
402.182	943.75
402.406	949.75
402.63	917.75
402.854	920.75
403.078	943.75
403.302	901.75
403.526	916.75
403.75	911.75
403.974	946.75
404.198	936.75
404.422	928.75
404.645	913.75
404.869	954.75
405.093	956.75
405.317	972.75
405.541	967.75
405.765	962.75
405.988	960.75
406.212	1020.75
406.436	1124.75
406.66	1068.75
406.883	1023.75
407.107	1092.75
407.331	1155.75
407.555	1170.75
407.778	1116.75
408.002	1016.75
408.226	974.75
408.449	983.75
408.673	978.75
408.896	1008.75
409.12	1002.75
409.344	927.75
409.567	915.75
409.791	870.75
410.014	864.75
410.238	866.75
410.461	902.75
410.685	891.75
410.908	907.75
411.132	961.75
411.355	915.75
411.578	859.75
411.802	840.75
412.025	864.75
412.249	852.75
412.472	860.75
412.695	828.75
412.919	828.75
413.142	825.75
413.365	834.75
413.589	803.75
413.812	780.75
414.035	806.75
414.258	793.75
414.482	778.75
414.705	795.75
414.928	801.75
415.151	809.75
415.374	812.75
415.597	799.75
415.821	791.75
416.044	762.75
416.267	807.75
416.49	823.75
416.713	805.75
416.936	782.75
417.159	825.75
417.382	846.75
417.605	818.75
417.828	848.75
418.051	846.75
418.274	822.75
418.497	810.75
418.72	828.75
418.943	826.75
419.166	853.75
419.389	864.75
419.611	872.75
419.834	853.75
420.057	848.75
420.28	814.75
420.503	814.75
420.726	843.75
420.948	860.75
421.171	904.75
421.394	888.75
421.617	818.75
421.839	826.75
422.062	857.75
422.285	899.75
422.507	1000.75
422.73	996.75
422.953	899.75
423.175	875.75
423.398	872.75
423.621	876.75
423.843	908.75
424.066	915.75
424.288	890.75
424.511	964.75
424.733	1046.75
424.956	1108.75
425.178	1036.75
425.401	1008.75
425.623	977.75
425.846	883.75
426.068	863.75
426.291	860.75
426.513	858.75
426.735	906.75
426.958	989.75
427.18	1172.75
427.402	1344.75
427.625	1350.75
427.847	1060.75
428.069	864.75
428.292	839.75
428.514	813.75
428.736	776.75
428.958	758.75
429.181	765.75
429.403	773.75
429.625	821.75
429.847	839.75
430.069	912.75
430.292	823.75
430.514	773.75
430.736	755.75
430.958	738.75
431.18	746.75
431.402	730.75
431.624	734.75
431.846	748.75
432.068	736.75
432.29	750.75
432.512	750.75
432.734	760.75
432.956	755.75
433.178	798.75
433.4	776.75
433.622	766.75
433.844	760.75
434.066	746.75
434.287	778.75
434.509	785.75
434.731	814.75
434.953	826.75
435.175	843.75
435.397	856.75
435.618	877.75
435.84	1022.75
436.062	1066.75
436.284	1028.75
436.505	876.75
436.727	818.75
436.949	792.75
437.17	761.75
437.392	778.75
437.614	825.75
437.835	970.75
438.057	1077.75
438.278	1114.75
438.5	1142.75
438.721	1142.75
438.943	994.75
439.165	868.75
439.386	834.75
439.608	853.75
439.829	946.75
440.05	997.75
440.272	1034.75
440.493	886.75
440.715	803.75
440.936	790.75
441.158	838.75
441.379	843.75
441.6	869.75
441.822	936.75
442.043	1027.75
442.264	1110.75
442.486	1008.75
442.707	909.75
442.928	904.75
443.149	982.75
443.371	1035.75
443.592	1100.75
443.813	1194.75
444.034	1124.75
444.255	950.75
444.476	918.75
444.698	956.75
444.919	924.75
445.14	992.75
445.361	992.75
445.582	1090.75
445.803	1272.75
446.024	1290.75
446.245	1182.75
446.466	1001.75
446.687	840.75
446.908	816.75
447.129	796.75
447.35	778.75
447.571	779.75
447.792	765.75
448.013	783.75
448.234	871.75
448.455	988.75
448.675	1089.75
448.896	1095.75
449.117	928.75
449.338	1050.75
449.559	1184.75
449.779	1141.75
450	903.75
450.221	775.75
450.442	748.75
450.662	784.75
450.883	839.75
451.104	866.75
451.324	775.75
451.545	702.75
451.766	702.75
451.986	684.75
452.207	695.75
452.428	691.75
452.648	712.75
452.869	733.75
453.089	746.75
453.31	737.75
453.53	702.75
453.751	700.75
453.971	745.75
454.192	777.75
454.412	717.75
454.633	672.75
454.853	671.75
455.073	695.75
455.294	781.75
455.514	802.75
455.734	732.75
455.955	657.75
456.175	636.75
456.395	610.75
456.616	628.75
456.836	614.75
457.056	635.75
457.276	630.75
457.497	632.75
457.717	617.75
457.937	661.75
458.157	667.75
458.377	722.75
458.598	814.75
458.818	1010.75
459.038	1045.75
459.258	927.75
459.478	782.75
459.698	750.75
459.918	773.75
460.138	780.75
460.358	820.75
460.578	858.75
460.798	800.75
461.018	791.75
461.238	812.75
461.458	774.75
461.678	796.75
461.898	812.75
462.118	813.75
462.338	844.75
462.558	870.75
462.777	888.75
462.997	935.75
463.217	951.75
463.437	917.75
463.657	912.75
463.876	898.75
464.096	933.75
464.316	913.75
464.536	924.75
464.755	915.75
464.975	994.75
465.195	1224.75
465.414	1134.75
465.634	849.75
465.854	789.75
466.073	759.75
466.293	716.75
466.512	713.75
466.732	682.75
466.951	731.75
467.171	736.75
467.391	735.75
467.61	797.75
467.829	732.75
468.049	702.75
468.268	707.75
468.488	689.75
468.707	692.75
468.927	684.75
469.146	687.75
469.365	700.75
469.585	742.75
469.804	737.75
470.023	768.75
470.243	773.75
470.462	812.75
470.681	816.75
470.901	760.75
471.12	732.75
471.339	723.75
471.558	699.75
471.777	704.75
471.997	692.75
472.216	682.75
472.435	673.75
472.654	665.75
472.873	657.75
473.092	670.75
473.311	666.75
473.53	666.75
473.749	726.75
473.968	851.75
474.187	950.75
474.406	838.75
474.625	714.75
474.844	682.75
475.063	681.75
475.282	683.75
475.501	679.75
475.72	709.75
475.939	686.75
476.158	694.75
476.377	727.75
476.596	690.75
476.814	736.75
477.033	767.75
477.252	736.75
477.471	757.75
477.69	742.75
477.908	760.75
478.127	787.75
478.346	807.75
478.564	782.75
478.783	844.75
479.002	841.75
479.22	869.75
479.439	876.75
479.658	889.75
479.876	906.75
480.095	928.75
480.313	914.75
480.532	878.75
480.751	897.75
480.969	851.75
481.188	854.75
481.406	830.75
481.624	820.75
481.843	787.75
482.061	774.75
482.28	798.75
482.498	762.75
482.717	756.75
482.935	803.75
483.153	789.75
483.372	802.75
483.59	792.75
483.808	787.75
484.027	789.75
484.245	803.75
484.463	798.75
484.681	823.75
484.9	846.75
485.118	846.75
485.336	834.75
485.554	828.75
485.772	828.75
485.99	810.75
486.209	850.75
486.427	861.75
486.645	900.75
486.863	929.75
487.081	865.75
487.299	835.75
487.517	835.75
487.735	877.75
487.953	850.75
488.171	882.75
488.389	834.75
488.607	844.75
488.825	845.75
489.043	822.75
489.261	848.75
489.479	851.75
489.696	822.75
489.914	860.75
490.132	868.75
490.35	864.75
490.568	902.75
490.786	910.75
491.003	948.75
491.221	997.75
491.439	961.75
491.657	998.75
491.874	983.75
492.092	996.75
492.31	988.75
492.527	1019.75
492.745	999.75
492.963	995.75
493.18	1021.75
493.398	1020.75
493.615	1032.75
493.833	1027.75
494.05	1015.75
494.268	1000.75
494.485	988.75
494.703	1007.75
494.92	985.75
495.138	1012.75
495.355	998.75
495.573	1029.75
495.79	991.75
496.008	973.75
496.225	1011.75
496.442	1008.75
496.66	1013.75
496.877	952.75
497.094	1022.75
497.312	1039.75
497.529	1058.75
497.746	1075.75
497.963	1081.75
498.181	1162.75
498.398	1152.75
498.615	1206.75
498.832	1280.75
499.049	1343.75
499.267	1386.75
499.484	1479.75
499.701	1584.75
499.918	1684.75
500.135	1803.75
500.352	1925.75
500.569	1948.75
500.786	1904.75
501.003	1800.75
501.22	1693.75
501.437	1610.75
