Data from TestCu_HRD10591_00025.txt Node
Date: Thu Oct 05 14:05:06 EDT 2023
User: Yrep
Spectrometer: HR+D1059
Trigger mode: 1
Integration Time (sec): 1.000000E-1
Scans to average: 1
Electric dark correction enabled: true
Nonlinearity correction enabled: false
Boxcar width: 0
XAxis mode: Wavelengths
Number of Pixels in Spectrum: 2048
>>>>>Begin Spectral Data<<<<<
223.165	-16.5
223.4	-16.5
223.635	-16.5
223.869	-34.5
224.104	-25.5
224.338	-24.5
224.573	-11.5
224.808	-6.5
225.042	-15.5
225.277	2.5
225.511	-6.5
225.746	9.5
225.98	21.5
226.215	11.5
226.449	9.5
226.683	24.5
226.918	24.5
227.152	37.5
227.387	35.5
227.621	41.5
227.856	49.5
228.09	32.5
228.324	49.5
228.559	55.5
228.793	57.5
229.027	103.5
229.262	121.5
229.496	133.5
229.73	155.5
229.964	183.5
230.199	120.5
230.433	116.5
230.667	119.5
230.901	103.5
231.136	96.5
231.37	107.5
231.604	112.5
231.838	120.5
232.072	119.5
232.306	116.5
232.541	111.5
232.775	99.5
233.009	113.5
233.243	112.5
233.477	105.5
233.711	116.5
233.945	101.5
234.179	119.5
234.413	123.5
234.647	123.5
234.881	114.5
235.115	107.5
235.349	114.5
235.583	124.5
235.817	140.5
236.051	128.5
236.285	121.5
236.519	124.5
236.753	143.5
236.987	189.5
237.221	229.5
237.455	235.5
237.689	152.5
237.922	135.5
238.156	125.5
238.39	115.5
238.624	121.5
238.858	129.5
239.091	115.5
239.325	123.5
239.559	119.5
239.793	128.5
240.027	152.5
240.26	162.5
240.494	152.5
240.728	145.5
240.961	146.5
241.195	146.5
241.429	128.5
241.662	144.5
241.896	118.5
242.13	129.5
242.363	113.5
242.597	134.5
242.83	143.5
243.064	146.5
243.298	128.5
243.531	128.5
243.765	136.5
243.998	137.5
244.232	155.5
244.465	138.5
244.699	150.5
244.932	134.5
245.166	129.5
245.399	134.5
245.633	142.5
245.866	151.5
246.099	136.5
246.333	133.5
246.566	141.5
246.8	157.5
247.033	152.5
247.266	152.5
247.5	161.5
247.733	155.5
247.966	155.5
248.2	163.5
248.433	166.5
248.666	160.5
248.899	190.5
249.133	209.5
249.366	192.5
249.599	198.5
249.832	159.5
250.066	181.5
250.299	180.5
250.532	182.5
250.765	203.5
250.998	205.5
251.231	208.5
251.465	191.5
251.698	185.5
251.931	189.5
252.164	180.5
252.397	192.5
252.63	194.5
252.863	207.5
253.096	211.5
253.329	210.5
253.562	198.5
253.795	222.5
254.028	197.5
254.261	208.5
254.494	242.5
254.727	273.5
254.96	259.5
255.193	222.5
255.426	185.5
255.659	192.5
255.892	204.5
256.124	184.5
256.357	187.5
256.59	195.5
256.823	185.5
257.056	185.5
257.289	180.5
257.521	188.5
257.754	203.5
257.987	197.5
258.22	187.5
258.452	207.5
258.685	202.5
258.918	199.5
259.151	204.5
259.383	209.5
259.616	220.5
259.849	214.5
260.081	252.5
260.314	249.5
260.547	234.5
260.779	207.5
261.012	233.5
261.244	222.5
261.477	229.5
261.71	239.5
261.942	251.5
262.175	259.5
262.407	215.5
262.64	209.5
262.872	202.5
263.105	213.5
263.337	225.5
263.57	190.5
263.802	213.5
264.035	217.5
264.267	204.5
264.499	196.5
264.732	203.5
264.964	222.5
265.197	205.5
265.429	224.5
265.661	208.5
265.894	203.5
266.126	222.5
266.358	223.5
266.591	211.5
266.823	227.5
267.055	226.5
267.287	222.5
267.52	223.5
267.752	210.5
267.984	227.5
268.216	239.5
268.448	238.5
268.681	235.5
268.913	246.5
269.145	278.5
269.377	261.5
269.609	267.5
269.841	260.5
270.073	297.5
270.306	323.5
270.538	303.5
270.77	280.5
271.002	285.5
271.234	291.5
271.466	302.5
271.698	307.5
271.93	315.5
272.162	304.5
272.394	299.5
272.626	271.5
272.858	239.5
273.09	269.5
273.322	255.5
273.553	247.5
273.785	272.5
274.017	273.5
274.249	257.5
274.481	274.5
274.713	274.5
274.945	274.5
275.176	272.5
275.408	268.5
275.64	261.5
275.872	269.5
276.104	267.5
276.335	292.5
276.567	322.5
276.799	333.5
277.031	331.5
277.262	327.5
277.494	327.5
277.726	296.5
277.957	284.5
278.189	264.5
278.421	275.5
278.652	273.5
278.884	279.5
279.115	259.5
279.347	287.5
279.579	273.5
279.81	267.5
280.042	265.5
280.273	286.5
280.505	296.5
280.736	269.5
280.968	286.5
281.199	289.5
281.431	295.5
281.662	288.5
281.894	286.5
282.125	318.5
282.356	367.5
282.588	382.5
282.819	340.5
283.051	300.5
283.282	290.5
283.513	297.5
283.745	303.5
283.976	295.5
284.207	298.5
284.439	291.5
284.67	295.5
284.901	302.5
285.132	286.5
285.364	295.5
285.595	293.5
285.826	303.5
286.057	308.5
286.288	306.5
286.52	317.5
286.751	327.5
286.982	296.5
287.213	304.5
287.444	314.5
287.675	335.5
287.906	341.5
288.138	329.5
288.369	330.5
288.6	334.5
288.831	317.5
289.062	317.5
289.293	333.5
289.524	350.5
289.755	317.5
289.986	311.5
290.217	311.5
290.448	314.5
290.679	314.5
290.91	309.5
291.141	313.5
291.371	321.5
291.602	341.5
291.833	320.5
292.064	342.5
292.295	329.5
292.526	334.5
292.757	352.5
292.987	331.5
293.218	352.5
293.449	311.5
293.68	338.5
293.91	332.5
294.141	340.5
294.372	325.5
294.603	351.5
294.833	333.5
295.064	333.5
295.295	342.5
295.525	340.5
295.756	358.5
295.987	394.5
296.217	418.5
296.448	398.5
296.679	349.5
296.909	352.5
297.14	349.5
297.37	349.5
297.601	357.5
297.831	356.5
298.062	351.5
298.292	349.5
298.523	351.5
298.753	367.5
298.984	366.5
299.214	364.5
299.445	375.5
299.675	381.5
299.905	385.5
300.136	376.5
300.366	375.5
300.597	382.5
300.827	414.5
301.057	412.5
301.288	406.5
301.518	399.5
301.748	390.5
301.979	426.5
302.209	392.5
302.439	413.5
302.669	388.5
302.9	403.5
303.13	383.5
303.36	397.5
303.59	411.5
303.82	423.5
304.051	395.5
304.281	375.5
304.511	389.5
304.741	392.5
304.971	398.5
305.201	388.5
305.431	387.5
305.661	397.5
305.891	398.5
306.121	427.5
306.352	425.5
306.582	391.5
306.812	406.5
307.042	377.5
307.272	383.5
307.502	385.5
307.731	376.5
307.961	373.5
308.191	376.5
308.421	390.5
308.651	409.5
308.881	424.5
309.111	405.5
309.341	437.5
309.571	437.5
309.8	466.5
310.03	449.5
310.26	474.5
310.49	497.5
310.72	511.5
310.949	515.5
311.179	495.5
311.409	471.5
311.639	468.5
311.868	479.5
312.098	459.5
312.328	483.5
312.557	547.5
312.787	525.5
313.017	497.5
313.246	457.5
313.476	453.5
313.706	475.5
313.935	492.5
314.165	533.5
314.394	505.5
314.624	487.5
314.853	472.5
315.083	454.5
315.312	463.5
315.542	452.5
315.771	459.5
316.001	478.5
316.23	459.5
316.46	461.5
316.689	460.5
316.919	473.5
317.148	483.5
317.377	495.5
317.607	465.5
317.836	471.5
318.065	449.5
318.295	464.5
318.524	436.5
318.753	451.5
318.983	467.5
319.212	454.5
319.441	473.5
319.67	479.5
319.9	449.5
320.129	444.5
320.358	488.5
320.587	489.5
320.816	503.5
321.046	492.5
321.275	506.5
321.504	482.5
321.733	527.5
321.962	530.5
322.191	554.5
322.42	583.5
322.649	623.5
322.878	610.5
323.108	651.5
323.337	703.5
323.566	753.5
323.795	845.5
324.024	1123.5
324.253	1947.5
324.482	3427.5
324.71	5053.5
324.939	4440.5
325.168	1959.5
325.397	912.5
325.626	722.5
325.855	649.5
326.084	663.5
326.313	704.5
326.542	774.5
326.77	1108.5
326.999	1840.5
327.228	2932.5
327.457	3775.5
327.686	2428.5
327.914	1132.5
328.143	870.5
328.372	806.5
328.6	785.5
328.829	832.5
329.058	851.5
329.287	784.5
329.515	692.5
329.744	614.5
329.972	631.5
330.201	676.5
330.43	781.5
330.658	903.5
330.887	916.5
331.115	749.5
331.344	687.5
331.572	664.5
331.801	668.5
332.03	615.5
332.258	632.5
332.486	598.5
332.715	633.5
332.943	644.5
333.172	643.5
333.4	662.5
333.629	679.5
333.857	705.5
334.085	641.5
334.314	628.5
334.542	635.5
334.771	651.5
334.999	644.5
335.227	637.5
335.455	617.5
335.684	617.5
335.912	608.5
336.14	625.5
336.369	625.5
336.597	623.5
336.825	596.5
337.053	599.5
337.281	589.5
337.51	582.5
337.738	592.5
337.966	597.5
338.194	613.5
338.422	608.5
338.65	569.5
338.878	596.5
339.106	567.5
339.334	565.5
339.562	587.5
339.79	578.5
340.018	571.5
340.246	589.5
340.474	601.5
340.702	570.5
340.93	555.5
341.158	568.5
341.386	589.5
341.614	591.5
341.842	580.5
342.07	584.5
342.298	569.5
342.526	543.5
342.754	549.5
342.981	552.5
343.209	537.5
343.437	605.5
343.665	638.5
343.893	658.5
344.12	598.5
344.348	607.5
344.576	600.5
344.804	643.5
345.031	639.5
345.259	622.5
345.487	612.5
345.714	569.5
345.942	553.5
346.17	539.5
346.397	548.5
346.625	560.5
346.853	561.5
347.08	542.5
347.308	597.5
347.535	599.5
347.763	611.5
347.99	577.5
348.218	587.5
348.445	604.5
348.673	575.5
348.9	566.5
349.128	549.5
349.355	543.5
349.583	533.5
349.81	549.5
350.037	541.5
350.265	536.5
350.492	543.5
350.72	573.5
350.947	556.5
351.174	596.5
351.402	594.5
351.629	567.5
351.856	631.5
352.083	613.5
352.311	637.5
352.538	640.5
352.765	606.5
352.992	585.5
353.22	577.5
353.447	563.5
353.674	554.5
353.901	514.5
354.128	531.5
354.355	518.5
354.583	520.5
354.81	515.5
355.037	526.5
355.264	503.5
355.491	505.5
355.718	508.5
355.945	511.5
356.172	514.5
356.399	519.5
356.626	534.5
356.853	515.5
357.08	493.5
357.307	496.5
357.534	529.5
357.761	523.5
357.988	525.5
358.215	518.5
358.441	523.5
358.668	529.5
358.895	551.5
359.122	557.5
359.349	577.5
359.576	634.5
359.802	716.5
360.029	727.5
360.256	704.5
360.483	633.5
360.709	588.5
360.936	565.5
361.163	601.5
361.39	609.5
361.616	591.5
361.843	582.5
362.07	624.5
362.296	591.5
362.523	570.5
362.749	560.5
362.976	567.5
363.203	555.5
363.429	547.5
363.656	553.5
363.882	544.5
364.109	553.5
364.335	539.5
364.562	552.5
364.788	542.5
365.015	566.5
365.241	562.5
365.468	583.5
365.694	589.5
365.92	603.5
366.147	560.5
366.373	546.5
366.599	557.5
366.826	555.5
367.052	542.5
367.278	556.5
367.505	549.5
367.731	545.5
367.957	561.5
368.184	569.5
368.41	615.5
368.636	584.5
368.862	579.5
369.089	579.5
369.315	572.5
369.541	580.5
369.767	580.5
369.993	559.5
370.219	563.5
370.445	551.5
370.672	556.5
370.898	584.5
371.124	563.5
371.35	593.5
371.576	581.5
371.802	573.5
372.028	565.5
372.254	580.5
372.48	584.5
372.706	570.5
372.932	575.5
373.158	584.5
373.384	559.5
373.61	568.5
373.835	579.5
374.061	575.5
374.287	576.5
374.513	603.5
374.739	611.5
374.965	613.5
375.191	587.5
375.416	613.5
375.642	589.5
375.868	590.5
376.094	561.5
376.319	550.5
376.545	563.5
376.771	574.5
376.997	565.5
377.222	567.5
377.448	574.5
377.674	561.5
377.899	559.5
378.125	555.5
378.35	541.5
378.576	580.5
378.802	561.5
379.027	575.5
379.253	588.5
379.478	569.5
379.704	573.5
379.929	585.5
380.155	590.5
380.38	554.5
380.606	574.5
380.831	563.5
381.057	583.5
381.282	582.5
381.507	595.5
381.733	605.5
381.958	581.5
382.184	597.5
382.409	578.5
382.634	590.5
382.86	612.5
383.085	589.5
383.31	609.5
383.535	625.5
383.761	613.5
383.986	639.5
384.211	643.5
384.436	630.5
384.662	632.5
384.887	636.5
385.112	648.5
385.337	638.5
385.562	643.5
385.787	676.5
386.013	699.5
386.238	717.5
386.463	695.5
386.688	671.5
386.913	644.5
387.138	651.5
387.363	671.5
387.588	677.5
387.813	652.5
388.038	645.5
388.263	660.5
388.488	648.5
388.713	643.5
388.938	659.5
389.163	667.5
389.387	652.5
389.612	656.5
389.837	650.5
390.062	669.5
390.287	638.5
390.512	658.5
390.736	644.5
390.961	668.5
391.186	680.5
391.411	694.5
391.636	711.5
391.86	739.5
392.085	708.5
392.31	713.5
392.534	687.5
392.759	696.5
392.984	679.5
393.208	685.5
393.433	688.5
393.658	679.5
393.882	667.5
394.107	652.5
394.331	682.5
394.556	719.5
394.78	691.5
395.005	709.5
395.229	697.5
395.454	728.5
395.678	729.5
395.903	731.5
396.127	733.5
396.352	718.5
396.576	694.5
396.801	708.5
397.025	712.5
397.249	720.5
397.474	739.5
397.698	745.5
397.922	783.5
398.147	770.5
398.371	765.5
398.595	799.5
398.82	840.5
399.044	882.5
399.268	968.5
399.492	1079.5
399.717	1080.5
399.941	1054.5
400.165	1003.5
400.389	953.5
400.613	877.5
400.837	834.5
401.062	818.5
401.286	832.5
401.51	804.5
401.734	820.5
401.958	852.5
402.182	893.5
402.406	920.5
402.63	887.5
402.854	877.5
403.078	884.5
403.302	904.5
403.526	901.5
403.75	913.5
403.974	896.5
404.198	905.5
404.422	917.5
404.645	891.5
404.869	881.5
405.093	923.5
405.317	942.5
405.541	927.5
405.765	902.5
405.988	959.5
406.212	1032.5
406.436	1100.5
406.66	1015.5
406.883	982.5
407.107	1030.5
407.331	1109.5
407.555	1152.5
407.778	1079.5
408.002	1018.5
408.226	939.5
408.449	931.5
408.673	956.5
408.896	935.5
409.12	961.5
409.344	903.5
409.567	839.5
409.791	843.5
410.014	878.5
410.238	856.5
410.461	852.5
410.685	887.5
410.908	890.5
411.132	904.5
411.355	888.5
411.578	869.5
411.802	840.5
412.025	819.5
412.249	834.5
412.472	824.5
412.695	780.5
412.919	815.5
413.142	795.5
413.365	777.5
413.589	814.5
413.812	778.5
414.035	779.5
414.258	796.5
414.482	807.5
414.705	811.5
414.928	811.5
415.151	772.5
415.374	792.5
415.597	790.5
415.821	781.5
416.044	779.5
416.267	774.5
416.49	774.5
416.713	776.5
416.936	797.5
417.159	801.5
417.382	772.5
417.605	792.5
417.828	828.5
418.051	833.5
418.274	838.5
418.497	786.5
418.72	795.5
418.943	789.5
419.166	829.5
419.389	843.5
419.611	858.5
419.834	823.5
420.057	811.5
420.28	817.5
420.503	763.5
420.726	804.5
420.948	849.5
421.171	873.5
421.394	861.5
421.617	809.5
421.839	802.5
422.062	811.5
422.285	869.5
422.507	936.5
422.73	947.5
422.953	887.5
423.175	841.5
423.398	871.5
423.621	831.5
423.843	901.5
424.066	889.5
424.288	859.5
424.511	939.5
424.733	1006.5
424.956	1029.5
425.178	1014.5
425.401	1004.5
425.623	940.5
425.846	824.5
426.068	841.5
426.291	795.5
426.513	823.5
426.735	859.5
426.958	931.5
427.18	1069.5
427.402	1244.5
427.625	1276.5
427.847	984.5
428.069	883.5
428.292	779.5
428.514	753.5
428.736	723.5
428.958	743.5
429.181	735.5
429.403	734.5
429.625	811.5
429.847	831.5
430.069	871.5
430.292	787.5
430.514	716.5
430.736	720.5
430.958	700.5
431.18	714.5
431.402	720.5
431.624	706.5
431.846	702.5
432.068	731.5
432.29	736.5
432.512	713.5
432.734	735.5
432.956	728.5
433.178	755.5
433.4	751.5
433.622	744.5
433.844	723.5
434.066	724.5
434.287	748.5
434.509	774.5
434.731	800.5
434.953	800.5
435.175	836.5
435.397	803.5
435.618	848.5
435.84	949.5
436.062	1031.5
436.284	991.5
436.505	818.5
436.727	790.5
436.949	750.5
437.17	735.5
437.392	753.5
437.614	817.5
437.835	941.5
438.057	1048.5
438.278	1059.5
438.5	1048.5
438.721	1104.5
438.943	931.5
439.165	840.5
439.386	815.5
439.608	839.5
439.829	886.5
440.05	961.5
440.272	1005.5
440.493	841.5
440.715	807.5
440.936	801.5
441.158	815.5
441.379	812.5
441.6	848.5
441.822	897.5
442.043	984.5
442.264	1054.5
442.486	958.5
442.707	855.5
442.928	888.5
443.149	966.5
443.371	1005.5
443.592	1053.5
443.813	1103.5
444.034	1071.5
444.255	920.5
444.476	904.5
444.698	929.5
444.919	920.5
445.14	942.5
445.361	933.5
445.582	1042.5
445.803	1175.5
446.024	1231.5
446.245	1142.5
446.466	1001.5
446.687	814.5
446.908	788.5
447.129	767.5
447.35	739.5
447.571	744.5
447.792	709.5
448.013	753.5
448.234	825.5
448.455	951.5
448.675	1027.5
448.896	1026.5
449.117	889.5
449.338	973.5
449.559	1122.5
449.779	1044.5
450	815.5
450.221	746.5
450.442	733.5
450.662	739.5
450.883	805.5
451.104	809.5
451.324	750.5
451.545	711.5
451.766	681.5
451.986	673.5
452.207	682.5
452.428	660.5
452.648	714.5
452.869	709.5
453.089	708.5
453.31	718.5
453.53	663.5
453.751	690.5
453.971	747.5
454.192	759.5
454.412	678.5
454.633	660.5
454.853	666.5
455.073	673.5
455.294	745.5
455.514	799.5
455.734	695.5
455.955	628.5
456.175	617.5
456.395	642.5
456.616	609.5
456.836	604.5
457.056	601.5
457.276	590.5
457.497	624.5
457.717	621.5
457.937	644.5
458.157	641.5
458.377	688.5
458.598	801.5
458.818	963.5
459.038	1029.5
459.258	877.5
459.478	808.5
459.698	747.5
459.918	742.5
460.138	768.5
460.358	767.5
460.578	779.5
460.798	790.5
461.018	784.5
461.238	770.5
461.458	780.5
461.678	769.5
461.898	784.5
462.118	793.5
462.338	816.5
462.558	816.5
462.777	863.5
462.997	928.5
463.217	916.5
463.437	916.5
463.657	871.5
463.876	875.5
464.096	886.5
464.316	904.5
464.536	892.5
464.755	900.5
464.975	974.5
465.195	1200.5
465.414	1078.5
465.634	843.5
465.854	771.5
466.073	713.5
466.293	731.5
466.512	698.5
466.732	698.5
466.951	707.5
467.171	689.5
467.391	713.5
467.61	749.5
467.829	715.5
468.049	677.5
468.268	654.5
468.488	649.5
468.707	658.5
468.927	683.5
469.146	664.5
469.365	667.5
469.585	700.5
469.804	692.5
470.023	753.5
470.243	746.5
470.462	791.5
470.681	814.5
470.901	756.5
471.12	695.5
471.339	701.5
471.558	683.5
471.777	707.5
471.997	660.5
472.216	660.5
472.435	631.5
472.654	673.5
472.873	646.5
473.092	651.5
473.311	646.5
473.53	677.5
473.749	690.5
473.968	807.5
474.187	889.5
474.406	766.5
474.625	715.5
474.844	656.5
475.063	681.5
475.282	649.5
475.501	653.5
475.72	669.5
475.939	679.5
476.158	703.5
476.377	700.5
476.596	687.5
476.814	711.5
477.033	732.5
477.252	707.5
477.471	695.5
477.69	761.5
477.908	742.5
478.127	758.5
478.346	768.5
478.564	782.5
478.783	811.5
479.002	811.5
479.22	836.5
479.439	886.5
479.658	852.5
479.876	865.5
480.095	870.5
480.313	898.5
480.532	849.5
480.751	825.5
480.969	823.5
481.188	821.5
481.406	787.5
481.624	764.5
481.843	759.5
482.061	751.5
482.28	776.5
482.498	758.5
482.717	744.5
482.935	780.5
483.153	763.5
483.372	755.5
483.59	754.5
483.808	770.5
484.027	756.5
484.245	778.5
484.463	783.5
484.681	800.5
484.9	806.5
485.118	790.5
485.336	758.5
485.554	776.5
485.772	817.5
485.99	809.5
486.209	819.5
486.427	839.5
486.645	848.5
486.863	869.5
487.081	852.5
487.299	842.5
487.517	839.5
487.735	824.5
487.953	834.5
488.171	824.5
488.389	820.5
488.607	809.5
488.825	811.5
489.043	804.5
489.261	803.5
489.479	803.5
489.696	823.5
489.914	804.5
490.132	838.5
490.35	849.5
490.568	864.5
490.786	880.5
491.003	900.5
491.221	916.5
491.439	942.5
491.657	959.5
491.874	958.5
492.092	968.5
492.31	970.5
492.527	971.5
492.745	953.5
492.963	980.5
493.18	969.5
493.398	1002.5
493.615	985.5
493.833	998.5
494.05	987.5
494.268	968.5
494.485	971.5
494.703	954.5
494.92	971.5
495.138	954.5
495.355	997.5
495.573	995.5
495.79	958.5
496.008	966.5
496.225	959.5
496.442	959.5
496.66	980.5
496.877	989.5
497.094	999.5
497.312	1001.5
497.529	1033.5
497.746	1042.5
497.963	1062.5
498.181	1106.5
498.398	1155.5
498.615	1161.5
498.832	1253.5
499.049	1246.5
499.267	1315.5
499.484	1424.5
499.701	1520.5
499.918	1663.5
500.135	1803.5
500.352	1909.5
500.569	1919.5
500.786	1830.5
501.003	1749.5
501.22	1583.5
501.437	1508.5
501.654	1470.5
501.871	1407.5
502.088	1288.5
502.305	1246.5
502.522	1171.5
502.739	1123.5
502.956	1095.5
503.172	1049.5
503.389	1047.5
503.606	1080.5
503.823	1051.5
504.04	1024.5
504.256	1015.5
504.473	1022.5
504.69	1023.5
504.907	997.5
505.123	958.5
505.34	957.5
505.557	912.5
505.773	945.5
505.99	916.5
506.207	888.5
506.423	901.5
506.64	880.5
506.856	846.5
507.073	868.5
507.289	912.5
507.506	898.5
507.722	935.5
507.939	934.5
508.155	873.5
508.372	838.5
508.588	823.5
508.805	841.5
509.021	890.5
509.238	850.5
509.454	816.5
509.67	826.5
509.887	806.5
510.103	861.5
510.319	971.5
510.536	1671.5
510.752	2787.5
510.968	1196.5
511.184	831.5
511.401	785.5
511.617	801.5
511.833	783.5
512.049	767.5
512.265	807.5
512.481	758.5
512.698	765.5
512.914	799.5
513.13	771.5
513.346	775.5
513.562	772.5
513.778	820.5
513.994	816.5
514.21	880.5
514.426	954.5
514.642	1030.5
514.858	1072.5
515.074	1293.5
515.29	2173.5
515.506	3200.5
515.721	1608.5
515.937	1084.5
516.153	941.5
516.369	889.5
516.585	873.5
516.801	895.5
517.016	894.5
517.232	917.5
517.448	953.5
517.664	962.5
517.879	939.5
518.095	911.5
518.311	906.5
518.527	881.5
518.742	890.5
518.958	860.5
519.173	831.5
