Data from TestCu_HRD10591_00104.txt Node
Date: Thu Oct 05 14:06:24 EDT 2023
User: Yrep
Spectrometer: HR+D1059
Trigger mode: 1
Integration Time (sec): 1.000000E-1
Scans to average: 1
Electric dark correction enabled: true
Nonlinearity correction enabled: false
Boxcar width: 0
XAxis mode: Wavelengths
Number of Pixels in Spectrum: 2048
>>>>>Begin Spectral Data<<<<<
223.165	-28
223.4	-28
223.635	-28
223.869	-16
224.104	-25
224.338	-29
224.573	-9
224.808	-11
225.042	-7
225.277	0
225.511	3
225.746	4
225.98	12
226.215	19
226.449	4
226.683	22
226.918	25
227.152	36
227.387	21
227.621	32
227.856	52
228.09	41
228.324	47
228.559	49
228.793	74
229.027	96
229.262	127
229.496	133
229.73	155
229.964	163
230.199	105
230.433	103
230.667	116
230.901	108
231.136	121
231.37	110
231.604	111
231.838	109
232.072	101
232.306	101
232.541	104
232.775	102
233.009	103
233.243	106
233.477	112
233.711	121
233.945	103
234.179	117
234.413	118
234.647	125
234.881	112
235.115	109
235.349	122
235.583	118
235.817	112
236.051	112
236.285	120
236.519	125
236.753	147
236.987	166
237.221	243
237.455	232
237.689	154
237.922	120
238.156	136
238.39	118
238.624	115
238.858	120
239.091	128
239.325	125
239.559	149
239.793	141
240.027	148
240.26	158
240.494	168
240.728	143
240.961	146
241.195	124
241.429	135
241.662	131
241.896	125
242.13	131
242.363	115
242.597	132
242.83	143
243.064	125
243.298	121
243.531	134
243.765	129
243.998	132
244.232	138
244.465	141
244.699	134
244.932	131
245.166	133
245.399	136
245.633	138
245.866	136
246.099	141
246.333	129
246.566	144
246.8	146
247.033	143
247.266	166
247.5	146
247.733	173
247.966	142
248.2	162
248.433	157
248.666	186
248.899	192
249.133	187
249.366	215
249.599	196
249.832	170
250.066	178
250.299	169
250.532	171
250.765	203
250.998	222
251.231	195
251.465	197
251.698	178
251.931	177
252.164	172
252.397	169
252.63	192
252.863	211
253.096	231
253.329	207
253.562	207
253.795	203
254.028	207
254.261	221
254.494	243
254.727	276
254.96	251
255.193	225
255.426	213
255.659	181
255.892	204
256.124	193
256.357	183
256.59	191
256.823	181
257.056	191
257.289	192
257.521	202
257.754	176
257.987	189
258.22	225
258.452	199
258.685	212
258.918	207
259.151	208
259.383	193
259.616	220
259.849	217
260.081	231
260.314	263
260.547	239
260.779	196
261.012	212
261.244	200
261.477	225
261.71	237
261.942	254
262.175	259
262.407	223
262.64	222
262.872	204
263.105	199
263.337	213
263.57	218
263.802	213
264.035	202
264.267	199
264.499	203
264.732	209
264.964	187
265.197	217
265.429	220
265.661	228
265.894	225
266.126	222
266.358	234
266.591	226
266.823	245
267.055	222
267.287	232
267.52	228
267.752	221
267.984	234
268.216	248
268.448	239
268.681	261
268.913	279
269.145	296
269.377	286
269.609	259
269.841	273
270.073	300
270.306	329
270.538	317
270.77	295
271.002	301
271.234	287
271.466	305
271.698	336
271.93	317
272.162	321
272.394	309
272.626	272
272.858	270
273.09	264
273.322	255
273.553	250
273.785	269
274.017	263
274.249	278
274.481	279
274.713	260
274.945	274
275.176	251
275.408	268
275.64	290
275.872	268
276.104	279
276.335	275
276.567	321
276.799	371
277.031	363
277.262	350
277.494	297
277.726	288
277.957	274
278.189	280
278.421	269
278.652	286
278.884	279
279.115	271
279.347	275
279.579	266
279.81	296
280.042	289
280.273	299
280.505	283
280.736	282
280.968	285
281.199	290
281.431	300
281.662	295
281.894	300
282.125	324
282.356	365
282.588	376
282.819	327
283.051	307
283.282	296
283.513	303
283.745	307
283.976	302
284.207	294
284.439	293
284.67	291
284.901	303
285.132	291
285.364	306
285.595	293
285.826	316
286.057	301
286.288	302
286.52	308
286.751	310
286.982	337
287.213	319
287.444	325
287.675	316
287.906	343
288.138	365
288.369	337
288.6	338
288.831	325
289.062	331
289.293	334
289.524	336
289.755	323
289.986	312
290.217	328
290.448	321
290.679	327
290.91	324
291.141	345
291.371	325
291.602	325
291.833	339
292.064	325
292.295	315
292.526	342
292.757	323
292.987	324
293.218	318
293.449	339
293.68	345
293.91	337
294.141	341
294.372	349
294.603	349
294.833	338
295.064	344
295.295	341
295.525	352
295.756	371
295.987	397
296.217	424
296.448	398
296.679	353
296.909	354
297.14	339
297.37	372
297.601	365
297.831	360
298.062	360
298.292	365
298.523	373
298.753	374
298.984	376
299.214	393
299.445	390
299.675	369
299.905	400
300.136	378
300.366	356
300.597	388
300.827	401
301.057	407
301.288	418
301.518	407
301.748	388
301.979	407
302.209	413
302.439	401
302.669	388
302.9	419
303.13	421
303.36	423
303.59	432
303.82	395
304.051	403
304.281	403
304.511	400
304.741	395
304.971	405
305.201	378
305.431	401
305.661	391
305.891	393
306.121	393
306.352	399
306.582	408
306.812	395
307.042	413
307.272	418
307.502	392
307.731	393
307.961	402
308.191	395
308.421	391
308.651	408
308.881	432
309.111	403
309.341	449
309.571	461
309.8	483
310.03	488
310.26	476
310.49	480
310.72	539
310.949	533
311.179	498
311.409	475
311.639	465
311.868	500
312.098	498
312.328	516
312.557	577
312.787	557
313.017	516
313.246	491
313.476	487
313.706	507
313.935	515
314.165	573
314.394	538
314.624	518
314.853	505
315.083	458
315.312	473
315.542	462
315.771	454
316.001	471
316.23	479
316.46	461
316.689	479
316.919	502
317.148	517
317.377	488
317.607	497
317.836	465
318.065	457
318.295	459
318.524	467
318.753	477
318.983	481
319.212	480
319.441	526
319.67	504
319.9	469
320.129	482
320.358	491
320.587	495
320.816	512
321.046	502
321.275	508
321.504	518
321.733	522
321.962	532
322.191	557
322.42	605
322.649	642
322.878	625
323.108	672
323.337	719
323.566	781
323.795	896
324.024	1194
324.253	2057
324.482	3575
324.71	5288
324.939	4629
325.168	2016
325.397	973
325.626	756
325.855	709
326.084	691
326.313	746
326.542	847
326.77	1145
326.999	1909
327.228	3104
327.457	3887
327.686	2512
327.914	1199
328.143	930
328.372	839
328.6	799
328.829	850
329.058	891
329.287	812
329.515	697
329.744	650
329.972	622
330.201	689
330.43	831
330.658	959
330.887	945
331.115	786
331.344	697
331.572	682
331.801	684
332.03	692
332.258	664
332.486	602
332.715	607
332.943	646
333.172	652
333.4	666
333.629	698
333.857	706
334.085	654
334.314	640
334.542	644
334.771	645
334.999	664
335.227	633
335.455	638
335.684	610
335.912	619
336.14	629
336.369	635
336.597	653
336.825	648
337.053	601
337.281	617
337.51	608
337.738	638
337.966	621
338.194	651
338.422	609
338.65	599
338.878	596
339.106	596
339.334	594
339.562	560
339.79	562
340.018	595
340.246	588
340.474	594
340.702	596
340.93	598
341.158	603
341.386	601
341.614	619
341.842	590
342.07	570
342.298	588
342.526	581
342.754	552
342.981	557
343.209	578
343.437	592
343.665	646
343.893	625
344.12	622
344.348	624
344.576	633
344.804	651
345.031	679
345.259	623
345.487	624
345.714	609
345.942	577
346.17	579
346.397	574
346.625	594
346.853	566
347.08	577
347.308	580
347.535	624
347.763	612
347.99	627
348.218	633
348.445	647
348.673	607
348.9	589
349.128	548
349.355	551
349.583	537
349.81	569
350.037	553
350.265	555
350.492	537
350.72	560
350.947	604
351.174	630
351.402	610
351.629	589
351.856	619
352.083	639
352.311	640
352.538	631
352.765	621
352.992	625
353.22	602
353.447	619
353.674	557
353.901	537
354.128	550
354.355	551
354.583	521
354.81	537
355.037	514
355.264	519
355.491	537
355.718	516
355.945	519
356.172	544
356.399	511
356.626	543
356.853	566
357.08	520
357.307	537
357.534	537
357.761	535
357.988	531
358.215	551
358.441	550
358.668	559
358.895	556
359.122	572
359.349	612
359.576	670
359.802	736
360.029	751
360.256	715
360.483	644
360.709	608
360.936	565
361.163	620
361.39	606
361.616	581
361.843	625
362.07	635
362.296	642
362.523	602
362.749	591
362.976	581
363.203	534
363.429	567
363.656	553
363.882	574
364.109	579
364.335	566
364.562	577
364.788	574
365.015	573
365.241	576
365.468	608
365.694	607
365.92	594
366.147	559
366.373	554
366.599	585
366.826	575
367.052	550
367.278	549
367.505	567
367.731	571
367.957	570
368.184	583
368.41	617
368.636	640
368.862	593
369.089	571
369.315	570
369.541	587
369.767	580
369.993	581
370.219	565
370.445	561
370.672	571
370.898	563
371.124	573
371.35	561
371.576	565
371.802	571
372.028	556
372.254	585
372.48	569
372.706	600
372.932	603
373.158	573
373.384	607
373.61	625
373.835	600
374.061	598
374.287	613
374.513	617
374.739	626
374.965	610
375.191	616
375.416	587
375.642	583
375.868	595
376.094	579
376.319	586
376.545	603
376.771	591
376.997	569
377.222	583
377.448	574
377.674	551
377.899	571
378.125	579
378.35	561
378.576	578
378.802	568
379.027	570
379.253	577
379.478	574
379.704	579
379.929	588
380.155	603
380.38	589
380.606	586
380.831	577
381.057	611
381.282	607
381.507	610
381.733	568
381.958	601
382.184	604
382.409	591
382.634	593
382.86	607
383.085	584
383.31	604
383.535	628
383.761	643
383.986	609
384.211	654
384.436	671
384.662	700
384.887	663
385.112	671
385.337	684
385.562	690
385.787	687
386.013	717
386.238	730
386.463	700
386.688	693
386.913	674
387.138	654
387.363	659
387.588	643
387.813	649
388.038	682
388.263	684
388.488	676
388.713	689
388.938	683
389.163	656
389.387	644
389.612	664
389.837	671
390.062	663
390.287	666
390.512	684
390.736	701
390.961	678
391.186	701
391.411	723
391.636	735
391.86	734
392.085	754
392.31	711
392.534	731
392.759	731
392.984	709
393.208	709
393.433	683
393.658	699
393.882	695
394.107	700
394.331	699
394.556	696
394.78	728
395.005	732
395.229	720
395.454	761
395.678	752
395.903	740
396.127	755
396.352	753
396.576	724
396.801	729
397.025	732
397.249	729
397.474	778
397.698	744
397.922	784
398.147	792
398.371	821
398.595	802
398.82	868
399.044	923
399.268	1021
399.492	1135
399.717	1119
399.941	1063
400.165	1043
400.389	971
400.613	920
400.837	848
401.062	831
401.286	855
401.51	849
401.734	853
401.958	865
402.182	935
402.406	948
402.63	922
402.854	913
403.078	906
403.302	911
403.526	937
403.75	908
403.974	907
404.198	901
404.422	958
404.645	932
404.869	939
405.093	948
405.317	937
405.541	957
405.765	959
405.988	959
406.212	1069
406.436	1062
406.66	1075
406.883	1027
407.107	1077
407.331	1127
407.555	1151
407.778	1087
408.002	1015
408.226	941
408.449	959
408.673	955
408.896	998
409.12	959
409.344	919
409.567	867
409.791	897
410.014	863
410.238	876
410.461	890
410.685	885
410.908	917
411.132	926
411.355	923
411.578	884
411.802	857
412.025	859
412.249	847
412.472	838
412.695	822
412.919	811
413.142	812
413.365	801
413.589	817
413.812	796
414.035	809
414.258	810
414.482	800
414.705	839
414.928	779
415.151	784
415.374	808
415.597	799
415.821	798
416.044	793
416.267	827
416.49	794
416.713	796
416.936	803
417.159	814
417.382	804
417.605	814
417.828	834
418.051	830
418.274	817
418.497	807
418.72	824
418.943	811
419.166	850
419.389	866
419.611	843
419.834	845
420.057	832
420.28	809
420.503	780
420.726	817
420.948	832
421.171	903
421.394	859
421.617	840
421.839	827
422.062	869
422.285	893
422.507	976
422.73	979
422.953	955
423.175	866
423.398	871
423.621	887
423.843	884
424.066	899
424.288	903
424.511	969
424.733	1014
424.956	1066
425.178	1008
425.401	999
425.623	975
425.846	843
426.068	857
426.291	857
426.513	849
426.735	865
426.958	980
427.18	1136
427.402	1278
427.625	1314
427.847	1031
428.069	871
428.292	825
428.514	782
428.736	753
428.958	746
429.181	750
429.403	730
429.625	820
429.847	845
430.069	877
430.292	805
430.514	752
430.736	740
430.958	751
431.18	730
431.402	742
431.624	739
431.846	739
432.068	707
432.29	712
432.512	738
432.734	753
432.956	769
433.178	766
433.4	765
433.622	733
433.844	763
434.066	741
434.287	757
434.509	779
434.731	802
434.953	815
435.175	835
435.397	834
435.618	855
435.84	995
436.062	1060
436.284	1015
436.505	866
436.727	836
436.949	781
437.17	735
437.392	768
437.614	833
437.835	979
438.057	1059
438.278	1112
438.5	1107
438.721	1146
438.943	972
439.165	849
439.386	832
439.608	846
439.829	885
440.05	975
440.272	1000
440.493	855
440.715	815
440.936	806
441.158	846
441.379	839
441.6	900
441.822	911
442.043	970
442.264	1041
442.486	1019
442.707	891
442.928	893
443.149	1018
443.371	1044
443.592	1101
443.813	1138
444.034	1097
444.255	943
444.476	921
444.698	967
444.919	958
445.14	980
445.361	975
445.582	1100
445.803	1220
446.024	1239
446.245	1163
446.466	986
446.687	830
446.908	811
447.129	784
447.35	735
447.571	765
447.792	751
448.013	780
448.234	819
448.455	948
448.675	1068
448.896	1097
449.117	913
449.338	1044
449.559	1179
449.779	1115
450	880
450.221	787
450.442	780
450.662	776
450.883	829
451.104	861
451.324	770
451.545	711
451.766	704
451.986	694
452.207	697
452.428	678
452.648	706
452.869	747
453.089	704
453.31	721
453.53	712
453.751	693
453.971	767
454.192	780
454.412	692
454.633	684
454.853	648
455.073	686
455.294	777
455.514	778
455.734	727
455.955	626
456.175	623
456.395	636
456.616	619
456.836	631
457.056	624
457.276	635
457.497	625
457.717	611
457.937	646
458.157	669
458.377	713
458.598	832
458.818	1031
459.038	1091
459.258	896
459.478	795
459.698	767
459.918	776
460.138	783
460.358	806
460.578	801
460.798	803
461.018	823
461.238	775
461.458	811
461.678	789
461.898	816
462.118	824
462.338	861
462.558	861
462.777	904
462.997	964
463.217	947
463.437	946
463.657	909
463.876	906
464.096	883
464.316	933
464.536	937
464.755	902
464.975	952
465.195	1236
465.414	1129
465.634	883
465.854	788
466.073	752
466.293	737
466.512	706
466.732	701
466.951	698
467.171	723
467.391	755
467.61	788
467.829	743
468.049	685
468.268	673
468.488	679
468.707	677
468.927	670
469.146	670
469.365	695
469.585	715
469.804	753
470.023	778
470.243	770
470.462	808
470.681	800
470.901	761
471.12	719
471.339	684
471.558	701
471.777	680
471.997	685
472.216	671
472.435	649
472.654	639
472.873	627
473.092	673
473.311	660
473.53	676
473.749	695
473.968	834
474.187	942
474.406	808
474.625	710
474.844	700
475.063	680
475.282	673
475.501	700
475.72	713
475.939	693
476.158	694
476.377	689
476.596	707
476.814	748
477.033	764
477.252	740
477.471	744
477.69	757
477.908	729
478.127	749
478.346	782
478.564	768
478.783	804
479.002	845
479.22	812
479.439	891
479.658	889
479.876	893
480.095	903
480.313	905
480.532	885
480.751	869
480.969	860
481.188	839
481.406	807
481.624	813
481.843	804
482.061	803
482.28	789
482.498	755
482.717	769
482.935	786
483.153	789
483.372	793
483.59	769
483.808	780
484.027	773
484.245	815
484.463	810
484.681	844
484.9	813
485.118	796
485.336	816
485.554	835
485.772	830
485.99	833
486.209	849
486.427	845
486.645	881
486.863	903
487.081	862
487.299	866
487.517	839
487.735	823
487.953	873
488.171	869
488.389	867
488.607	847
488.825	827
489.043	847
489.261	854
489.479	839
489.696	845
489.914	849
490.132	865
490.35	884
490.568	867
490.786	916
491.003	949
491.221	971
491.439	960
491.657	978
491.874	977
492.092	983
492.31	971
492.527	967
492.745	975
492.963	1000
493.18	999
493.398	1029
493.615	999
493.833	1017
494.05	979
494.268	997
494.485	987
494.703	975
494.92	993
495.138	975
495.355	1004
495.573	1002
495.79	1032
496.008	1005
496.225	987
496.442	1007
496.66	997
496.877	1016
497.094	1021
497.312	1038
497.529	1028
497.746	1048
497.963	1087
498.181	1150
498.398	1159
498.615	1221
498.832	1249
499.049	1306
499.267	1359
499.484	1455
499.701	1565
499.918	1693
500.135	1852
500.352	1936
500.569	1920
500.786	1888
501.003	1793
501.22	1651
501.437	1581
501.654	1522
501.871	1423
502.088	1317
502.305	1254
502.522	1179
502.739	1153
502.956	1102
503.172	1073
503.389	1074
503.606	1072
503.823	1044
504.04	1019
504.256	1024
504.473	1064
504.69	1031
504.907	1009
505.123	982
505.34	966
505.557	947
505.773	921
505.99	895
506.207	933
506.423	926
506.64	905
506.856	883
507.073	900
507.289	919
507.506	897
507.722	980
507.939	975
508.155	908
508.372	855
508.588	865
508.805	844
509.021	901
509.238	878
509.454	877
509.67	868
509.887	868
510.103	899
510.319	1012
510.536	1754
510.752	2878
510.968	1283
511.184	883
511.401	814
511.617	822
511.833	779
512.049	778
512.265	786
512.481	794
512.698	783
512.914	809
513.13	799
513.346	798
513.562	796
513.778	820
513.994	869
514.21	903
514.426	1006
514.642	1086
514.858	1164
515.074	1344
515.29	2234
515.506	3311
515.721	1645
515.937	1092
516.153	1003
516.369	957
516.585	924
516.801	907
517.016	922
517.232	956
517.448	945
517.664	1009
517.879	985
518.095	976
518.311	955
518.527	915
518.742	907
518.958	881
519.173	849
519.389	863
519.605	849
519.82	874
520.036	933
520.251	976
520.467	981
520.682	976
520.898	989
521.113	1087
521.329	1292
521.544	1706
521.76	3022
521.975	5632
522.19	3070
522.406	1394
522.621	990
522.836	867
523.052	796
523.267	771
523.482	741
523.698	734
523.913	802
524.128	761
524.343	739
524.559	716
524.774	710
524.989	725
525.204	731
525.419	731
525.634	707
525.849	675
526.064	680
526.28	658
526.495	687
526.71	664
526.925	655
527.14	635
527.355	662
527.57	629
527.785	657
527.999	668
528.214	665
528.429	671
528.644	685
528.859	672
529.074	697
529.289	876
529.503	1035
529.718	826
529.933	718
530.148	690
530.363	660
530.577	641
530.792	663
531.007	642
531.221	635
531.436	617
531.651	635
531.865	660
532.08	637
532.295	636
532.509	643
532.724	631
532.938	664
533.153	655
533.367	660
533.582	624
533.796	631
534.011	640
534.225	653
534.44	619
534.654	630
534.868	639
535.083	639
535.297	627
535.511	680
535.726	675
535.94	651
536.154	643
536.369	635
536.583	587
536.797	625
537.011	607
537.225	596
537.44	611
537.654	590
537.868	619
538.082	618
538.296	614
538.51	611
538.724	598
538.938	616
539.153	625
539.367	697
539.581	644
539.795	586
540.009	576
540.222	583
540.436	613
540.65	611
540.864	634
541.078	628
541.292	627
541.506	613
541.72	605
541.934	630
542.147	608
542.361	596
542.575	596
542.789	602
543.002	593
543.216	601
543.43	635
543.644	606
543.857	619
544.071	614
544.285	597
544.498	607
544.712	612
544.925	602
545.139	605
545.352	633
545.566	623
545.779	605
545.993	610
546.206	591
546.42	616
546.633	617
546.847	609
547.06	600
547.274	627
547.487	616
547.7	627
547.914	608
548.127	630
548.34	593
548.554	612
548.767	601
548.98	601
549.193	588
549.407	627
549.62	608
549.833	606
550.046	604
550.259	619
550.473	613
550.686	594
550.899	595
551.112	562
551.325	594
551.538	560
551.751	576
551.964	563
552.177	579
552.39	605
552.603	599
552.816	630
553.029	639
553.242	661
553.455	672
553.667	709
553.88	679
554.093	644
554.306	644
554.519	608
554.732	611
554.944	594
555.157	577
555.37	578
555.583	571
555.795	569
556.008	561
556.221	555
556.433	535
556.646	513
556.859	536
557.071	526
557.284	547
557.496	519
557.709	514
557.921	514
558.134	507
558.346	546
558.559	533
558.771	507
558.984	503
559.196	521
559.409	500
559.621	495
559.833	508
560.046	493
560.258	479
560.47	485
560.683	525
560.895	504
561.107	499
561.32	517
561.532	498
561.744	484
561.956	497
562.168	521
562.381	510
562.593	505
