Data from TestCu_HRD10591_00036.txt Node
Date: Thu Oct 05 14:05:16 EDT 2023
User: Yrep
Spectrometer: HR+D1059
Trigger mode: 1
Integration Time (sec): 1.000000E-1
Scans to average: 1
Electric dark correction enabled: true
Nonlinearity correction enabled: false
Boxcar width: 0
XAxis mode: Wavelengths
Number of Pixels in Spectrum: 2048
>>>>>Begin Spectral Data<<<<<
223.165	-12.88
223.4	-12.88
223.635	-12.88
223.869	-18.88
224.104	-19.88
224.338	-12.88
224.573	-24.88
224.808	-17.88
225.042	7.12
225.277	-11.88
225.511	-11.88
225.746	-9.88
225.98	12.12
226.215	7.12
226.449	18.12
226.683	16.12
226.918	47.12
227.152	33.12
227.387	38.12
227.621	45.12
227.856	32.12
228.09	44.12
228.324	61.12
228.559	56.12
228.793	57.12
229.027	58.12
229.262	83.12
229.496	79.12
229.73	72.12
229.964	59.12
230.199	84.12
230.433	85.12
230.667	69.12
230.901	58.12
231.136	81.12
231.37	76.12
231.604	77.12
231.838	69.12
232.072	79.12
232.306	76.12
232.541	64.12
232.775	79.12
233.009	63.12
233.243	76.12
233.477	85.12
233.711	89.12
233.945	83.12
234.179	67.12
234.413	87.12
234.647	83.12
234.881	87.12
235.115	77.12
235.349	80.12
235.583	85.12
235.817	88.12
236.051	71.12
236.285	63.12
236.519	80.12
236.753	73.12
236.987	64.12
237.221	68.12
237.455	82.12
237.689	72.12
237.922	71.12
238.156	78.12
238.39	78.12
238.624	79.12
238.858	89.12
239.091	94.12
239.325	83.12
239.559	79.12
239.793	76.12
240.027	62.12
240.26	81.12
240.494	86.12
240.728	66.12
240.961	65.12
241.195	80.12
241.429	62.12
241.662	78.12
241.896	70.12
242.13	77.12
242.363	80.12
242.597	78.12
242.83	75.12
243.064	77.12
243.298	88.12
243.531	67.12
243.765	73.12
243.998	84.12
244.232	76.12
244.465	80.12
244.699	85.12
244.932	92.12
245.166	76.12
245.399	75.12
245.633	79.12
245.866	75.12
246.099	71.12
246.333	81.12
246.566	74.12
246.8	85.12
247.033	73.12
247.266	76.12
247.5	78.12
247.733	78.12
247.966	72.12
248.2	67.12
248.433	62.12
248.666	80.12
248.899	86.12
249.133	81.12
249.366	83.12
249.599	77.12
249.832	69.12
250.066	78.12
250.299	85.12
250.532	93.12
250.765	82.12
250.998	77.12
251.231	83.12
251.465	72.12
251.698	74.12
251.931	84.12
252.164	77.12
252.397	77.12
252.63	84.12
252.863	77.12
253.096	62.12
253.329	87.12
253.562	73.12
253.795	87.12
254.028	81.12
254.261	79.12
254.494	84.12
254.727	70.12
254.96	74.12
255.193	88.12
255.426	83.12
255.659	76.12
255.892	88.12
256.124	82.12
256.357	75.12
256.59	89.12
256.823	78.12
257.056	91.12
257.289	72.12
257.521	78.12
257.754	79.12
257.987	72.12
258.22	81.12
258.452	88.12
258.685	82.12
258.918	82.12
259.151	69.12
259.383	74.12
259.616	98.12
259.849	61.12
260.081	91.12
260.314	64.12
260.547	83.12
260.779	82.12
261.012	72.12
261.244	83.12
261.477	85.12
261.71	79.12
261.942	76.12
262.175	73.12
262.407	83.12
262.64	82.12
262.872	75.12
263.105	81.12
263.337	78.12
263.57	95.12
263.802	92.12
264.035	79.12
264.267	79.12
264.499	73.12
264.732	81.12
264.964	87.12
265.197	79.12
265.429	78.12
265.661	73.12
265.894	75.12
266.126	80.12
266.358	86.12
266.591	73.12
266.823	77.12
267.055	63.12
267.287	77.12
267.52	94.12
267.752	83.12
267.984	67.12
268.216	77.12
268.448	86.12
268.681	79.12
268.913	94.12
269.145	77.12
269.377	92.12
269.609	75.12
269.841	82.12
270.073	84.12
270.306	77.12
270.538	88.12
270.77	84.12
271.002	84.12
271.234	93.12
271.466	79.12
271.698	85.12
271.93	73.12
272.162	87.12
272.394	75.12
272.626	66.12
272.858	72.12
273.09	78.12
273.322	83.12
273.553	80.12
273.785	89.12
274.017	91.12
274.249	85.12
274.481	86.12
274.713	81.12
274.945	95.12
275.176	83.12
275.408	96.12
275.64	85.12
275.872	93.12
276.104	107.12
276.335	71.12
276.567	80.12
276.799	95.12
277.031	77.12
277.262	76.12
277.494	91.12
277.726	78.12
277.957	80.12
278.189	94.12
278.421	67.12
278.652	83.12
278.884	88.12
279.115	95.12
279.347	70.12
279.579	99.12
279.81	76.12
280.042	79.12
280.273	73.12
280.505	83.12
280.736	81.12
280.968	91.12
281.199	66.12
281.431	83.12
281.662	86.12
281.894	77.12
282.125	77.12
282.356	92.12
282.588	101.12
282.819	80.12
283.051	83.12
283.282	85.12
283.513	92.12
283.745	83.12
283.976	77.12
284.207	87.12
284.439	81.12
284.67	83.12
284.901	76.12
285.132	77.12
285.364	89.12
285.595	79.12
285.826	94.12
286.057	92.12
286.288	85.12
286.52	71.12
286.751	88.12
286.982	79.12
287.213	101.12
287.444	99.12
287.675	81.12
287.906	83.12
288.138	82.12
288.369	76.12
288.6	81.12
288.831	72.12
289.062	68.12
289.293	80.12
289.524	85.12
289.755	89.12
289.986	92.12
290.217	93.12
290.448	98.12
290.679	91.12
290.91	91.12
291.141	94.12
291.371	83.12
291.602	83.12
291.833	86.12
292.064	72.12
292.295	89.12
292.526	76.12
292.757	95.12
292.987	103.12
293.218	80.12
293.449	75.12
293.68	80.12
293.91	86.12
294.141	99.12
294.372	91.12
294.603	80.12
294.833	78.12
295.064	93.12
295.295	74.12
295.525	79.12
295.756	84.12
295.987	75.12
296.217	83.12
296.448	73.12
296.679	83.12
296.909	88.12
297.14	93.12
297.37	80.12
297.601	78.12
297.831	95.12
298.062	83.12
298.292	85.12
298.523	83.12
298.753	79.12
298.984	86.12
299.214	92.12
299.445	91.12
299.675	71.12
299.905	99.12
300.136	99.12
300.366	90.12
300.597	76.12
300.827	72.12
301.057	93.12
301.288	77.12
301.518	86.12
301.748	99.12
301.979	97.12
302.209	93.12
302.439	88.12
302.669	84.12
302.9	81.12
303.13	75.12
303.36	71.12
303.59	80.12
303.82	92.12
304.051	89.12
304.281	84.12
304.511	79.12
304.741	84.12
304.971	87.12
305.201	79.12
305.431	87.12
305.661	85.12
305.891	80.12
306.121	69.12
306.352	83.12
306.582	79.12
306.812	96.12
307.042	85.12
307.272	73.12
307.502	97.12
307.731	83.12
307.961	91.12
308.191	85.12
308.421	77.12
308.651	79.12
308.881	100.12
309.111	85.12
309.341	95.12
309.571	95.12
309.8	90.12
310.03	93.12
310.26	86.12
310.49	91.12
310.72	76.12
310.949	85.12
311.179	77.12
311.409	79.12
311.639	90.12
311.868	83.12
312.098	94.12
312.328	78.12
312.557	83.12
312.787	77.12
313.017	93.12
313.246	78.12
313.476	82.12
313.706	81.12
313.935	79.12
314.165	81.12
314.394	94.12
314.624	75.12
314.853	84.12
315.083	95.12
315.312	88.12
315.542	65.12
315.771	79.12
316.001	75.12
316.23	84.12
316.46	79.12
316.689	80.12
316.919	69.12
317.148	79.12
317.377	92.12
317.607	82.12
317.836	88.12
318.065	76.12
318.295	89.12
318.524	88.12
318.753	93.12
318.983	104.12
319.212	93.12
319.441	96.12
319.67	80.12
319.9	75.12
320.129	77.12
320.358	73.12
320.587	96.12
320.816	83.12
321.046	81.12
321.275	80.12
321.504	84.12
321.733	84.12
321.962	81.12
322.191	86.12
322.42	82.12
322.649	89.12
322.878	77.12
323.108	83.12
323.337	83.12
323.566	87.12
323.795	78.12
324.024	75.12
324.253	97.12
324.482	86.12
324.71	78.12
324.939	88.12
325.168	85.12
325.397	86.12
325.626	82.12
325.855	87.12
326.084	99.12
326.313	87.12
326.542	87.12
326.77	90.12
326.999	74.12
327.228	72.12
327.457	100.12
327.686	88.12
327.914	77.12
328.143	95.12
328.372	87.12
328.6	81.12
328.829	89.12
329.058	83.12
329.287	84.12
329.515	78.12
329.744	73.12
329.972	93.12
330.201	89.12
330.43	82.12
330.658	84.12
330.887	91.12
331.115	85.12
331.344	91.12
331.572	103.12
331.801	67.12
332.03	83.12
332.258	89.12
332.486	95.12
332.715	87.12
332.943	88.12
333.172	94.12
333.4	83.12
333.629	96.12
333.857	85.12
334.085	86.12
334.314	83.12
334.542	92.12
334.771	91.12
334.999	88.12
335.227	87.12
335.455	91.12
335.684	100.12
335.912	94.12
336.14	78.12
336.369	74.12
336.597	80.12
336.825	95.12
337.053	95.12
337.281	95.12
337.51	89.12
337.738	95.12
337.966	95.12
338.194	86.12
338.422	97.12
338.65	84.12
338.878	83.12
339.106	82.12
339.334	83.12
339.562	86.12
339.79	94.12
340.018	93.12
340.246	68.12
340.474	95.12
340.702	80.12
340.93	84.12
341.158	88.12
341.386	93.12
341.614	101.12
341.842	87.12
342.07	86.12
342.298	93.12
342.526	96.12
342.754	83.12
342.981	81.12
343.209	81.12
343.437	113.12
343.665	81.12
343.893	84.12
344.12	83.12
344.348	55.12
344.576	75.12
344.804	77.12
345.031	89.12
345.259	99.12
345.487	91.12
345.714	92.12
345.942	84.12
346.17	91.12
346.397	83.12
346.625	93.12
346.853	84.12
347.08	77.12
347.308	82.12
347.535	87.12
347.763	82.12
347.99	77.12
348.218	88.12
348.445	88.12
348.673	89.12
348.9	91.12
349.128	76.12
349.355	85.12
349.583	86.12
349.81	86.12
350.037	86.12
350.265	81.12
350.492	71.12
350.72	86.12
350.947	101.12
351.174	79.12
351.402	81.12
351.629	93.12
351.856	85.12
352.083	85.12
352.311	77.12
352.538	78.12
352.765	99.12
352.992	96.12
353.22	87.12
353.447	98.12
353.674	91.12
353.901	91.12
354.128	76.12
354.355	85.12
354.583	86.12
354.81	84.12
355.037	73.12
355.264	74.12
355.491	88.12
355.718	93.12
355.945	95.12
356.172	64.12
356.399	91.12
356.626	85.12
356.853	84.12
357.08	85.12
357.307	92.12
357.534	88.12
357.761	96.12
357.988	71.12
358.215	78.12
358.441	93.12
358.668	84.12
358.895	72.12
359.122	79.12
359.349	96.12
359.576	96.12
359.802	87.12
360.029	77.12
360.256	80.12
360.483	77.12
360.709	88.12
360.936	83.12
361.163	87.12
361.39	84.12
361.616	86.12
361.843	82.12
362.07	78.12
362.296	70.12
362.523	80.12
362.749	85.12
362.976	69.12
363.203	80.12
363.429	77.12
363.656	84.12
363.882	87.12
364.109	70.12
364.335	86.12
364.562	81.12
364.788	80.12
365.015	82.12
365.241	87.12
365.468	86.12
365.694	83.12
365.92	70.12
366.147	74.12
366.373	79.12
366.599	82.12
366.826	76.12
367.052	87.12
367.278	77.12
367.505	76.12
367.731	79.12
367.957	87.12
368.184	93.12
368.41	78.12
368.636	75.12
368.862	91.12
369.089	86.12
369.315	85.12
369.541	94.12
369.767	99.12
369.993	82.12
370.219	70.12
370.445	69.12
370.672	81.12
370.898	73.12
371.124	81.12
371.35	78.12
371.576	87.12
371.802	78.12
372.028	80.12
372.254	72.12
372.48	68.12
372.706	93.12
372.932	81.12
373.158	76.12
373.384	98.12
373.61	82.12
373.835	93.12
374.061	91.12
374.287	81.12
374.513	90.12
374.739	75.12
374.965	88.12
375.191	73.12
375.416	92.12
375.642	100.12
375.868	68.12
376.094	84.12
376.319	84.12
376.545	75.12
376.771	80.12
376.997	82.12
377.222	82.12
377.448	84.12
377.674	70.12
377.899	77.12
378.125	81.12
378.35	76.12
378.576	72.12
378.802	88.12
379.027	85.12
379.253	100.12
379.478	75.12
379.704	85.12
379.929	91.12
380.155	80.12
380.38	72.12
380.606	80.12
380.831	77.12
381.057	80.12
381.282	85.12
381.507	86.12
381.733	95.12
381.958	85.12
382.184	91.12
382.409	91.12
382.634	72.12
382.86	82.12
383.085	84.12
383.31	75.12
383.535	81.12
383.761	88.12
383.986	80.12
384.211	81.12
384.436	75.12
384.662	75.12
384.887	85.12
385.112	85.12
385.337	76.12
385.562	82.12
385.787	104.12
386.013	92.12
386.238	82.12
386.463	84.12
386.688	89.12
386.913	77.12
387.138	85.12
387.363	96.12
387.588	83.12
387.813	85.12
388.038	91.12
388.263	81.12
388.488	94.12
388.713	76.12
388.938	83.12
389.163	80.12
389.387	75.12
389.612	85.12
389.837	98.12
390.062	106.12
390.287	76.12
390.512	95.12
390.736	83.12
390.961	81.12
391.186	78.12
391.411	73.12
391.636	84.12
391.86	84.12
392.085	78.12
392.31	87.12
392.534	86.12
392.759	92.12
392.984	86.12
393.208	87.12
393.433	80.12
393.658	84.12
393.882	94.12
394.107	83.12
394.331	86.12
394.556	87.12
394.78	64.12
395.005	82.12
395.229	101.12
395.454	92.12
395.678	79.12
395.903	101.12
396.127	81.12
396.352	86.12
396.576	92.12
396.801	84.12
397.025	79.12
397.249	69.12
397.474	87.12
397.698	91.12
397.922	93.12
398.147	86.12
398.371	67.12
398.595	79.12
398.82	65.12
399.044	72.12
399.268	73.12
399.492	84.12
399.717	77.12
399.941	67.12
400.165	88.12
400.389	79.12
400.613	79.12
400.837	78.12
401.062	85.12
401.286	76.12
401.51	82.12
401.734	83.12
401.958	92.12
402.182	71.12
402.406	84.12
402.63	81.12
402.854	76.12
403.078	82.12
403.302	81.12
403.526	80.12
403.75	86.12
403.974	69.12
404.198	86.12
404.422	77.12
404.645	105.12
404.869	76.12
405.093	95.12
405.317	77.12
405.541	85.12
405.765	82.12
405.988	80.12
406.212	74.12
406.436	76.12
406.66	80.12
406.883	75.12
407.107	68.12
407.331	95.12
407.555	93.12
407.778	80.12
408.002	75.12
408.226	77.12
408.449	76.12
408.673	70.12
408.896	80.12
409.12	83.12
409.344	83.12
409.567	71.12
409.791	93.12
410.014	77.12
410.238	88.12
410.461	72.12
410.685	77.12
410.908	85.12
411.132	83.12
411.355	83.12
411.578	77.12
411.802	89.12
412.025	87.12
412.249	79.12
412.472	71.12
412.695	73.12
412.919	85.12
413.142	88.12
413.365	80.12
413.589	97.12
413.812	89.12
414.035	75.12
414.258	68.12
414.482	77.12
414.705	77.12
414.928	70.12
415.151	85.12
415.374	82.12
415.597	92.12
415.821	89.12
416.044	69.12
416.267	85.12
416.49	77.12
416.713	66.12
416.936	86.12
417.159	74.12
417.382	75.12
417.605	72.12
417.828	80.12
418.051	84.12
418.274	92.12
418.497	75.12
418.72	75.12
418.943	71.12
419.166	70.12
419.389	77.12
419.611	81.12
419.834	78.12
420.057	80.12
420.28	65.12
420.503	76.12
420.726	77.12
420.948	75.12
421.171	71.12
421.394	87.12
421.617	69.12
421.839	73.12
422.062	82.12
422.285	73.12
422.507	67.12
422.73	71.12
422.953	81.12
423.175	77.12
423.398	81.12
423.621	79.12
423.843	89.12
424.066	86.12
424.288	88.12
424.511	76.12
424.733	77.12
424.956	88.12
425.178	81.12
425.401	73.12
425.623	76.12
425.846	87.12
426.068	76.12
426.291	81.12
426.513	82.12
426.735	73.12
426.958	73.12
427.18	88.12
427.402	91.12
427.625	85.12
427.847	89.12
428.069	71.12
428.292	83.12
428.514	87.12
428.736	78.12
428.958	79.12
429.181	93.12
429.403	84.12
429.625	82.12
429.847	83.12
430.069	92.12
430.292	89.12
430.514	80.12
430.736	85.12
430.958	91.12
431.18	65.12
431.402	88.12
431.624	92.12
431.846	73.12
432.068	81.12
432.29	91.12
432.512	69.12
432.734	86.12
432.956	79.12
433.178	86.12
433.4	72.12
433.622	92.12
433.844	78.12
434.066	86.12
434.287	97.12
434.509	88.12
434.731	68.12
434.953	85.12
435.175	81.12
435.397	86.12
435.618	80.12
435.84	80.12
436.062	83.12
436.284	74.12
436.505	61.12
436.727	75.12
436.949	82.12
437.17	75.12
437.392	82.12
437.614	73.12
437.835	68.12
438.057	89.12
438.278	87.12
438.5	102.12
438.721	85.12
438.943	87.12
439.165	88.12
439.386	69.12
439.608	84.12
439.829	79.12
440.05	79.12
440.272	88.12
440.493	66.12
440.715	91.12
440.936	75.12
441.158	86.12
441.379	86.12
441.6	85.12
441.822	83.12
442.043	81.12
442.264	85.12
442.486	63.12
442.707	75.12
442.928	83.12
443.149	91.12
443.371	73.12
443.592	69.12
443.813	87.12
444.034	89.12
444.255	80.12
444.476	76.12
444.698	79.12
444.919	79.12
445.14	126.12
445.361	100.12
445.582	63.12
445.803	92.12
446.024	85.12
446.245	83.12
446.466	85.12
446.687	87.12
446.908	76.12
447.129	76.12
447.35	66.12
447.571	86.12
447.792	76.12
448.013	60.12
448.234	79.12
448.455	95.12
448.675	72.12
448.896	65.12
449.117	78.12
449.338	81.12
449.559	86.12
449.779	78.12
450	75.12
450.221	92.12
450.442	87.12
450.662	81.12
450.883	87.12
451.104	80.12
451.324	76.12
451.545	103.12
451.766	88.12
451.986	79.12
452.207	68.12
452.428	91.12
452.648	78.12
452.869	87.12
453.089	82.12
453.31	78.12
453.53	74.12
453.751	81.12
453.971	79.12
454.192	84.12
454.412	72.12
454.633	71.12
454.853	79.12
455.073	71.12
455.294	78.12
455.514	79.12
455.734	87.12
455.955	85.12
456.175	70.12
456.395	79.12
456.616	73.12
456.836	79.12
457.056	68.12
457.276	80.12
457.497	84.12
457.717	88.12
457.937	74.12
458.157	77.12
458.377	67.12
458.598	79.12
458.818	96.12
459.038	75.12
459.258	67.12
459.478	76.12
459.698	77.12
459.918	78.12
460.138	83.12
460.358	90.12
460.578	77.12
460.798	81.12
461.018	73.12
461.238	87.12
461.458	89.12
461.678	80.12
461.898	77.12
462.118	74.12
462.338	78.12
462.558	80.12
462.777	69.12
462.997	91.12
463.217	76.12
463.437	87.12
463.657	81.12
463.876	92.12
464.096	87.12
464.316	80.12
464.536	78.12
464.755	73.12
464.975	63.12
465.195	72.12
465.414	76.12
465.634	91.12
465.854	73.12
466.073	80.12
466.293	80.12
466.512	84.12
466.732	94.12
466.951	79.12
467.171	80.12
467.391	85.12
467.61	82.12
467.829	69.12
468.049	81.12
468.268	73.12
468.488	80.12
468.707	91.12
468.927	78.12
469.146	83.12
469.365	71.12
469.585	97.12
469.804	68.12
470.023	81.12
470.243	75.12
470.462	82.12
470.681	84.12
470.901	95.12
471.12	71.12
471.339	72.12
471.558	84.12
471.777	85.12
471.997	81.12
472.216	74.12
472.435	85.12
472.654	68.12
472.873	87.12
473.092	89.12
473.311	83.12
473.53	86.12
473.749	81.12
473.968	78.12
474.187	94.12
474.406	81.12
474.625	77.12
474.844	88.12
475.063	89.12
475.282	89.12
475.501	99.12
475.72	81.12
475.939	91.12
476.158	83.12
476.377	72.12
476.596	86.12
476.814	92.12
477.033	84.12
477.252	71.12
477.471	73.12
477.69	65.12
477.908	83.12
478.127	89.12
478.346	78.12
478.564	80.12
478.783	69.12
479.002	80.12
479.22	85.12
479.439	67.12
479.658	79.12
479.876	85.12
480.095	79.12
480.313	85.12
480.532	91.12
480.751	71.12
480.969	89.12
481.188	93.12
481.406	85.12
481.624	82.12
481.843	72.12
482.061	94.12
482.28	82.12
482.498	79.12
482.717	83.12
482.935	77.12
483.153	80.12
483.372	91.12
483.59	79.12
483.808	79.12
484.027	80.12
484.245	87.12
484.463	81.12
484.681	81.12
484.9	94.12
485.118	82.12
485.336	82.12
485.554	75.12
485.772	88.12
485.99	81.12
486.209	77.12
486.427	83.12
486.645	84.12
486.863	83.12
487.081	83.12
487.299	79.12
487.517	84.12
487.735	85.12
487.953	85.12
488.171	93.12
488.389	81.12
488.607	73.12
488.825	73.12
489.043	97.12
489.261	77.12
489.479	75.12
489.696	76.12
489.914	76.12
490.132	81.12
490.35	82.12
490.568	86.12
490.786	97.12
491.003	91.12
491.221	78.12
491.439	73.12
491.657	94.12
491.874	79.12
492.092	75.12
492.31	77.12
492.527	80.12
492.745	85.12
492.963	96.12
493.18	91.12
493.398	82.12
493.615	88.12
493.833	72.12
494.05	79.12
494.268	80.12
494.485	79.12
494.703	70.12
494.92	88.12
495.138	91.12
495.355	82.12
495.573	85.12
495.79	77.12
496.008	91.12
496.225	84.12
496.442	77.12
496.66	92.12
496.877	79.12
497.094	95.12
497.312	71.12
497.529	78.12
497.746	100.12
497.963	65.12
498.181	80.12
498.398	83.12
498.615	80.12
498.832	87.12
499.049	77.12
499.267	81.12
499.484	72.12
499.701	75.12
499.918	66.12
500.135	75.12
500.352	76.12
500.569	90.12
500.786	85.12
501.003	69.12
501.22	77.12
501.437	75.12
501.654	85.12
501.871	80.12
502.088	85.12
502.305	91.12
502.522	79.12
502.739	86.12
502.956	68.12
503.172	76.12
503.389	93.12
503.606	76.12
503.823	82.12
504.04	71.12
504.256	85.12
504.473	88.12
504.69	83.12
504.907	84.12
505.123	86.12
505.34	82.12
505.557	87.12
505.773	81.12
505.99	85.12
506.207	85.12
506.423	104.12
506.64	76.12
506.856	79.12
507.073	70.12
507.289	73.12
507.506	98.12
507.722	86.12
507.939	86.12
508.155	80.12
508.372	74.12
508.588	88.12
508.805	81.12
509.021	85.12
509.238	87.12
509.454	76.12
509.67	78.12
509.887	84.12
510.103	92.12
510.319	82.12
510.536	76.12
510.752	99.12
510.968	95.12
511.184	84.12
511.401	84.12
511.617	87.12
511.833	76.12
512.049	90.12
512.265	84.12
512.481	81.12
512.698	85.12
512.914	86.12
513.13	79.12
513.346	79.12
513.562	77.12
513.778	82.12
513.994	80.12
514.21	81.12
514.426	74.12
514.642	96.12
514.858	86.12
515.074	81.12
515.29	88.12
515.506	79.12
515.721	84.12
515.937	73.12
516.153	82.12
516.369	79.12
516.585	78.12
516.801	81.12
517.016	73.12
517.232	92.12
517.448	79.12
517.664	95.12
517.879	91.12
518.095	92.12
518.311	74.12
518.527	77.12
518.742	70.12
518.958	79.12
519.173	93.12
519.389	96.12
519.605	82.12
519.82	85.12
520.036	89.12
