Data from TestCu_HRD10591_00019.txt Node
Date: Thu Oct 05 14:05:00 EDT 2023
User: Yrep
Spectrometer: HR+D1059
Trigger mode: 1
Integration Time (sec): 1.000000E-1
Scans to average: 1
Electric dark correction enabled: true
Nonlinearity correction enabled: false
Boxcar width: 0
XAxis mode: Wavelengths
Number of Pixels in Spectrum: 2048
>>>>>Begin Spectral Data<<<<<
223.165	-21.62
223.4	-21.62
223.635	-21.62
223.869	-29.62
224.104	-14.62
224.338	-8.62
224.573	-19.62
224.808	-7.62
225.042	-0.62
225.277	-4.62
225.511	-4.62
225.746	0.38
225.98	6.38
226.215	11.38
226.449	5.38
226.683	18.38
226.918	22.38
227.152	47.38
227.387	24.38
227.621	43.38
227.856	34.38
228.09	30.38
228.324	46.38
228.559	66.38
228.793	71.38
229.027	95.38
229.262	120.38
229.496	136.38
229.73	146.38
229.964	145.38
230.199	130.38
230.433	117.38
230.667	109.38
230.901	117.38
231.136	107.38
231.37	114.38
231.604	110.38
231.838	106.38
232.072	114.38
232.306	98.38
232.541	105.38
232.775	107.38
233.009	108.38
233.243	118.38
233.477	109.38
233.711	124.38
233.945	104.38
234.179	119.38
234.413	130.38
234.647	119.38
234.881	123.38
235.115	118.38
235.349	125.38
235.583	109.38
235.817	110.38
236.051	132.38
236.285	141.38
236.519	125.38
236.753	150.38
236.987	183.38
237.221	218.38
237.455	234.38
237.689	160.38
237.922	133.38
238.156	131.38
238.39	132.38
238.624	124.38
238.858	116.38
239.091	125.38
239.325	122.38
239.559	127.38
239.793	139.38
240.027	147.38
240.26	163.38
240.494	170.38
240.728	154.38
240.961	151.38
241.195	144.38
241.429	117.38
241.662	150.38
241.896	143.38
242.13	131.38
242.363	134.38
242.597	134.38
242.83	143.38
243.064	122.38
243.298	131.38
243.531	134.38
243.765	132.38
243.998	143.38
244.232	145.38
244.465	134.38
244.699	148.38
244.932	137.38
245.166	130.38
245.399	148.38
245.633	143.38
245.866	158.38
246.099	148.38
246.333	166.38
246.566	148.38
246.8	161.38
247.033	156.38
247.266	150.38
247.5	166.38
247.733	164.38
247.966	145.38
248.2	179.38
248.433	172.38
248.666	176.38
248.899	202.38
249.133	194.38
249.366	230.38
249.599	206.38
249.832	185.38
250.066	184.38
250.299	190.38
250.532	196.38
250.765	190.38
250.998	221.38
251.231	194.38
251.465	174.38
251.698	198.38
251.931	186.38
252.164	185.38
252.397	188.38
252.63	204.38
252.863	202.38
253.096	205.38
253.329	214.38
253.562	190.38
253.795	218.38
254.028	204.38
254.261	221.38
254.494	257.38
254.727	264.38
254.96	275.38
255.193	226.38
255.426	203.38
255.659	188.38
255.892	185.38
256.124	197.38
256.357	201.38
256.59	182.38
256.823	197.38
257.056	195.38
257.289	193.38
257.521	196.38
257.754	202.38
257.987	177.38
258.22	190.38
258.452	188.38
258.685	192.38
258.918	200.38
259.151	224.38
259.383	210.38
259.616	213.38
259.849	248.38
260.081	261.38
260.314	253.38
260.547	260.38
260.779	214.38
261.012	216.38
261.244	216.38
261.477	227.38
261.71	238.38
261.942	252.38
262.175	260.38
262.407	240.38
262.64	222.38
262.872	228.38
263.105	212.38
263.337	219.38
263.57	207.38
263.802	215.38
264.035	214.38
264.267	208.38
264.499	221.38
264.732	234.38
264.964	205.38
265.197	218.38
265.429	227.38
265.661	207.38
265.894	235.38
266.126	223.38
266.358	230.38
266.591	236.38
266.823	226.38
267.055	254.38
267.287	254.38
267.52	240.38
267.752	228.38
267.984	234.38
268.216	226.38
268.448	252.38
268.681	252.38
268.913	270.38
269.145	286.38
269.377	286.38
269.609	279.38
269.841	282.38
270.073	304.38
270.306	330.38
270.538	324.38
270.77	297.38
271.002	292.38
271.234	292.38
271.466	318.38
271.698	321.38
271.93	294.38
272.162	315.38
272.394	310.38
272.626	267.38
272.858	274.38
273.09	276.38
273.322	275.38
273.553	251.38
273.785	257.38
274.017	252.38
274.249	279.38
274.481	290.38
274.713	280.38
274.945	288.38
275.176	282.38
275.408	276.38
275.64	274.38
275.872	262.38
276.104	256.38
276.335	294.38
276.567	309.38
276.799	340.38
277.031	365.38
277.262	353.38
277.494	325.38
277.726	294.38
277.957	294.38
278.189	295.38
278.421	290.38
278.652	278.38
278.884	278.38
279.115	291.38
279.347	297.38
279.579	286.38
279.81	276.38
280.042	265.38
280.273	270.38
280.505	290.38
280.736	282.38
280.968	291.38
281.199	276.38
281.431	302.38
281.662	291.38
281.894	301.38
282.125	338.38
282.356	366.38
282.588	358.38
282.819	356.38
283.051	297.38
283.282	316.38
283.513	297.38
283.745	331.38
283.976	311.38
284.207	324.38
284.439	317.38
284.67	302.38
284.901	291.38
285.132	300.38
285.364	313.38
285.595	321.38
285.826	296.38
286.057	320.38
286.288	300.38
286.52	303.38
286.751	321.38
286.982	315.38
287.213	320.38
287.444	331.38
287.675	358.38
287.906	352.38
288.138	350.38
288.369	346.38
288.6	325.38
288.831	359.38
289.062	326.38
289.293	311.38
289.524	346.38
289.755	334.38
289.986	333.38
290.217	327.38
290.448	327.38
290.679	324.38
290.91	331.38
291.141	322.38
291.371	325.38
291.602	351.38
291.833	338.38
292.064	328.38
292.295	324.38
292.526	361.38
292.757	332.38
292.987	326.38
293.218	352.38
293.449	334.38
293.68	322.38
293.91	341.38
294.141	343.38
294.372	342.38
294.603	350.38
294.833	334.38
295.064	355.38
295.295	334.38
295.525	343.38
295.756	359.38
295.987	420.38
296.217	420.38
296.448	400.38
296.679	376.38
296.909	373.38
297.14	358.38
297.37	371.38
297.601	367.38
297.831	384.38
298.062	379.38
298.292	373.38
298.523	357.38
298.753	367.38
298.984	376.38
299.214	379.38
299.445	390.38
299.675	380.38
299.905	379.38
300.136	383.38
300.366	392.38
300.597	404.38
300.827	400.38
301.057	420.38
301.288	423.38
301.518	408.38
301.748	404.38
301.979	426.38
302.209	423.38
302.439	405.38
302.669	392.38
302.9	399.38
303.13	396.38
303.36	407.38
303.59	430.38
303.82	432.38
304.051	396.38
304.281	434.38
304.511	403.38
304.741	379.38
304.971	387.38
305.201	415.38
305.431	417.38
305.661	398.38
305.891	401.38
306.121	408.38
306.352	427.38
306.582	434.38
306.812	399.38
307.042	395.38
307.272	408.38
307.502	431.38
307.731	412.38
307.961	406.38
308.191	405.38
308.421	425.38
308.651	433.38
308.881	435.38
309.111	421.38
309.341	438.38
309.571	456.38
309.8	481.38
310.03	508.38
310.26	485.38
310.49	494.38
310.72	514.38
310.949	536.38
311.179	497.38
311.409	454.38
311.639	497.38
311.868	499.38
312.098	500.38
312.328	518.38
312.557	544.38
312.787	551.38
313.017	515.38
313.246	480.38
313.476	477.38
313.706	512.38
313.935	527.38
314.165	546.38
314.394	549.38
314.624	511.38
314.853	487.38
315.083	481.38
315.312	464.38
315.542	484.38
315.771	482.38
316.001	474.38
316.23	478.38
316.46	466.38
316.689	493.38
316.919	485.38
317.148	502.38
317.377	516.38
317.607	500.38
317.836	492.38
318.065	490.38
318.295	478.38
318.524	463.38
318.753	493.38
318.983	490.38
319.212	488.38
319.441	494.38
319.67	481.38
319.9	483.38
320.129	459.38
320.358	499.38
320.587	511.38
320.816	511.38
321.046	527.38
321.275	523.38
321.504	517.38
321.733	546.38
321.962	549.38
322.191	587.38
322.42	595.38
322.649	615.38
322.878	658.38
323.108	690.38
323.337	712.38
323.566	772.38
323.795	885.38
324.024	1154.38
324.253	2032.38
324.482	3468.38
324.71	5141.38
324.939	4570.38
325.168	2016.38
325.397	987.38
325.626	763.38
325.855	678.38
326.084	699.38
326.313	725.38
326.542	826.38
326.77	1127.38
326.999	1860.38
327.228	2967.38
327.457	3787.38
327.686	2472.38
327.914	1196.38
328.143	913.38
328.372	832.38
328.6	819.38
328.829	847.38
329.058	888.38
329.287	776.38
329.515	686.38
329.744	660.38
329.972	656.38
330.201	725.38
330.43	802.38
330.658	944.38
330.887	966.38
331.115	788.38
331.344	702.38
331.572	702.38
331.801	688.38
332.03	679.38
332.258	644.38
332.486	634.38
332.715	636.38
332.943	651.38
333.172	670.38
333.4	717.38
333.629	707.38
333.857	696.38
334.085	660.38
334.314	663.38
334.542	701.38
334.771	686.38
334.999	686.38
335.227	663.38
335.455	657.38
335.684	636.38
335.912	632.38
336.14	639.38
336.369	638.38
336.597	655.38
336.825	642.38
337.053	618.38
337.281	607.38
337.51	600.38
337.738	624.38
337.966	638.38
338.194	647.38
338.422	607.38
338.65	602.38
338.878	603.38
339.106	590.38
339.334	592.38
339.562	602.38
339.79	602.38
340.018	624.38
340.246	619.38
340.474	629.38
340.702	612.38
340.93	603.38
341.158	599.38
341.386	599.38
341.614	596.38
341.842	591.38
342.07	608.38
342.298	598.38
342.526	568.38
342.754	569.38
342.981	568.38
343.209	580.38
343.437	624.38
343.665	648.38
343.893	658.38
344.12	668.38
344.348	642.38
344.576	618.38
344.804	672.38
345.031	644.38
345.259	645.38
345.487	623.38
345.714	573.38
345.942	552.38
346.17	580.38
346.397	589.38
346.625	594.38
346.853	575.38
347.08	589.38
347.308	596.38
347.535	627.38
347.763	614.38
347.99	606.38
348.218	635.38
348.445	644.38
348.673	594.38
348.9	571.38
349.128	578.38
349.355	538.38
349.583	566.38
349.81	553.38
350.037	559.38
350.265	562.38
350.492	554.38
350.72	576.38
350.947	594.38
351.174	631.38
351.402	630.38
351.629	583.38
351.856	655.38
352.083	649.38
352.311	637.38
352.538	627.38
352.765	619.38
352.992	607.38
353.22	614.38
353.447	588.38
353.674	576.38
353.901	544.38
354.128	562.38
354.355	568.38
354.583	555.38
354.81	543.38
355.037	536.38
355.264	563.38
355.491	538.38
355.718	539.38
355.945	522.38
356.172	517.38
356.399	526.38
356.626	547.38
356.853	527.38
357.08	546.38
357.307	517.38
357.534	522.38
357.761	550.38
357.988	562.38
358.215	560.38
358.441	538.38
358.668	536.38
358.895	554.38
359.122	574.38
359.349	599.38
359.576	660.38
359.802	759.38
360.029	758.38
360.256	724.38
360.483	670.38
360.709	610.38
360.936	620.38
361.163	614.38
361.39	626.38
361.616	607.38
361.843	610.38
362.07	624.38
362.296	627.38
362.523	631.38
362.749	623.38
362.976	579.38
363.203	559.38
363.429	580.38
363.656	576.38
363.882	557.38
364.109	550.38
364.335	564.38
364.562	561.38
364.788	588.38
365.015	579.38
365.241	598.38
365.468	633.38
365.694	607.38
365.92	598.38
366.147	580.38
366.373	583.38
366.599	551.38
366.826	566.38
367.052	575.38
367.278	555.38
367.505	610.38
367.731	591.38
367.957	586.38
368.184	571.38
368.41	607.38
368.636	617.38
368.862	620.38
369.089	587.38
369.315	570.38
369.541	598.38
369.767	613.38
369.993	596.38
370.219	590.38
370.445	581.38
370.672	578.38
370.898	589.38
371.124	598.38
371.35	602.38
371.576	590.38
371.802	597.38
372.028	569.38
372.254	602.38
372.48	624.38
372.706	572.38
372.932	611.38
373.158	613.38
373.384	603.38
373.61	619.38
373.835	595.38
374.061	606.38
374.287	620.38
374.513	615.38
374.739	624.38
374.965	617.38
375.191	630.38
375.416	612.38
375.642	606.38
375.868	622.38
376.094	613.38
376.319	602.38
376.545	590.38
376.771	591.38
376.997	607.38
377.222	621.38
377.448	598.38
377.674	588.38
377.899	559.38
378.125	587.38
378.35	575.38
378.576	596.38
378.802	573.38
379.027	589.38
379.253	582.38
379.478	562.38
379.704	598.38
379.929	588.38
380.155	598.38
380.38	574.38
380.606	610.38
380.831	588.38
381.057	600.38
381.282	590.38
381.507	596.38
381.733	583.38
381.958	619.38
382.184	606.38
382.409	612.38
382.634	621.38
382.86	630.38
383.085	637.38
383.31	645.38
383.535	640.38
383.761	666.38
383.986	656.38
384.211	643.38
384.436	645.38
384.662	693.38
384.887	690.38
385.112	679.38
385.337	658.38
385.562	668.38
385.787	699.38
386.013	730.38
386.238	726.38
386.463	753.38
386.688	725.38
386.913	693.38
387.138	702.38
387.363	693.38
387.588	687.38
387.813	666.38
388.038	689.38
388.263	694.38
388.488	692.38
388.713	682.38
388.938	680.38
389.163	663.38
389.387	659.38
389.612	643.38
389.837	673.38
390.062	707.38
390.287	693.38
390.512	676.38
390.736	718.38
390.961	694.38
391.186	738.38
391.411	753.38
391.636	739.38
391.86	742.38
392.085	736.38
392.31	744.38
392.534	739.38
392.759	718.38
392.984	730.38
393.208	728.38
393.433	704.38
393.658	702.38
393.882	736.38
394.107	722.38
394.331	722.38
394.556	724.38
394.78	728.38
395.005	735.38
395.229	740.38
395.454	786.38
395.678	745.38
395.903	768.38
396.127	764.38
396.352	769.38
396.576	722.38
396.801	734.38
397.025	742.38
397.249	767.38
397.474	773.38
397.698	763.38
397.922	786.38
398.147	822.38
398.371	830.38
398.595	833.38
398.82	874.38
399.044	948.38
399.268	1020.38
399.492	1136.38
399.717	1138.38
399.941	1121.38
400.165	1057.38
400.389	991.38
400.613	896.38
400.837	856.38
401.062	850.38
401.286	844.38
401.51	863.38
401.734	853.38
401.958	864.38
402.182	894.38
402.406	939.38
402.63	926.38
402.854	903.38
403.078	902.38
403.302	936.38
403.526	946.38
403.75	940.38
403.974	945.38
404.198	935.38
404.422	947.38
404.645	950.38
404.869	938.38
405.093	954.38
405.317	964.38
405.541	974.38
405.765	928.38
405.988	976.38
406.212	1066.38
406.436	1106.38
406.66	1047.38
406.883	1043.38
407.107	1101.38
407.331	1147.38
407.555	1169.38
407.778	1086.38
408.002	1072.38
408.226	985.38
408.449	992.38
408.673	977.38
408.896	1002.38
409.12	984.38
409.344	971.38
409.567	897.38
409.791	899.38
410.014	920.38
410.238	876.38
410.461	911.38
410.685	895.38
410.908	929.38
411.132	946.38
411.355	945.38
411.578	874.38
411.802	880.38
412.025	859.38
412.249	844.38
412.472	820.38
412.695	830.38
412.919	822.38
413.142	835.38
413.365	808.38
413.589	844.38
413.812	812.38
414.035	812.38
414.258	855.38
414.482	832.38
414.705	840.38
414.928	825.38
415.151	813.38
415.374	842.38
415.597	813.38
415.821	808.38
416.044	809.38
416.267	832.38
416.49	824.38
416.713	792.38
416.936	842.38
417.159	802.38
417.382	808.38
417.605	843.38
417.828	849.38
418.051	836.38
418.274	842.38
418.497	839.38
418.72	830.38
418.943	832.38
419.166	855.38
419.389	894.38
419.611	869.38
419.834	848.38
420.057	846.38
420.28	847.38
420.503	828.38
420.726	868.38
420.948	887.38
421.171	925.38
421.394	918.38
421.617	863.38
421.839	846.38
422.062	895.38
422.285	924.38
422.507	1008.38
422.73	996.38
422.953	946.38
423.175	884.38
423.398	894.38
423.621	894.38
423.843	934.38
424.066	941.38
424.288	929.38
424.511	954.38
424.733	1017.38
424.956	1074.38
425.178	1050.38
425.401	1043.38
425.623	962.38
425.846	880.38
426.068	857.38
426.291	848.38
426.513	844.38
426.735	896.38
426.958	979.38
427.18	1134.38
427.402	1271.38
427.625	1322.38
427.847	1038.38
428.069	874.38
428.292	817.38
428.514	798.38
428.736	774.38
428.958	787.38
429.181	750.38
429.403	770.38
429.625	806.38
429.847	836.38
430.069	885.38
430.292	815.38
430.514	760.38
430.736	776.38
430.958	751.38
431.18	728.38
431.402	757.38
431.624	744.38
431.846	751.38
432.068	724.38
432.29	750.38
432.512	755.38
432.734	780.38
432.956	760.38
433.178	818.38
433.4	770.38
433.622	748.38
433.844	762.38
434.066	782.38
434.287	764.38
434.509	806.38
434.731	816.38
434.953	848.38
435.175	826.38
435.397	846.38
435.618	883.38
435.84	966.38
436.062	1058.38
436.284	1035.38
436.505	886.38
436.727	827.38
436.949	793.38
437.17	803.38
437.392	790.38
437.614	812.38
437.835	973.38
438.057	1076.38
438.278	1151.38
438.5	1122.38
438.721	1160.38
438.943	1015.38
439.165	860.38
439.386	848.38
439.608	873.38
439.829	901.38
440.05	1018.38
440.272	1012.38
440.493	850.38
440.715	809.38
440.936	820.38
441.158	831.38
441.379	822.38
441.6	926.38
441.822	963.38
442.043	1013.38
442.264	1088.38
442.486	1010.38
442.707	904.38
442.928	946.38
443.149	997.38
443.371	1052.38
443.592	1104.38
443.813	1157.38
444.034	1090.38
444.255	977.38
444.476	944.38
444.698	965.38
444.919	975.38
445.14	1001.38
445.361	1007.38
445.582	1079.38
445.803	1213.38
446.024	1250.38
446.245	1202.38
446.466	971.38
446.687	861.38
446.908	810.38
447.129	808.38
447.35	775.38
447.571	772.38
447.792	750.38
448.013	780.38
448.234	848.38
448.455	970.38
448.675	1065.38
448.896	1090.38
449.117	926.38
449.338	1032.38
449.559	1179.38
449.779	1101.38
450	860.38
450.221	760.38
450.442	745.38
450.662	768.38
450.883	862.38
451.104	846.38
451.324	787.38
451.545	754.38
451.766	734.38
451.986	702.38
452.207	697.38
452.428	714.38
452.648	733.38
452.869	740.38
453.089	750.38
453.31	722.38
453.53	716.38
453.751	717.38
453.971	770.38
454.192	781.38
454.412	695.38
454.633	676.38
454.853	688.38
455.073	690.38
455.294	777.38
455.514	802.38
455.734	708.38
455.955	684.38
456.175	622.38
456.395	638.38
456.616	626.38
456.836	656.38
457.056	626.38
457.276	612.38
457.497	644.38
457.717	651.38
457.937	650.38
458.157	662.38
458.377	706.38
458.598	834.38
458.818	1028.38
459.038	1052.38
459.258	940.38
459.478	806.38
459.698	782.38
459.918	788.38
460.138	786.38
460.358	818.38
460.578	819.38
460.798	838.38
461.018	831.38
461.238	799.38
461.458	781.38
461.678	792.38
461.898	808.38
462.118	845.38
462.338	870.38
462.558	868.38
462.777	905.38
462.997	973.38
463.217	994.38
463.437	972.38
463.657	950.38
463.876	886.38
464.096	917.38
464.316	944.38
464.536	935.38
464.755	922.38
464.975	973.38
465.195	1246.38
465.414	1082.38
465.634	846.38
465.854	782.38
466.073	752.38
466.293	756.38
466.512	711.38
466.732	719.38
466.951	716.38
467.171	716.38
467.391	748.38
467.61	804.38
467.829	780.38
468.049	732.38
468.268	673.38
468.488	707.38
468.707	691.38
468.927	708.38
469.146	691.38
469.365	704.38
469.585	727.38
469.804	765.38
470.023	784.38
470.243	760.38
470.462	803.38
470.681	827.38
470.901	734.38
471.12	732.38
471.339	736.38
471.558	697.38
471.777	693.38
471.997	696.38
472.216	649.38
472.435	684.38
472.654	674.38
472.873	659.38
473.092	682.38
473.311	686.38
473.53	706.38
473.749	693.38
473.968	869.38
474.187	926.38
474.406	820.38
474.625	717.38
474.844	692.38
475.063	687.38
475.282	698.38
475.501	708.38
475.72	711.38
475.939	731.38
476.158	720.38
476.377	728.38
476.596	720.38
476.814	778.38
477.033	770.38
477.252	741.38
477.471	768.38
477.69	778.38
477.908	770.38
478.127	778.38
478.346	791.38
478.564	823.38
478.783	820.38
479.002	848.38
479.22	888.38
479.439	888.38
479.658	927.38
479.876	894.38
480.095	900.38
480.313	915.38
480.532	898.38
480.751	912.38
480.969	899.38
481.188	853.38
481.406	818.38
481.624	794.38
481.843	791.38
482.061	775.38
482.28	758.38
482.498	806.38
482.717	787.38
482.935	800.38
483.153	765.38
483.372	779.38
483.59	783.38
483.808	784.38
484.027	781.38
484.245	809.38
484.463	824.38
484.681	840.38
484.9	812.38
485.118	830.38
485.336	830.38
485.554	845.38
485.772	833.38
485.99	840.38
486.209	858.38
486.427	852.38
486.645	892.38
486.863	925.38
487.081	882.38
487.299	835.38
487.517	852.38
487.735	836.38
487.953	853.38
488.171	841.38
488.389	881.38
488.607	853.38
488.825	846.38
489.043	838.38
489.261	826.38
489.479	875.38
489.696	854.38
489.914	863.38
490.132	883.38
490.35	911.38
490.568	915.38
490.786	910.38
491.003	957.38
491.221	967.38
491.439	966.38
491.657	952.38
491.874	981.38
492.092	972.38
492.31	1000.38
492.527	1009.38
492.745	953.38
492.963	972.38
493.18	1036.38
493.398	1019.38
493.615	1037.38
493.833	1019.38
494.05	1019.38
494.268	975.38
494.485	1015.38
494.703	1018.38
494.92	1020.38
495.138	1005.38
495.355	992.38
495.573	998.38
495.79	994.38
496.008	1004.38
496.225	1005.38
496.442	1002.38
496.66	1000.38
496.877	1015.38
497.094	990.38
497.312	1063.38
497.529	1055.38
497.746	1103.38
497.963	1100.38
498.181	1138.38
498.398	1165.38
498.615	1263.38
498.832	1238.38
499.049	1339.38
499.267	1411.38
499.484	1470.38
499.701	1618.38
499.918	1735.38
500.135	1868.38
500.352	1977.38
500.569	1966.38
500.786	1956.38
501.003	1803.38
501.22	1711.38
501.437	1642.38
