Data from TestCu_HRD10591_00055.txt Node
Date: Thu Oct 05 14:05:35 EDT 2023
User: Yrep
Spectrometer: HR+D1059
Trigger mode: 1
Integration Time (sec): 1.000000E-1
Scans to average: 1
Electric dark correction enabled: true
Nonlinearity correction enabled: false
Boxcar width: 0
XAxis mode: Wavelengths
Number of Pixels in Spectrum: 2048
>>>>>Begin Spectral Data<<<<<
223.165	-19.44
223.4	-19.44
223.635	-19.44
223.869	-15.44
224.104	-13.44
224.338	-7.44
224.573	-31.44
224.808	-17.44
225.042	-10.44
225.277	-4.44
225.511	-0.44
225.746	0.56
225.98	8.56
226.215	1.56
226.449	16.56
226.683	28.56
226.918	32.56
227.152	31.56
227.387	35.56
227.621	26.56
227.856	38.56
228.09	62.56
228.324	46.56
228.559	52.56
228.793	75.56
229.027	115.56
229.262	101.56
229.496	121.56
229.73	157.56
229.964	155.56
230.199	107.56
230.433	131.56
230.667	126.56
230.901	105.56
231.136	98.56
231.37	113.56
231.604	112.56
231.838	106.56
232.072	121.56
232.306	110.56
232.541	101.56
232.775	124.56
233.009	105.56
233.243	102.56
233.477	99.56
233.711	119.56
233.945	98.56
234.179	108.56
234.413	126.56
234.647	119.56
234.881	120.56
235.115	112.56
235.349	114.56
235.583	122.56
235.817	134.56
236.051	129.56
236.285	137.56
236.519	152.56
236.753	153.56
236.987	188.56
237.221	218.56
237.455	231.56
237.689	150.56
237.922	135.56
238.156	119.56
238.39	110.56
238.624	131.56
238.858	133.56
239.091	112.56
239.325	127.56
239.559	131.56
239.793	126.56
240.027	140.56
240.26	165.56
240.494	170.56
240.728	152.56
240.961	142.56
241.195	138.56
241.429	122.56
241.662	119.56
241.896	114.56
242.13	127.56
242.363	124.56
242.597	129.56
242.83	123.56
243.064	136.56
243.298	128.56
243.531	136.56
243.765	141.56
243.998	150.56
244.232	147.56
244.465	155.56
244.699	142.56
244.932	146.56
245.166	142.56
245.399	146.56
245.633	140.56
245.866	148.56
246.099	136.56
246.333	142.56
246.566	145.56
246.8	152.56
247.033	160.56
247.266	156.56
247.5	157.56
247.733	161.56
247.966	172.56
248.2	168.56
248.433	154.56
248.666	180.56
248.899	209.56
249.133	211.56
249.366	200.56
249.599	193.56
249.832	145.56
250.066	176.56
250.299	181.56
250.532	176.56
250.765	205.56
250.998	218.56
251.231	198.56
251.465	185.56
251.698	180.56
251.931	171.56
252.164	181.56
252.397	177.56
252.63	195.56
252.863	204.56
253.096	224.56
253.329	224.56
253.562	201.56
253.795	206.56
254.028	188.56
254.261	219.56
254.494	255.56
254.727	260.56
254.96	246.56
255.193	205.56
255.426	209.56
255.659	206.56
255.892	198.56
256.124	172.56
256.357	184.56
256.59	200.56
256.823	182.56
257.056	176.56
257.289	203.56
257.521	180.56
257.754	200.56
257.987	197.56
258.22	188.56
258.452	196.56
258.685	222.56
258.918	197.56
259.151	206.56
259.383	212.56
259.616	211.56
259.849	230.56
260.081	237.56
260.314	248.56
260.547	237.56
260.779	228.56
261.012	227.56
261.244	224.56
261.477	234.56
261.71	238.56
261.942	256.56
262.175	280.56
262.407	219.56
262.64	208.56
262.872	198.56
263.105	210.56
263.337	205.56
263.57	212.56
263.802	207.56
264.035	216.56
264.267	224.56
264.499	228.56
264.732	213.56
264.964	218.56
265.197	220.56
265.429	224.56
265.661	213.56
265.894	226.56
266.126	218.56
266.358	240.56
266.591	224.56
266.823	224.56
267.055	238.56
267.287	218.56
267.52	237.56
267.752	234.56
267.984	224.56
268.216	252.56
268.448	238.56
268.681	230.56
268.913	270.56
269.145	277.56
269.377	274.56
269.609	281.56
269.841	280.56
270.073	306.56
270.306	296.56
270.538	309.56
270.77	302.56
271.002	287.56
271.234	304.56
271.466	309.56
271.698	303.56
271.93	337.56
272.162	326.56
272.394	306.56
272.626	294.56
272.858	284.56
273.09	276.56
273.322	270.56
273.553	264.56
273.785	256.56
274.017	252.56
274.249	267.56
274.481	275.56
274.713	267.56
274.945	257.56
275.176	263.56
275.408	277.56
275.64	274.56
275.872	287.56
276.104	287.56
276.335	275.56
276.567	310.56
276.799	356.56
277.031	362.56
277.262	330.56
277.494	313.56
277.726	298.56
277.957	285.56
278.189	275.56
278.421	275.56
278.652	272.56
278.884	268.56
279.115	264.56
279.347	266.56
279.579	286.56
279.81	295.56
280.042	289.56
280.273	294.56
280.505	294.56
280.736	305.56
280.968	275.56
281.199	284.56
281.431	272.56
281.662	300.56
281.894	298.56
282.125	335.56
282.356	360.56
282.588	380.56
282.819	338.56
283.051	316.56
283.282	294.56
283.513	300.56
283.745	320.56
283.976	318.56
284.207	318.56
284.439	310.56
284.67	296.56
284.901	323.56
285.132	302.56
285.364	292.56
285.595	306.56
285.826	307.56
286.057	301.56
286.288	317.56
286.52	322.56
286.751	309.56
286.982	313.56
287.213	316.56
287.444	332.56
287.675	336.56
287.906	335.56
288.138	354.56
288.369	345.56
288.6	347.56
288.831	340.56
289.062	318.56
289.293	338.56
289.524	333.56
289.755	334.56
289.986	334.56
290.217	313.56
290.448	328.56
290.679	312.56
290.91	339.56
291.141	320.56
291.371	327.56
291.602	336.56
291.833	326.56
292.064	318.56
292.295	346.56
292.526	353.56
292.757	338.56
292.987	334.56
293.218	343.56
293.449	339.56
293.68	318.56
293.91	354.56
294.141	360.56
294.372	333.56
294.603	347.56
294.833	353.56
295.064	362.56
295.295	341.56
295.525	350.56
295.756	368.56
295.987	380.56
296.217	442.56
296.448	394.56
296.679	338.56
296.909	341.56
297.14	358.56
297.37	369.56
297.601	359.56
297.831	355.56
298.062	360.56
298.292	365.56
298.523	382.56
298.753	360.56
298.984	368.56
299.214	370.56
299.445	383.56
299.675	395.56
299.905	392.56
300.136	372.56
300.366	382.56
300.597	380.56
300.827	405.56
301.057	422.56
301.288	416.56
301.518	396.56
301.748	430.56
301.979	438.56
302.209	397.56
302.439	388.56
302.669	402.56
302.9	420.56
303.13	394.56
303.36	404.56
303.59	431.56
303.82	422.56
304.051	394.56
304.281	390.56
304.511	396.56
304.741	411.56
304.971	380.56
305.201	402.56
305.431	418.56
305.661	402.56
305.891	421.56
306.121	411.56
306.352	415.56
306.582	411.56
306.812	398.56
307.042	405.56
307.272	395.56
307.502	398.56
307.731	402.56
307.961	392.56
308.191	410.56
308.421	399.56
308.651	432.56
308.881	422.56
309.111	440.56
309.341	426.56
309.571	436.56
309.8	436.56
310.03	480.56
310.26	476.56
310.49	470.56
310.72	536.56
310.949	515.56
311.179	504.56
311.409	483.56
311.639	476.56
311.868	485.56
312.098	517.56
312.328	515.56
312.557	539.56
312.787	554.56
313.017	521.56
313.246	495.56
313.476	475.56
313.706	498.56
313.935	512.56
314.165	539.56
314.394	538.56
314.624	530.56
314.853	502.56
315.083	480.56
315.312	461.56
315.542	459.56
315.771	469.56
316.001	481.56
316.23	465.56
316.46	486.56
316.689	478.56
316.919	483.56
317.148	499.56
317.377	507.56
317.607	490.56
317.836	487.56
318.065	459.56
318.295	478.56
318.524	469.56
318.753	456.56
318.983	482.56
319.212	510.56
319.441	486.56
319.67	497.56
319.9	489.56
320.129	475.56
320.358	475.56
320.587	488.56
320.816	520.56
321.046	523.56
321.275	514.56
321.504	494.56
321.733	512.56
321.962	555.56
322.191	574.56
322.42	606.56
322.649	629.56
322.878	644.56
323.108	644.56
323.337	730.56
323.566	796.56
323.795	882.56
324.024	1194.56
324.253	2036.56
324.482	3522.56
324.71	5208.56
324.939	4563.56
325.168	2001.56
325.397	965.56
325.626	732.56
325.855	688.56
326.084	674.56
326.313	715.56
326.542	844.56
326.77	1108.56
326.999	1910.56
327.228	3048.56
327.457	3826.56
327.686	2524.56
327.914	1202.56
328.143	917.56
328.372	847.56
328.6	824.56
328.829	841.56
329.058	865.56
329.287	819.56
329.515	678.56
329.744	660.56
329.972	648.56
330.201	710.56
330.43	836.56
330.658	985.56
330.887	970.56
331.115	811.56
331.344	696.56
331.572	698.56
331.801	725.56
332.03	685.56
332.258	628.56
332.486	635.56
332.715	637.56
332.943	687.56
333.172	672.56
333.4	702.56
333.629	707.56
333.857	688.56
334.085	654.56
334.314	675.56
334.542	644.56
334.771	684.56
334.999	661.56
335.227	656.56
335.455	648.56
335.684	632.56
335.912	619.56
336.14	623.56
336.369	655.56
336.597	660.56
336.825	649.56
337.053	600.56
337.281	618.56
337.51	604.56
337.738	632.56
337.966	627.56
338.194	638.56
338.422	620.56
338.65	592.56
338.878	576.56
339.106	594.56
339.334	586.56
339.562	585.56
339.79	579.56
340.018	586.56
340.246	600.56
340.474	628.56
340.702	602.56
340.93	578.56
341.158	593.56
341.386	612.56
341.614	613.56
341.842	582.56
342.07	578.56
342.298	571.56
342.526	572.56
342.754	546.56
342.981	578.56
343.209	596.56
343.437	611.56
343.665	620.56
343.893	659.56
344.12	637.56
344.348	627.56
344.576	627.56
344.804	677.56
345.031	678.56
345.259	638.56
345.487	609.56
345.714	575.56
345.942	572.56
346.17	554.56
346.397	564.56
346.625	581.56
346.853	568.56
347.08	547.56
347.308	592.56
347.535	613.56
347.763	619.56
347.99	610.56
348.218	642.56
348.445	629.56
348.673	588.56
348.9	568.56
349.128	566.56
349.355	536.56
349.583	565.56
349.81	556.56
350.037	554.56
350.265	556.56
350.492	544.56
350.72	554.56
350.947	615.56
351.174	606.56
351.402	614.56
351.629	622.56
351.856	613.56
352.083	665.56
352.311	633.56
352.538	620.56
352.765	620.56
352.992	612.56
353.22	593.56
353.447	576.56
353.674	565.56
353.901	544.56
354.128	538.56
354.355	528.56
354.583	530.56
354.81	542.56
355.037	514.56
355.264	520.56
355.491	541.56
355.718	514.56
355.945	526.56
356.172	533.56
356.399	516.56
356.626	537.56
356.853	534.56
357.08	526.56
357.307	542.56
357.534	525.56
357.761	538.56
357.988	526.56
358.215	536.56
358.441	548.56
358.668	544.56
358.895	551.56
359.122	576.56
359.349	592.56
359.576	651.56
359.802	751.56
360.029	762.56
360.256	746.56
360.483	643.56
360.709	602.56
360.936	604.56
361.163	624.56
361.39	619.56
361.616	608.56
361.843	600.56
362.07	639.56
362.296	630.56
362.523	617.56
362.749	598.56
362.976	553.56
363.203	578.56
363.429	579.56
363.656	581.56
363.882	576.56
364.109	573.56
364.335	582.56
364.562	565.56
364.788	566.56
365.015	561.56
365.241	564.56
365.468	596.56
365.694	600.56
365.92	580.56
366.147	581.56
366.373	556.56
366.599	559.56
366.826	548.56
367.052	577.56
367.278	591.56
367.505	579.56
367.731	569.56
367.957	561.56
368.184	573.56
368.41	600.56
368.636	621.56
368.862	577.56
369.089	577.56
369.315	584.56
369.541	595.56
369.767	589.56
369.993	606.56
370.219	576.56
370.445	561.56
370.672	568.56
370.898	582.56
371.124	576.56
371.35	556.56
371.576	576.56
371.802	580.56
372.028	592.56
372.254	580.56
372.48	592.56
372.706	594.56
372.932	587.56
373.158	591.56
373.384	579.56
373.61	590.56
373.835	570.56
374.061	598.56
374.287	622.56
374.513	618.56
374.739	587.56
374.965	601.56
375.191	610.56
375.416	584.56
375.642	596.56
375.868	601.56
376.094	586.56
376.319	589.56
376.545	585.56
376.771	567.56
376.997	583.56
377.222	569.56
377.448	606.56
377.674	557.56
377.899	560.56
378.125	568.56
378.35	574.56
378.576	570.56
378.802	564.56
379.027	588.56
379.253	577.56
379.478	580.56
379.704	586.56
379.929	606.56
380.155	596.56
380.38	585.56
380.606	607.56
380.831	600.56
381.057	607.56
381.282	613.56
381.507	573.56
381.733	585.56
381.958	593.56
382.184	606.56
382.409	604.56
382.634	600.56
382.86	600.56
383.085	641.56
383.31	630.56
383.535	620.56
383.761	636.56
383.986	651.56
384.211	643.56
384.436	658.56
384.662	651.56
384.887	657.56
385.112	666.56
385.337	664.56
385.562	688.56
385.787	682.56
386.013	688.56
386.238	707.56
386.463	684.56
386.688	680.56
386.913	668.56
387.138	641.56
387.363	661.56
387.588	660.56
387.813	660.56
388.038	650.56
388.263	667.56
388.488	694.56
388.713	674.56
388.938	685.56
389.163	676.56
389.387	673.56
389.612	649.56
389.837	671.56
390.062	642.56
390.287	665.56
390.512	689.56
390.736	691.56
390.961	680.56
391.186	698.56
391.411	732.56
391.636	748.56
391.86	735.56
392.085	720.56
392.31	720.56
392.534	739.56
392.759	741.56
392.984	685.56
393.208	704.56
393.433	714.56
393.658	713.56
393.882	688.56
394.107	675.56
394.331	721.56
394.556	700.56
394.78	669.56
395.005	700.56
395.229	713.56
395.454	728.56
395.678	742.56
395.903	779.56
396.127	752.56
396.352	731.56
396.576	704.56
396.801	712.56
397.025	734.56
397.249	753.56
397.474	745.56
397.698	744.56
397.922	755.56
398.147	792.56
398.371	814.56
398.595	804.56
398.82	848.56
399.044	932.56
399.268	1007.56
399.492	1079.56
399.717	1103.56
399.941	1067.56
400.165	1036.56
400.389	974.56
400.613	912.56
400.837	874.56
401.062	860.56
401.286	828.56
401.51	826.56
401.734	833.56
401.958	883.56
402.182	909.56
402.406	926.56
402.63	952.56
402.854	895.56
403.078	875.56
403.302	909.56
403.526	896.56
403.75	931.56
403.974	915.56
404.198	914.56
404.422	929.56
404.645	904.56
404.869	915.56
405.093	968.56
405.317	973.56
405.541	930.56
405.765	952.56
405.988	976.56
406.212	1055.56
406.436	1071.56
406.66	1045.56
406.883	1026.56
407.107	1072.56
407.331	1102.56
407.555	1152.56
407.778	1102.56
408.002	1013.56
408.226	957.56
408.449	928.56
408.673	969.56
408.896	986.56
409.12	961.56
409.344	910.56
409.567	892.56
409.791	866.56
410.014	874.56
410.238	880.56
410.461	886.56
410.685	876.56
410.908	900.56
411.132	920.56
411.355	903.56
411.578	882.56
411.802	844.56
412.025	874.56
412.249	851.56
412.472	836.56
412.695	814.56
412.919	804.56
413.142	804.56
413.365	803.56
413.589	773.56
413.812	804.56
414.035	805.56
414.258	831.56
414.482	836.56
414.705	801.56
414.928	802.56
415.151	797.56
415.374	827.56
415.597	779.56
415.821	794.56
416.044	786.56
416.267	808.56
416.49	780.56
416.713	775.56
416.936	804.56
417.159	816.56
417.382	828.56
417.605	826.56
417.828	822.56
418.051	820.56
418.274	832.56
418.497	824.56
418.72	828.56
418.943	818.56
419.166	836.56
419.389	876.56
419.611	866.56
419.834	854.56
420.057	841.56
420.28	834.56
420.503	817.56
420.726	835.56
420.948	870.56
421.171	888.56
421.394	883.56
421.617	828.56
421.839	836.56
422.062	860.56
422.285	902.56
422.507	943.56
422.73	999.56
422.953	886.56
423.175	874.56
423.398	903.56
423.621	892.56
423.843	909.56
424.066	899.56
424.288	917.56
424.511	960.56
424.733	1024.56
424.956	1062.56
425.178	978.56
425.401	995.56
425.623	948.56
425.846	851.56
426.068	877.56
426.291	835.56
426.513	826.56
426.735	856.56
426.958	990.56
427.18	1112.56
427.402	1310.56
427.625	1320.56
427.847	1022.56
428.069	836.56
428.292	810.56
428.514	789.56
428.736	776.56
428.958	746.56
429.181	753.56
429.403	744.56
429.625	820.56
429.847	841.56
430.069	900.56
430.292	837.56
430.514	763.56
430.736	751.56
430.958	724.56
431.18	714.56
431.402	742.56
431.624	710.56
431.846	717.56
432.068	750.56
432.29	735.56
432.512	725.56
432.734	750.56
432.956	734.56
433.178	777.56
433.4	796.56
433.622	763.56
433.844	734.56
434.066	771.56
434.287	752.56
434.509	786.56
434.731	823.56
434.953	841.56
435.175	865.56
435.397	862.56
435.618	879.56
435.84	958.56
436.062	1028.56
436.284	1019.56
436.505	852.56
436.727	840.56
436.949	767.56
437.17	758.56
437.392	787.56
437.614	814.56
437.835	953.56
438.057	1057.56
438.278	1084.56
438.5	1096.56
438.721	1113.56
438.943	978.56
439.165	817.56
439.386	805.56
439.608	847.56
439.829	909.56
440.05	956.56
440.272	997.56
440.493	877.56
440.715	834.56
440.936	805.56
441.158	818.56
441.379	842.56
441.6	901.56
441.822	909.56
442.043	1009.56
442.264	1050.56
442.486	984.56
442.707	882.56
442.928	949.56
443.149	963.56
443.371	1006.56
443.592	1088.56
443.813	1133.56
444.034	1057.56
444.255	959.56
444.476	924.56
444.698	934.56
444.919	925.56
445.14	975.56
445.361	975.56
445.582	1074.56
445.803	1216.56
446.024	1239.56
446.245	1137.56
446.466	999.56
446.687	826.56
446.908	803.56
447.129	772.56
447.35	760.56
447.571	761.56
447.792	749.56
448.013	776.56
448.234	816.56
448.455	960.56
448.675	1067.56
448.896	1084.56
449.117	928.56
449.338	1032.56
449.559	1156.56
449.779	1062.56
450	847.56
450.221	790.56
450.442	744.56
450.662	758.56
450.883	831.56
451.104	830.56
451.324	766.56
451.545	736.56
451.766	714.56
451.986	677.56
452.207	682.56
452.428	673.56
452.648	702.56
452.869	705.56
453.089	736.56
453.31	724.56
453.53	727.56
453.751	692.56
453.971	757.56
454.192	768.56
454.412	693.56
454.633	670.56
454.853	683.56
455.073	667.56
455.294	758.56
455.514	795.56
455.734	706.56
455.955	632.56
456.175	653.56
456.395	643.56
456.616	630.56
456.836	628.56
457.056	619.56
457.276	607.56
457.497	608.56
457.717	636.56
457.937	633.56
458.157	650.56
458.377	719.56
458.598	788.56
458.818	1030.56
459.038	1043.56
459.258	896.56
459.478	808.56
459.698	758.56
459.918	777.56
460.138	790.56
460.358	789.56
460.578	812.56
460.798	802.56
461.018	802.56
461.238	779.56
461.458	802.56
461.678	761.56
461.898	808.56
462.118	816.56
462.338	852.56
462.558	884.56
462.777	887.56
462.997	960.56
463.217	961.56
463.437	924.56
463.657	911.56
463.876	885.56
464.096	909.56
464.316	903.56
464.536	920.56
464.755	898.56
464.975	977.56
465.195	1212.56
465.414	1115.56
465.634	840.56
465.854	792.56
466.073	748.56
466.293	742.56
466.512	691.56
466.732	698.56
466.951	708.56
467.171	696.56
467.391	755.56
467.61	792.56
467.829	732.56
468.049	680.56
468.268	678.56
468.488	681.56
468.707	661.56
468.927	687.56
469.146	666.56
469.365	700.56
469.585	683.56
469.804	741.56
470.023	763.56
470.243	734.56
470.462	789.56
470.681	811.56
470.901	740.56
471.12	722.56
471.339	712.56
471.558	700.56
471.777	667.56
471.997	676.56
472.216	656.56
472.435	674.56
472.654	679.56
472.873	647.56
473.092	673.56
473.311	636.56
473.53	660.56
473.749	697.56
473.968	838.56
474.187	912.56
474.406	802.56
474.625	706.56
474.844	669.56
475.063	661.56
475.282	650.56
475.501	680.56
475.72	692.56
475.939	670.56
476.158	730.56
476.377	733.56
476.596	706.56
476.814	742.56
477.033	721.56
477.252	738.56
477.471	741.56
477.69	763.56
477.908	770.56
478.127	797.56
478.346	780.56
478.564	833.56
478.783	830.56
479.002	848.56
479.22	835.56
479.439	897.56
479.658	888.56
479.876	878.56
480.095	901.56
480.313	941.56
480.532	918.56
480.751	848.56
480.969	848.56
481.188	813.56
481.406	822.56
481.624	801.56
481.843	781.56
482.061	797.56
482.28	785.56
482.498	750.56
482.717	757.56
482.935	785.56
483.153	775.56
483.372	764.56
483.59	778.56
483.808	784.56
484.027	783.56
484.245	792.56
484.463	790.56
484.681	805.56
484.9	821.56
485.118	807.56
485.336	817.56
485.554	833.56
485.772	821.56
485.99	832.56
486.209	854.56
486.427	854.56
486.645	892.56
486.863	900.56
487.081	864.56
487.299	841.56
487.517	851.56
487.735	840.56
487.953	868.56
488.171	838.56
488.389	833.56
488.607	837.56
488.825	819.56
489.043	843.56
489.261	843.56
489.479	837.56
489.696	831.56
489.914	821.56
490.132	863.56
490.35	874.56
490.568	886.56
490.786	886.56
491.003	919.56
491.221	938.56
491.439	947.56
491.657	995.56
491.874	997.56
492.092	994.56
492.31	984.56
492.527	1006.56
492.745	970.56
492.963	992.56
493.18	979.56
493.398	971.56
493.615	1014.56
493.833	1008.56
494.05	1009.56
494.268	998.56
494.485	994.56
494.703	970.56
494.92	975.56
495.138	986.56
495.355	970.56
495.573	1024.56
495.79	986.56
496.008	996.56
496.225	974.56
496.442	972.56
496.66	1025.56
496.877	993.56
497.094	1012.56
497.312	1032.56
497.529	1046.56
497.746	1051.56
497.963	1079.56
498.181	1104.56
498.398	1162.56
498.615	1243.56
498.832	1269.56
499.049	1293.56
499.267	1385.56
499.484	1428.56
499.701	1562.56
499.918	1674.56
500.135	1841.56
500.352	1930.56
500.569	1926.56
500.786	1885.56
501.003	1795.56
501.22	1648.56
501.437	1552.56
501.654	1496.56
