Data from TestCu_HRD10591_00084.txt Node
Date: Thu Oct 05 14:06:04 EDT 2023
User: Yrep
Spectrometer: HR+D1059
Trigger mode: 1
Integration Time (sec): 1.000000E-1
Scans to average: 1
Electric dark correction enabled: true
Nonlinearity correction enabled: false
Boxcar width: 0
XAxis mode: Wavelengths
Number of Pixels in Spectrum: 2048
>>>>>Begin Spectral Data<<<<<
223.165	-20
223.4	-20
223.635	-20
223.869	-24
224.104	-24
224.338	-16
224.573	-6
224.808	-1
225.042	-9
225.277	-1
225.511	-13
225.746	0
225.98	15
226.215	15
226.449	21
226.683	19
226.918	17
227.152	27
227.387	43
227.621	28
227.856	48
228.09	50
228.324	72
228.559	74
228.793	70
229.027	106
229.262	118
229.496	138
229.73	151
229.964	172
230.199	128
230.433	130
230.667	116
230.901	108
231.136	117
231.37	105
231.604	126
231.838	124
232.072	106
232.306	106
232.541	127
232.775	125
233.009	96
233.243	125
233.477	120
233.711	120
233.945	117
234.179	112
234.413	122
234.647	111
234.881	119
235.115	118
235.349	136
235.583	130
235.817	123
236.051	134
236.285	129
236.519	125
236.753	142
236.987	178
237.221	226
237.455	216
237.689	151
237.922	142
238.156	126
238.39	120
238.624	121
238.858	118
239.091	116
239.325	128
239.559	149
239.793	135
240.027	148
240.26	161
240.494	163
240.728	149
240.961	139
241.195	138
241.429	142
241.662	123
241.896	132
242.13	124
242.363	139
242.597	122
242.83	128
243.064	143
243.298	122
243.531	144
243.765	146
243.998	139
244.232	130
244.465	133
244.699	128
244.932	133
245.166	145
245.399	161
245.633	152
245.866	148
246.099	134
246.333	151
246.566	158
246.8	161
247.033	177
247.266	151
247.5	157
247.733	166
247.966	159
248.2	177
248.433	178
248.666	171
248.899	182
249.133	204
249.366	214
249.599	178
249.832	182
250.066	179
250.299	184
250.532	192
250.765	209
250.998	209
251.231	217
251.465	196
251.698	178
251.931	182
252.164	189
252.397	182
252.63	196
252.863	208
253.096	224
253.329	220
253.562	213
253.795	217
254.028	211
254.261	241
254.494	238
254.727	293
254.96	262
255.193	214
255.426	211
255.659	200
255.892	219
256.124	185
256.357	188
256.59	196
256.823	186
257.056	209
257.289	202
257.521	198
257.754	192
257.987	188
258.22	192
258.452	184
258.685	210
258.918	203
259.151	213
259.383	211
259.616	216
259.849	235
260.081	242
260.314	243
260.547	234
260.779	216
261.012	216
261.244	232
261.477	228
261.71	239
261.942	263
262.175	252
262.407	242
262.64	218
262.872	223
263.105	216
263.337	222
263.57	215
263.802	221
264.035	212
264.267	218
264.499	215
264.732	194
264.964	203
265.197	212
265.429	214
265.661	213
265.894	213
266.126	230
266.358	234
266.591	227
266.823	209
267.055	231
267.287	226
267.52	238
267.752	238
267.984	238
268.216	225
268.448	244
268.681	247
268.913	257
269.145	294
269.377	258
269.609	271
269.841	277
270.073	276
270.306	319
270.538	330
270.77	307
271.002	279
271.234	299
271.466	325
271.698	333
271.93	319
272.162	322
272.394	306
272.626	280
272.858	266
273.09	262
273.322	274
273.553	247
273.785	259
274.017	256
274.249	279
274.481	272
274.713	283
274.945	274
275.176	263
275.408	271
275.64	278
275.872	279
276.104	279
276.335	298
276.567	314
276.799	342
277.031	350
277.262	329
277.494	323
277.726	296
277.957	271
278.189	282
278.421	287
278.652	281
278.884	286
279.115	277
279.347	271
279.579	281
279.81	276
280.042	283
280.273	288
280.505	268
280.736	283
280.968	279
281.199	288
281.431	298
281.662	286
281.894	302
282.125	321
282.356	364
282.588	374
282.819	337
283.051	300
283.282	293
283.513	296
283.745	307
283.976	314
284.207	305
284.439	311
284.67	288
284.901	319
285.132	305
285.364	312
285.595	310
285.826	307
286.057	305
286.288	306
286.52	314
286.751	302
286.982	327
287.213	317
287.444	332
287.675	314
287.906	346
288.138	348
288.369	357
288.6	343
288.831	317
289.062	302
289.293	333
289.524	331
289.755	321
289.986	323
290.217	319
290.448	331
290.679	326
290.91	335
291.141	319
291.371	300
291.602	303
291.833	330
292.064	314
292.295	336
292.526	334
292.757	329
292.987	345
293.218	334
293.449	340
293.68	339
293.91	338
294.141	342
294.372	329
294.603	327
294.833	328
295.064	336
295.295	345
295.525	347
295.756	387
295.987	428
296.217	440
296.448	377
296.679	338
296.909	344
297.14	362
297.37	359
297.601	359
297.831	357
298.062	380
298.292	363
298.523	373
298.753	369
298.984	364
299.214	360
299.445	372
299.675	386
299.905	372
300.136	374
300.366	371
300.597	367
300.827	414
301.057	417
301.288	417
301.518	402
301.748	397
301.979	419
302.209	401
302.439	415
302.669	402
302.9	400
303.13	401
303.36	409
303.59	419
303.82	436
304.051	400
304.281	394
304.511	405
304.741	392
304.971	402
305.201	380
305.431	383
305.661	392
305.891	412
306.121	435
306.352	427
306.582	427
306.812	395
307.042	402
307.272	402
307.502	402
307.731	390
307.961	389
308.191	418
308.421	398
308.651	423
308.881	406
309.111	433
309.341	438
309.571	462
309.8	470
310.03	481
310.26	491
310.49	505
310.72	529
310.949	533
311.179	503
311.409	460
311.639	478
311.868	487
312.098	491
312.328	530
312.557	529
312.787	543
313.017	512
313.246	493
313.476	461
313.706	479
313.935	500
314.165	546
314.394	523
314.624	508
314.853	490
315.083	485
315.312	442
315.542	456
315.771	464
316.001	456
316.23	450
316.46	450
316.689	482
316.919	508
317.148	487
317.377	484
317.607	492
317.836	473
318.065	459
318.295	456
318.524	467
318.753	491
318.983	496
319.212	483
319.441	482
319.67	497
319.9	452
320.129	450
320.358	485
320.587	496
320.816	517
321.046	514
321.275	499
321.504	516
321.733	505
321.962	544
322.191	566
322.42	618
322.649	613
322.878	612
323.108	683
323.337	708
323.566	773
323.795	859
324.024	1168
324.253	2035
324.482	3486
324.71	5077
324.939	4529
325.168	1959
325.397	947
325.626	741
325.855	675
326.084	682
326.313	719
326.542	798
326.77	1115
326.999	1876
327.228	2959
327.457	3796
327.686	2440
327.914	1190
328.143	886
328.372	829
328.6	814
328.829	828
329.058	882
329.287	802
329.515	689
329.744	625
329.972	627
330.201	700
330.43	814
330.658	922
330.887	948
331.115	774
331.344	690
331.572	679
331.801	694
332.03	656
332.258	625
332.486	619
332.715	628
332.943	664
333.172	652
333.4	663
333.629	684
333.857	690
334.085	683
334.314	667
334.542	657
334.771	657
334.999	667
335.227	663
335.455	637
335.684	630
335.912	622
336.14	626
336.369	644
336.597	650
336.825	624
337.053	593
337.281	592
337.51	599
337.738	613
337.966	634
338.194	639
338.422	596
338.65	574
338.878	588
339.106	564
339.334	566
339.562	590
339.79	585
340.018	583
340.246	591
340.474	596
340.702	568
340.93	566
341.158	592
341.386	577
341.614	611
341.842	588
342.07	565
342.298	562
342.526	570
342.754	551
342.981	573
343.209	577
343.437	622
343.665	643
343.893	633
344.12	639
344.348	642
344.576	621
344.804	646
345.031	629
345.259	637
345.487	619
345.714	569
345.942	564
346.17	572
346.397	584
346.625	577
346.853	548
347.08	572
347.308	597
347.535	591
347.763	617
347.99	604
348.218	610
348.445	640
348.673	594
348.9	556
349.128	550
349.355	544
349.583	562
349.81	545
350.037	555
350.265	533
350.492	552
350.72	568
350.947	594
351.174	590
351.402	614
351.629	581
351.856	622
352.083	649
352.311	647
352.538	650
352.765	593
352.992	599
353.22	579
353.447	566
353.674	549
353.901	539
354.128	567
354.355	542
354.583	528
354.81	538
355.037	530
355.264	528
355.491	515
355.718	509
355.945	523
356.172	537
356.399	531
356.626	532
356.853	535
357.08	550
357.307	540
357.534	547
357.761	539
357.988	524
358.215	522
358.441	535
358.668	532
358.895	578
359.122	584
359.349	597
359.576	644
359.802	714
360.029	736
360.256	698
360.483	624
360.709	594
360.936	590
361.163	603
361.39	620
361.616	602
361.843	599
362.07	617
362.296	623
362.523	607
362.749	599
362.976	567
363.203	587
363.429	563
363.656	544
363.882	554
364.109	551
364.335	585
364.562	562
364.788	574
365.015	563
365.241	571
365.468	610
365.694	596
365.92	587
366.147	556
366.373	583
366.599	550
366.826	566
367.052	567
367.278	549
367.505	544
367.731	559
367.957	565
368.184	587
368.41	609
368.636	620
368.862	619
369.089	582
369.315	556
369.541	549
369.767	574
369.993	573
370.219	556
370.445	576
370.672	569
370.898	560
371.124	584
371.35	582
371.576	553
371.802	575
372.028	570
372.254	581
372.48	599
372.706	582
372.932	569
373.158	585
373.384	579
373.61	591
373.835	598
374.061	592
374.287	593
374.513	609
374.739	615
374.965	614
375.191	582
375.416	601
375.642	587
375.868	595
376.094	585
376.319	578
376.545	589
376.771	578
376.997	585
377.222	593
377.448	580
377.674	571
377.899	554
378.125	591
378.35	582
378.576	590
378.802	570
379.027	587
379.253	556
379.478	580
379.704	580
379.929	600
380.155	616
380.38	583
380.606	595
380.831	579
381.057	590
381.282	579
381.507	611
381.733	592
381.958	598
382.184	595
382.409	610
382.634	589
382.86	603
383.085	610
383.31	608
383.535	630
383.761	622
383.986	662
384.211	632
384.436	626
384.662	665
384.887	664
385.112	658
385.337	688
385.562	690
385.787	673
386.013	706
386.238	691
386.463	682
386.688	684
386.913	685
387.138	645
387.363	648
387.588	677
387.813	658
388.038	680
388.263	650
388.488	665
388.713	714
388.938	693
389.163	675
389.387	658
389.612	662
389.837	648
390.062	645
390.287	652
390.512	656
390.736	683
390.961	693
391.186	712
391.411	699
391.636	736
391.86	730
392.085	743
392.31	721
392.534	738
392.759	704
392.984	701
393.208	703
393.433	689
393.658	704
393.882	679
394.107	692
394.331	720
394.556	682
394.78	700
395.005	717
395.229	736
395.454	764
395.678	753
395.903	756
396.127	744
396.352	730
396.576	726
396.801	695
397.025	705
397.249	741
397.474	721
397.698	741
397.922	773
398.147	810
398.371	804
398.595	813
398.82	850
399.044	911
399.268	994
399.492	1075
399.717	1105
399.941	1037
400.165	1009
400.389	985
400.613	883
400.837	837
401.062	834
401.286	835
401.51	828
401.734	840
401.958	874
402.182	885
402.406	927
402.63	895
402.854	902
403.078	884
403.302	890
403.526	899
403.75	889
403.974	915
404.198	946
404.422	916
404.645	919
404.869	920
405.093	924
405.317	936
405.541	913
405.765	927
405.988	968
406.212	1051
406.436	1094
406.66	1066
406.883	1010
407.107	1070
407.331	1100
407.555	1130
407.778	1111
408.002	998
408.226	959
408.449	942
408.673	971
408.896	958
409.12	972
409.344	899
409.567	882
409.791	874
410.014	854
410.238	857
410.461	885
410.685	892
410.908	909
411.132	946
411.355	929
411.578	869
411.802	828
412.025	847
412.249	873
412.472	842
412.695	805
412.919	807
413.142	806
413.365	804
413.589	784
413.812	777
414.035	776
414.258	805
414.482	810
414.705	794
414.928	776
415.151	792
415.374	785
415.597	807
415.821	773
416.044	779
416.267	789
416.49	787
416.713	804
416.936	809
417.159	809
417.382	798
417.605	792
417.828	821
418.051	854
418.274	828
418.497	785
418.72	814
418.943	792
419.166	820
419.389	849
419.611	843
419.834	812
420.057	814
420.28	817
420.503	807
420.726	827
420.948	855
421.171	873
421.394	856
421.617	839
421.839	823
422.062	835
422.285	892
422.507	945
422.73	994
422.953	898
423.175	832
423.398	872
423.621	884
423.843	880
424.066	857
424.288	913
424.511	919
424.733	1019
424.956	1050
425.178	986
425.401	985
425.623	945
425.846	872
426.068	867
426.291	838
426.513	832
426.735	870
426.958	968
427.18	1090
427.402	1263
427.625	1277
427.847	994
428.069	852
428.292	807
428.514	768
428.736	760
428.958	772
429.181	751
429.403	740
429.625	782
429.847	836
430.069	852
430.292	806
430.514	737
430.736	759
430.958	755
431.18	720
431.402	734
431.624	732
431.846	720
432.068	734
432.29	724
432.512	722
432.734	763
432.956	750
433.178	772
433.4	747
433.622	755
433.844	747
434.066	756
434.287	769
434.509	762
434.731	783
434.953	794
435.175	802
435.397	838
435.618	874
435.84	956
436.062	1054
436.284	990
436.505	849
436.727	810
436.949	795
437.17	770
437.392	763
437.614	810
437.835	919
438.057	1030
438.278	1083
438.5	1103
438.721	1090
438.943	945
439.165	834
439.386	835
439.608	823
439.829	899
440.05	978
440.272	968
440.493	848
440.715	821
440.936	789
441.158	798
441.379	818
441.6	860
441.822	933
442.043	970
442.264	1006
442.486	998
442.707	911
442.928	878
443.149	959
443.371	1003
443.592	1083
443.813	1127
444.034	1069
444.255	944
444.476	934
444.698	932
444.919	934
445.14	994
445.361	979
445.582	1071
445.803	1200
446.024	1212
446.245	1126
446.466	986
446.687	829
446.908	800
447.129	775
447.35	722
447.571	738
447.792	767
448.013	768
448.234	844
448.455	902
448.675	1040
448.896	1014
449.117	920
449.338	968
449.559	1138
449.779	1041
450	843
450.221	780
450.442	772
450.662	766
450.883	824
451.104	830
451.324	789
451.545	710
451.766	689
451.986	692
452.207	682
452.428	680
452.648	691
452.869	692
453.089	717
453.31	720
453.53	666
453.751	693
453.971	725
454.192	772
454.412	663
454.633	638
454.853	644
455.073	659
455.294	753
455.514	790
455.734	678
455.955	641
456.175	628
456.395	618
456.616	619
456.836	617
457.056	613
457.276	600
457.497	626
457.717	619
457.937	667
458.157	686
458.377	694
458.598	801
458.818	1014
459.038	1021
459.258	898
459.478	759
459.698	782
459.918	750
460.138	785
460.358	792
460.578	770
460.798	792
461.018	792
461.238	783
461.458	801
461.678	774
461.898	800
462.118	804
462.338	832
462.558	873
462.777	864
462.997	904
463.217	995
463.437	945
463.657	894
463.876	856
464.096	899
464.316	910
464.536	900
464.755	892
464.975	1010
465.195	1208
465.414	1105
465.634	855
465.854	764
466.073	753
466.293	730
466.512	696
466.732	709
466.951	687
467.171	728
467.391	766
467.61	787
467.829	735
468.049	688
468.268	678
468.488	651
468.707	659
468.927	656
469.146	652
469.365	695
469.585	679
469.804	724
470.023	784
470.243	736
470.462	784
470.681	784
470.901	718
471.12	700
471.339	689
471.558	683
471.777	668
471.997	669
472.216	662
472.435	646
472.654	664
472.873	651
473.092	678
473.311	664
473.53	654
473.749	678
473.968	822
474.187	900
474.406	782
474.625	694
474.844	642
475.063	666
475.282	652
475.501	671
475.72	679
475.939	667
476.158	671
476.377	707
476.596	732
476.814	715
477.033	734
477.252	716
477.471	738
477.69	737
477.908	781
478.127	768
478.346	765
478.564	779
478.783	807
479.002	838
479.22	834
479.439	878
479.658	885
479.876	868
480.095	880
480.313	910
480.532	856
480.751	872
480.969	841
481.188	808
481.406	807
481.624	772
481.843	799
482.061	772
482.28	755
482.498	750
482.717	760
482.935	762
483.153	799
483.372	769
483.59	762
483.808	759
484.027	743
484.245	779
484.463	778
484.681	796
484.9	811
485.118	809
485.336	803
485.554	787
485.772	843
485.99	826
486.209	846
486.427	854
486.645	903
486.863	878
487.081	872
487.299	843
487.517	829
487.735	837
487.953	844
488.171	810
488.389	826
488.607	831
488.825	792
489.043	810
489.261	809
489.479	836
489.696	834
489.914	853
490.132	862
490.35	830
490.568	888
490.786	914
491.003	893
491.221	952
491.439	958
491.657	965
491.874	971
492.092	977
492.31	1001
492.527	972
492.745	980
492.963	946
493.18	993
493.398	1000
493.615	1006
493.833	998
494.05	1004
494.268	987
494.485	999
494.703	987
494.92	942
495.138	949
495.355	976
495.573	987
495.79	1002
496.008	967
496.225	980
496.442	973
496.66	983
496.877	1004
497.094	1011
497.312	1040
497.529	1056
497.746	1039
497.963	1045
498.181	1105
498.398	1161
498.615	1224
498.832	1265
499.049	1292
499.267	1355
499.484	1458
499.701	1545
499.918	1668
500.135	1817
500.352	1890
500.569	1882
500.786	1821
501.003	1751
501.22	1672
501.437	1550
501.654	1487
501.871	1423
502.088	1315
502.305	1210
502.522	1216
502.739	1140
502.956	1086
503.172	1108
503.389	1063
503.606	1074
503.823	1029
504.04	1040
504.256	987
504.473	1031
504.69	1045
504.907	999
505.123	986
505.34	976
505.557	913
505.773	942
505.99	937
506.207	923
506.423	902
506.64	913
506.856	915
507.073	904
507.289	903
507.506	923
507.722	967
507.939	935
508.155	889
508.372	848
508.588	856
508.805	831
509.021	874
509.238	898
509.454	851
509.67	839
509.887	846
510.103	841
510.319	998
510.536	1739
510.752	2804
510.968	1243
511.184	870
511.401	828
511.617	795
511.833	783
512.049	772
512.265	800
512.481	768
512.698	808
512.914	770
513.13	790
513.346	780
513.562	790
513.778	795
513.994	846
514.21	858
514.426	961
514.642	1087
514.858	1110
515.074	1334
515.29	2202
515.506	3332
515.721	1638
515.937	1089
516.153	955
516.369	902
516.585	910
516.801	895
517.016	915
517.232	934
517.448	951
517.664	933
517.879	958
518.095	962
518.311	939
518.527	886
518.742	896
518.958	912
519.173	863
519.389	846
519.605	855
519.82	863
520.036	933
520.251	972
520.467	979
520.682	962
520.898	977
521.113	1040
521.329	1227
521.544	1634
521.76	2955
521.975	5411
522.19	2992
522.406	1332
522.621	946
522.836	857
523.052	802
523.267	779
523.482	745
523.698	736
523.913	762
524.128	770
524.343	724
524.559	714
524.774	716
524.989	728
525.204	755
525.419	707
525.634	676
525.849	668
526.064	672
526.28	657
526.495	642
526.71	663
526.925	635
527.14	623
527.355	646
527.57	636
527.785	649
527.999	643
528.214	663
528.429	655
528.644	666
528.859	664
529.074	726
529.289	853
529.503	1034
529.718	792
529.933	714
530.148	689
530.363	654
530.577	642
530.792	652
531.007	652
531.221	643
531.436	631
531.651	628
531.865	640
532.08	639
532.295	640
532.509	629
532.724	636
532.938	633
533.153	629
533.367	634
533.582	656
533.796	617
534.011	641
534.225	648
534.44	613
534.654	617
534.868	615
535.083	624
535.297	624
535.511	640
535.726	635
535.94	662
536.154	634
536.369	636
536.583	622
536.797	616
537.011	603
537.225	596
537.44	584
537.654	592
537.868	616
538.082	612
538.296	625
538.51	590
538.724	580
538.938	643
539.153	612
539.367	643
539.581	628
539.795	600
540.009	594
540.222	618
540.436	608
540.65	619
540.864	622
541.078	656
541.292	626
541.506	613
541.72	620
541.934	618
542.147	616
542.361	616
542.575	582
542.789	592
543.002	590
543.216	614
543.43	621
543.644	598
543.857	616
544.071	622
544.285	625
544.498	591
544.712	618
544.925	607
545.139	591
545.352	610
545.566	622
545.779	613
545.993	615
546.206	600
546.42	606
546.633	613
546.847	615
547.06	610
547.274	590
547.487	615
547.7	609
547.914	606
548.127	594
548.34	601
548.554	606
548.767	600
548.98	582
549.193	583
549.407	618
549.62	576
549.833	613
550.046	600
550.259	594
550.473	576
550.686	590
550.899	575
551.112	584
551.325	567
551.538	584
551.751	564
551.964	589
552.177	582
552.39	598
552.603	611
552.816	622
553.029	634
553.242	655
553.455	643
553.667	705
553.88	679
554.093	652
554.306	640
554.519	611
554.732	603
554.944	582
555.157	565
555.37	560
555.583	574
555.795	526
556.008	534
556.221	532
556.433	531
556.646	515
556.859	520
557.071	542
557.284	501
557.496	529
557.709	508
557.921	528
558.134	526
558.346	523
558.559	509
558.771	513
558.984	503
559.196	495
559.409	495
559.621	526
559.833	494
560.046	500
560.258	500
560.47	514
560.683	516
560.895	508
561.107	486
561.32	481
561.532	486
561.744	482
561.956	519
562.168	510
562.381	500
562.593	505
562.805	505
