Data from TestCu_HRD10591_00073.txt Node
Date: Thu Oct 05 14:05:53 EDT 2023
User: Yrep
Spectrometer: HR+D1059
Trigger mode: 1
Integration Time (sec): 1.000000E-1
Scans to average: 1
Electric dark correction enabled: true
Nonlinearity correction enabled: false
Boxcar width: 0
XAxis mode: Wavelengths
Number of Pixels in Spectrum: 2048
>>>>>Begin Spectral Data<<<<<
223.165	-23.81
223.4	-23.81
223.635	-23.81
223.869	-23.81
224.104	-16.81
224.338	-18.81
224.573	-17.81
224.808	-12.81
225.042	-12.81
225.277	0.19
225.511	-9.81
225.746	7.19
225.98	16.19
226.215	16.19
226.449	24.19
226.683	26.19
226.918	21.19
227.152	25.19
227.387	46.19
227.621	34.19
227.856	45.19
228.09	47.19
228.324	43.19
228.559	65.19
228.793	49.19
229.027	104.19
229.262	102.19
229.496	130.19
229.73	140.19
229.964	139.19
230.199	108.19
230.433	113.19
230.667	126.19
230.901	121.19
231.136	117.19
231.37	99.19
231.604	109.19
231.838	100.19
232.072	94.19
232.306	108.19
232.541	104.19
232.775	109.19
233.009	113.19
233.243	118.19
233.477	120.19
233.711	117.19
233.945	108.19
234.179	103.19
234.413	112.19
234.647	95.19
234.881	117.19
235.115	102.19
235.349	121.19
235.583	131.19
235.817	132.19
236.051	150.19
236.285	132.19
236.519	124.19
236.753	136.19
236.987	169.19
237.221	229.19
237.455	209.19
237.689	157.19
237.922	136.19
238.156	131.19
238.39	108.19
238.624	126.19
238.858	127.19
239.091	125.19
239.325	126.19
239.559	126.19
239.793	108.19
240.027	127.19
240.26	164.19
240.494	149.19
240.728	137.19
240.961	131.19
241.195	136.19
241.429	131.19
241.662	123.19
241.896	113.19
242.13	127.19
242.363	135.19
242.597	114.19
242.83	131.19
243.064	132.19
243.298	132.19
243.531	135.19
243.765	136.19
243.998	126.19
244.232	142.19
244.465	123.19
244.699	152.19
244.932	131.19
245.166	118.19
245.399	132.19
245.633	155.19
245.866	142.19
246.099	130.19
246.333	134.19
246.566	120.19
246.8	144.19
247.033	149.19
247.266	158.19
247.5	167.19
247.733	178.19
247.966	161.19
248.2	181.19
248.433	177.19
248.666	188.19
248.899	200.19
249.133	182.19
249.366	196.19
249.599	201.19
249.832	159.19
250.066	161.19
250.299	169.19
250.532	176.19
250.765	203.19
250.998	196.19
251.231	211.19
251.465	196.19
251.698	169.19
251.931	181.19
252.164	189.19
252.397	205.19
252.63	187.19
252.863	196.19
253.096	204.19
253.329	224.19
253.562	195.19
253.795	196.19
254.028	199.19
254.261	224.19
254.494	215.19
254.727	275.19
254.96	267.19
255.193	209.19
255.426	196.19
255.659	179.19
255.892	197.19
256.124	189.19
256.357	199.19
256.59	188.19
256.823	182.19
257.056	182.19
257.289	188.19
257.521	179.19
257.754	182.19
257.987	190.19
258.22	202.19
258.452	205.19
258.685	200.19
258.918	190.19
259.151	208.19
259.383	193.19
259.616	194.19
259.849	220.19
260.081	225.19
260.314	242.19
260.547	220.19
260.779	219.19
261.012	217.19
261.244	215.19
261.477	210.19
261.71	229.19
261.942	248.19
262.175	252.19
262.407	225.19
262.64	218.19
262.872	202.19
263.105	210.19
263.337	195.19
263.57	197.19
263.802	194.19
264.035	216.19
264.267	212.19
264.499	211.19
264.732	190.19
264.964	203.19
265.197	211.19
265.429	217.19
265.661	202.19
265.894	210.19
266.126	203.19
266.358	213.19
266.591	218.19
266.823	224.19
267.055	230.19
267.287	223.19
267.52	230.19
267.752	235.19
267.984	229.19
268.216	231.19
268.448	248.19
268.681	254.19
268.913	253.19
269.145	279.19
269.377	244.19
269.609	260.19
269.841	264.19
270.073	311.19
270.306	314.19
270.538	319.19
270.77	282.19
271.002	278.19
271.234	284.19
271.466	305.19
271.698	316.19
271.93	328.19
272.162	315.19
272.394	281.19
272.626	280.19
272.858	253.19
273.09	264.19
273.322	263.19
273.553	273.19
273.785	269.19
274.017	254.19
274.249	271.19
274.481	265.19
274.713	275.19
274.945	266.19
275.176	276.19
275.408	260.19
275.64	276.19
275.872	275.19
276.104	281.19
276.335	270.19
276.567	296.19
276.799	337.19
277.031	363.19
277.262	339.19
277.494	303.19
277.726	282.19
277.957	284.19
278.189	263.19
278.421	273.19
278.652	273.19
278.884	269.19
279.115	275.19
279.347	262.19
279.579	271.19
279.81	265.19
280.042	277.19
280.273	277.19
280.505	266.19
280.736	256.19
280.968	299.19
281.199	274.19
281.431	283.19
281.662	282.19
281.894	292.19
282.125	320.19
282.356	335.19
282.588	363.19
282.819	322.19
283.051	290.19
283.282	276.19
283.513	284.19
283.745	299.19
283.976	303.19
284.207	300.19
284.439	290.19
284.67	292.19
284.901	292.19
285.132	293.19
285.364	294.19
285.595	297.19
285.826	294.19
286.057	283.19
286.288	283.19
286.52	318.19
286.751	318.19
286.982	301.19
287.213	298.19
287.444	313.19
287.675	328.19
287.906	331.19
288.138	332.19
288.369	345.19
288.6	323.19
288.831	328.19
289.062	310.19
289.293	317.19
289.524	333.19
289.755	322.19
289.986	321.19
290.217	304.19
290.448	333.19
290.679	297.19
290.91	310.19
291.141	316.19
291.371	320.19
291.602	316.19
291.833	315.19
292.064	321.19
292.295	331.19
292.526	324.19
292.757	355.19
292.987	297.19
293.218	334.19
293.449	324.19
293.68	327.19
293.91	328.19
294.141	344.19
294.372	300.19
294.603	331.19
294.833	322.19
295.064	326.19
295.295	322.19
295.525	351.19
295.756	379.19
295.987	368.19
296.217	418.19
296.448	393.19
296.679	349.19
296.909	347.19
297.14	347.19
297.37	334.19
297.601	372.19
297.831	362.19
298.062	363.19
298.292	355.19
298.523	358.19
298.753	368.19
298.984	363.19
299.214	372.19
299.445	377.19
299.675	360.19
299.905	362.19
300.136	365.19
300.366	374.19
300.597	363.19
300.827	387.19
301.057	381.19
301.288	414.19
301.518	392.19
301.748	376.19
301.979	412.19
302.209	393.19
302.439	413.19
302.669	386.19
302.9	389.19
303.13	365.19
303.36	395.19
303.59	402.19
303.82	426.19
304.051	410.19
304.281	390.19
304.511	365.19
304.741	372.19
304.971	392.19
305.201	388.19
305.431	371.19
305.661	388.19
305.891	396.19
306.121	401.19
306.352	378.19
306.582	394.19
306.812	377.19
307.042	389.19
307.272	401.19
307.502	382.19
307.731	398.19
307.961	404.19
308.191	392.19
308.421	379.19
308.651	408.19
308.881	388.19
309.111	431.19
309.341	414.19
309.571	424.19
309.8	470.19
310.03	450.19
310.26	474.19
310.49	467.19
310.72	501.19
310.949	493.19
311.179	478.19
311.409	469.19
311.639	463.19
311.868	479.19
312.098	477.19
312.328	496.19
312.557	537.19
312.787	535.19
313.017	486.19
313.246	483.19
313.476	449.19
313.706	484.19
313.935	479.19
314.165	521.19
314.394	515.19
314.624	489.19
314.853	487.19
315.083	450.19
315.312	429.19
315.542	437.19
315.771	455.19
316.001	462.19
316.23	449.19
316.46	451.19
316.689	448.19
316.919	476.19
317.148	499.19
317.377	480.19
317.607	456.19
317.836	461.19
318.065	443.19
318.295	445.19
318.524	460.19
318.753	457.19
318.983	449.19
319.212	465.19
319.441	473.19
319.67	485.19
319.9	458.19
320.129	475.19
320.358	452.19
320.587	488.19
320.816	495.19
321.046	485.19
321.275	505.19
321.504	493.19
321.733	506.19
321.962	519.19
322.191	531.19
322.42	569.19
322.649	604.19
322.878	620.19
323.108	637.19
323.337	696.19
323.566	743.19
323.795	869.19
324.024	1133.19
324.253	1988.19
324.482	3304.19
324.71	4907.19
324.939	4326.19
325.168	1884.19
325.397	923.19
325.626	722.19
325.855	657.19
326.084	677.19
326.313	695.19
326.542	804.19
326.77	1083.19
326.999	1822.19
327.228	2822.19
327.457	3598.19
327.686	2426.19
327.914	1101.19
328.143	866.19
328.372	810.19
328.6	759.19
328.829	822.19
329.058	817.19
329.287	760.19
329.515	665.19
329.744	610.19
329.972	651.19
330.201	688.19
330.43	772.19
330.658	908.19
330.887	920.19
331.115	755.19
331.344	666.19
331.572	653.19
331.801	638.19
332.03	634.19
332.258	610.19
332.486	616.19
332.715	604.19
332.943	625.19
333.172	634.19
333.4	653.19
333.629	656.19
333.857	675.19
334.085	643.19
334.314	629.19
334.542	612.19
334.771	636.19
334.999	629.19
335.227	635.19
335.455	595.19
335.684	604.19
335.912	627.19
336.14	614.19
336.369	618.19
336.597	637.19
336.825	600.19
337.053	590.19
337.281	575.19
337.51	592.19
337.738	608.19
337.966	621.19
338.194	612.19
338.422	593.19
338.65	549.19
338.878	563.19
339.106	564.19
339.334	557.19
339.562	560.19
339.79	540.19
340.018	565.19
340.246	576.19
340.474	562.19
340.702	574.19
340.93	571.19
341.158	563.19
341.386	601.19
341.614	594.19
341.842	555.19
342.07	562.19
342.298	558.19
342.526	542.19
342.754	546.19
342.981	547.19
343.209	562.19
343.437	601.19
343.665	598.19
343.893	626.19
344.12	623.19
344.348	587.19
344.576	608.19
344.804	610.19
345.031	614.19
345.259	612.19
345.487	610.19
345.714	573.19
345.942	558.19
346.17	537.19
346.397	555.19
346.625	557.19
346.853	557.19
347.08	554.19
347.308	600.19
347.535	603.19
347.763	590.19
347.99	575.19
348.218	610.19
348.445	600.19
348.673	579.19
348.9	563.19
349.128	519.19
349.355	552.19
349.583	522.19
349.81	546.19
350.037	538.19
350.265	520.19
350.492	530.19
350.72	549.19
350.947	552.19
351.174	596.19
351.402	581.19
351.629	561.19
351.856	607.19
352.083	592.19
352.311	618.19
352.538	608.19
352.765	592.19
352.992	583.19
353.22	569.19
353.447	536.19
353.674	533.19
353.901	526.19
354.128	525.19
354.355	546.19
354.583	553.19
354.81	513.19
355.037	511.19
355.264	513.19
355.491	514.19
355.718	496.19
355.945	516.19
356.172	514.19
356.399	514.19
356.626	506.19
356.853	528.19
357.08	512.19
357.307	527.19
357.534	510.19
357.761	524.19
357.988	496.19
358.215	532.19
358.441	508.19
358.668	522.19
358.895	540.19
359.122	530.19
359.349	590.19
359.576	643.19
359.802	698.19
360.029	728.19
360.256	698.19
360.483	615.19
360.709	576.19
360.936	572.19
361.163	605.19
361.39	602.19
361.616	593.19
361.843	595.19
362.07	580.19
362.296	603.19
362.523	613.19
362.749	583.19
362.976	568.19
363.203	546.19
363.429	547.19
363.656	540.19
363.882	542.19
364.109	551.19
364.335	560.19
364.562	554.19
364.788	561.19
365.015	552.19
365.241	549.19
365.468	592.19
365.694	591.19
365.92	550.19
366.147	576.19
366.373	557.19
366.599	555.19
366.826	549.19
367.052	530.19
367.278	536.19
367.505	552.19
367.731	544.19
367.957	558.19
368.184	572.19
368.41	594.19
368.636	608.19
368.862	572.19
369.089	573.19
369.315	564.19
369.541	540.19
369.767	555.19
369.993	554.19
370.219	565.19
370.445	558.19
370.672	545.19
370.898	560.19
371.124	564.19
371.35	558.19
371.576	528.19
371.802	562.19
372.028	556.19
372.254	541.19
372.48	579.19
372.706	561.19
372.932	564.19
373.158	576.19
373.384	594.19
373.61	573.19
373.835	578.19
374.061	590.19
374.287	587.19
374.513	582.19
374.739	591.19
374.965	609.19
375.191	585.19
375.416	576.19
375.642	570.19
375.868	550.19
376.094	563.19
376.319	560.19
376.545	577.19
376.771	577.19
376.997	555.19
377.222	576.19
377.448	524.19
377.674	557.19
377.899	552.19
378.125	565.19
378.35	540.19
378.576	566.19
378.802	558.19
379.027	555.19
379.253	562.19
379.478	550.19
379.704	577.19
379.929	579.19
380.155	577.19
380.38	549.19
380.606	569.19
380.831	580.19
381.057	576.19
381.282	572.19
381.507	597.19
381.733	563.19
381.958	572.19
382.184	585.19
382.409	568.19
382.634	581.19
382.86	586.19
383.085	595.19
383.31	612.19
383.535	626.19
383.761	597.19
383.986	641.19
384.211	605.19
384.436	639.19
384.662	648.19
384.887	646.19
385.112	639.19
385.337	643.19
385.562	657.19
385.787	699.19
386.013	697.19
386.238	700.19
386.463	678.19
386.688	677.19
386.913	641.19
387.138	644.19
387.363	648.19
387.588	653.19
387.813	640.19
388.038	638.19
388.263	643.19
388.488	668.19
388.713	654.19
388.938	653.19
389.163	632.19
389.387	637.19
389.612	650.19
389.837	683.19
390.062	657.19
390.287	648.19
390.512	649.19
390.736	664.19
390.961	680.19
391.186	670.19
391.411	688.19
391.636	699.19
391.86	704.19
392.085	717.19
392.31	680.19
392.534	680.19
392.759	693.19
392.984	673.19
393.208	672.19
393.433	694.19
393.658	681.19
393.882	661.19
394.107	686.19
394.331	672.19
394.556	683.19
394.78	683.19
395.005	687.19
395.229	706.19
395.454	713.19
395.678	724.19
395.903	731.19
396.127	719.19
396.352	714.19
396.576	697.19
396.801	685.19
397.025	691.19
397.249	703.19
397.474	722.19
397.698	739.19
397.922	750.19
398.147	776.19
398.371	773.19
398.595	820.19
398.82	819.19
399.044	877.19
399.268	962.19
399.492	1076.19
399.717	1079.19
399.941	1061.19
400.165	1003.19
400.389	907.19
400.613	882.19
400.837	833.19
401.062	834.19
401.286	797.19
401.51	815.19
401.734	840.19
401.958	828.19
402.182	874.19
402.406	918.19
402.63	885.19
402.854	873.19
403.078	868.19
403.302	893.19
403.526	878.19
403.75	908.19
403.974	869.19
404.198	873.19
404.422	887.19
404.645	891.19
404.869	901.19
405.093	910.19
405.317	902.19
405.541	904.19
405.765	910.19
405.988	899.19
406.212	1004.19
406.436	1091.19
406.66	1014.19
406.883	992.19
407.107	1022.19
407.331	1102.19
407.555	1101.19
407.778	1048.19
408.002	976.19
408.226	915.19
408.449	910.19
408.673	927.19
408.896	964.19
409.12	954.19
409.344	866.19
409.567	862.19
409.791	841.19
410.014	840.19
410.238	836.19
410.461	847.19
410.685	854.19
410.908	898.19
411.132	886.19
411.355	888.19
411.578	856.19
411.802	832.19
412.025	816.19
412.249	833.19
412.472	799.19
412.695	809.19
412.919	786.19
413.142	794.19
413.365	777.19
413.589	766.19
413.812	762.19
414.035	770.19
414.258	769.19
414.482	787.19
414.705	810.19
414.928	782.19
415.151	803.19
415.374	758.19
415.597	774.19
415.821	783.19
416.044	776.19
416.267	754.19
416.49	764.19
416.713	757.19
416.936	789.19
417.159	769.19
417.382	754.19
417.605	801.19
417.828	812.19
418.051	808.19
418.274	798.19
418.497	793.19
418.72	784.19
418.943	802.19
419.166	808.19
419.389	844.19
419.611	802.19
419.834	800.19
420.057	831.19
420.28	810.19
420.503	781.19
420.726	814.19
420.948	816.19
421.171	842.19
421.394	845.19
421.617	799.19
421.839	785.19
422.062	850.19
422.285	885.19
422.507	908.19
422.73	929.19
422.953	858.19
423.175	864.19
423.398	874.19
423.621	845.19
423.843	884.19
424.066	862.19
424.288	886.19
424.511	941.19
424.733	973.19
424.956	1017.19
425.178	977.19
425.401	951.19
425.623	912.19
425.846	822.19
426.068	809.19
426.291	808.19
426.513	767.19
426.735	858.19
426.958	924.19
427.18	1067.19
427.402	1228.19
427.625	1260.19
427.847	965.19
428.069	818.19
428.292	773.19
428.514	742.19
428.736	739.19
428.958	745.19
429.181	714.19
429.403	730.19
429.625	775.19
429.847	802.19
430.069	834.19
430.292	792.19
430.514	736.19
430.736	726.19
430.958	699.19
431.18	694.19
431.402	694.19
431.624	717.19
431.846	715.19
432.068	721.19
432.29	716.19
432.512	715.19
432.734	712.19
432.956	738.19
433.178	759.19
433.4	734.19
433.622	714.19
433.844	730.19
434.066	723.19
434.287	720.19
434.509	766.19
434.731	761.19
434.953	785.19
435.175	795.19
435.397	816.19
435.618	849.19
435.84	917.19
436.062	1025.19
436.284	972.19
436.505	815.19
436.727	764.19
436.949	744.19
437.17	731.19
437.392	730.19
437.614	782.19
437.835	901.19
438.057	994.19
438.278	1062.19
438.5	1037.19
438.721	1074.19
438.943	922.19
439.165	782.19
439.386	786.19
439.608	828.19
439.829	869.19
440.05	942.19
440.272	975.19
440.493	811.19
440.715	788.19
440.936	762.19
441.158	778.19
441.379	816.19
441.6	865.19
441.822	875.19
442.043	928.19
442.264	1015.19
442.486	973.19
442.707	891.19
442.928	854.19
443.149	929.19
443.371	981.19
443.592	1032.19
443.813	1104.19
444.034	1042.19
444.255	933.19
444.476	868.19
444.698	875.19
444.919	895.19
445.14	946.19
445.361	972.19
445.582	1035.19
445.803	1165.19
446.024	1222.19
446.245	1105.19
446.466	943.19
446.687	805.19
446.908	780.19
447.129	735.19
447.35	738.19
447.571	721.19
447.792	714.19
448.013	752.19
448.234	798.19
448.455	932.19
448.675	1011.19
448.896	1005.19
449.117	845.19
449.338	972.19
449.559	1112.19
449.779	1059.19
450	808.19
450.221	753.19
450.442	734.19
450.662	781.19
450.883	773.19
451.104	809.19
451.324	739.19
451.545	694.19
451.766	670.19
451.986	655.19
452.207	668.19
452.428	648.19
452.648	680.19
452.869	697.19
453.089	706.19
453.31	679.19
453.53	652.19
453.751	657.19
453.971	702.19
454.192	748.19
454.412	667.19
454.633	661.19
454.853	629.19
455.073	668.19
455.294	715.19
455.514	759.19
455.734	680.19
455.955	621.19
456.175	625.19
456.395	577.19
456.616	580.19
456.836	604.19
457.056	602.19
457.276	595.19
457.497	617.19
457.717	625.19
457.937	620.19
458.157	659.19
458.377	659.19
458.598	781.19
458.818	981.19
459.038	1034.19
459.258	864.19
459.478	765.19
459.698	720.19
459.918	725.19
460.138	754.19
460.358	772.19
460.578	750.19
460.798	797.19
461.018	771.19
461.238	734.19
461.458	760.19
461.678	785.19
461.898	770.19
462.118	784.19
462.338	794.19
462.558	846.19
462.777	873.19
462.997	913.19
463.217	935.19
463.437	907.19
463.657	844.19
463.876	864.19
464.096	861.19
464.316	886.19
464.536	891.19
464.755	870.19
464.975	953.19
465.195	1142.19
465.414	1048.19
465.634	813.19
465.854	755.19
466.073	722.19
466.293	689.19
466.512	698.19
466.732	702.19
466.951	677.19
467.171	682.19
467.391	699.19
467.61	740.19
467.829	706.19
468.049	698.19
468.268	633.19
468.488	635.19
468.707	654.19
468.927	676.19
469.146	674.19
469.365	678.19
469.585	664.19
469.804	716.19
470.023	735.19
470.243	732.19
470.462	754.19
470.681	789.19
470.901	689.19
471.12	696.19
471.339	691.19
471.558	669.19
471.777	668.19
471.997	641.19
472.216	640.19
472.435	642.19
472.654	625.19
472.873	655.19
473.092	643.19
473.311	625.19
473.53	649.19
473.749	705.19
473.968	795.19
474.187	887.19
474.406	768.19
474.625	684.19
474.844	658.19
475.063	641.19
475.282	656.19
475.501	659.19
475.72	675.19
475.939	657.19
476.158	681.19
476.377	697.19
476.596	689.19
476.814	728.19
477.033	711.19
477.252	716.19
477.471	723.19
477.69	713.19
477.908	753.19
478.127	757.19
478.346	775.19
478.564	771.19
478.783	770.19
479.002	792.19
479.22	789.19
479.439	820.19
479.658	858.19
479.876	852.19
480.095	856.19
480.313	888.19
480.532	860.19
480.751	825.19
480.969	828.19
481.188	802.19
481.406	789.19
481.624	763.19
481.843	760.19
482.061	741.19
482.28	760.19
482.498	765.19
482.717	733.19
482.935	739.19
483.153	762.19
483.372	762.19
483.59	751.19
483.808	744.19
484.027	745.19
484.245	778.19
484.463	785.19
484.681	786.19
484.9	781.19
485.118	783.19
485.336	783.19
485.554	786.19
485.772	773.19
485.99	792.19
486.209	808.19
486.427	812.19
486.645	844.19
486.863	879.19
487.081	864.19
487.299	837.19
487.517	790.19
487.735	831.19
487.953	801.19
488.171	810.19
488.389	830.19
488.607	805.19
488.825	803.19
489.043	833.19
489.261	803.19
489.479	807.19
489.696	817.19
489.914	810.19
490.132	830.19
490.35	851.19
490.568	848.19
490.786	872.19
491.003	903.19
491.221	922.19
491.439	948.19
491.657	945.19
491.874	954.19
492.092	938.19
492.31	932.19
492.527	978.19
492.745	917.19
492.963	943.19
493.18	972.19
493.398	985.19
493.615	1000.19
493.833	954.19
494.05	1003.19
494.268	955.19
494.485	955.19
494.703	949.19
494.92	963.19
495.138	926.19
495.355	955.19
495.573	968.19
495.79	945.19
496.008	944.19
496.225	956.19
496.442	958.19
496.66	977.19
496.877	974.19
497.094	985.19
497.312	976.19
497.529	997.19
497.746	1003.19
497.963	1035.19
498.181	1109.19
498.398	1125.19
498.615	1154.19
498.832	1219.19
499.049	1268.19
499.267	1296.19
499.484	1405.19
499.701	1500.19
499.918	1632.19
500.135	1777.19
500.352	1866.19
500.569	1866.19
500.786	1838.19
501.003	1709.19
501.22	1602.19
501.437	1531.19
501.654	1476.19
501.871	1358.19
