Data from TestCu_HRD10591_00091.txt Node
Date: Thu Oct 05 14:06:11 EDT 2023
User: Yrep
Spectrometer: HR+D1059
Trigger mode: 1
Integration Time (sec): 1.000000E-1
Scans to average: 1
Electric dark correction enabled: true
Nonlinearity correction enabled: false
Boxcar width: 0
XAxis mode: Wavelengths
Number of Pixels in Spectrum: 2048
>>>>>Begin Spectral Data<<<<<
223.165	-9.56
223.4	-9.56
223.635	-9.56
223.869	-18.56
224.104	-24.56
224.338	-15.56
224.573	-15.56
224.808	-12.56
225.042	-15.56
225.277	-3.56
225.511	-5.56
225.746	0.44
225.98	10.44
226.215	0.44
226.449	15.44
226.683	13.44
226.918	43.44
227.152	37.44
227.387	36.44
227.621	25.44
227.856	43.44
228.09	38.44
228.324	49.44
228.559	55.44
228.793	71.44
229.027	104.44
229.262	135.44
229.496	139.44
229.73	176.44
229.964	164.44
230.199	122.44
230.433	115.44
230.667	111.44
230.901	112.44
231.136	106.44
231.37	114.44
231.604	106.44
231.838	122.44
232.072	118.44
232.306	118.44
232.541	123.44
232.775	119.44
233.009	115.44
233.243	111.44
233.477	110.44
233.711	131.44
233.945	118.44
234.179	125.44
234.413	123.44
234.647	119.44
234.881	114.44
235.115	111.44
235.349	126.44
235.583	122.44
235.817	124.44
236.051	135.44
236.285	134.44
236.519	147.44
236.753	163.44
236.987	191.44
237.221	227.44
237.455	243.44
237.689	161.44
237.922	130.44
238.156	123.44
238.39	143.44
238.624	129.44
238.858	136.44
239.091	121.44
239.325	128.44
239.559	132.44
239.793	135.44
240.027	161.44
240.26	158.44
240.494	164.44
240.728	148.44
240.961	145.44
241.195	151.44
241.429	150.44
241.662	141.44
241.896	128.44
242.13	117.44
242.363	132.44
242.597	146.44
242.83	159.44
243.064	135.44
243.298	125.44
243.531	134.44
243.765	140.44
243.998	139.44
244.232	148.44
244.465	141.44
244.699	145.44
244.932	126.44
245.166	146.44
245.399	137.44
245.633	146.44
245.866	139.44
246.099	148.44
246.333	141.44
246.566	155.44
246.8	160.44
247.033	161.44
247.266	163.44
247.5	143.44
247.733	173.44
247.966	181.44
248.2	165.44
248.433	171.44
248.666	181.44
248.899	203.44
249.133	218.44
249.366	193.44
249.599	211.44
249.832	179.44
250.066	183.44
250.299	177.44
250.532	213.44
250.765	206.44
250.998	215.44
251.231	203.44
251.465	193.44
251.698	182.44
251.931	185.44
252.164	201.44
252.397	179.44
252.63	207.44
252.863	217.44
253.096	215.44
253.329	231.44
253.562	204.44
253.795	201.44
254.028	209.44
254.261	212.44
254.494	252.44
254.727	288.44
254.96	256.44
255.193	221.44
255.426	217.44
255.659	202.44
255.892	202.44
256.124	199.44
256.357	205.44
256.59	190.44
256.823	192.44
257.056	196.44
257.289	201.44
257.521	201.44
257.754	201.44
257.987	186.44
258.22	195.44
258.452	207.44
258.685	216.44
258.918	197.44
259.151	207.44
259.383	209.44
259.616	225.44
259.849	237.44
260.081	252.44
260.314	252.44
260.547	236.44
260.779	210.44
261.012	224.44
261.244	216.44
261.477	220.44
261.71	237.44
261.942	268.44
262.175	272.44
262.407	240.44
262.64	230.44
262.872	223.44
263.105	229.44
263.337	216.44
263.57	217.44
263.802	207.44
264.035	215.44
264.267	220.44
264.499	217.44
264.732	213.44
264.964	217.44
265.197	234.44
265.429	229.44
265.661	223.44
265.894	221.44
266.126	233.44
266.358	213.44
266.591	221.44
266.823	235.44
267.055	239.44
267.287	235.44
267.52	245.44
267.752	251.44
267.984	246.44
268.216	245.44
268.448	252.44
268.681	273.44
268.913	260.44
269.145	286.44
269.377	284.44
269.609	272.44
269.841	265.44
270.073	287.44
270.306	335.44
270.538	338.44
270.77	298.44
271.002	298.44
271.234	299.44
271.466	308.44
271.698	330.44
271.93	335.44
272.162	324.44
272.394	299.44
272.626	304.44
272.858	269.44
273.09	252.44
273.322	277.44
273.553	254.44
273.785	276.44
274.017	257.44
274.249	280.44
274.481	263.44
274.713	283.44
274.945	280.44
275.176	290.44
275.408	280.44
275.64	276.44
275.872	276.44
276.104	294.44
276.335	289.44
276.567	319.44
276.799	360.44
277.031	369.44
277.262	348.44
277.494	332.44
277.726	300.44
277.957	280.44
278.189	277.44
278.421	274.44
278.652	282.44
278.884	270.44
279.115	256.44
279.347	268.44
279.579	271.44
279.81	277.44
280.042	294.44
280.273	303.44
280.505	297.44
280.736	300.44
280.968	287.44
281.199	273.44
281.431	295.44
281.662	293.44
281.894	316.44
282.125	320.44
282.356	353.44
282.588	393.44
282.819	331.44
283.051	298.44
283.282	292.44
283.513	315.44
283.745	303.44
283.976	306.44
284.207	304.44
284.439	300.44
284.67	303.44
284.901	325.44
285.132	300.44
285.364	316.44
285.595	303.44
285.826	311.44
286.057	333.44
286.288	310.44
286.52	313.44
286.751	328.44
286.982	315.44
287.213	298.44
287.444	328.44
287.675	332.44
287.906	343.44
288.138	351.44
288.369	357.44
288.6	336.44
288.831	343.44
289.062	344.44
289.293	315.44
289.524	309.44
289.755	325.44
289.986	348.44
290.217	331.44
290.448	320.44
290.679	336.44
290.91	327.44
291.141	327.44
291.371	316.44
291.602	338.44
291.833	338.44
292.064	324.44
292.295	317.44
292.526	344.44
292.757	330.44
292.987	359.44
293.218	331.44
293.449	328.44
293.68	331.44
293.91	351.44
294.141	328.44
294.372	346.44
294.603	346.44
294.833	337.44
295.064	341.44
295.295	333.44
295.525	349.44
295.756	367.44
295.987	403.44
296.217	438.44
296.448	407.44
296.679	360.44
296.909	364.44
297.14	362.44
297.37	359.44
297.601	354.44
297.831	374.44
298.062	369.44
298.292	383.44
298.523	386.44
298.753	381.44
298.984	369.44
299.214	392.44
299.445	381.44
299.675	390.44
299.905	367.44
300.136	373.44
300.366	388.44
300.597	380.44
300.827	390.44
301.057	417.44
301.288	401.44
301.518	400.44
301.748	397.44
301.979	411.44
302.209	425.44
302.439	422.44
302.669	391.44
302.9	411.44
303.13	399.44
303.36	430.44
303.59	419.44
303.82	422.44
304.051	409.44
304.281	396.44
304.511	390.44
304.741	404.44
304.971	395.44
305.201	377.44
305.431	392.44
305.661	402.44
305.891	400.44
306.121	411.44
306.352	428.44
306.582	419.44
306.812	385.44
307.042	415.44
307.272	421.44
307.502	408.44
307.731	432.44
307.961	389.44
308.191	412.44
308.421	416.44
308.651	426.44
308.881	437.44
309.111	418.44
309.341	429.44
309.571	457.44
309.8	485.44
310.03	485.44
310.26	496.44
310.49	518.44
310.72	515.44
310.949	562.44
311.179	502.44
311.409	485.44
311.639	479.44
311.868	496.44
312.098	478.44
312.328	516.44
312.557	555.44
312.787	553.44
313.017	514.44
313.246	497.44
313.476	471.44
313.706	496.44
313.935	531.44
314.165	538.44
314.394	540.44
314.624	514.44
314.853	511.44
315.083	457.44
315.312	451.44
315.542	472.44
315.771	480.44
316.001	453.44
316.23	469.44
316.46	490.44
316.689	497.44
316.919	502.44
317.148	507.44
317.377	496.44
317.607	491.44
317.836	489.44
318.065	464.44
318.295	469.44
318.524	471.44
318.753	483.44
318.983	501.44
319.212	491.44
319.441	501.44
319.67	508.44
319.9	485.44
320.129	463.44
320.358	493.44
320.587	508.44
320.816	524.44
321.046	512.44
321.275	512.44
321.504	519.44
321.733	502.44
321.962	534.44
322.191	576.44
322.42	611.44
322.649	629.44
322.878	632.44
323.108	692.44
323.337	742.44
323.566	807.44
323.795	894.44
324.024	1228.44
324.253	2104.44
324.482	3628.44
324.71	5362.44
324.939	4632.44
325.168	2032.44
325.397	987.44
325.626	769.44
325.855	691.44
326.084	703.44
326.313	735.44
326.542	852.44
326.77	1160.44
326.999	1989.44
327.228	3109.44
327.457	3946.44
327.686	2538.44
327.914	1204.44
328.143	955.44
328.372	861.44
328.6	825.44
328.829	876.44
329.058	904.44
329.287	834.44
329.515	685.44
329.744	643.44
329.972	648.44
330.201	722.44
330.43	821.44
330.658	971.44
330.887	997.44
331.115	800.44
331.344	696.44
331.572	683.44
331.801	721.44
332.03	664.44
332.258	642.44
332.486	628.44
332.715	646.44
332.943	643.44
333.172	655.44
333.4	672.44
333.629	688.44
333.857	691.44
334.085	664.44
334.314	657.44
334.542	655.44
334.771	666.44
334.999	663.44
335.227	636.44
335.455	672.44
335.684	623.44
335.912	624.44
336.14	640.44
336.369	638.44
336.597	675.44
336.825	633.44
337.053	591.44
337.281	601.44
337.51	636.44
337.738	628.44
337.966	637.44
338.194	645.44
338.422	601.44
338.65	597.44
338.878	584.44
339.106	594.44
339.334	593.44
339.562	588.44
339.79	588.44
340.018	608.44
340.246	636.44
340.474	620.44
340.702	575.44
340.93	602.44
341.158	585.44
341.386	597.44
341.614	602.44
341.842	598.44
342.07	589.44
342.298	585.44
342.526	570.44
342.754	573.44
342.981	552.44
343.209	571.44
343.437	613.44
343.665	632.44
343.893	625.44
344.12	657.44
344.348	612.44
344.576	626.44
344.804	642.44
345.031	660.44
345.259	634.44
345.487	607.44
345.714	593.44
345.942	581.44
346.17	581.44
346.397	573.44
346.625	592.44
346.853	587.44
347.08	563.44
347.308	594.44
347.535	630.44
347.763	629.44
347.99	625.44
348.218	644.44
348.445	643.44
348.673	598.44
348.9	577.44
349.128	563.44
349.355	558.44
349.583	545.44
349.81	574.44
350.037	547.44
350.265	553.44
350.492	553.44
350.72	553.44
350.947	611.44
351.174	633.44
351.402	636.44
351.629	588.44
351.856	591.44
352.083	629.44
352.311	658.44
352.538	676.44
352.765	627.44
352.992	613.44
353.22	588.44
353.447	587.44
353.674	568.44
353.901	551.44
354.128	538.44
354.355	559.44
354.583	560.44
354.81	520.44
355.037	526.44
355.264	526.44
355.491	559.44
355.718	529.44
355.945	523.44
356.172	511.44
356.399	530.44
356.626	549.44
356.853	540.44
357.08	554.44
357.307	541.44
357.534	527.44
357.761	552.44
357.988	550.44
358.215	551.44
358.441	532.44
358.668	566.44
358.895	567.44
359.122	579.44
359.349	579.44
359.576	651.44
359.802	784.44
360.029	791.44
360.256	733.44
360.483	640.44
360.709	617.44
360.936	618.44
361.163	611.44
361.39	614.44
361.616	593.44
361.843	603.44
362.07	629.44
362.296	605.44
362.523	607.44
362.749	585.44
362.976	608.44
363.203	581.44
363.429	574.44
363.656	572.44
363.882	580.44
364.109	561.44
364.335	570.44
364.562	575.44
364.788	563.44
365.015	568.44
365.241	569.44
365.468	599.44
365.694	613.44
365.92	616.44
366.147	548.44
366.373	565.44
366.599	565.44
366.826	555.44
367.052	569.44
367.278	574.44
367.505	576.44
367.731	595.44
367.957	553.44
368.184	597.44
368.41	601.44
368.636	616.44
368.862	590.44
369.089	598.44
369.315	579.44
369.541	561.44
369.767	581.44
369.993	585.44
370.219	599.44
370.445	584.44
370.672	584.44
370.898	579.44
371.124	565.44
371.35	597.44
371.576	558.44
371.802	570.44
372.028	550.44
372.254	568.44
372.48	589.44
372.706	591.44
372.932	585.44
373.158	597.44
373.384	623.44
373.61	598.44
373.835	608.44
374.061	592.44
374.287	615.44
374.513	601.44
374.739	623.44
374.965	610.44
375.191	630.44
375.416	601.44
375.642	569.44
375.868	605.44
376.094	594.44
376.319	565.44
376.545	591.44
376.771	570.44
376.997	588.44
377.222	576.44
377.448	589.44
377.674	577.44
377.899	556.44
378.125	565.44
378.35	557.44
378.576	572.44
378.802	569.44
379.027	582.44
379.253	556.44
379.478	592.44
379.704	572.44
379.929	595.44
380.155	586.44
380.38	599.44
380.606	587.44
380.831	585.44
381.057	617.44
381.282	605.44
381.507	597.44
381.733	593.44
381.958	592.44
382.184	610.44
382.409	605.44
382.634	609.44
382.86	611.44
383.085	602.44
383.31	633.44
383.535	647.44
383.761	644.44
383.986	627.44
384.211	640.44
384.436	657.44
384.662	662.44
384.887	666.44
385.112	682.44
385.337	669.44
385.562	673.44
385.787	710.44
386.013	706.44
386.238	705.44
386.463	704.44
386.688	688.44
386.913	680.44
387.138	689.44
387.363	680.44
387.588	665.44
387.813	659.44
388.038	649.44
388.263	652.44
388.488	691.44
388.713	656.44
388.938	675.44
389.163	687.44
389.387	675.44
389.612	661.44
389.837	651.44
390.062	655.44
390.287	651.44
390.512	650.44
390.736	672.44
390.961	715.44
391.186	687.44
391.411	711.44
391.636	719.44
391.86	750.44
392.085	726.44
392.31	720.44
392.534	709.44
392.759	699.44
392.984	683.44
393.208	696.44
393.433	711.44
393.658	661.44
393.882	695.44
394.107	725.44
394.331	687.44
394.556	699.44
394.78	714.44
395.005	718.44
395.229	737.44
395.454	752.44
395.678	727.44
395.903	758.44
396.127	700.44
396.352	737.44
396.576	706.44
396.801	728.44
397.025	721.44
397.249	732.44
397.474	757.44
397.698	770.44
397.922	763.44
398.147	784.44
398.371	807.44
398.595	807.44
398.82	847.44
399.044	885.44
399.268	1011.44
399.492	1094.44
399.717	1116.44
399.941	1069.44
400.165	1039.44
400.389	971.44
400.613	914.44
400.837	857.44
401.062	845.44
401.286	823.44
401.51	825.44
401.734	836.44
401.958	869.44
402.182	879.44
402.406	940.44
402.63	901.44
402.854	890.44
403.078	890.44
403.302	905.44
403.526	922.44
403.75	922.44
403.974	918.44
404.198	922.44
404.422	917.44
404.645	917.44
404.869	892.44
405.093	918.44
405.317	963.44
405.541	945.44
405.765	934.44
405.988	929.44
406.212	1052.44
406.436	1110.44
406.66	1071.44
406.883	1005.44
407.107	1052.44
407.331	1142.44
407.555	1212.44
407.778	1121.44
408.002	1016.44
408.226	981.44
408.449	967.44
408.673	975.44
408.896	961.44
409.12	979.44
409.344	937.44
409.567	883.44
409.791	899.44
410.014	873.44
410.238	839.44
410.461	888.44
410.685	880.44
410.908	907.44
411.132	931.44
411.355	916.44
411.578	858.44
411.802	844.44
412.025	855.44
412.249	869.44
412.472	806.44
412.695	827.44
412.919	810.44
413.142	804.44
413.365	821.44
413.589	817.44
413.812	774.44
414.035	791.44
414.258	796.44
414.482	823.44
414.705	808.44
414.928	807.44
415.151	768.44
415.374	811.44
415.597	781.44
415.821	778.44
416.044	786.44
416.267	779.44
416.49	788.44
416.713	779.44
416.936	795.44
417.159	780.44
417.382	818.44
417.605	822.44
417.828	836.44
418.051	857.44
418.274	843.44
418.497	818.44
418.72	836.44
418.943	828.44
419.166	847.44
419.389	851.44
419.611	853.44
419.834	833.44
420.057	854.44
420.28	820.44
420.503	816.44
420.726	829.44
420.948	854.44
421.171	885.44
421.394	869.44
421.617	844.44
421.839	821.44
422.062	835.44
422.285	891.44
422.507	931.44
422.73	987.44
422.953	909.44
423.175	869.44
423.398	881.44
423.621	898.44
423.843	908.44
424.066	901.44
424.288	912.44
424.511	949.44
424.733	979.44
424.956	1059.44
425.178	1018.44
425.401	1032.44
425.623	960.44
425.846	868.44
426.068	855.44
426.291	821.44
426.513	826.44
426.735	896.44
426.958	995.44
427.18	1141.44
427.402	1311.44
427.625	1325.44
427.847	1036.44
428.069	839.44
428.292	803.44
428.514	772.44
428.736	752.44
428.958	757.44
429.181	761.44
429.403	774.44
429.625	797.44
429.847	845.44
430.069	884.44
430.292	804.44
430.514	756.44
430.736	735.44
430.958	745.44
431.18	731.44
431.402	717.44
431.624	722.44
431.846	722.44
432.068	724.44
432.29	724.44
432.512	752.44
432.734	748.44
432.956	762.44
433.178	786.44
433.4	736.44
433.622	746.44
433.844	761.44
434.066	761.44
434.287	762.44
434.509	784.44
434.731	805.44
434.953	813.44
435.175	842.44
435.397	836.44
435.618	874.44
435.84	966.44
436.062	1068.44
436.284	997.44
436.505	835.44
436.727	796.44
436.949	781.44
437.17	760.44
437.392	760.44
437.614	809.44
437.835	954.44
438.057	1092.44
438.278	1111.44
438.5	1087.44
438.721	1130.44
438.943	986.44
439.165	851.44
439.386	824.44
439.608	864.44
439.829	891.44
440.05	975.44
440.272	1035.44
440.493	879.44
440.715	796.44
440.936	805.44
441.158	803.44
441.379	835.44
441.6	881.44
441.822	924.44
442.043	1002.44
442.264	1112.44
442.486	1049.44
442.707	909.44
442.928	936.44
443.149	965.44
443.371	1029.44
443.592	1073.44
443.813	1149.44
444.034	1088.44
444.255	944.44
444.476	935.44
444.698	910.44
444.919	930.44
445.14	969.44
445.361	999.44
445.582	1083.44
445.803	1237.44
446.024	1239.44
446.245	1186.44
446.466	1019.44
446.687	848.44
446.908	796.44
447.129	784.44
447.35	777.44
447.571	755.44
447.792	758.44
448.013	777.44
448.234	819.44
448.455	986.44
448.675	1130.44
448.896	1035.44
449.117	905.44
449.338	1033.44
449.559	1166.44
449.779	1092.44
450	886.44
450.221	790.44
450.442	753.44
450.662	769.44
450.883	827.44
451.104	876.44
451.324	764.44
451.545	722.44
451.766	698.44
451.986	657.44
452.207	644.44
452.428	681.44
452.648	705.44
452.869	741.44
453.089	742.44
453.31	743.44
453.53	699.44
453.751	714.44
453.971	724.44
454.192	780.44
454.412	709.44
454.633	674.44
454.853	653.44
455.073	691.44
455.294	744.44
455.514	826.44
455.734	732.44
455.955	641.44
456.175	624.44
456.395	639.44
456.616	619.44
456.836	637.44
457.056	633.44
457.276	603.44
457.497	660.44
457.717	653.44
457.937	654.44
458.157	671.44
458.377	701.44
458.598	837.44
458.818	1069.44
459.038	1085.44
459.258	939.44
459.478	762.44
459.698	767.44
459.918	755.44
460.138	783.44
460.358	803.44
460.578	793.44
460.798	823.44
461.018	787.44
461.238	784.44
461.458	799.44
461.678	773.44
461.898	788.44
462.118	802.44
462.338	851.44
462.558	868.44
462.777	849.44
462.997	933.44
463.217	952.44
463.437	942.44
463.657	907.44
463.876	899.44
464.096	871.44
464.316	939.44
464.536	887.44
464.755	889.44
464.975	985.44
465.195	1204.44
465.414	1156.44
465.634	849.44
465.854	772.44
466.073	746.44
466.293	737.44
466.512	721.44
466.732	688.44
466.951	700.44
467.171	735.44
467.391	727.44
467.61	786.44
467.829	743.44
468.049	720.44
468.268	687.44
468.488	683.44
468.707	675.44
468.927	676.44
469.146	642.44
469.365	693.44
469.585	723.44
469.804	733.44
470.023	765.44
470.243	769.44
470.462	796.44
470.681	835.44
470.901	746.44
471.12	706.44
471.339	707.44
471.558	719.44
471.777	688.44
471.997	666.44
472.216	698.44
472.435	665.44
472.654	647.44
472.873	663.44
473.092	663.44
473.311	656.44
473.53	685.44
473.749	702.44
473.968	849.44
474.187	945.44
474.406	788.44
474.625	731.44
474.844	688.44
475.063	677.44
475.282	676.44
475.501	691.44
475.72	676.44
475.939	675.44
476.158	702.44
476.377	690.44
476.596	708.44
476.814	718.44
477.033	776.44
477.252	736.44
477.471	744.44
477.69	779.44
477.908	758.44
478.127	780.44
478.346	787.44
478.564	812.44
478.783	792.44
479.002	807.44
479.22	835.44
479.439	892.44
479.658	888.44
479.876	882.44
480.095	886.44
480.313	935.44
480.532	872.44
480.751	861.44
480.969	850.44
481.188	819.44
481.406	795.44
481.624	810.44
481.843	769.44
482.061	764.44
482.28	778.44
482.498	740.44
482.717	746.44
482.935	764.44
483.153	788.44
483.372	796.44
483.59	788.44
483.808	769.44
484.027	770.44
484.245	793.44
484.463	796.44
484.681	830.44
484.9	815.44
485.118	827.44
485.336	819.44
485.554	838.44
485.772	820.44
485.99	803.44
486.209	824.44
486.427	845.44
486.645	909.44
486.863	922.44
487.081	850.44
487.299	856.44
487.517	843.44
487.735	806.44
487.953	840.44
488.171	827.44
488.389	845.44
488.607	839.44
488.825	831.44
489.043	799.44
489.261	848.44
489.479	840.44
489.696	844.44
489.914	830.44
490.132	831.44
490.35	876.44
490.568	872.44
490.786	913.44
491.003	937.44
491.221	971.44
491.439	980.44
491.657	969.44
491.874	979.44
492.092	988.44
492.31	1010.44
492.527	995.44
492.745	961.44
492.963	984.44
493.18	994.44
493.398	1011.44
493.615	1026.44
493.833	1010.44
494.05	1024.44
494.268	995.44
494.485	1015.44
494.703	1016.44
494.92	977.44
495.138	1017.44
495.355	1003.44
495.573	1004.44
495.79	1010.44
496.008	985.44
496.225	993.44
496.442	988.44
496.66	997.44
496.877	1015.44
497.094	1036.44
497.312	1041.44
497.529	1004.44
497.746	1051.44
497.963	1101.44
498.181	1129.44
498.398	1113.44
498.615	1213.44
498.832	1237.44
499.049	1327.44
499.267	1360.44
499.484	1471.44
499.701	1557.44
499.918	1671.44
500.135	1826.44
500.352	1911.44
500.569	1914.44
500.786	1898.44
501.003	1791.44
501.22	1670.44
501.437	1551.44
