Data from TestCu_HRD10591_00078.txt Node
Date: Thu Oct 05 14:05:58 EDT 2023
User: Yrep
Spectrometer: HR+D1059
Trigger mode: 1
Integration Time (sec): 1.000000E-1
Scans to average: 1
Electric dark correction enabled: true
Nonlinearity correction enabled: false
Boxcar width: 0
XAxis mode: Wavelengths
Number of Pixels in Spectrum: 2048
>>>>>Begin Spectral Data<<<<<
223.165	-27.88
223.4	-27.88
223.635	-27.88
223.869	-20.88
224.104	-11.88
224.338	3.12
224.573	-4.88
224.808	-16.88
225.042	-2.88
225.277	-8.88
225.511	-1.88
225.746	9.12
225.98	-2.88
226.215	-0.88
226.449	18.12
226.683	18.12
226.918	27.12
227.152	24.12
227.387	29.12
227.621	31.12
227.856	41.12
228.09	41.12
228.324	53.12
228.559	51.12
228.793	67.12
229.027	104.12
229.262	109.12
229.496	126.12
229.73	152.12
229.964	148.12
230.199	120.12
230.433	116.12
230.667	117.12
230.901	107.12
231.136	96.12
231.37	104.12
231.604	113.12
231.838	81.12
232.072	97.12
232.306	106.12
232.541	114.12
232.775	98.12
233.009	105.12
233.243	109.12
233.477	112.12
233.711	103.12
233.945	129.12
234.179	108.12
234.413	114.12
234.647	93.12
234.881	122.12
235.115	110.12
235.349	115.12
235.583	125.12
235.817	123.12
236.051	117.12
236.285	117.12
236.519	116.12
236.753	147.12
236.987	173.12
237.221	221.12
237.455	220.12
237.689	153.12
237.922	129.12
238.156	125.12
238.39	126.12
238.624	121.12
238.858	115.12
239.091	119.12
239.325	115.12
239.559	130.12
239.793	127.12
240.027	144.12
240.26	145.12
240.494	154.12
240.728	147.12
240.961	139.12
241.195	123.12
241.429	133.12
241.662	130.12
241.896	130.12
242.13	130.12
242.363	120.12
242.597	127.12
242.83	143.12
243.064	139.12
243.298	137.12
243.531	116.12
243.765	137.12
243.998	127.12
244.232	140.12
244.465	135.12
244.699	123.12
244.932	130.12
245.166	130.12
245.399	119.12
245.633	148.12
245.866	140.12
246.099	137.12
246.333	151.12
246.566	146.12
246.8	141.12
247.033	145.12
247.266	153.12
247.5	158.12
247.733	158.12
247.966	153.12
248.2	155.12
248.433	156.12
248.666	168.12
248.899	187.12
249.133	185.12
249.366	196.12
249.599	169.12
249.832	163.12
250.066	191.12
250.299	166.12
250.532	189.12
250.765	198.12
250.998	202.12
251.231	206.12
251.465	180.12
251.698	172.12
251.931	172.12
252.164	174.12
252.397	184.12
252.63	191.12
252.863	180.12
253.096	197.12
253.329	190.12
253.562	187.12
253.795	196.12
254.028	179.12
254.261	205.12
254.494	238.12
254.727	255.12
254.96	248.12
255.193	213.12
255.426	209.12
255.659	175.12
255.892	191.12
256.124	182.12
256.357	180.12
256.59	175.12
256.823	172.12
257.056	199.12
257.289	211.12
257.521	201.12
257.754	174.12
257.987	181.12
258.22	201.12
258.452	173.12
258.685	189.12
258.918	187.12
259.151	186.12
259.383	209.12
259.616	206.12
259.849	230.12
260.081	240.12
260.314	229.12
260.547	224.12
260.779	212.12
261.012	205.12
261.244	187.12
261.477	210.12
261.71	220.12
261.942	231.12
262.175	239.12
262.407	211.12
262.64	203.12
262.872	206.12
263.105	195.12
263.337	196.12
263.57	201.12
263.802	211.12
264.035	195.12
264.267	206.12
264.499	197.12
264.732	197.12
264.964	206.12
265.197	212.12
265.429	202.12
265.661	208.12
265.894	211.12
266.126	200.12
266.358	212.12
266.591	222.12
266.823	210.12
267.055	216.12
267.287	207.12
267.52	217.12
267.752	232.12
267.984	209.12
268.216	233.12
268.448	240.12
268.681	228.12
268.913	275.12
269.145	263.12
269.377	257.12
269.609	247.12
269.841	258.12
270.073	295.12
270.306	287.12
270.538	302.12
270.77	283.12
271.002	268.12
271.234	293.12
271.466	308.12
271.698	308.12
271.93	300.12
272.162	293.12
272.394	297.12
272.626	272.12
272.858	257.12
273.09	256.12
273.322	256.12
273.553	243.12
273.785	257.12
274.017	272.12
274.249	252.12
274.481	256.12
274.713	250.12
274.945	267.12
275.176	265.12
275.408	263.12
275.64	250.12
275.872	255.12
276.104	255.12
276.335	282.12
276.567	296.12
276.799	338.12
277.031	354.12
277.262	324.12
277.494	312.12
277.726	274.12
277.957	283.12
278.189	280.12
278.421	275.12
278.652	272.12
278.884	267.12
279.115	246.12
279.347	275.12
279.579	283.12
279.81	263.12
280.042	244.12
280.273	260.12
280.505	267.12
280.736	261.12
280.968	273.12
281.199	274.12
281.431	283.12
281.662	283.12
281.894	287.12
282.125	303.12
282.356	365.12
282.588	372.12
282.819	321.12
283.051	281.12
283.282	282.12
283.513	286.12
283.745	299.12
283.976	301.12
284.207	300.12
284.439	305.12
284.67	290.12
284.901	292.12
285.132	298.12
285.364	272.12
285.595	255.12
285.826	292.12
286.057	283.12
286.288	296.12
286.52	309.12
286.751	287.12
286.982	293.12
287.213	293.12
287.444	312.12
287.675	302.12
287.906	311.12
288.138	335.12
288.369	302.12
288.6	315.12
288.831	324.12
289.062	297.12
289.293	304.12
289.524	306.12
289.755	309.12
289.986	295.12
290.217	292.12
290.448	303.12
290.679	309.12
290.91	303.12
291.141	297.12
291.371	310.12
291.602	291.12
291.833	323.12
292.064	322.12
292.295	327.12
292.526	319.12
292.757	314.12
292.987	325.12
293.218	318.12
293.449	322.12
293.68	318.12
293.91	305.12
294.141	327.12
294.372	321.12
294.603	335.12
294.833	340.12
295.064	312.12
295.295	314.12
295.525	339.12
295.756	361.12
295.987	388.12
296.217	398.12
296.448	383.12
296.679	327.12
296.909	314.12
297.14	331.12
297.37	357.12
297.601	353.12
297.831	360.12
298.062	378.12
298.292	336.12
298.523	356.12
298.753	354.12
298.984	359.12
299.214	337.12
299.445	349.12
299.675	351.12
299.905	367.12
300.136	372.12
300.366	348.12
300.597	359.12
300.827	392.12
301.057	408.12
301.288	414.12
301.518	375.12
301.748	388.12
301.979	388.12
302.209	381.12
302.439	395.12
302.669	385.12
302.9	376.12
303.13	363.12
303.36	384.12
303.59	402.12
303.82	404.12
304.051	384.12
304.281	386.12
304.511	376.12
304.741	385.12
304.971	382.12
305.201	384.12
305.431	374.12
305.661	386.12
305.891	372.12
306.121	396.12
306.352	394.12
306.582	391.12
306.812	374.12
307.042	380.12
307.272	367.12
307.502	387.12
307.731	378.12
307.961	380.12
308.191	381.12
308.421	397.12
308.651	406.12
308.881	410.12
309.111	391.12
309.341	409.12
309.571	424.12
309.8	442.12
310.03	450.12
310.26	460.12
310.49	457.12
310.72	485.12
310.949	493.12
311.179	475.12
311.409	453.12
311.639	447.12
311.868	447.12
312.098	450.12
312.328	506.12
312.557	513.12
312.787	514.12
313.017	480.12
313.246	469.12
313.476	471.12
313.706	491.12
313.935	483.12
314.165	511.12
314.394	505.12
314.624	524.12
314.853	479.12
315.083	447.12
315.312	451.12
315.542	454.12
315.771	429.12
316.001	435.12
316.23	432.12
316.46	441.12
316.689	465.12
316.919	472.12
317.148	486.12
317.377	475.12
317.607	442.12
317.836	458.12
318.065	454.12
318.295	449.12
318.524	455.12
318.753	460.12
318.983	474.12
319.212	493.12
319.441	490.12
319.67	466.12
319.9	460.12
320.129	479.12
320.358	463.12
320.587	475.12
320.816	501.12
321.046	515.12
321.275	495.12
321.504	509.12
321.733	493.12
321.962	516.12
322.191	533.12
322.42	564.12
322.649	587.12
322.878	607.12
323.108	615.12
323.337	690.12
323.566	725.12
323.795	841.12
324.024	1107.12
324.253	1901.12
324.482	3223.12
324.71	4759.12
324.939	4168.12
325.168	1875.12
325.397	923.12
325.626	719.12
325.855	628.12
326.084	652.12
326.313	665.12
326.542	782.12
326.77	1032.12
326.999	1706.12
327.228	2747.12
327.457	3492.12
327.686	2324.12
327.914	1085.12
328.143	822.12
328.372	754.12
328.6	751.12
328.829	811.12
329.058	822.12
329.287	784.12
329.515	679.12
329.744	617.12
329.972	633.12
330.201	677.12
330.43	788.12
330.658	867.12
330.887	898.12
331.115	734.12
331.344	648.12
331.572	639.12
331.801	650.12
332.03	650.12
332.258	601.12
332.486	610.12
332.715	600.12
332.943	625.12
333.172	627.12
333.4	665.12
333.629	662.12
333.857	654.12
334.085	639.12
334.314	617.12
334.542	629.12
334.771	649.12
334.999	643.12
335.227	626.12
335.455	629.12
335.684	578.12
335.912	596.12
336.14	593.12
336.369	629.12
336.597	634.12
336.825	577.12
337.053	588.12
337.281	575.12
337.51	583.12
337.738	592.12
337.966	611.12
338.194	576.12
338.422	575.12
338.65	550.12
338.878	556.12
339.106	569.12
339.334	559.12
339.562	557.12
339.79	562.12
340.018	571.12
340.246	575.12
340.474	564.12
340.702	549.12
340.93	558.12
341.158	556.12
341.386	577.12
341.614	582.12
341.842	551.12
342.07	556.12
342.298	538.12
342.526	540.12
342.754	524.12
342.981	541.12
343.209	565.12
343.437	585.12
343.665	586.12
343.893	610.12
344.12	609.12
344.348	612.12
344.576	608.12
344.804	621.12
345.031	625.12
345.259	608.12
345.487	596.12
345.714	576.12
345.942	543.12
346.17	539.12
346.397	533.12
346.625	533.12
346.853	559.12
347.08	564.12
347.308	579.12
347.535	588.12
347.763	576.12
347.99	590.12
348.218	597.12
348.445	591.12
348.673	547.12
348.9	551.12
349.128	549.12
349.355	520.12
349.583	537.12
349.81	546.12
350.037	522.12
350.265	516.12
350.492	525.12
350.72	535.12
350.947	545.12
351.174	591.12
351.402	595.12
351.629	560.12
351.856	582.12
352.083	587.12
352.311	590.12
352.538	618.12
352.765	586.12
352.992	588.12
353.22	573.12
353.447	550.12
353.674	518.12
353.901	520.12
354.128	499.12
354.355	531.12
354.583	535.12
354.81	516.12
355.037	513.12
355.264	517.12
355.491	507.12
355.718	501.12
355.945	524.12
356.172	525.12
356.399	509.12
356.626	524.12
356.853	510.12
357.08	499.12
357.307	511.12
357.534	501.12
357.761	500.12
357.988	520.12
358.215	520.12
358.441	513.12
358.668	535.12
358.895	527.12
359.122	543.12
359.349	545.12
359.576	607.12
359.802	683.12
360.029	714.12
360.256	685.12
360.483	597.12
360.709	561.12
360.936	608.12
361.163	583.12
361.39	606.12
361.616	580.12
361.843	576.12
362.07	590.12
362.296	585.12
362.523	553.12
362.749	562.12
362.976	563.12
363.203	539.12
363.429	554.12
363.656	539.12
363.882	553.12
364.109	550.12
364.335	545.12
364.562	537.12
364.788	552.12
365.015	558.12
365.241	555.12
365.468	559.12
365.694	576.12
365.92	563.12
366.147	556.12
366.373	572.12
366.599	528.12
366.826	551.12
367.052	522.12
367.278	532.12
367.505	536.12
367.731	561.12
367.957	564.12
368.184	559.12
368.41	561.12
368.636	595.12
368.862	578.12
369.089	547.12
369.315	545.12
369.541	547.12
369.767	550.12
369.993	555.12
370.219	537.12
370.445	521.12
370.672	549.12
370.898	553.12
371.124	561.12
371.35	561.12
371.576	550.12
371.802	565.12
372.028	540.12
372.254	547.12
372.48	568.12
372.706	561.12
372.932	550.12
373.158	557.12
373.384	580.12
373.61	562.12
373.835	569.12
374.061	588.12
374.287	611.12
374.513	573.12
374.739	581.12
374.965	601.12
375.191	585.12
375.416	575.12
375.642	578.12
375.868	565.12
376.094	565.12
376.319	560.12
376.545	548.12
376.771	551.12
376.997	560.12
377.222	561.12
377.448	549.12
377.674	559.12
377.899	547.12
378.125	554.12
378.35	552.12
378.576	526.12
378.802	555.12
379.027	551.12
379.253	553.12
379.478	550.12
379.704	557.12
379.929	569.12
380.155	576.12
380.38	553.12
380.606	558.12
380.831	579.12
381.057	562.12
381.282	562.12
381.507	586.12
381.733	573.12
381.958	577.12
382.184	574.12
382.409	575.12
382.634	581.12
382.86	591.12
383.085	594.12
383.31	578.12
383.535	596.12
383.761	590.12
383.986	613.12
384.211	628.12
384.436	625.12
384.662	627.12
384.887	631.12
385.112	610.12
385.337	613.12
385.562	640.12
385.787	668.12
386.013	675.12
386.238	691.12
386.463	673.12
386.688	649.12
386.913	637.12
387.138	648.12
387.363	632.12
387.588	634.12
387.813	618.12
388.038	645.12
388.263	661.12
388.488	659.12
388.713	654.12
388.938	654.12
389.163	654.12
389.387	663.12
389.612	645.12
389.837	635.12
390.062	639.12
390.287	648.12
390.512	651.12
390.736	630.12
390.961	660.12
391.186	687.12
391.411	686.12
391.636	685.12
391.86	727.12
392.085	710.12
392.31	670.12
392.534	672.12
392.759	670.12
392.984	656.12
393.208	655.12
393.433	682.12
393.658	683.12
393.882	669.12
394.107	672.12
394.331	663.12
394.556	665.12
394.78	687.12
395.005	703.12
395.229	716.12
395.454	719.12
395.678	714.12
395.903	701.12
396.127	746.12
396.352	702.12
396.576	719.12
396.801	667.12
397.025	711.12
397.249	718.12
397.474	725.12
397.698	720.12
397.922	735.12
398.147	791.12
398.371	770.12
398.595	831.12
398.82	827.12
399.044	904.12
399.268	952.12
399.492	1052.12
399.717	1079.12
399.941	1027.12
400.165	975.12
400.389	925.12
400.613	841.12
400.837	822.12
401.062	816.12
401.286	804.12
401.51	812.12
401.734	798.12
401.958	832.12
402.182	855.12
402.406	889.12
402.63	870.12
402.854	865.12
403.078	881.12
403.302	879.12
403.526	898.12
403.75	897.12
403.974	879.12
404.198	903.12
404.422	919.12
404.645	917.12
404.869	875.12
405.093	899.12
405.317	917.12
405.541	899.12
405.765	910.12
405.988	925.12
406.212	1011.12
406.436	1057.12
406.66	978.12
406.883	975.12
407.107	1017.12
407.331	1071.12
407.555	1108.12
407.778	1052.12
408.002	976.12
408.226	928.12
408.449	912.12
408.673	947.12
408.896	955.12
409.12	935.12
409.344	886.12
409.567	851.12
409.791	863.12
410.014	837.12
410.238	826.12
410.461	845.12
410.685	830.12
410.908	873.12
411.132	886.12
411.355	884.12
411.578	832.12
411.802	817.12
412.025	797.12
412.249	815.12
412.472	807.12
412.695	806.12
412.919	776.12
413.142	781.12
413.365	779.12
413.589	791.12
413.812	768.12
414.035	750.12
414.258	778.12
414.482	774.12
414.705	781.12
414.928	767.12
415.151	777.12
415.374	781.12
415.597	810.12
415.821	768.12
416.044	764.12
416.267	761.12
416.49	756.12
416.713	765.12
416.936	782.12
417.159	759.12
417.382	803.12
417.605	784.12
417.828	803.12
418.051	802.12
418.274	795.12
418.497	764.12
418.72	814.12
418.943	769.12
419.166	819.12
419.389	868.12
419.611	827.12
419.834	847.12
420.057	816.12
420.28	798.12
420.503	784.12
420.726	807.12
420.948	832.12
421.171	875.12
421.394	850.12
421.617	820.12
421.839	783.12
422.062	823.12
422.285	834.12
422.507	887.12
422.73	938.12
422.953	881.12
423.175	809.12
423.398	857.12
423.621	851.12
423.843	859.12
424.066	867.12
424.288	867.12
424.511	920.12
424.733	990.12
424.956	1027.12
425.178	990.12
425.401	954.12
425.623	923.12
425.846	839.12
426.068	840.12
426.291	793.12
426.513	792.12
426.735	861.12
426.958	945.12
427.18	1073.12
427.402	1230.12
427.625	1217.12
427.847	988.12
428.069	815.12
428.292	764.12
428.514	727.12
428.736	713.12
428.958	741.12
429.181	722.12
429.403	746.12
429.625	777.12
429.847	817.12
430.069	863.12
430.292	772.12
430.514	701.12
430.736	721.12
430.958	705.12
431.18	707.12
431.402	706.12
431.624	711.12
431.846	705.12
432.068	703.12
432.29	699.12
432.512	695.12
432.734	732.12
432.956	755.12
433.178	760.12
433.4	758.12
433.622	717.12
433.844	725.12
434.066	715.12
434.287	731.12
434.509	744.12
434.731	776.12
434.953	787.12
435.175	784.12
435.397	832.12
435.618	859.12
435.84	930.12
436.062	976.12
436.284	924.12
436.505	823.12
436.727	781.12
436.949	760.12
437.17	740.12
437.392	742.12
437.614	780.12
437.835	891.12
438.057	1026.12
438.278	1035.12
438.5	1031.12
438.721	1080.12
438.943	935.12
439.165	794.12
439.386	784.12
439.608	771.12
439.829	875.12
440.05	925.12
440.272	940.12
440.493	827.12
440.715	756.12
440.936	791.12
441.158	767.12
441.379	795.12
441.6	835.12
441.822	877.12
442.043	963.12
442.264	1036.12
442.486	937.12
442.707	862.12
442.928	882.12
443.149	929.12
443.371	941.12
443.592	1039.12
443.813	1093.12
444.034	1059.12
444.255	924.12
444.476	887.12
444.698	919.12
444.919	927.12
445.14	948.12
445.361	945.12
445.582	1041.12
445.803	1159.12
446.024	1199.12
446.245	1117.12
446.466	929.12
446.687	817.12
446.908	756.12
447.129	715.12
447.35	727.12
447.571	727.12
447.792	727.12
448.013	736.12
448.234	803.12
448.455	895.12
448.675	1052.12
448.896	1007.12
449.117	878.12
449.338	953.12
449.559	1095.12
449.779	1037.12
450	796.12
450.221	729.12
450.442	692.12
450.662	731.12
450.883	803.12
451.104	813.12
451.324	763.12
451.545	692.12
451.766	687.12
451.986	650.12
452.207	685.12
452.428	665.12
452.648	676.12
452.869	701.12
453.089	711.12
453.31	691.12
453.53	663.12
453.751	672.12
453.971	703.12
454.192	740.12
454.412	655.12
454.633	638.12
454.853	622.12
455.073	622.12
455.294	734.12
455.514	769.12
455.734	684.12
455.955	616.12
456.175	606.12
456.395	593.12
456.616	615.12
456.836	612.12
457.056	604.12
457.276	599.12
457.497	615.12
457.717	595.12
457.937	643.12
458.157	636.12
458.377	637.12
458.598	760.12
458.818	940.12
459.038	989.12
459.258	871.12
459.478	775.12
459.698	720.12
459.918	732.12
460.138	733.12
460.358	763.12
460.578	796.12
460.798	809.12
461.018	774.12
461.238	716.12
461.458	760.12
461.678	778.12
461.898	770.12
462.118	787.12
462.338	811.12
462.558	845.12
462.777	849.12
462.997	924.12
463.217	925.12
463.437	907.12
463.657	879.12
463.876	860.12
464.096	860.12
464.316	900.12
464.536	884.12
464.755	887.12
464.975	948.12
465.195	1169.12
465.414	1073.12
465.634	812.12
465.854	764.12
466.073	727.12
466.293	702.12
466.512	708.12
466.732	680.12
466.951	671.12
467.171	715.12
467.391	713.12
467.61	769.12
467.829	706.12
468.049	685.12
468.268	656.12
468.488	635.12
468.707	657.12
468.927	652.12
469.146	640.12
469.365	641.12
469.585	648.12
469.804	713.12
470.023	724.12
470.243	737.12
470.462	771.12
470.681	791.12
470.901	720.12
471.12	664.12
471.339	694.12
471.558	685.12
471.777	661.12
471.997	632.12
472.216	654.12
472.435	652.12
472.654	675.12
472.873	633.12
473.092	632.12
473.311	611.12
473.53	647.12
473.749	671.12
473.968	787.12
474.187	895.12
474.406	785.12
474.625	707.12
474.844	656.12
475.063	663.12
475.282	672.12
475.501	647.12
475.72	665.12
475.939	671.12
476.158	683.12
476.377	700.12
476.596	687.12
476.814	697.12
477.033	720.12
477.252	716.12
477.471	718.12
477.69	748.12
477.908	744.12
478.127	757.12
478.346	767.12
478.564	770.12
478.783	764.12
479.002	803.12
479.22	809.12
479.439	845.12
479.658	867.12
479.876	832.12
480.095	889.12
480.313	885.12
480.532	883.12
480.751	847.12
480.969	821.12
481.188	803.12
481.406	788.12
481.624	753.12
481.843	763.12
482.061	725.12
482.28	751.12
482.498	759.12
482.717	742.12
482.935	731.12
483.153	763.12
483.372	751.12
483.59	756.12
483.808	738.12
484.027	738.12
484.245	766.12
484.463	781.12
484.681	793.12
484.9	777.12
485.118	788.12
485.336	781.12
485.554	791.12
485.772	796.12
485.99	798.12
486.209	785.12
486.427	798.12
486.645	865.12
486.863	882.12
487.081	840.12
487.299	838.12
487.517	826.12
487.735	799.12
487.953	825.12
488.171	803.12
488.389	804.12
488.607	805.12
488.825	808.12
489.043	793.12
489.261	787.12
489.479	817.12
489.696	811.12
489.914	832.12
490.132	841.12
490.35	848.12
490.568	857.12
490.786	859.12
491.003	899.12
491.221	899.12
491.439	912.12
491.657	913.12
491.874	929.12
492.092	935.12
492.31	927.12
492.527	950.12
492.745	905.12
492.963	928.12
493.18	942.12
493.398	981.12
493.615	978.12
493.833	973.12
494.05	951.12
494.268	936.12
494.485	940.12
494.703	925.12
494.92	916.12
495.138	949.12
495.355	951.12
495.573	935.12
495.79	948.12
496.008	940.12
496.225	913.12
496.442	948.12
496.66	925.12
496.877	972.12
497.094	980.12
497.312	977.12
497.529	1006.12
497.746	1042.12
497.963	1052.12
498.181	1067.12
498.398	1106.12
498.615	1168.12
498.832	1211.12
499.049	1231.12
499.267	1300.12
499.484	1412.12
499.701	1522.12
499.918	1667.12
500.135	1771.12
500.352	1856.12
500.569	1837.12
500.786	1787.12
501.003	1731.12
501.22	1599.12
501.437	1513.12
501.654	1464.12
501.871	1397.12
