Data from TestCu_HRD10591_00081.txt Node
Date: Thu Oct 05 14:06:01 EDT 2023
User: Yrep
Spectrometer: HR+D1059
Trigger mode: 1
Integration Time (sec): 1.000000E-1
Scans to average: 1
Electric dark correction enabled: true
Nonlinearity correction enabled: false
Boxcar width: 0
XAxis mode: Wavelengths
Number of Pixels in Spectrum: 2048
>>>>>Begin Spectral Data<<<<<
223.165	-9.94
223.4	-9.94
223.635	-9.94
223.869	-16.94
224.104	-12.94
224.338	-18.94
224.573	-10.94
224.808	-18.94
225.042	0.06
225.277	-2.94
225.511	-3.94
225.746	7.06
225.98	6.06
226.215	7.06
226.449	8.06
226.683	19.06
226.918	12.06
227.152	36.06
227.387	33.06
227.621	36.06
227.856	46.06
228.09	55.06
228.324	42.06
228.559	62.06
228.793	72.06
229.027	92.06
229.262	111.06
229.496	127.06
229.73	162.06
229.964	165.06
230.199	103.06
230.433	105.06
230.667	116.06
230.901	114.06
231.136	117.06
231.37	107.06
231.604	114.06
231.838	115.06
232.072	109.06
232.306	109.06
232.541	114.06
232.775	109.06
233.009	113.06
233.243	114.06
233.477	122.06
233.711	108.06
233.945	115.06
234.179	112.06
234.413	112.06
234.647	119.06
234.881	105.06
235.115	127.06
235.349	134.06
235.583	117.06
235.817	127.06
236.051	125.06
236.285	104.06
236.519	155.06
236.753	143.06
236.987	184.06
237.221	223.06
237.455	212.06
237.689	132.06
237.922	118.06
238.156	124.06
238.39	107.06
238.624	106.06
238.858	128.06
239.091	124.06
239.325	133.06
239.559	126.06
239.793	139.06
240.027	149.06
240.26	172.06
240.494	169.06
240.728	157.06
240.961	130.06
241.195	130.06
241.429	122.06
241.662	119.06
241.896	118.06
242.13	131.06
242.363	118.06
242.597	144.06
242.83	128.06
243.064	140.06
243.298	132.06
243.531	135.06
243.765	135.06
243.998	122.06
244.232	136.06
244.465	140.06
244.699	147.06
244.932	165.06
245.166	140.06
245.399	145.06
245.633	145.06
245.866	136.06
246.099	150.06
246.333	140.06
246.566	140.06
246.8	131.06
247.033	153.06
247.266	157.06
247.5	172.06
247.733	172.06
247.966	161.06
248.2	163.06
248.433	157.06
248.666	180.06
248.899	193.06
249.133	190.06
249.366	198.06
249.599	185.06
249.832	175.06
250.066	193.06
250.299	185.06
250.532	189.06
250.765	207.06
250.998	213.06
251.231	205.06
251.465	193.06
251.698	183.06
251.931	179.06
252.164	179.06
252.397	186.06
252.63	196.06
252.863	194.06
253.096	197.06
253.329	222.06
253.562	188.06
253.795	197.06
254.028	203.06
254.261	229.06
254.494	250.06
254.727	269.06
254.96	243.06
255.193	210.06
255.426	201.06
255.659	184.06
255.892	200.06
256.124	196.06
256.357	195.06
256.59	176.06
256.823	186.06
257.056	184.06
257.289	187.06
257.521	190.06
257.754	205.06
257.987	188.06
258.22	193.06
258.452	203.06
258.685	197.06
258.918	209.06
259.151	219.06
259.383	222.06
259.616	220.06
259.849	238.06
260.081	245.06
260.314	225.06
260.547	241.06
260.779	220.06
261.012	202.06
261.244	226.06
261.477	235.06
261.71	206.06
261.942	242.06
262.175	238.06
262.407	232.06
262.64	210.06
262.872	198.06
263.105	192.06
263.337	197.06
263.57	205.06
263.802	217.06
264.035	223.06
264.267	212.06
264.499	209.06
264.732	219.06
264.964	223.06
265.197	217.06
265.429	222.06
265.661	221.06
265.894	229.06
266.126	223.06
266.358	200.06
266.591	221.06
266.823	227.06
267.055	229.06
267.287	230.06
267.52	230.06
267.752	212.06
267.984	231.06
268.216	238.06
268.448	245.06
268.681	248.06
268.913	278.06
269.145	292.06
269.377	281.06
269.609	266.06
269.841	278.06
270.073	296.06
270.306	326.06
270.538	314.06
270.77	293.06
271.002	291.06
271.234	295.06
271.466	328.06
271.698	331.06
271.93	309.06
272.162	293.06
272.394	296.06
272.626	304.06
272.858	282.06
273.09	278.06
273.322	265.06
273.553	254.06
273.785	269.06
274.017	267.06
274.249	259.06
274.481	273.06
274.713	275.06
274.945	273.06
275.176	278.06
275.408	276.06
275.64	271.06
275.872	283.06
276.104	281.06
276.335	301.06
276.567	323.06
276.799	332.06
277.031	365.06
277.262	353.06
277.494	316.06
277.726	291.06
277.957	301.06
278.189	288.06
278.421	283.06
278.652	268.06
278.884	281.06
279.115	284.06
279.347	292.06
279.579	282.06
279.81	257.06
280.042	279.06
280.273	270.06
280.505	279.06
280.736	293.06
280.968	294.06
281.199	286.06
281.431	298.06
281.662	296.06
281.894	293.06
282.125	311.06
282.356	344.06
282.588	365.06
282.819	315.06
283.051	315.06
283.282	294.06
283.513	308.06
283.745	301.06
283.976	320.06
284.207	301.06
284.439	292.06
284.67	307.06
284.901	314.06
285.132	292.06
285.364	314.06
285.595	307.06
285.826	305.06
286.057	291.06
286.288	315.06
286.52	309.06
286.751	317.06
286.982	305.06
287.213	321.06
287.444	337.06
287.675	339.06
287.906	347.06
288.138	351.06
288.369	333.06
288.6	322.06
288.831	333.06
289.062	328.06
289.293	335.06
289.524	318.06
289.755	340.06
289.986	317.06
290.217	319.06
290.448	326.06
290.679	319.06
290.91	325.06
291.141	308.06
291.371	325.06
291.602	346.06
291.833	318.06
292.064	341.06
292.295	333.06
292.526	319.06
292.757	323.06
292.987	323.06
293.218	317.06
293.449	322.06
293.68	340.06
293.91	327.06
294.141	331.06
294.372	317.06
294.603	344.06
294.833	353.06
295.064	337.06
295.295	339.06
295.525	348.06
295.756	386.06
295.987	406.06
296.217	411.06
296.448	393.06
296.679	367.06
296.909	350.06
297.14	346.06
297.37	360.06
297.601	356.06
297.831	379.06
298.062	357.06
298.292	357.06
298.523	390.06
298.753	365.06
298.984	371.06
299.214	346.06
299.445	374.06
299.675	382.06
299.905	375.06
300.136	374.06
300.366	377.06
300.597	383.06
300.827	400.06
301.057	412.06
301.288	402.06
301.518	396.06
301.748	401.06
301.979	423.06
302.209	410.06
302.439	409.06
302.669	406.06
302.9	400.06
303.13	405.06
303.36	407.06
303.59	425.06
303.82	402.06
304.051	417.06
304.281	385.06
304.511	390.06
304.741	389.06
304.971	398.06
305.201	392.06
305.431	390.06
305.661	390.06
305.891	382.06
306.121	402.06
306.352	426.06
306.582	421.06
306.812	398.06
307.042	404.06
307.272	404.06
307.502	410.06
307.731	390.06
307.961	406.06
308.191	410.06
308.421	413.06
308.651	391.06
308.881	415.06
309.111	415.06
309.341	429.06
309.571	445.06
309.8	477.06
310.03	490.06
310.26	487.06
310.49	497.06
310.72	500.06
310.949	513.06
311.179	497.06
311.409	479.06
311.639	451.06
311.868	470.06
312.098	484.06
312.328	504.06
312.557	546.06
312.787	574.06
313.017	508.06
313.246	489.06
313.476	477.06
313.706	479.06
313.935	531.06
314.165	531.06
314.394	546.06
314.624	507.06
314.853	495.06
315.083	458.06
315.312	447.06
315.542	458.06
315.771	461.06
316.001	466.06
316.23	452.06
316.46	458.06
316.689	457.06
316.919	476.06
317.148	509.06
317.377	502.06
317.607	483.06
317.836	489.06
318.065	462.06
318.295	459.06
318.524	454.06
318.753	475.06
318.983	460.06
319.212	463.06
319.441	483.06
319.67	497.06
319.9	478.06
320.129	481.06
320.358	492.06
320.587	466.06
320.816	507.06
321.046	509.06
321.275	528.06
321.504	517.06
321.733	535.06
321.962	526.06
322.191	554.06
322.42	585.06
322.649	594.06
322.878	622.06
323.108	661.06
323.337	709.06
323.566	774.06
323.795	859.06
324.024	1143.06
324.253	1955.06
324.482	3304.06
324.71	4875.06
324.939	4221.06
325.168	1883.06
325.397	950.06
325.626	742.06
325.855	678.06
326.084	664.06
326.313	707.06
326.542	809.06
326.77	1085.06
326.999	1809.06
327.228	2847.06
327.457	3593.06
327.686	2365.06
327.914	1147.06
328.143	876.06
328.372	813.06
328.6	793.06
328.829	797.06
329.058	894.06
329.287	781.06
329.515	676.06
329.744	661.06
329.972	665.06
330.201	686.06
330.43	775.06
330.658	918.06
330.887	936.06
331.115	784.06
331.344	686.06
331.572	659.06
331.801	693.06
332.03	654.06
332.258	645.06
332.486	629.06
332.715	653.06
332.943	640.06
333.172	667.06
333.4	672.06
333.629	693.06
333.857	693.06
334.085	645.06
334.314	652.06
334.542	641.06
334.771	678.06
334.999	649.06
335.227	659.06
335.455	622.06
335.684	633.06
335.912	630.06
336.14	653.06
336.369	637.06
336.597	672.06
336.825	644.06
337.053	587.06
337.281	577.06
337.51	591.06
337.738	612.06
337.966	625.06
338.194	615.06
338.422	598.06
338.65	580.06
338.878	576.06
339.106	574.06
339.334	586.06
339.562	592.06
339.79	570.06
340.018	590.06
340.246	592.06
340.474	609.06
340.702	592.06
340.93	597.06
341.158	597.06
341.386	579.06
341.614	583.06
341.842	588.06
342.07	587.06
342.298	566.06
342.526	575.06
342.754	558.06
342.981	551.06
343.209	578.06
343.437	605.06
343.665	633.06
343.893	651.06
344.12	642.06
344.348	622.06
344.576	641.06
344.804	658.06
345.031	650.06
345.259	635.06
345.487	606.06
345.714	593.06
345.942	581.06
346.17	575.06
346.397	560.06
346.625	577.06
346.853	557.06
347.08	574.06
347.308	601.06
347.535	607.06
347.763	598.06
347.99	613.06
348.218	613.06
348.445	620.06
348.673	591.06
348.9	544.06
349.128	552.06
349.355	557.06
349.583	566.06
349.81	546.06
350.037	565.06
350.265	552.06
350.492	547.06
350.72	565.06
350.947	573.06
351.174	610.06
351.402	606.06
351.629	602.06
351.856	626.06
352.083	635.06
352.311	638.06
352.538	644.06
352.765	609.06
352.992	598.06
353.22	598.06
353.447	581.06
353.674	539.06
353.901	531.06
354.128	515.06
354.355	542.06
354.583	529.06
354.81	543.06
355.037	549.06
355.264	508.06
355.491	544.06
355.718	523.06
355.945	527.06
356.172	539.06
356.399	533.06
356.626	535.06
356.853	527.06
357.08	532.06
357.307	556.06
357.534	493.06
357.761	509.06
357.988	515.06
358.215	531.06
358.441	553.06
358.668	529.06
358.895	563.06
359.122	581.06
359.349	591.06
359.576	625.06
359.802	701.06
360.029	738.06
360.256	719.06
360.483	633.06
360.709	601.06
360.936	603.06
361.163	614.06
361.39	605.06
361.616	648.06
361.843	596.06
362.07	614.06
362.296	620.06
362.523	593.06
362.749	590.06
362.976	582.06
363.203	571.06
363.429	556.06
363.656	575.06
363.882	550.06
364.109	558.06
364.335	581.06
364.562	586.06
364.788	564.06
365.015	565.06
365.241	565.06
365.468	617.06
365.694	596.06
365.92	597.06
366.147	580.06
366.373	549.06
366.599	561.06
366.826	553.06
367.052	553.06
367.278	565.06
367.505	567.06
367.731	587.06
367.957	573.06
368.184	609.06
368.41	603.06
368.636	625.06
368.862	611.06
369.089	610.06
369.315	580.06
369.541	586.06
369.767	556.06
369.993	587.06
370.219	555.06
370.445	574.06
370.672	553.06
370.898	568.06
371.124	578.06
371.35	571.06
371.576	581.06
371.802	564.06
372.028	574.06
372.254	589.06
372.48	591.06
372.706	562.06
372.932	582.06
373.158	581.06
373.384	597.06
373.61	591.06
373.835	591.06
374.061	592.06
374.287	602.06
374.513	602.06
374.739	598.06
374.965	623.06
375.191	613.06
375.416	593.06
375.642	606.06
375.868	585.06
376.094	584.06
376.319	597.06
376.545	593.06
376.771	589.06
376.997	580.06
377.222	590.06
377.448	567.06
377.674	550.06
377.899	568.06
378.125	565.06
378.35	588.06
378.576	609.06
378.802	587.06
379.027	570.06
379.253	591.06
379.478	559.06
379.704	572.06
379.929	607.06
380.155	575.06
380.38	571.06
380.606	585.06
380.831	566.06
381.057	562.06
381.282	590.06
381.507	584.06
381.733	574.06
381.958	590.06
382.184	609.06
382.409	603.06
382.634	602.06
382.86	618.06
383.085	641.06
383.31	621.06
383.535	644.06
383.761	647.06
383.986	650.06
384.211	654.06
384.436	667.06
384.662	681.06
384.887	670.06
385.112	669.06
385.337	677.06
385.562	681.06
385.787	693.06
386.013	723.06
386.238	709.06
386.463	695.06
386.688	693.06
386.913	663.06
387.138	677.06
387.363	659.06
387.588	656.06
387.813	695.06
388.038	684.06
388.263	690.06
388.488	675.06
388.713	663.06
388.938	683.06
389.163	658.06
389.387	673.06
389.612	660.06
389.837	681.06
390.062	659.06
390.287	637.06
390.512	667.06
390.736	677.06
390.961	671.06
391.186	669.06
391.411	714.06
391.636	727.06
391.86	744.06
392.085	731.06
392.31	725.06
392.534	703.06
392.759	727.06
392.984	680.06
393.208	703.06
393.433	695.06
393.658	678.06
393.882	677.06
394.107	695.06
394.331	721.06
394.556	716.06
394.78	714.06
395.005	713.06
395.229	723.06
395.454	758.06
395.678	781.06
395.903	739.06
396.127	738.06
396.352	745.06
396.576	724.06
396.801	705.06
397.025	718.06
397.249	699.06
397.474	752.06
397.698	758.06
397.922	770.06
398.147	797.06
398.371	803.06
398.595	817.06
398.82	842.06
399.044	913.06
399.268	994.06
399.492	1093.06
399.717	1102.06
399.941	1095.06
400.165	1015.06
400.389	983.06
400.613	911.06
400.837	849.06
401.062	846.06
401.286	814.06
401.51	818.06
401.734	834.06
401.958	877.06
402.182	927.06
402.406	929.06
402.63	924.06
402.854	885.06
403.078	883.06
403.302	891.06
403.526	931.06
403.75	923.06
403.974	922.06
404.198	935.06
404.422	918.06
404.645	931.06
404.869	912.06
405.093	935.06
405.317	946.06
405.541	959.06
405.765	938.06
405.988	963.06
406.212	1036.06
406.436	1092.06
406.66	1062.06
406.883	1030.06
407.107	1069.06
407.331	1105.06
407.555	1136.06
407.778	1104.06
408.002	1008.06
408.226	955.06
408.449	941.06
408.673	937.06
408.896	956.06
409.12	969.06
409.344	914.06
409.567	886.06
409.791	875.06
410.014	863.06
410.238	861.06
410.461	879.06
410.685	893.06
410.908	901.06
411.132	925.06
411.355	897.06
411.578	855.06
411.802	859.06
412.025	823.06
412.249	857.06
412.472	834.06
412.695	825.06
412.919	808.06
413.142	814.06
413.365	813.06
413.589	785.06
413.812	789.06
414.035	797.06
414.258	772.06
414.482	791.06
414.705	817.06
414.928	803.06
415.151	794.06
415.374	813.06
415.597	809.06
415.821	768.06
416.044	786.06
416.267	778.06
416.49	762.06
416.713	755.06
416.936	794.06
417.159	811.06
417.382	777.06
417.605	854.06
417.828	857.06
418.051	847.06
418.274	813.06
418.497	805.06
418.72	826.06
418.943	813.06
419.166	835.06
419.389	839.06
419.611	863.06
419.834	850.06
420.057	841.06
420.28	800.06
420.503	824.06
420.726	833.06
420.948	855.06
421.171	902.06
421.394	879.06
421.617	834.06
421.839	833.06
422.062	869.06
422.285	886.06
422.507	928.06
422.73	972.06
422.953	902.06
423.175	868.06
423.398	885.06
423.621	867.06
423.843	863.06
424.066	871.06
424.288	871.06
424.511	967.06
424.733	987.06
424.956	1059.06
425.178	998.06
425.401	999.06
425.623	949.06
425.846	854.06
426.068	831.06
426.291	823.06
426.513	804.06
426.735	887.06
426.958	959.06
427.18	1086.06
427.402	1257.06
427.625	1257.06
427.847	1002.06
428.069	832.06
428.292	813.06
428.514	764.06
428.736	769.06
428.958	768.06
429.181	749.06
429.403	740.06
429.625	802.06
429.847	795.06
430.069	877.06
430.292	805.06
430.514	751.06
430.736	719.06
430.958	725.06
431.18	737.06
431.402	749.06
431.624	702.06
431.846	739.06
432.068	725.06
432.29	745.06
432.512	742.06
432.734	745.06
432.956	747.06
433.178	778.06
433.4	766.06
433.622	762.06
433.844	736.06
434.066	761.06
434.287	770.06
434.509	789.06
434.731	772.06
434.953	802.06
435.175	825.06
435.397	859.06
435.618	839.06
435.84	939.06
436.062	988.06
436.284	970.06
436.505	827.06
436.727	801.06
436.949	773.06
437.17	757.06
437.392	747.06
437.614	815.06
437.835	937.06
438.057	1051.06
438.278	1039.06
438.5	1081.06
438.721	1112.06
438.943	945.06
439.165	833.06
439.386	795.06
439.608	845.06
439.829	920.06
440.05	977.06
440.272	1020.06
440.493	875.06
440.715	805.06
440.936	810.06
441.158	800.06
441.379	829.06
441.6	875.06
441.822	942.06
442.043	977.06
442.264	1029.06
442.486	993.06
442.707	921.06
442.928	886.06
443.149	977.06
443.371	969.06
443.592	1061.06
443.813	1131.06
444.034	1065.06
444.255	910.06
444.476	924.06
444.698	939.06
444.919	953.06
445.14	945.06
445.361	969.06
445.582	1066.06
445.803	1184.06
446.024	1212.06
446.245	1119.06
446.466	980.06
446.687	831.06
446.908	798.06
447.129	769.06
447.35	731.06
447.571	724.06
447.792	760.06
448.013	761.06
448.234	803.06
448.455	929.06
448.675	1061.06
448.896	1051.06
449.117	925.06
449.338	989.06
449.559	1103.06
449.779	1049.06
450	827.06
450.221	725.06
450.442	756.06
450.662	755.06
450.883	820.06
451.104	840.06
451.324	751.06
451.545	705.06
451.766	690.06
451.986	695.06
452.207	670.06
452.428	682.06
452.648	669.06
452.869	699.06
453.089	716.06
453.31	722.06
453.53	695.06
453.751	693.06
453.971	731.06
454.192	740.06
454.412	693.06
454.633	644.06
454.853	657.06
455.073	701.06
455.294	721.06
455.514	795.06
455.734	690.06
455.955	645.06
456.175	639.06
456.395	608.06
456.616	619.06
456.836	615.06
457.056	638.06
457.276	598.06
457.497	638.06
457.717	612.06
457.937	632.06
458.157	668.06
458.377	683.06
458.598	805.06
458.818	977.06
459.038	1034.06
459.258	879.06
459.478	789.06
459.698	759.06
459.918	740.06
460.138	778.06
460.358	790.06
460.578	801.06
460.798	795.06
461.018	804.06
461.238	802.06
461.458	797.06
461.678	811.06
461.898	826.06
462.118	809.06
462.338	863.06
462.558	867.06
462.777	886.06
462.997	945.06
463.217	971.06
463.437	936.06
463.657	908.06
463.876	872.06
464.096	886.06
464.316	927.06
464.536	910.06
464.755	896.06
464.975	946.06
465.195	1155.06
465.414	1098.06
465.634	866.06
465.854	795.06
466.073	756.06
466.293	701.06
466.512	721.06
466.732	697.06
466.951	717.06
467.171	735.06
467.391	748.06
467.61	782.06
467.829	726.06
468.049	709.06
468.268	707.06
468.488	668.06
468.707	667.06
468.927	645.06
469.146	685.06
469.365	691.06
469.585	698.06
469.804	770.06
470.023	774.06
470.243	768.06
470.462	760.06
470.681	812.06
470.901	759.06
471.12	721.06
471.339	720.06
471.558	733.06
471.777	685.06
471.997	684.06
472.216	662.06
472.435	683.06
472.654	632.06
472.873	653.06
473.092	651.06
473.311	669.06
473.53	677.06
473.749	724.06
473.968	807.06
474.187	899.06
474.406	798.06
474.625	693.06
474.844	657.06
475.063	650.06
475.282	642.06
475.501	685.06
475.72	699.06
475.939	690.06
476.158	679.06
476.377	729.06
476.596	710.06
476.814	712.06
477.033	719.06
477.252	722.06
477.471	781.06
477.69	763.06
477.908	751.06
478.127	774.06
478.346	776.06
478.564	797.06
478.783	799.06
479.002	815.06
479.22	840.06
479.439	869.06
479.658	875.06
479.876	866.06
480.095	901.06
480.313	916.06
480.532	885.06
480.751	873.06
480.969	867.06
481.188	827.06
481.406	818.06
481.624	786.06
481.843	786.06
482.061	758.06
482.28	777.06
482.498	779.06
482.717	769.06
482.935	785.06
483.153	782.06
483.372	769.06
483.59	782.06
483.808	786.06
484.027	793.06
484.245	797.06
484.463	793.06
484.681	797.06
484.9	819.06
485.118	788.06
485.336	800.06
485.554	817.06
485.772	816.06
485.99	826.06
486.209	813.06
486.427	843.06
486.645	867.06
486.863	905.06
487.081	832.06
487.299	844.06
487.517	834.06
487.735	827.06
487.953	870.06
488.171	858.06
488.389	828.06
488.607	843.06
488.825	832.06
489.043	838.06
489.261	839.06
489.479	841.06
489.696	854.06
489.914	843.06
490.132	870.06
490.35	877.06
490.568	859.06
490.786	894.06
491.003	918.06
491.221	965.06
491.439	946.06
491.657	969.06
491.874	992.06
492.092	966.06
492.31	999.06
492.527	1025.06
492.745	994.06
492.963	966.06
493.18	1014.06
493.398	981.06
493.615	978.06
493.833	993.06
494.05	961.06
494.268	974.06
494.485	954.06
494.703	997.06
494.92	980.06
495.138	944.06
495.355	985.06
495.573	978.06
495.79	1005.06
496.008	1004.06
496.225	962.06
496.442	962.06
496.66	987.06
496.877	980.06
497.094	1025.06
497.312	1024.06
497.529	1039.06
497.746	1066.06
497.963	1065.06
498.181	1150.06
498.398	1171.06
498.615	1215.06
498.832	1229.06
499.049	1305.06
499.267	1365.06
499.484	1476.06
499.701	1557.06
499.918	1622.06
500.135	1821.06
500.352	1892.06
500.569	1904.06
500.786	1864.06
501.003	1793.06
501.22	1670.06
501.437	1579.06
501.654	1487.06
