Data from TestCu_HRD10591_00064.txt Node
Date: Thu Oct 05 14:05:44 EDT 2023
User: Yrep
Spectrometer: HR+D1059
Trigger mode: 1
Integration Time (sec): 1.000000E-1
Scans to average: 1
Electric dark correction enabled: true
Nonlinearity correction enabled: false
Boxcar width: 0
XAxis mode: Wavelengths
Number of Pixels in Spectrum: 2048
>>>>>Begin Spectral Data<<<<<
223.165	-9.06
223.4	-9.06
223.635	-9.06
223.869	-23.06
224.104	-22.06
224.338	0.94
224.573	-1.06
224.808	-28.06
225.042	-6.06
225.277	9.94
225.511	-11.06
225.746	11.94
225.98	-5.06
226.215	1.94
226.449	24.94
226.683	16.94
226.918	24.94
227.152	13.94
227.387	37.94
227.621	47.94
227.856	50.94
228.09	49.94
228.324	56.94
228.559	57.94
228.793	75.94
229.027	97.94
229.262	138.94
229.496	167.94
229.73	174.94
229.964	171.94
230.199	122.94
230.433	116.94
230.667	112.94
230.901	111.94
231.136	100.94
231.37	118.94
231.604	107.94
231.838	115.94
232.072	98.94
232.306	121.94
232.541	106.94
232.775	109.94
233.009	113.94
233.243	120.94
233.477	115.94
233.711	123.94
233.945	127.94
234.179	113.94
234.413	113.94
234.647	111.94
234.881	121.94
235.115	112.94
235.349	113.94
235.583	116.94
235.817	124.94
236.051	118.94
236.285	124.94
236.519	146.94
236.753	132.94
236.987	180.94
237.221	223.94
237.455	215.94
237.689	157.94
237.922	137.94
238.156	137.94
238.39	128.94
238.624	121.94
238.858	118.94
239.091	123.94
239.325	128.94
239.559	138.94
239.793	143.94
240.027	150.94
240.26	160.94
240.494	160.94
240.728	150.94
240.961	148.94
241.195	146.94
241.429	126.94
241.662	129.94
241.896	132.94
242.13	133.94
242.363	140.94
242.597	137.94
242.83	135.94
243.064	126.94
243.298	141.94
243.531	142.94
243.765	142.94
243.998	148.94
244.232	159.94
244.465	144.94
244.699	152.94
244.932	146.94
245.166	160.94
245.399	135.94
245.633	129.94
245.866	144.94
246.099	148.94
246.333	143.94
246.566	141.94
246.8	148.94
247.033	164.94
247.266	150.94
247.5	169.94
247.733	185.94
247.966	167.94
248.2	157.94
248.433	170.94
248.666	202.94
248.899	197.94
249.133	197.94
249.366	219.94
249.599	188.94
249.832	169.94
250.066	163.94
250.299	176.94
250.532	203.94
250.765	209.94
250.998	208.94
251.231	204.94
251.465	179.94
251.698	185.94
251.931	173.94
252.164	179.94
252.397	193.94
252.63	191.94
252.863	213.94
253.096	221.94
253.329	230.94
253.562	193.94
253.795	191.94
254.028	224.94
254.261	215.94
254.494	241.94
254.727	267.94
254.96	261.94
255.193	243.94
255.426	223.94
255.659	200.94
255.892	173.94
256.124	183.94
256.357	193.94
256.59	191.94
256.823	191.94
257.056	216.94
257.289	210.94
257.521	208.94
257.754	205.94
257.987	200.94
258.22	205.94
258.452	211.94
258.685	195.94
258.918	201.94
259.151	202.94
259.383	221.94
259.616	227.94
259.849	243.94
260.081	252.94
260.314	255.94
260.547	237.94
260.779	209.94
261.012	224.94
261.244	215.94
261.477	233.94
261.71	248.94
261.942	273.94
262.175	274.94
262.407	235.94
262.64	217.94
262.872	214.94
263.105	232.94
263.337	224.94
263.57	215.94
263.802	219.94
264.035	207.94
264.267	205.94
264.499	226.94
264.732	221.94
264.964	211.94
265.197	212.94
265.429	221.94
265.661	213.94
265.894	219.94
266.126	212.94
266.358	229.94
266.591	240.94
266.823	229.94
267.055	230.94
267.287	248.94
267.52	230.94
267.752	229.94
267.984	249.94
268.216	231.94
268.448	253.94
268.681	255.94
268.913	272.94
269.145	294.94
269.377	295.94
269.609	259.94
269.841	278.94
270.073	291.94
270.306	315.94
270.538	318.94
270.77	318.94
271.002	284.94
271.234	301.94
271.466	328.94
271.698	329.94
271.93	312.94
272.162	313.94
272.394	315.94
272.626	277.94
272.858	264.94
273.09	260.94
273.322	258.94
273.553	257.94
273.785	279.94
274.017	274.94
274.249	287.94
274.481	270.94
274.713	262.94
274.945	287.94
275.176	264.94
275.408	275.94
275.64	288.94
275.872	276.94
276.104	279.94
276.335	282.94
276.567	295.94
276.799	347.94
277.031	356.94
277.262	335.94
277.494	299.94
277.726	288.94
277.957	291.94
278.189	284.94
278.421	280.94
278.652	283.94
278.884	267.94
279.115	293.94
279.347	276.94
279.579	266.94
279.81	273.94
280.042	276.94
280.273	272.94
280.505	287.94
280.736	287.94
280.968	290.94
281.199	272.94
281.431	287.94
281.662	312.94
281.894	308.94
282.125	320.94
282.356	361.94
282.588	368.94
282.819	330.94
283.051	299.94
283.282	300.94
283.513	304.94
283.745	312.94
283.976	307.94
284.207	304.94
284.439	290.94
284.67	302.94
284.901	305.94
285.132	293.94
285.364	319.94
285.595	319.94
285.826	316.94
286.057	305.94
286.288	318.94
286.52	315.94
286.751	305.94
286.982	316.94
287.213	331.94
287.444	325.94
287.675	337.94
287.906	337.94
288.138	339.94
288.369	323.94
288.6	347.94
288.831	347.94
289.062	354.94
289.293	313.94
289.524	325.94
289.755	326.94
289.986	325.94
290.217	331.94
290.448	344.94
290.679	325.94
290.91	317.94
291.141	317.94
291.371	332.94
291.602	326.94
291.833	318.94
292.064	326.94
292.295	314.94
292.526	357.94
292.757	333.94
292.987	326.94
293.218	345.94
293.449	338.94
293.68	340.94
293.91	332.94
294.141	345.94
294.372	338.94
294.603	337.94
294.833	340.94
295.064	341.94
295.295	352.94
295.525	363.94
295.756	374.94
295.987	390.94
296.217	406.94
296.448	387.94
296.679	349.94
296.909	351.94
297.14	339.94
297.37	359.94
297.601	370.94
297.831	350.94
298.062	387.94
298.292	375.94
298.523	361.94
298.753	365.94
298.984	373.94
299.214	367.94
299.445	378.94
299.675	391.94
299.905	385.94
300.136	374.94
300.366	382.94
300.597	393.94
300.827	401.94
301.057	423.94
301.288	408.94
301.518	400.94
301.748	378.94
301.979	415.94
302.209	403.94
302.439	419.94
302.669	401.94
302.9	407.94
303.13	376.94
303.36	401.94
303.59	414.94
303.82	416.94
304.051	388.94
304.281	391.94
304.511	384.94
304.741	387.94
304.971	383.94
305.201	398.94
305.431	396.94
305.661	390.94
305.891	397.94
306.121	423.94
306.352	400.94
306.582	415.94
306.812	405.94
307.042	409.94
307.272	405.94
307.502	389.94
307.731	412.94
307.961	384.94
308.191	406.94
308.421	392.94
308.651	422.94
308.881	433.94
309.111	442.94
309.341	451.94
309.571	444.94
309.8	463.94
310.03	481.94
310.26	475.94
310.49	501.94
310.72	533.94
310.949	529.94
311.179	504.94
311.409	467.94
311.639	475.94
311.868	490.94
312.098	499.94
312.328	536.94
312.557	551.94
312.787	555.94
313.017	498.94
313.246	475.94
313.476	466.94
313.706	503.94
313.935	524.94
314.165	551.94
314.394	523.94
314.624	512.94
314.853	483.94
315.083	457.94
315.312	498.94
315.542	479.94
315.771	468.94
316.001	459.94
316.23	463.94
316.46	476.94
316.689	500.94
316.919	481.94
317.148	507.94
317.377	493.94
317.607	489.94
317.836	454.94
318.065	485.94
318.295	468.94
318.524	475.94
318.753	483.94
318.983	473.94
319.212	472.94
319.441	505.94
319.67	491.94
319.9	481.94
320.129	478.94
320.358	487.94
320.587	481.94
320.816	527.94
321.046	519.94
321.275	494.94
321.504	533.94
321.733	508.94
321.962	565.94
322.191	593.94
322.42	583.94
322.649	593.94
322.878	633.94
323.108	687.94
323.337	698.94
323.566	800.94
323.795	863.94
324.024	1196.94
324.253	2051.94
324.482	3521.94
324.71	5197.94
324.939	4523.94
325.168	1978.94
325.397	985.94
325.626	750.94
325.855	670.94
326.084	693.94
326.313	734.94
326.542	798.94
326.77	1111.94
326.999	1889.94
327.228	2947.94
327.457	3793.94
327.686	2477.94
327.914	1176.94
328.143	928.94
328.372	865.94
328.6	822.94
328.829	837.94
329.058	894.94
329.287	811.94
329.515	681.94
329.744	658.94
329.972	640.94
330.201	695.94
330.43	811.94
330.658	944.94
330.887	975.94
331.115	797.94
331.344	699.94
331.572	674.94
331.801	700.94
332.03	675.94
332.258	638.94
332.486	609.94
332.715	640.94
332.943	663.94
333.172	662.94
333.4	658.94
333.629	684.94
333.857	695.94
334.085	642.94
334.314	655.94
334.542	671.94
334.771	670.94
334.999	658.94
335.227	663.94
335.455	649.94
335.684	632.94
335.912	604.94
336.14	633.94
336.369	640.94
336.597	669.94
336.825	639.94
337.053	605.94
337.281	590.94
337.51	611.94
337.738	626.94
337.966	640.94
338.194	624.94
338.422	624.94
338.65	596.94
338.878	580.94
339.106	566.94
339.334	585.94
339.562	575.94
339.79	575.94
340.018	586.94
340.246	593.94
340.474	592.94
340.702	582.94
340.93	576.94
341.158	587.94
341.386	598.94
341.614	598.94
341.842	588.94
342.07	589.94
342.298	599.94
342.526	564.94
342.754	552.94
342.981	569.94
343.209	567.94
343.437	585.94
343.665	603.94
343.893	631.94
344.12	661.94
344.348	644.94
344.576	620.94
344.804	655.94
345.031	659.94
345.259	624.94
345.487	623.94
345.714	579.94
345.942	588.94
346.17	561.94
346.397	573.94
346.625	581.94
346.853	577.94
347.08	576.94
347.308	594.94
347.535	614.94
347.763	616.94
347.99	611.94
348.218	651.94
348.445	635.94
348.673	590.94
348.9	574.94
349.128	557.94
349.355	553.94
349.583	555.94
349.81	571.94
350.037	550.94
350.265	546.94
350.492	564.94
350.72	583.94
350.947	595.94
351.174	641.94
351.402	615.94
351.629	614.94
351.856	609.94
352.083	644.94
352.311	662.94
352.538	653.94
352.765	646.94
352.992	608.94
353.22	600.94
353.447	572.94
353.674	577.94
353.901	535.94
354.128	551.94
354.355	533.94
354.583	544.94
354.81	534.94
355.037	521.94
355.264	530.94
355.491	522.94
355.718	516.94
355.945	527.94
356.172	538.94
356.399	533.94
356.626	529.94
356.853	530.94
357.08	529.94
357.307	550.94
357.534	534.94
357.761	517.94
357.988	516.94
358.215	535.94
358.441	535.94
358.668	543.94
358.895	560.94
359.122	579.94
359.349	590.94
359.576	657.94
359.802	759.94
360.029	785.94
360.256	741.94
360.483	619.94
360.709	598.94
360.936	608.94
361.163	607.94
361.39	603.94
361.616	596.94
361.843	606.94
362.07	622.94
362.296	612.94
362.523	603.94
362.749	636.94
362.976	581.94
363.203	574.94
363.429	577.94
363.656	576.94
363.882	566.94
364.109	551.94
364.335	584.94
364.562	576.94
364.788	576.94
365.015	578.94
365.241	589.94
365.468	607.94
365.694	609.94
365.92	587.94
366.147	576.94
366.373	585.94
366.599	547.94
366.826	565.94
367.052	552.94
367.278	561.94
367.505	563.94
367.731	557.94
367.957	576.94
368.184	584.94
368.41	608.94
368.636	617.94
368.862	617.94
369.089	568.94
369.315	572.94
369.541	559.94
369.767	577.94
369.993	587.94
370.219	587.94
370.445	566.94
370.672	560.94
370.898	565.94
371.124	556.94
371.35	591.94
371.576	575.94
371.802	589.94
372.028	581.94
372.254	575.94
372.48	566.94
372.706	567.94
372.932	590.94
373.158	607.94
373.384	585.94
373.61	587.94
373.835	614.94
374.061	607.94
374.287	616.94
374.513	597.94
374.739	611.94
374.965	591.94
375.191	613.94
375.416	625.94
375.642	594.94
375.868	595.94
376.094	586.94
376.319	591.94
376.545	593.94
376.771	581.94
376.997	591.94
377.222	593.94
377.448	562.94
377.674	576.94
377.899	576.94
378.125	590.94
378.35	580.94
378.576	561.94
378.802	539.94
379.027	557.94
379.253	567.94
379.478	552.94
379.704	569.94
379.929	584.94
380.155	580.94
380.38	593.94
380.606	583.94
380.831	604.94
381.057	613.94
381.282	587.94
381.507	570.94
381.733	599.94
381.958	613.94
382.184	587.94
382.409	624.94
382.634	596.94
382.86	590.94
383.085	616.94
383.31	623.94
383.535	622.94
383.761	642.94
383.986	636.94
384.211	654.94
384.436	663.94
384.662	653.94
384.887	660.94
385.112	663.94
385.337	674.94
385.562	669.94
385.787	689.94
386.013	710.94
386.238	707.94
386.463	688.94
386.688	688.94
386.913	673.94
387.138	689.94
387.363	676.94
387.588	662.94
387.813	658.94
388.038	663.94
388.263	681.94
388.488	670.94
388.713	672.94
388.938	659.94
389.163	683.94
389.387	658.94
389.612	646.94
389.837	673.94
390.062	655.94
390.287	686.94
390.512	650.94
390.736	661.94
390.961	688.94
391.186	703.94
391.411	696.94
391.636	724.94
391.86	743.94
392.085	750.94
392.31	712.94
392.534	716.94
392.759	686.94
392.984	707.94
393.208	713.94
393.433	676.94
393.658	685.94
393.882	699.94
394.107	711.94
394.331	695.94
394.556	709.94
394.78	720.94
395.005	713.94
395.229	730.94
395.454	743.94
395.678	741.94
395.903	757.94
396.127	722.94
396.352	733.94
396.576	719.94
396.801	695.94
397.025	709.94
397.249	745.94
397.474	746.94
397.698	775.94
397.922	806.94
398.147	807.94
398.371	821.94
398.595	819.94
398.82	840.94
399.044	895.94
399.268	993.94
399.492	1101.94
399.717	1109.94
399.941	1112.94
400.165	1014.94
400.389	967.94
400.613	900.94
400.837	855.94
401.062	826.94
401.286	839.94
401.51	800.94
401.734	850.94
401.958	880.94
402.182	904.94
402.406	965.94
402.63	924.94
402.854	917.94
403.078	897.94
403.302	907.94
403.526	904.94
403.75	912.94
403.974	906.94
404.198	928.94
404.422	939.94
404.645	935.94
404.869	961.94
405.093	953.94
405.317	927.94
405.541	913.94
405.765	908.94
405.988	965.94
406.212	1070.94
406.436	1095.94
406.66	1034.94
406.883	1021.94
407.107	1038.94
407.331	1087.94
407.555	1147.94
407.778	1073.94
408.002	1016.94
408.226	995.94
408.449	957.94
408.673	924.94
408.896	962.94
409.12	997.94
409.344	917.94
409.567	891.94
409.791	875.94
410.014	865.94
410.238	880.94
410.461	870.94
410.685	895.94
410.908	914.94
411.132	908.94
411.355	943.94
411.578	851.94
411.802	856.94
412.025	857.94
412.249	843.94
412.472	803.94
412.695	814.94
412.919	800.94
413.142	803.94
413.365	807.94
413.589	820.94
413.812	791.94
414.035	800.94
414.258	795.94
414.482	806.94
414.705	801.94
414.928	795.94
415.151	811.94
415.374	812.94
415.597	787.94
415.821	782.94
416.044	775.94
416.267	786.94
416.49	782.94
416.713	781.94
416.936	781.94
417.159	812.94
417.382	789.94
417.605	815.94
417.828	835.94
418.051	843.94
418.274	814.94
418.497	799.94
418.72	817.94
418.943	818.94
419.166	829.94
419.389	867.94
419.611	831.94
419.834	832.94
420.057	836.94
420.28	801.94
420.503	790.94
420.726	813.94
420.948	848.94
421.171	902.94
421.394	882.94
421.617	839.94
421.839	815.94
422.062	859.94
422.285	928.94
422.507	962.94
422.73	975.94
422.953	911.94
423.175	881.94
423.398	888.94
423.621	882.94
423.843	904.94
424.066	903.94
424.288	886.94
424.511	963.94
424.733	1012.94
424.956	1059.94
425.178	1041.94
425.401	1007.94
425.623	977.94
425.846	861.94
426.068	870.94
426.291	826.94
426.513	850.94
426.735	857.94
426.958	982.94
427.18	1126.94
427.402	1265.94
427.625	1324.94
427.847	1043.94
428.069	869.94
428.292	814.94
428.514	757.94
428.736	764.94
428.958	743.94
429.181	752.94
429.403	756.94
429.625	792.94
429.847	847.94
430.069	880.94
430.292	778.94
430.514	747.94
430.736	758.94
430.958	751.94
431.18	738.94
431.402	722.94
431.624	755.94
431.846	735.94
432.068	711.94
432.29	734.94
432.512	737.94
432.734	738.94
432.956	760.94
433.178	761.94
433.4	765.94
433.622	745.94
433.844	739.94
434.066	754.94
434.287	753.94
434.509	788.94
434.731	804.94
434.953	816.94
435.175	850.94
435.397	863.94
435.618	863.94
435.84	971.94
436.062	1052.94
436.284	1001.94
436.505	877.94
436.727	820.94
436.949	767.94
437.17	779.94
437.392	764.94
437.614	813.94
437.835	959.94
438.057	1077.94
438.278	1107.94
438.5	1105.94
438.721	1125.94
438.943	967.94
439.165	849.94
439.386	830.94
439.608	851.94
439.829	913.94
440.05	972.94
440.272	984.94
440.493	863.94
440.715	782.94
440.936	783.94
441.158	793.94
441.379	830.94
441.6	871.94
441.822	888.94
442.043	1014.94
442.264	1069.94
442.486	1000.94
442.707	912.94
442.928	910.94
443.149	978.94
443.371	995.94
443.592	1068.94
443.813	1123.94
444.034	1091.94
444.255	930.94
444.476	920.94
444.698	911.94
444.919	943.94
445.14	993.94
445.361	969.94
445.582	1070.94
445.803	1216.94
446.024	1233.94
446.245	1157.94
446.466	982.94
446.687	821.94
446.908	782.94
447.129	747.94
447.35	759.94
447.571	761.94
447.792	717.94
448.013	798.94
448.234	856.94
448.455	985.94
448.675	1061.94
448.896	1067.94
449.117	897.94
449.338	989.94
449.559	1181.94
449.779	1064.94
450	823.94
450.221	777.94
450.442	751.94
450.662	789.94
450.883	837.94
451.104	853.94
451.324	759.94
451.545	739.94
451.766	688.94
451.986	689.94
452.207	676.94
452.428	715.94
452.648	703.94
452.869	733.94
453.089	750.94
453.31	731.94
453.53	701.94
453.751	705.94
453.971	737.94
454.192	747.94
454.412	704.94
454.633	669.94
454.853	664.94
455.073	674.94
455.294	758.94
455.514	803.94
455.734	708.94
455.955	627.94
456.175	622.94
456.395	633.94
456.616	603.94
456.836	603.94
457.056	616.94
457.276	612.94
457.497	651.94
457.717	639.94
457.937	654.94
458.157	671.94
458.377	716.94
458.598	824.94
458.818	1036.94
459.038	1071.94
459.258	918.94
459.478	795.94
459.698	753.94
459.918	741.94
460.138	785.94
460.358	787.94
460.578	788.94
460.798	787.94
461.018	792.94
461.238	761.94
461.458	798.94
461.678	796.94
461.898	815.94
462.118	824.94
462.338	829.94
462.558	847.94
462.777	863.94
462.997	943.94
463.217	948.94
463.437	943.94
463.657	879.94
463.876	859.94
464.096	927.94
464.316	919.94
464.536	913.94
464.755	909.94
464.975	988.94
465.195	1201.94
465.414	1127.94
465.634	829.94
465.854	792.94
466.073	761.94
466.293	732.94
466.512	693.94
466.732	716.94
466.951	693.94
467.171	726.94
467.391	720.94
467.61	797.94
467.829	715.94
468.049	701.94
468.268	703.94
468.488	676.94
468.707	644.94
468.927	662.94
469.146	670.94
469.365	696.94
469.585	682.94
469.804	739.94
470.023	743.94
470.243	738.94
470.462	802.94
470.681	837.94
470.901	769.94
471.12	719.94
471.339	715.94
471.558	703.94
471.777	703.94
471.997	671.94
472.216	675.94
472.435	631.94
472.654	645.94
472.873	646.94
473.092	665.94
473.311	673.94
473.53	651.94
473.749	712.94
473.968	804.94
474.187	924.94
474.406	811.94
474.625	732.94
474.844	692.94
475.063	697.94
475.282	698.94
475.501	660.94
475.72	668.94
475.939	682.94
476.158	701.94
476.377	717.94
476.596	701.94
476.814	736.94
477.033	735.94
477.252	744.94
477.471	740.94
477.69	766.94
477.908	764.94
478.127	777.94
478.346	806.94
478.564	790.94
478.783	822.94
479.002	832.94
479.22	849.94
479.439	872.94
479.658	870.94
479.876	890.94
480.095	882.94
480.313	906.94
480.532	900.94
480.751	863.94
480.969	869.94
481.188	809.94
481.406	820.94
481.624	804.94
481.843	801.94
482.061	767.94
482.28	750.94
482.498	735.94
482.717	750.94
482.935	795.94
483.153	797.94
483.372	770.94
483.59	788.94
483.808	777.94
484.027	803.94
484.245	805.94
484.463	824.94
484.681	786.94
484.9	811.94
485.118	821.94
485.336	839.94
485.554	846.94
485.772	824.94
485.99	787.94
486.209	831.94
486.427	860.94
486.645	881.94
486.863	901.94
487.081	875.94
487.299	875.94
487.517	844.94
487.735	840.94
487.953	848.94
488.171	845.94
488.389	853.94
488.607	839.94
488.825	829.94
489.043	828.94
489.261	830.94
489.479	863.94
489.696	859.94
489.914	866.94
490.132	842.94
490.35	849.94
490.568	864.94
490.786	942.94
491.003	944.94
491.221	961.94
491.439	1005.94
491.657	989.94
491.874	982.94
492.092	985.94
492.31	1020.94
492.527	1009.94
492.745	1000.94
492.963	980.94
493.18	1001.94
493.398	1017.94
493.615	1009.94
493.833	1023.94
494.05	989.94
494.268	1003.94
494.485	976.94
494.703	966.94
494.92	1001.94
495.138	993.94
495.355	992.94
495.573	1003.94
495.79	978.94
496.008	989.94
496.225	999.94
496.442	987.94
496.66	1022.94
496.877	993.94
497.094	1007.94
497.312	1029.94
497.529	1039.94
497.746	1077.94
497.963	1083.94
498.181	1103.94
498.398	1161.94
498.615	1231.94
498.832	1254.94
499.049	1316.94
499.267	1343.94
499.484	1431.94
499.701	1525.94
499.918	1702.94
500.135	1813.94
500.352	1908.94
500.569	1938.94
500.786	1891.94
501.003	1796.94
501.22	1664.94
501.437	1575.94
501.654	1504.94
