Data from TestCu_HRD10591_00100.txt Node
Date: Thu Oct 05 14:06:20 EDT 2023
User: Yrep
Spectrometer: HR+D1059
Trigger mode: 1
Integration Time (sec): 1.000000E-1
Scans to average: 1
Electric dark correction enabled: true
Nonlinearity correction enabled: false
Boxcar width: 0
XAxis mode: Wavelengths
Number of Pixels in Spectrum: 2048
>>>>>Begin Spectral Data<<<<<
223.165	-28.56
223.4	-28.56
223.635	-28.56
223.869	-28.56
224.104	-21.56
224.338	-11.56
224.573	-20.56
224.808	1.44
225.042	3.44
225.277	-6.56
225.511	0.44
225.746	2.44
225.98	-8.56
226.215	21.44
226.449	16.44
226.683	29.44
226.918	37.44
227.152	13.44
227.387	34.44
227.621	40.44
227.856	36.44
228.09	49.44
228.324	57.44
228.559	52.44
228.793	76.44
229.027	102.44
229.262	110.44
229.496	130.44
229.73	172.44
229.964	154.44
230.199	119.44
230.433	102.44
230.667	101.44
230.901	95.44
231.136	105.44
231.37	124.44
231.604	103.44
231.838	102.44
232.072	103.44
232.306	120.44
232.541	115.44
232.775	131.44
233.009	122.44
233.243	108.44
233.477	120.44
233.711	114.44
233.945	124.44
234.179	123.44
234.413	117.44
234.647	111.44
234.881	119.44
235.115	114.44
235.349	117.44
235.583	113.44
235.817	124.44
236.051	120.44
236.285	131.44
236.519	135.44
236.753	144.44
236.987	170.44
237.221	224.44
237.455	215.44
237.689	157.44
237.922	119.44
238.156	127.44
238.39	114.44
238.624	127.44
238.858	100.44
239.091	121.44
239.325	124.44
239.559	145.44
239.793	143.44
240.027	151.44
240.26	143.44
240.494	162.44
240.728	162.44
240.961	137.44
241.195	120.44
241.429	144.44
241.662	128.44
241.896	124.44
242.13	125.44
242.363	139.44
242.597	138.44
242.83	126.44
243.064	128.44
243.298	127.44
243.531	132.44
243.765	126.44
243.998	118.44
244.232	135.44
244.465	138.44
244.699	145.44
244.932	149.44
245.166	151.44
245.399	132.44
245.633	147.44
245.866	127.44
246.099	156.44
246.333	141.44
246.566	158.44
246.8	148.44
247.033	139.44
247.266	154.44
247.5	146.44
247.733	166.44
247.966	158.44
248.2	174.44
248.433	174.44
248.666	168.44
248.899	193.44
249.133	219.44
249.366	212.44
249.599	177.44
249.832	164.44
250.066	172.44
250.299	163.44
250.532	174.44
250.765	211.44
250.998	192.44
251.231	191.44
251.465	182.44
251.698	188.44
251.931	178.44
252.164	182.44
252.397	183.44
252.63	175.44
252.863	197.44
253.096	204.44
253.329	207.44
253.562	204.44
253.795	197.44
254.028	200.44
254.261	209.44
254.494	237.44
254.727	261.44
254.96	235.44
255.193	225.44
255.426	182.44
255.659	202.44
255.892	176.44
256.124	181.44
256.357	172.44
256.59	179.44
256.823	180.44
257.056	185.44
257.289	190.44
257.521	193.44
257.754	211.44
257.987	203.44
258.22	180.44
258.452	190.44
258.685	205.44
258.918	190.44
259.151	203.44
259.383	196.44
259.616	208.44
259.849	236.44
260.081	232.44
260.314	247.44
260.547	233.44
260.779	214.44
261.012	204.44
261.244	227.44
261.477	215.44
261.71	223.44
261.942	234.44
262.175	250.44
262.407	220.44
262.64	216.44
262.872	193.44
263.105	198.44
263.337	209.44
263.57	204.44
263.802	195.44
264.035	207.44
264.267	199.44
264.499	199.44
264.732	220.44
264.964	215.44
265.197	208.44
265.429	231.44
265.661	202.44
265.894	204.44
266.126	223.44
266.358	226.44
266.591	220.44
266.823	228.44
267.055	215.44
267.287	230.44
267.52	231.44
267.752	215.44
267.984	219.44
268.216	232.44
268.448	230.44
268.681	226.44
268.913	269.44
269.145	270.44
269.377	259.44
269.609	247.44
269.841	268.44
270.073	286.44
270.306	308.44
270.538	308.44
270.77	286.44
271.002	289.44
271.234	302.44
271.466	316.44
271.698	307.44
271.93	321.44
272.162	296.44
272.394	278.44
272.626	286.44
272.858	253.44
273.09	258.44
273.322	271.44
273.553	264.44
273.785	252.44
274.017	273.44
274.249	273.44
274.481	271.44
274.713	256.44
274.945	264.44
275.176	271.44
275.408	278.44
275.64	276.44
275.872	270.44
276.104	275.44
276.335	282.44
276.567	283.44
276.799	342.44
277.031	341.44
277.262	325.44
277.494	300.44
277.726	288.44
277.957	261.44
278.189	272.44
278.421	261.44
278.652	260.44
278.884	268.44
279.115	266.44
279.347	277.44
279.579	263.44
279.81	269.44
280.042	272.44
280.273	283.44
280.505	271.44
280.736	256.44
280.968	278.44
281.199	284.44
281.431	288.44
281.662	273.44
281.894	294.44
282.125	294.44
282.356	357.44
282.588	373.44
282.819	304.44
283.051	276.44
283.282	292.44
283.513	306.44
283.745	294.44
283.976	287.44
284.207	296.44
284.439	296.44
284.67	292.44
284.901	290.44
285.132	267.44
285.364	296.44
285.595	292.44
285.826	295.44
286.057	298.44
286.288	298.44
286.52	292.44
286.751	302.44
286.982	297.44
287.213	300.44
287.444	316.44
287.675	329.44
287.906	341.44
288.138	325.44
288.369	349.44
288.6	328.44
288.831	302.44
289.062	311.44
289.293	294.44
289.524	311.44
289.755	297.44
289.986	308.44
290.217	323.44
290.448	315.44
290.679	321.44
290.91	321.44
291.141	319.44
291.371	324.44
291.602	312.44
291.833	319.44
292.064	304.44
292.295	309.44
292.526	319.44
292.757	330.44
292.987	318.44
293.218	311.44
293.449	327.44
293.68	318.44
293.91	336.44
294.141	344.44
294.372	344.44
294.603	336.44
294.833	326.44
295.064	330.44
295.295	326.44
295.525	351.44
295.756	360.44
295.987	376.44
296.217	430.44
296.448	371.44
296.679	353.44
296.909	346.44
297.14	345.44
297.37	338.44
297.601	344.44
297.831	368.44
298.062	354.44
298.292	352.44
298.523	366.44
298.753	363.44
298.984	368.44
299.214	359.44
299.445	352.44
299.675	357.44
299.905	354.44
300.136	355.44
300.366	371.44
300.597	368.44
300.827	399.44
301.057	404.44
301.288	403.44
301.518	385.44
301.748	391.44
301.979	412.44
302.209	405.44
302.439	400.44
302.669	382.44
302.9	379.44
303.13	376.44
303.36	399.44
303.59	406.44
303.82	403.44
304.051	384.44
304.281	390.44
304.511	389.44
304.741	404.44
304.971	377.44
305.201	403.44
305.431	382.44
305.661	380.44
305.891	404.44
306.121	400.44
306.352	413.44
306.582	396.44
306.812	390.44
307.042	387.44
307.272	382.44
307.502	375.44
307.731	389.44
307.961	380.44
308.191	380.44
308.421	379.44
308.651	391.44
308.881	418.44
309.111	413.44
309.341	404.44
309.571	421.44
309.8	446.44
310.03	456.44
310.26	478.44
310.49	479.44
310.72	499.44
310.949	497.44
311.179	501.44
311.409	452.44
311.639	468.44
311.868	478.44
312.098	470.44
312.328	502.44
312.557	542.44
312.787	538.44
313.017	475.44
313.246	469.44
313.476	469.44
313.706	465.44
313.935	482.44
314.165	499.44
314.394	519.44
314.624	506.44
314.853	487.44
315.083	463.44
315.312	451.44
315.542	432.44
315.771	449.44
316.001	430.44
316.23	439.44
316.46	462.44
316.689	456.44
316.919	473.44
317.148	494.44
317.377	480.44
317.607	475.44
317.836	468.44
318.065	426.44
318.295	446.44
318.524	456.44
318.753	464.44
318.983	457.44
319.212	480.44
319.441	499.44
319.67	478.44
319.9	452.44
320.129	463.44
320.358	447.44
320.587	461.44
320.816	487.44
321.046	504.44
321.275	505.44
321.504	474.44
321.733	508.44
321.962	525.44
322.191	539.44
322.42	564.44
322.649	562.44
322.878	590.44
323.108	652.44
323.337	704.44
323.566	753.44
323.795	854.44
324.024	1104.44
324.253	1958.44
324.482	3262.44
324.71	4837.44
324.939	4259.44
325.168	1918.44
325.397	884.44
325.626	695.44
325.855	651.44
326.084	650.44
326.313	683.44
326.542	778.44
326.77	1057.44
326.999	1788.44
327.228	2815.44
327.457	3536.44
327.686	2364.44
327.914	1135.44
328.143	883.44
328.372	812.44
328.6	756.44
328.829	782.44
329.058	826.44
329.287	779.44
329.515	655.44
329.744	597.44
329.972	626.44
330.201	683.44
330.43	787.44
330.658	908.44
330.887	875.44
331.115	732.44
331.344	654.44
331.572	666.44
331.801	648.44
332.03	621.44
332.258	601.44
332.486	617.44
332.715	611.44
332.943	641.44
333.172	629.44
333.4	644.44
333.629	678.44
333.857	666.44
334.085	654.44
334.314	629.44
334.542	646.44
334.771	617.44
334.999	649.44
335.227	611.44
335.455	600.44
335.684	603.44
335.912	601.44
336.14	613.44
336.369	620.44
336.597	623.44
336.825	593.44
337.053	574.44
337.281	586.44
337.51	586.44
337.738	615.44
337.966	572.44
338.194	578.44
338.422	582.44
338.65	560.44
338.878	548.44
339.106	567.44
339.334	569.44
339.562	566.44
339.79	550.44
340.018	564.44
340.246	569.44
340.474	566.44
340.702	574.44
340.93	568.44
341.158	562.44
341.386	595.44
341.614	580.44
341.842	569.44
342.07	567.44
342.298	543.44
342.526	556.44
342.754	534.44
342.981	529.44
343.209	564.44
343.437	572.44
343.665	592.44
343.893	625.44
344.12	629.44
344.348	593.44
344.576	598.44
344.804	605.44
345.031	604.44
345.259	615.44
345.487	581.44
345.714	541.44
345.942	560.44
346.17	544.44
346.397	550.44
346.625	553.44
346.853	545.44
347.08	547.44
347.308	570.44
347.535	592.44
347.763	597.44
347.99	590.44
348.218	614.44
348.445	623.44
348.673	565.44
348.9	537.44
349.128	535.44
349.355	521.44
349.583	535.44
349.81	525.44
350.037	533.44
350.265	531.44
350.492	522.44
350.72	522.44
350.947	563.44
351.174	581.44
351.402	600.44
351.629	572.44
351.856	584.44
352.083	604.44
352.311	608.44
352.538	609.44
352.765	602.44
352.992	576.44
353.22	568.44
353.447	563.44
353.674	547.44
353.901	537.44
354.128	524.44
354.355	528.44
354.583	532.44
354.81	514.44
355.037	516.44
355.264	507.44
355.491	516.44
355.718	503.44
355.945	526.44
356.172	490.44
356.399	519.44
356.626	492.44
356.853	554.44
357.08	530.44
357.307	510.44
357.534	507.44
357.761	512.44
357.988	515.44
358.215	523.44
358.441	531.44
358.668	525.44
358.895	536.44
359.122	546.44
359.349	574.44
359.576	611.44
359.802	714.44
360.029	726.44
360.256	708.44
360.483	607.44
360.709	569.44
360.936	582.44
361.163	591.44
361.39	585.44
361.616	591.44
361.843	610.44
362.07	581.44
362.296	611.44
362.523	577.44
362.749	548.44
362.976	580.44
363.203	558.44
363.429	532.44
363.656	570.44
363.882	551.44
364.109	547.44
364.335	548.44
364.562	564.44
364.788	558.44
365.015	547.44
365.241	552.44
365.468	570.44
365.694	571.44
365.92	543.44
366.147	558.44
366.373	533.44
366.599	533.44
366.826	546.44
367.052	534.44
367.278	543.44
367.505	554.44
367.731	555.44
367.957	535.44
368.184	548.44
368.41	586.44
368.636	614.44
368.862	589.44
369.089	563.44
369.315	552.44
369.541	554.44
369.767	553.44
369.993	547.44
370.219	562.44
370.445	553.44
370.672	532.44
370.898	534.44
371.124	558.44
371.35	567.44
371.576	556.44
371.802	538.44
372.028	546.44
372.254	558.44
372.48	554.44
372.706	562.44
372.932	579.44
373.158	572.44
373.384	567.44
373.61	570.44
373.835	564.44
374.061	564.44
374.287	585.44
374.513	574.44
374.739	603.44
374.965	594.44
375.191	586.44
375.416	576.44
375.642	554.44
375.868	552.44
376.094	573.44
376.319	562.44
376.545	549.44
376.771	575.44
376.997	568.44
377.222	564.44
377.448	550.44
377.674	552.44
377.899	564.44
378.125	553.44
378.35	531.44
378.576	570.44
378.802	554.44
379.027	550.44
379.253	548.44
379.478	549.44
379.704	553.44
379.929	567.44
380.155	559.44
380.38	582.44
380.606	562.44
380.831	571.44
381.057	596.44
381.282	574.44
381.507	560.44
381.733	578.44
381.958	566.44
382.184	582.44
382.409	575.44
382.634	581.44
382.86	604.44
383.085	586.44
383.31	586.44
383.535	626.44
383.761	629.44
383.986	625.44
384.211	608.44
384.436	631.44
384.662	626.44
384.887	649.44
385.112	668.44
385.337	647.44
385.562	652.44
385.787	652.44
386.013	659.44
386.238	685.44
386.463	655.44
386.688	682.44
386.913	637.44
387.138	640.44
387.363	646.44
387.588	654.44
387.813	635.44
388.038	638.44
388.263	627.44
388.488	639.44
388.713	633.44
388.938	636.44
389.163	627.44
389.387	652.44
389.612	653.44
389.837	632.44
390.062	652.44
390.287	655.44
390.512	633.44
390.736	635.44
390.961	656.44
391.186	666.44
391.411	684.44
391.636	716.44
391.86	702.44
392.085	700.44
392.31	694.44
392.534	700.44
392.759	692.44
392.984	661.44
393.208	689.44
393.433	681.44
393.658	668.44
393.882	663.44
394.107	652.44
394.331	694.44
394.556	674.44
394.78	670.44
395.005	683.44
395.229	705.44
395.454	720.44
395.678	722.44
395.903	722.44
396.127	715.44
396.352	710.44
396.576	707.44
396.801	707.44
397.025	702.44
397.249	706.44
397.474	734.44
397.698	691.44
397.922	755.44
398.147	770.44
398.371	772.44
398.595	788.44
398.82	809.44
399.044	885.44
399.268	977.44
399.492	1055.44
399.717	1068.44
399.941	1049.44
400.165	1002.44
400.389	900.44
400.613	863.44
400.837	820.44
401.062	812.44
401.286	802.44
401.51	794.44
401.734	804.44
401.958	831.44
402.182	870.44
402.406	909.44
402.63	892.44
402.854	833.44
403.078	861.44
403.302	871.44
403.526	902.44
403.75	867.44
403.974	884.44
404.198	887.44
404.422	883.44
404.645	903.44
404.869	907.44
405.093	902.44
405.317	898.44
405.541	903.44
405.765	916.44
405.988	916.44
406.212	1039.44
406.436	1077.44
406.66	983.44
406.883	968.44
407.107	1009.44
407.331	1079.44
407.555	1094.44
407.778	1061.44
408.002	969.44
408.226	918.44
408.449	925.44
408.673	925.44
408.896	928.44
409.12	936.44
409.344	892.44
409.567	851.44
409.791	846.44
410.014	832.44
410.238	863.44
410.461	828.44
410.685	844.44
410.908	895.44
411.132	888.44
411.355	883.44
411.578	847.44
411.802	804.44
412.025	814.44
412.249	814.44
412.472	801.44
412.695	764.44
412.919	774.44
413.142	759.44
413.365	781.44
413.589	770.44
413.812	768.44
414.035	722.44
414.258	791.44
414.482	791.44
414.705	786.44
414.928	759.44
415.151	765.44
415.374	773.44
415.597	771.44
415.821	752.44
416.044	783.44
416.267	742.44
416.49	746.44
416.713	762.44
416.936	763.44
417.159	784.44
417.382	784.44
417.605	759.44
417.828	786.44
418.051	811.44
418.274	772.44
418.497	800.44
418.72	800.44
418.943	796.44
419.166	828.44
419.389	844.44
419.611	842.44
419.834	814.44
420.057	807.44
420.28	775.44
420.503	778.44
420.726	790.44
420.948	832.44
421.171	826.44
421.394	819.44
421.617	799.44
421.839	804.44
422.062	820.44
422.285	848.44
422.507	897.44
422.73	950.44
422.953	850.44
423.175	820.44
423.398	849.44
423.621	844.44
423.843	904.44
424.066	848.44
424.288	884.44
424.511	899.44
424.733	939.44
424.956	1018.44
425.178	952.44
425.401	953.44
425.623	920.44
425.846	844.44
426.068	803.44
426.291	796.44
426.513	812.44
426.735	842.44
426.958	948.44
427.18	1062.44
427.402	1207.44
427.625	1254.44
427.847	962.44
428.069	823.44
428.292	764.44
428.514	746.44
428.736	728.44
428.958	734.44
429.181	716.44
429.403	737.44
429.625	758.44
429.847	818.44
430.069	826.44
430.292	771.44
430.514	719.44
430.736	708.44
430.958	721.44
431.18	695.44
431.402	708.44
431.624	702.44
431.846	690.44
432.068	703.44
432.29	689.44
432.512	701.44
432.734	740.44
432.956	719.44
433.178	734.44
433.4	727.44
433.622	746.44
433.844	725.44
434.066	725.44
434.287	712.44
434.509	743.44
434.731	769.44
434.953	771.44
435.175	788.44
435.397	828.44
435.618	848.44
435.84	927.44
436.062	999.44
436.284	930.44
436.505	831.44
436.727	757.44
436.949	750.44
437.17	723.44
437.392	756.44
437.614	775.44
437.835	928.44
438.057	1005.44
438.278	1046.44
438.5	1026.44
438.721	1068.44
438.943	930.44
439.165	823.44
439.386	782.44
439.608	805.44
439.829	849.44
440.05	924.44
440.272	960.44
440.493	819.44
440.715	759.44
440.936	765.44
441.158	749.44
441.379	804.44
441.6	818.44
441.822	883.44
442.043	919.44
442.264	1010.44
442.486	946.44
442.707	867.44
442.928	866.44
443.149	902.44
443.371	950.44
443.592	1032.44
443.813	1096.44
444.034	1033.44
444.255	912.44
444.476	903.44
444.698	883.44
444.919	904.44
445.14	938.44
445.361	968.44
445.582	998.44
445.803	1156.44
446.024	1176.44
446.245	1097.44
446.466	942.44
446.687	830.44
446.908	756.44
447.129	714.44
447.35	734.44
447.571	756.44
447.792	721.44
448.013	743.44
448.234	802.44
448.455	872.44
448.675	998.44
448.896	996.44
449.117	867.44
449.338	927.44
449.559	1067.44
449.779	1015.44
450	814.44
450.221	726.44
450.442	710.44
450.662	744.44
450.883	784.44
451.104	798.44
451.324	728.44
451.545	684.44
451.766	689.44
451.986	647.44
452.207	663.44
452.428	648.44
452.648	656.44
452.869	672.44
453.089	717.44
453.31	708.44
453.53	695.44
453.751	666.44
453.971	730.44
454.192	731.44
454.412	655.44
454.633	650.44
454.853	650.44
455.073	674.44
455.294	703.44
455.514	744.44
455.734	671.44
455.955	581.44
456.175	596.44
456.395	588.44
456.616	564.44
456.836	583.44
457.056	603.44
457.276	615.44
457.497	622.44
457.717	619.44
457.937	623.44
458.157	642.44
458.377	638.44
458.598	790.44
458.818	980.44
459.038	1010.44
459.258	877.44
459.478	768.44
459.698	754.44
459.918	743.44
460.138	757.44
460.358	751.44
460.578	788.44
460.798	745.44
461.018	770.44
461.238	711.44
461.458	764.44
461.678	751.44
461.898	755.44
462.118	791.44
462.338	800.44
462.558	814.44
462.777	848.44
462.997	888.44
463.217	918.44
463.437	915.44
463.657	865.44
463.876	843.44
464.096	864.44
464.316	892.44
464.536	873.44
464.755	869.44
464.975	962.44
465.195	1170.44
465.414	1040.44
465.634	840.44
465.854	759.44
466.073	717.44
466.293	692.44
466.512	690.44
466.732	657.44
466.951	671.44
467.171	663.44
467.391	722.44
467.61	741.44
467.829	702.44
468.049	688.44
468.268	672.44
468.488	624.44
468.707	617.44
468.927	641.44
469.146	627.44
469.365	671.44
469.585	668.44
469.804	736.44
470.023	727.44
470.243	715.44
470.462	765.44
470.681	790.44
470.901	750.44
471.12	695.44
471.339	714.44
471.558	672.44
471.777	640.44
471.997	661.44
472.216	656.44
472.435	615.44
472.654	635.44
472.873	634.44
473.092	647.44
473.311	638.44
473.53	652.44
473.749	671.44
473.968	803.44
474.187	868.44
474.406	766.44
474.625	663.44
474.844	658.44
475.063	668.44
475.282	655.44
475.501	659.44
475.72	653.44
475.939	681.44
476.158	668.44
476.377	659.44
476.596	684.44
476.814	706.44
477.033	739.44
477.252	690.44
477.471	703.44
477.69	730.44
477.908	726.44
478.127	735.44
478.346	747.44
478.564	774.44
478.783	759.44
479.002	792.44
479.22	818.44
479.439	855.44
479.658	887.44
479.876	860.44
480.095	842.44
480.313	847.44
480.532	845.44
480.751	841.44
480.969	838.44
481.188	818.44
481.406	777.44
481.624	780.44
481.843	768.44
482.061	738.44
482.28	741.44
482.498	723.44
482.717	744.44
482.935	746.44
483.153	747.44
483.372	719.44
483.59	766.44
483.808	748.44
484.027	737.44
484.245	757.44
484.463	763.44
484.681	802.44
484.9	757.44
485.118	815.44
485.336	774.44
485.554	778.44
485.772	775.44
485.99	795.44
486.209	803.44
486.427	823.44
486.645	846.44
486.863	861.44
487.081	833.44
487.299	816.44
487.517	796.44
487.735	804.44
487.953	812.44
488.171	821.44
488.389	810.44
488.607	813.44
488.825	798.44
489.043	787.44
489.261	800.44
489.479	827.44
489.696	787.44
489.914	824.44
490.132	834.44
490.35	851.44
490.568	846.44
490.786	852.44
491.003	868.44
491.221	889.44
491.439	932.44
491.657	914.44
491.874	939.44
492.092	936.44
492.31	978.44
492.527	936.44
492.745	937.44
492.963	916.44
493.18	946.44
493.398	970.44
493.615	974.44
493.833	963.44
494.05	947.44
494.268	956.44
494.485	951.44
494.703	928.44
494.92	942.44
495.138	946.44
495.355	938.44
495.573	964.44
495.79	952.44
496.008	964.44
496.225	926.44
496.442	953.44
496.66	957.44
496.877	932.44
497.094	949.44
497.312	979.44
497.529	987.44
497.746	1011.44
497.963	1019.44
498.181	1114.44
498.398	1117.44
498.615	1190.44
498.832	1180.44
499.049	1238.44
499.267	1302.44
499.484	1415.44
499.701	1482.44
499.918	1590.44
500.135	1742.44
500.352	1830.44
500.569	1847.44
500.786	1806.44
501.003	1673.44
501.22	1580.44
501.437	1505.44
501.654	1446.44
501.871	1375.44
