Data from TestCu_HRD10591_00022.txt Node
Date: Thu Oct 05 14:05:03 EDT 2023
User: Yrep
Spectrometer: HR+D1059
Trigger mode: 1
Integration Time (sec): 1.000000E-1
Scans to average: 1
Electric dark correction enabled: true
Nonlinearity correction enabled: false
Boxcar width: 0
XAxis mode: Wavelengths
Number of Pixels in Spectrum: 2048
>>>>>Begin Spectral Data<<<<<
223.165	-27.12
223.4	-27.12
223.635	-27.12
223.869	-15.12
224.104	-21.12
224.338	-11.12
224.573	-17.12
224.808	-39.12
225.042	-6.12
225.277	-0.12
225.511	-7.12
225.746	5.88
225.98	8.88
226.215	8.88
226.449	9.88
226.683	30.88
226.918	31.88
227.152	47.88
227.387	29.88
227.621	29.88
227.856	55.88
228.09	49.88
228.324	53.88
228.559	75.88
228.793	61.88
229.027	96.88
229.262	118.88
229.496	141.88
229.73	152.88
229.964	155.88
230.199	122.88
230.433	93.88
230.667	104.88
230.901	120.88
231.136	118.88
231.37	99.88
231.604	124.88
231.838	112.88
232.072	103.88
232.306	111.88
232.541	114.88
232.775	113.88
233.009	109.88
233.243	104.88
233.477	125.88
233.711	119.88
233.945	113.88
234.179	115.88
234.413	120.88
234.647	105.88
234.881	107.88
235.115	103.88
235.349	116.88
235.583	137.88
235.817	122.88
236.051	127.88
236.285	122.88
236.519	135.88
236.753	146.88
236.987	186.88
237.221	210.88
237.455	230.88
237.689	157.88
237.922	118.88
238.156	130.88
238.39	134.88
238.624	129.88
238.858	130.88
239.091	116.88
239.325	123.88
239.559	141.88
239.793	135.88
240.027	120.88
240.26	154.88
240.494	151.88
240.728	160.88
240.961	142.88
241.195	132.88
241.429	128.88
241.662	126.88
241.896	134.88
242.13	140.88
242.363	132.88
242.597	124.88
242.83	128.88
243.064	132.88
243.298	117.88
243.531	131.88
243.765	121.88
243.998	144.88
244.232	132.88
244.465	136.88
244.699	151.88
244.932	148.88
245.166	148.88
245.399	134.88
245.633	139.88
245.866	133.88
246.099	146.88
246.333	145.88
246.566	127.88
246.8	163.88
247.033	165.88
247.266	156.88
247.5	158.88
247.733	158.88
247.966	164.88
248.2	146.88
248.433	147.88
248.666	177.88
248.899	179.88
249.133	198.88
249.366	215.88
249.599	195.88
249.832	166.88
250.066	176.88
250.299	175.88
250.532	180.88
250.765	195.88
250.998	208.88
251.231	202.88
251.465	180.88
251.698	171.88
251.931	166.88
252.164	197.88
252.397	184.88
252.63	195.88
252.863	213.88
253.096	199.88
253.329	216.88
253.562	193.88
253.795	180.88
254.028	200.88
254.261	211.88
254.494	227.88
254.727	262.88
254.96	238.88
255.193	219.88
255.426	200.88
255.659	195.88
255.892	181.88
256.124	193.88
256.357	197.88
256.59	172.88
256.823	185.88
257.056	192.88
257.289	198.88
257.521	199.88
257.754	197.88
257.987	207.88
258.22	186.88
258.452	181.88
258.685	187.88
258.918	191.88
259.151	197.88
259.383	216.88
259.616	214.88
259.849	219.88
260.081	239.88
260.314	250.88
260.547	232.88
260.779	215.88
261.012	213.88
261.244	208.88
261.477	212.88
261.71	221.88
261.942	261.88
262.175	261.88
262.407	207.88
262.64	213.88
262.872	200.88
263.105	204.88
263.337	210.88
263.57	196.88
263.802	203.88
264.035	190.88
264.267	206.88
264.499	204.88
264.732	206.88
264.964	230.88
265.197	191.88
265.429	209.88
265.661	208.88
265.894	228.88
266.126	223.88
266.358	213.88
266.591	223.88
266.823	223.88
267.055	217.88
267.287	221.88
267.52	233.88
267.752	213.88
267.984	223.88
268.216	232.88
268.448	237.88
268.681	232.88
268.913	256.88
269.145	279.88
269.377	276.88
269.609	249.88
269.841	250.88
270.073	292.88
270.306	308.88
270.538	325.88
270.77	286.88
271.002	272.88
271.234	276.88
271.466	279.88
271.698	301.88
271.93	305.88
272.162	313.88
272.394	296.88
272.626	278.88
272.858	255.88
273.09	270.88
273.322	257.88
273.553	256.88
273.785	235.88
274.017	252.88
274.249	247.88
274.481	265.88
274.713	264.88
274.945	288.88
275.176	260.88
275.408	238.88
275.64	270.88
275.872	266.88
276.104	269.88
276.335	285.88
276.567	309.88
276.799	343.88
277.031	348.88
277.262	329.88
277.494	319.88
277.726	293.88
277.957	286.88
278.189	280.88
278.421	275.88
278.652	257.88
278.884	271.88
279.115	264.88
279.347	260.88
279.579	260.88
279.81	277.88
280.042	272.88
280.273	271.88
280.505	276.88
280.736	274.88
280.968	276.88
281.199	285.88
281.431	279.88
281.662	288.88
281.894	277.88
282.125	301.88
282.356	361.88
282.588	369.88
282.819	336.88
283.051	295.88
283.282	301.88
283.513	291.88
283.745	296.88
283.976	291.88
284.207	295.88
284.439	309.88
284.67	298.88
284.901	291.88
285.132	294.88
285.364	314.88
285.595	294.88
285.826	300.88
286.057	283.88
286.288	327.88
286.52	309.88
286.751	292.88
286.982	286.88
287.213	307.88
287.444	331.88
287.675	319.88
287.906	312.88
288.138	325.88
288.369	338.88
288.6	322.88
288.831	331.88
289.062	329.88
289.293	321.88
289.524	321.88
289.755	313.88
289.986	319.88
290.217	313.88
290.448	312.88
290.679	325.88
290.91	316.88
291.141	321.88
291.371	303.88
291.602	326.88
291.833	299.88
292.064	311.88
292.295	332.88
292.526	335.88
292.757	324.88
292.987	339.88
293.218	318.88
293.449	326.88
293.68	335.88
293.91	335.88
294.141	340.88
294.372	321.88
294.603	341.88
294.833	317.88
295.064	328.88
295.295	345.88
295.525	336.88
295.756	371.88
295.987	379.88
296.217	401.88
296.448	368.88
296.679	364.88
296.909	343.88
297.14	341.88
297.37	364.88
297.601	370.88
297.831	336.88
298.062	375.88
298.292	376.88
298.523	380.88
298.753	349.88
298.984	336.88
299.214	366.88
299.445	369.88
299.675	371.88
299.905	384.88
300.136	355.88
300.366	344.88
300.597	389.88
300.827	406.88
301.057	413.88
301.288	425.88
301.518	399.88
301.748	386.88
301.979	416.88
302.209	395.88
302.439	403.88
302.669	380.88
302.9	366.88
303.13	385.88
303.36	390.88
303.59	421.88
303.82	382.88
304.051	395.88
304.281	395.88
304.511	365.88
304.741	402.88
304.971	381.88
305.201	402.88
305.431	387.88
305.661	403.88
305.891	403.88
306.121	430.88
306.352	419.88
306.582	401.88
306.812	381.88
307.042	380.88
307.272	403.88
307.502	402.88
307.731	402.88
307.961	403.88
308.191	391.88
308.421	404.88
308.651	421.88
308.881	427.88
309.111	413.88
309.341	419.88
309.571	455.88
309.8	459.88
310.03	463.88
310.26	476.88
310.49	486.88
310.72	491.88
310.949	522.88
311.179	486.88
311.409	467.88
311.639	480.88
311.868	475.88
312.098	469.88
312.328	502.88
312.557	536.88
312.787	517.88
313.017	487.88
313.246	481.88
313.476	453.88
313.706	461.88
313.935	488.88
314.165	515.88
314.394	510.88
314.624	504.88
314.853	469.88
315.083	460.88
315.312	460.88
315.542	437.88
315.771	440.88
316.001	439.88
316.23	436.88
316.46	478.88
316.689	463.88
316.919	463.88
317.148	504.88
317.377	476.88
317.607	454.88
317.836	458.88
318.065	437.88
318.295	452.88
318.524	477.88
318.753	465.88
318.983	463.88
319.212	506.88
319.441	504.88
319.67	486.88
319.9	450.88
320.129	470.88
320.358	479.88
320.587	472.88
320.816	502.88
321.046	511.88
321.275	484.88
321.504	508.88
321.733	503.88
321.962	523.88
322.191	557.88
322.42	586.88
322.649	591.88
322.878	613.88
323.108	661.88
323.337	682.88
323.566	731.88
323.795	817.88
324.024	1123.88
324.253	1887.88
324.482	3217.88
324.71	4877.88
324.939	4262.88
325.168	1872.88
325.397	939.88
325.626	714.88
325.855	687.88
326.084	658.88
326.313	675.88
326.542	789.88
326.77	1056.88
326.999	1812.88
327.228	2793.88
327.457	3571.88
327.686	2320.88
327.914	1122.88
328.143	877.88
328.372	809.88
328.6	784.88
328.829	823.88
329.058	841.88
329.287	747.88
329.515	645.88
329.744	586.88
329.972	623.88
330.201	685.88
330.43	789.88
330.658	889.88
330.887	888.88
331.115	751.88
331.344	677.88
331.572	662.88
331.801	671.88
332.03	649.88
332.258	624.88
332.486	632.88
332.715	621.88
332.943	634.88
333.172	627.88
333.4	681.88
333.629	664.88
333.857	669.88
334.085	648.88
334.314	632.88
334.542	644.88
334.771	645.88
334.999	640.88
335.227	625.88
335.455	621.88
335.684	597.88
335.912	625.88
336.14	605.88
336.369	622.88
336.597	645.88
336.825	608.88
337.053	596.88
337.281	599.88
337.51	589.88
337.738	599.88
337.966	616.88
338.194	623.88
338.422	578.88
338.65	584.88
338.878	578.88
339.106	574.88
339.334	569.88
339.562	565.88
339.79	562.88
340.018	575.88
340.246	580.88
340.474	573.88
340.702	574.88
340.93	559.88
341.158	549.88
341.386	593.88
341.614	582.88
341.842	555.88
342.07	577.88
342.298	581.88
342.526	553.88
342.754	556.88
342.981	567.88
343.209	555.88
343.437	595.88
343.665	626.88
343.893	637.88
344.12	603.88
344.348	640.88
344.576	612.88
344.804	628.88
345.031	648.88
345.259	638.88
345.487	588.88
345.714	567.88
345.942	552.88
346.17	581.88
346.397	563.88
346.625	570.88
346.853	560.88
347.08	547.88
347.308	548.88
347.535	595.88
347.763	592.88
347.99	613.88
348.218	605.88
348.445	600.88
348.673	580.88
348.9	572.88
349.128	556.88
349.355	533.88
349.583	535.88
349.81	559.88
350.037	542.88
350.265	539.88
350.492	549.88
350.72	549.88
350.947	570.88
351.174	610.88
351.402	598.88
351.629	593.88
351.856	588.88
352.083	621.88
352.311	606.88
352.538	615.88
352.765	600.88
352.992	584.88
353.22	588.88
353.447	575.88
353.674	547.88
353.901	528.88
354.128	518.88
354.355	538.88
354.583	542.88
354.81	522.88
355.037	542.88
355.264	519.88
355.491	522.88
355.718	502.88
355.945	515.88
356.172	528.88
356.399	533.88
356.626	524.88
356.853	522.88
357.08	542.88
357.307	525.88
357.534	518.88
357.761	514.88
357.988	518.88
358.215	539.88
358.441	530.88
358.668	543.88
358.895	563.88
359.122	554.88
359.349	580.88
359.576	616.88
359.802	722.88
360.029	738.88
360.256	685.88
360.483	643.88
360.709	597.88
360.936	573.88
361.163	604.88
361.39	613.88
361.616	599.88
361.843	573.88
362.07	601.88
362.296	591.88
362.523	574.88
362.749	586.88
362.976	549.88
363.203	561.88
363.429	576.88
363.656	540.88
363.882	564.88
364.109	548.88
364.335	565.88
364.562	553.88
364.788	547.88
365.015	553.88
365.241	574.88
365.468	591.88
365.694	575.88
365.92	569.88
366.147	563.88
366.373	552.88
366.599	559.88
366.826	549.88
367.052	536.88
367.278	549.88
367.505	559.88
367.731	560.88
367.957	558.88
368.184	561.88
368.41	607.88
368.636	601.88
368.862	596.88
369.089	571.88
369.315	555.88
369.541	551.88
369.767	560.88
369.993	564.88
370.219	567.88
370.445	551.88
370.672	570.88
370.898	584.88
371.124	579.88
371.35	563.88
371.576	548.88
371.802	568.88
372.028	572.88
372.254	539.88
372.48	567.88
372.706	584.88
372.932	589.88
373.158	563.88
373.384	573.88
373.61	565.88
373.835	572.88
374.061	600.88
374.287	631.88
374.513	588.88
374.739	596.88
374.965	603.88
375.191	599.88
375.416	592.88
375.642	590.88
375.868	588.88
376.094	585.88
376.319	567.88
376.545	593.88
376.771	556.88
376.997	579.88
377.222	575.88
377.448	560.88
377.674	565.88
377.899	564.88
378.125	560.88
378.35	567.88
378.576	570.88
378.802	565.88
379.027	557.88
379.253	587.88
379.478	582.88
379.704	602.88
379.929	587.88
380.155	593.88
380.38	586.88
380.606	577.88
380.831	558.88
381.057	587.88
381.282	563.88
381.507	574.88
381.733	592.88
381.958	603.88
382.184	576.88
382.409	599.88
382.634	607.88
382.86	583.88
383.085	561.88
383.31	607.88
383.535	609.88
383.761	618.88
383.986	613.88
384.211	625.88
384.436	659.88
384.662	660.88
384.887	668.88
385.112	661.88
385.337	645.88
385.562	683.88
385.787	693.88
386.013	702.88
386.238	670.88
386.463	667.88
386.688	676.88
386.913	655.88
387.138	670.88
387.363	667.88
387.588	644.88
387.813	669.88
388.038	651.88
388.263	649.88
388.488	677.88
388.713	658.88
388.938	664.88
389.163	630.88
389.387	658.88
389.612	648.88
389.837	636.88
390.062	661.88
390.287	657.88
390.512	658.88
390.736	671.88
390.961	659.88
391.186	675.88
391.411	706.88
391.636	717.88
391.86	719.88
392.085	756.88
392.31	708.88
392.534	711.88
392.759	703.88
392.984	708.88
393.208	680.88
393.433	669.88
393.658	677.88
393.882	695.88
394.107	661.88
394.331	687.88
394.556	699.88
394.78	712.88
395.005	692.88
395.229	706.88
395.454	716.88
395.678	726.88
395.903	728.88
396.127	757.88
396.352	717.88
396.576	699.88
396.801	713.88
397.025	734.88
397.249	758.88
397.474	736.88
397.698	724.88
397.922	738.88
398.147	759.88
398.371	783.88
398.595	814.88
398.82	855.88
399.044	882.88
399.268	983.88
399.492	1085.88
399.717	1106.88
399.941	1075.88
400.165	1029.88
400.389	956.88
400.613	883.88
400.837	843.88
401.062	839.88
401.286	834.88
401.51	816.88
401.734	780.88
401.958	830.88
402.182	894.88
402.406	943.88
402.63	907.88
402.854	890.88
403.078	885.88
403.302	901.88
403.526	911.88
403.75	910.88
403.974	914.88
404.198	887.88
404.422	911.88
404.645	899.88
404.869	904.88
405.093	920.88
405.317	932.88
405.541	928.88
405.765	929.88
405.988	943.88
406.212	1023.88
406.436	1080.88
406.66	1037.88
406.883	1005.88
407.107	1050.88
407.331	1134.88
407.555	1116.88
407.778	1073.88
408.002	1000.88
408.226	929.88
408.449	931.88
408.673	936.88
408.896	963.88
409.12	935.88
409.344	904.88
409.567	875.88
409.791	838.88
410.014	861.88
410.238	868.88
410.461	893.88
410.685	884.88
410.908	903.88
411.132	891.88
411.355	880.88
411.578	820.88
411.802	819.88
412.025	812.88
412.249	843.88
412.472	827.88
412.695	816.88
412.919	780.88
413.142	784.88
413.365	799.88
413.589	783.88
413.812	811.88
414.035	795.88
414.258	792.88
414.482	808.88
414.705	800.88
414.928	786.88
415.151	778.88
415.374	791.88
415.597	798.88
415.821	787.88
416.044	763.88
416.267	782.88
416.49	764.88
416.713	771.88
416.936	757.88
417.159	785.88
417.382	792.88
417.605	789.88
417.828	824.88
418.051	825.88
418.274	815.88
418.497	809.88
418.72	826.88
418.943	788.88
419.166	825.88
419.389	855.88
419.611	852.88
419.834	837.88
420.057	835.88
420.28	829.88
420.503	807.88
420.726	796.88
420.948	838.88
421.171	851.88
421.394	861.88
421.617	801.88
421.839	813.88
422.062	839.88
422.285	859.88
422.507	948.88
422.73	975.88
422.953	899.88
423.175	839.88
423.398	849.88
423.621	825.88
423.843	883.88
424.066	875.88
424.288	903.88
424.511	923.88
424.733	990.88
424.956	1011.88
425.178	974.88
425.401	957.88
425.623	937.88
425.846	846.88
426.068	839.88
426.291	821.88
426.513	837.88
426.735	841.88
426.958	968.88
427.18	1091.88
427.402	1232.88
427.625	1264.88
427.847	988.88
428.069	845.88
428.292	792.88
428.514	754.88
428.736	729.88
428.958	763.88
429.181	745.88
429.403	722.88
429.625	786.88
429.847	826.88
430.069	875.88
430.292	784.88
430.514	731.88
430.736	738.88
430.958	726.88
431.18	712.88
431.402	703.88
431.624	698.88
431.846	746.88
432.068	744.88
432.29	737.88
432.512	713.88
432.734	746.88
432.956	731.88
433.178	761.88
433.4	752.88
433.622	740.88
433.844	741.88
434.066	760.88
434.287	764.88
434.509	759.88
434.731	791.88
434.953	811.88
435.175	813.88
435.397	841.88
435.618	855.88
435.84	927.88
436.062	1022.88
436.284	968.88
436.505	827.88
436.727	783.88
436.949	748.88
437.17	753.88
437.392	749.88
437.614	816.88
437.835	942.88
438.057	1007.88
438.278	1039.88
438.5	1048.88
438.721	1088.88
438.943	939.88
439.165	801.88
439.386	784.88
439.608	830.88
439.829	891.88
440.05	963.88
440.272	977.88
440.493	848.88
440.715	791.88
440.936	789.88
441.158	807.88
441.379	808.88
441.6	846.88
441.822	915.88
442.043	969.88
442.264	1046.88
442.486	960.88
442.707	882.88
442.928	887.88
443.149	958.88
443.371	971.88
443.592	1059.88
443.813	1120.88
444.034	1042.88
444.255	954.88
444.476	940.88
444.698	901.88
444.919	918.88
445.14	948.88
445.361	967.88
445.582	1031.88
445.803	1182.88
446.024	1219.88
446.245	1120.88
446.466	939.88
446.687	801.88
446.908	773.88
447.129	735.88
447.35	732.88
447.571	721.88
447.792	727.88
448.013	766.88
448.234	815.88
448.455	961.88
448.675	1049.88
448.896	982.88
449.117	865.88
449.338	956.88
449.559	1069.88
449.779	1053.88
450	814.88
450.221	747.88
450.442	707.88
450.662	743.88
450.883	796.88
451.104	826.88
451.324	723.88
451.545	695.88
451.766	686.88
451.986	657.88
452.207	669.88
452.428	671.88
452.648	680.88
452.869	707.88
453.089	713.88
453.31	700.88
453.53	670.88
453.751	697.88
453.971	738.88
454.192	755.88
454.412	663.88
454.633	655.88
454.853	639.88
455.073	674.88
455.294	731.88
455.514	788.88
455.734	689.88
455.955	629.88
456.175	603.88
456.395	621.88
456.616	616.88
456.836	592.88
457.056	617.88
457.276	592.88
457.497	615.88
457.717	611.88
457.937	660.88
458.157	631.88
458.377	689.88
458.598	806.88
458.818	978.88
459.038	1015.88
459.258	883.88
459.478	761.88
459.698	729.88
459.918	758.88
460.138	766.88
460.358	772.88
460.578	771.88
460.798	824.88
461.018	808.88
461.238	789.88
461.458	783.88
461.678	795.88
461.898	809.88
462.118	815.88
462.338	834.88
462.558	857.88
462.777	891.88
462.997	947.88
463.217	919.88
463.437	928.88
463.657	869.88
463.876	890.88
464.096	859.88
464.316	908.88
464.536	904.88
464.755	898.88
464.975	952.88
465.195	1165.88
465.414	1067.88
465.634	830.88
465.854	742.88
466.073	744.88
466.293	720.88
466.512	699.88
466.732	686.88
466.951	703.88
467.171	695.88
467.391	729.88
467.61	774.88
467.829	731.88
468.049	705.88
468.268	693.88
468.488	680.88
468.707	665.88
468.927	653.88
469.146	649.88
469.365	676.88
469.585	686.88
469.804	699.88
470.023	746.88
470.243	760.88
470.462	775.88
470.681	806.88
470.901	739.88
471.12	715.88
471.339	700.88
471.558	711.88
471.777	685.88
471.997	683.88
472.216	646.88
472.435	643.88
472.654	631.88
472.873	655.88
473.092	649.88
473.311	645.88
473.53	641.88
473.749	694.88
473.968	803.88
474.187	898.88
474.406	805.88
474.625	690.88
474.844	644.88
475.063	657.88
475.282	660.88
475.501	658.88
475.72	685.88
475.939	715.88
476.158	689.88
476.377	681.88
476.596	678.88
476.814	742.88
477.033	718.88
477.252	728.88
477.471	724.88
477.69	757.88
477.908	735.88
478.127	763.88
478.346	769.88
478.564	795.88
478.783	795.88
479.002	813.88
479.22	824.88
479.439	888.88
479.658	870.88
479.876	848.88
480.095	861.88
480.313	931.88
480.532	865.88
480.751	872.88
480.969	823.88
481.188	837.88
481.406	799.88
481.624	769.88
481.843	768.88
482.061	767.88
482.28	744.88
482.498	741.88
482.717	765.88
482.935	771.88
483.153	750.88
483.372	762.88
483.59	803.88
483.808	772.88
484.027	726.88
484.245	785.88
484.463	767.88
484.681	778.88
484.9	781.88
485.118	801.88
485.336	803.88
485.554	790.88
485.772	777.88
485.99	823.88
486.209	811.88
486.427	825.88
486.645	874.88
486.863	893.88
487.081	867.88
487.299	832.88
487.517	821.88
487.735	808.88
487.953	822.88
488.171	844.88
488.389	854.88
488.607	837.88
488.825	805.88
489.043	796.88
489.261	818.88
489.479	813.88
489.696	817.88
489.914	836.88
490.132	845.88
490.35	873.88
490.568	866.88
490.786	863.88
491.003	895.88
491.221	931.88
491.439	938.88
491.657	932.88
491.874	944.88
492.092	969.88
492.31	949.88
492.527	936.88
492.745	933.88
492.963	950.88
493.18	945.88
493.398	973.88
493.615	965.88
493.833	999.88
494.05	955.88
494.268	978.88
494.485	944.88
494.703	957.88
494.92	959.88
495.138	937.88
495.355	987.88
495.573	961.88
495.79	971.88
496.008	958.88
496.225	948.88
496.442	956.88
496.66	973.88
496.877	980.88
497.094	987.88
497.312	993.88
497.529	1014.88
497.746	1017.88
497.963	1018.88
498.181	1118.88
498.398	1088.88
498.615	1201.88
498.832	1216.88
499.049	1256.88
499.267	1333.88
499.484	1417.88
499.701	1521.88
499.918	1665.88
500.135	1778.88
500.352	1899.88
500.569	1860.88
500.786	1869.88
501.003	1813.88
501.22	1667.88
501.437	1548.88
501.654	1459.88
501.871	1390.88
