Data from TestCu_HRD10591_00057.txt Node
Date: Thu Oct 05 14:05:37 EDT 2023
User: Yrep
Spectrometer: HR+D1059
Trigger mode: 1
Integration Time (sec): 1.000000E-1
Scans to average: 1
Electric dark correction enabled: true
Nonlinearity correction enabled: false
Boxcar width: 0
XAxis mode: Wavelengths
Number of Pixels in Spectrum: 2048
>>>>>Begin Spectral Data<<<<<
223.165	-15.5
223.4	-15.5
223.635	-15.5
223.869	-23.5
224.104	-19.5
224.338	-19.5
224.573	-19.5
224.808	-4.5
225.042	-13.5
225.277	-7.5
225.511	3.5
225.746	1.5
225.98	0.5
226.215	12.5
226.449	14.5
226.683	21.5
226.918	31.5
227.152	37.5
227.387	39.5
227.621	37.5
227.856	39.5
228.09	55.5
228.324	58.5
228.559	55.5
228.793	62.5
229.027	99.5
229.262	96.5
229.496	126.5
229.73	156.5
229.964	160.5
230.199	134.5
230.433	107.5
230.667	111.5
230.901	109.5
231.136	105.5
231.37	101.5
231.604	94.5
231.838	109.5
232.072	114.5
232.306	109.5
232.541	112.5
232.775	105.5
233.009	97.5
233.243	110.5
233.477	108.5
233.711	114.5
233.945	100.5
234.179	104.5
234.413	116.5
234.647	118.5
234.881	114.5
235.115	135.5
235.349	115.5
235.583	117.5
235.817	124.5
236.051	112.5
236.285	117.5
236.519	136.5
236.753	141.5
236.987	187.5
237.221	219.5
237.455	221.5
237.689	157.5
237.922	127.5
238.156	125.5
238.39	127.5
238.624	125.5
238.858	125.5
239.091	124.5
239.325	133.5
239.559	127.5
239.793	146.5
240.027	155.5
240.26	164.5
240.494	160.5
240.728	128.5
240.961	124.5
241.195	131.5
241.429	121.5
241.662	131.5
241.896	134.5
242.13	128.5
242.363	128.5
242.597	125.5
242.83	141.5
243.064	120.5
243.298	124.5
243.531	126.5
243.765	118.5
243.998	131.5
244.232	148.5
244.465	143.5
244.699	139.5
244.932	148.5
245.166	131.5
245.399	122.5
245.633	136.5
245.866	129.5
246.099	130.5
246.333	144.5
246.566	117.5
246.8	160.5
247.033	149.5
247.266	159.5
247.5	180.5
247.733	166.5
247.966	158.5
248.2	153.5
248.433	166.5
248.666	173.5
248.899	178.5
249.133	193.5
249.366	202.5
249.599	173.5
249.832	156.5
250.066	169.5
250.299	176.5
250.532	172.5
250.765	195.5
250.998	209.5
251.231	205.5
251.465	177.5
251.698	176.5
251.931	189.5
252.164	165.5
252.397	155.5
252.63	186.5
252.863	186.5
253.096	213.5
253.329	210.5
253.562	193.5
253.795	196.5
254.028	194.5
254.261	216.5
254.494	240.5
254.727	253.5
254.96	240.5
255.193	208.5
255.426	208.5
255.659	205.5
255.892	191.5
256.124	178.5
256.357	178.5
256.59	188.5
256.823	188.5
257.056	185.5
257.289	182.5
257.521	197.5
257.754	184.5
257.987	196.5
258.22	200.5
258.452	197.5
258.685	200.5
258.918	196.5
259.151	208.5
259.383	213.5
259.616	216.5
259.849	220.5
260.081	258.5
260.314	254.5
260.547	222.5
260.779	220.5
261.012	211.5
261.244	186.5
261.477	197.5
261.71	228.5
261.942	238.5
262.175	238.5
262.407	221.5
262.64	214.5
262.872	205.5
263.105	209.5
263.337	197.5
263.57	196.5
263.802	210.5
264.035	208.5
264.267	216.5
264.499	214.5
264.732	225.5
264.964	196.5
265.197	219.5
265.429	216.5
265.661	211.5
265.894	201.5
266.126	224.5
266.358	211.5
266.591	221.5
266.823	240.5
267.055	236.5
267.287	236.5
267.52	220.5
267.752	226.5
267.984	230.5
268.216	235.5
268.448	227.5
268.681	244.5
268.913	263.5
269.145	282.5
269.377	275.5
269.609	276.5
269.841	278.5
270.073	283.5
270.306	308.5
270.538	304.5
270.77	297.5
271.002	290.5
271.234	274.5
271.466	332.5
271.698	311.5
271.93	298.5
272.162	311.5
272.394	280.5
272.626	281.5
272.858	263.5
273.09	249.5
273.322	263.5
273.553	253.5
273.785	271.5
274.017	260.5
274.249	259.5
274.481	261.5
274.713	258.5
274.945	277.5
275.176	275.5
275.408	267.5
275.64	271.5
275.872	264.5
276.104	277.5
276.335	273.5
276.567	298.5
276.799	341.5
277.031	358.5
277.262	340.5
277.494	308.5
277.726	301.5
277.957	274.5
278.189	261.5
278.421	281.5
278.652	270.5
278.884	272.5
279.115	270.5
279.347	250.5
279.579	261.5
279.81	278.5
280.042	276.5
280.273	280.5
280.505	265.5
280.736	264.5
280.968	281.5
281.199	268.5
281.431	281.5
281.662	288.5
281.894	293.5
282.125	321.5
282.356	344.5
282.588	371.5
282.819	323.5
283.051	302.5
283.282	302.5
283.513	287.5
283.745	296.5
283.976	292.5
284.207	288.5
284.439	275.5
284.67	281.5
284.901	293.5
285.132	302.5
285.364	291.5
285.595	290.5
285.826	304.5
286.057	298.5
286.288	311.5
286.52	292.5
286.751	286.5
286.982	300.5
287.213	300.5
287.444	319.5
287.675	328.5
287.906	334.5
288.138	360.5
288.369	339.5
288.6	307.5
288.831	321.5
289.062	321.5
289.293	326.5
289.524	319.5
289.755	311.5
289.986	314.5
290.217	319.5
290.448	317.5
290.679	306.5
290.91	314.5
291.141	311.5
291.371	316.5
291.602	318.5
291.833	309.5
292.064	346.5
292.295	319.5
292.526	333.5
292.757	322.5
292.987	319.5
293.218	318.5
293.449	314.5
293.68	300.5
293.91	312.5
294.141	331.5
294.372	322.5
294.603	332.5
294.833	335.5
295.064	328.5
295.295	319.5
295.525	328.5
295.756	363.5
295.987	388.5
296.217	410.5
296.448	381.5
296.679	336.5
296.909	346.5
297.14	341.5
297.37	367.5
297.601	371.5
297.831	363.5
298.062	374.5
298.292	364.5
298.523	367.5
298.753	366.5
298.984	371.5
299.214	366.5
299.445	367.5
299.675	372.5
299.905	361.5
300.136	353.5
300.366	374.5
300.597	378.5
300.827	396.5
301.057	390.5
301.288	418.5
301.518	395.5
301.748	408.5
301.979	395.5
302.209	389.5
302.439	385.5
302.669	369.5
302.9	383.5
303.13	379.5
303.36	410.5
303.59	426.5
303.82	416.5
304.051	381.5
304.281	410.5
304.511	386.5
304.741	389.5
304.971	385.5
305.201	373.5
305.431	381.5
305.661	393.5
305.891	372.5
306.121	380.5
306.352	424.5
306.582	391.5
306.812	387.5
307.042	396.5
307.272	387.5
307.502	388.5
307.731	384.5
307.961	397.5
308.191	372.5
308.421	424.5
308.651	413.5
308.881	422.5
309.111	414.5
309.341	410.5
309.571	429.5
309.8	457.5
310.03	462.5
310.26	458.5
310.49	470.5
310.72	493.5
310.949	514.5
311.179	492.5
311.409	455.5
311.639	461.5
311.868	472.5
312.098	465.5
312.328	509.5
312.557	544.5
312.787	532.5
313.017	492.5
313.246	460.5
313.476	455.5
313.706	490.5
313.935	478.5
314.165	525.5
314.394	529.5
314.624	507.5
314.853	480.5
315.083	478.5
315.312	465.5
315.542	445.5
315.771	453.5
316.001	441.5
316.23	439.5
316.46	447.5
316.689	473.5
316.919	491.5
317.148	469.5
317.377	504.5
317.607	472.5
317.836	475.5
318.065	463.5
318.295	461.5
318.524	446.5
318.753	444.5
318.983	467.5
319.212	450.5
319.441	497.5
319.67	480.5
319.9	463.5
320.129	476.5
320.358	476.5
320.587	483.5
320.816	502.5
321.046	502.5
321.275	499.5
321.504	498.5
321.733	478.5
321.962	538.5
322.191	557.5
322.42	586.5
322.649	618.5
322.878	614.5
323.108	666.5
323.337	706.5
323.566	767.5
323.795	886.5
324.024	1151.5
324.253	1967.5
324.482	3352.5
324.71	4941.5
324.939	4396.5
325.168	1899.5
325.397	940.5
325.626	715.5
325.855	652.5
326.084	657.5
326.313	705.5
326.542	816.5
326.77	1082.5
326.999	1834.5
327.228	2838.5
327.457	3698.5
327.686	2408.5
327.914	1126.5
328.143	854.5
328.372	794.5
328.6	778.5
328.829	810.5
329.058	872.5
329.287	800.5
329.515	665.5
329.744	627.5
329.972	627.5
330.201	694.5
330.43	794.5
330.658	896.5
330.887	920.5
331.115	765.5
331.344	661.5
331.572	644.5
331.801	684.5
332.03	644.5
332.258	622.5
332.486	605.5
332.715	622.5
332.943	627.5
333.172	650.5
333.4	664.5
333.629	626.5
333.857	666.5
334.085	663.5
334.314	634.5
334.542	642.5
334.771	647.5
334.999	627.5
335.227	610.5
335.455	613.5
335.684	610.5
335.912	608.5
336.14	608.5
336.369	610.5
336.597	654.5
336.825	616.5
337.053	619.5
337.281	584.5
337.51	588.5
337.738	611.5
337.966	604.5
338.194	610.5
338.422	585.5
338.65	572.5
338.878	564.5
339.106	560.5
339.334	576.5
339.562	548.5
339.79	544.5
340.018	562.5
340.246	575.5
340.474	582.5
340.702	573.5
340.93	581.5
341.158	572.5
341.386	571.5
341.614	578.5
341.842	543.5
342.07	558.5
342.298	562.5
342.526	542.5
342.754	534.5
342.981	549.5
343.209	556.5
343.437	585.5
343.665	608.5
343.893	616.5
344.12	611.5
344.348	567.5
344.576	611.5
344.804	619.5
345.031	612.5
345.259	614.5
345.487	569.5
345.714	556.5
345.942	567.5
346.17	568.5
346.397	586.5
346.625	562.5
346.853	542.5
347.08	584.5
347.308	591.5
347.535	593.5
347.763	594.5
347.99	580.5
348.218	602.5
348.445	604.5
348.673	580.5
348.9	547.5
349.128	529.5
349.355	516.5
349.583	521.5
349.81	541.5
350.037	510.5
350.265	530.5
350.492	517.5
350.72	561.5
350.947	581.5
351.174	607.5
351.402	584.5
351.629	587.5
351.856	601.5
352.083	619.5
352.311	625.5
352.538	641.5
352.765	608.5
352.992	586.5
353.22	566.5
353.447	546.5
353.674	536.5
353.901	546.5
354.128	524.5
354.355	532.5
354.583	544.5
354.81	520.5
355.037	513.5
355.264	522.5
355.491	513.5
355.718	513.5
355.945	521.5
356.172	523.5
356.399	507.5
356.626	497.5
356.853	509.5
357.08	507.5
357.307	512.5
357.534	507.5
357.761	516.5
357.988	538.5
358.215	529.5
358.441	518.5
358.668	516.5
358.895	544.5
359.122	523.5
359.349	576.5
359.576	630.5
359.802	709.5
360.029	765.5
360.256	685.5
360.483	626.5
360.709	596.5
360.936	620.5
361.163	605.5
361.39	595.5
361.616	606.5
361.843	560.5
362.07	591.5
362.296	620.5
362.523	609.5
362.749	564.5
362.976	565.5
363.203	556.5
363.429	545.5
363.656	558.5
363.882	540.5
364.109	541.5
364.335	555.5
364.562	525.5
364.788	546.5
365.015	547.5
365.241	572.5
365.468	595.5
365.694	580.5
365.92	553.5
366.147	572.5
366.373	533.5
366.599	530.5
366.826	536.5
367.052	550.5
367.278	566.5
367.505	544.5
367.731	558.5
367.957	559.5
368.184	560.5
368.41	591.5
368.636	588.5
368.862	577.5
369.089	572.5
369.315	553.5
369.541	576.5
369.767	563.5
369.993	564.5
370.219	547.5
370.445	524.5
370.672	567.5
370.898	547.5
371.124	565.5
371.35	579.5
371.576	548.5
371.802	557.5
372.028	556.5
372.254	585.5
372.48	559.5
372.706	574.5
372.932	591.5
373.158	565.5
373.384	577.5
373.61	548.5
373.835	587.5
374.061	588.5
374.287	608.5
374.513	588.5
374.739	600.5
374.965	597.5
375.191	591.5
375.416	580.5
375.642	592.5
375.868	577.5
376.094	579.5
376.319	554.5
376.545	584.5
376.771	563.5
376.997	559.5
377.222	585.5
377.448	565.5
377.674	562.5
377.899	537.5
378.125	541.5
378.35	531.5
378.576	548.5
378.802	569.5
379.027	562.5
379.253	540.5
379.478	546.5
379.704	560.5
379.929	589.5
380.155	577.5
380.38	565.5
380.606	558.5
380.831	590.5
381.057	580.5
381.282	572.5
381.507	561.5
381.733	576.5
381.958	572.5
382.184	577.5
382.409	588.5
382.634	584.5
382.86	579.5
383.085	610.5
383.31	620.5
383.535	618.5
383.761	627.5
383.986	602.5
384.211	626.5
384.436	639.5
384.662	626.5
384.887	658.5
385.112	638.5
385.337	637.5
385.562	646.5
385.787	665.5
386.013	683.5
386.238	668.5
386.463	672.5
386.688	643.5
386.913	631.5
387.138	646.5
387.363	669.5
387.588	656.5
387.813	661.5
388.038	647.5
388.263	652.5
388.488	630.5
388.713	637.5
388.938	657.5
389.163	653.5
389.387	669.5
389.612	663.5
389.837	658.5
390.062	659.5
390.287	640.5
390.512	657.5
390.736	670.5
390.961	657.5
391.186	660.5
391.411	680.5
391.636	674.5
391.86	700.5
392.085	723.5
392.31	704.5
392.534	704.5
392.759	681.5
392.984	666.5
393.208	669.5
393.433	675.5
393.658	646.5
393.882	693.5
394.107	687.5
394.331	689.5
394.556	681.5
394.78	694.5
395.005	723.5
395.229	704.5
395.454	730.5
395.678	710.5
395.903	719.5
396.127	740.5
396.352	686.5
396.576	690.5
396.801	716.5
397.025	709.5
397.249	691.5
397.474	716.5
397.698	750.5
397.922	748.5
398.147	765.5
398.371	766.5
398.595	786.5
398.82	802.5
399.044	920.5
399.268	968.5
399.492	1068.5
399.717	1083.5
399.941	1025.5
400.165	959.5
400.389	953.5
400.613	851.5
400.837	830.5
401.062	808.5
401.286	785.5
401.51	784.5
401.734	813.5
401.958	823.5
402.182	918.5
402.406	906.5
402.63	885.5
402.854	871.5
403.078	885.5
403.302	895.5
403.526	906.5
403.75	902.5
403.974	886.5
404.198	878.5
404.422	916.5
404.645	877.5
404.869	903.5
405.093	911.5
405.317	891.5
405.541	914.5
405.765	924.5
405.988	933.5
406.212	1005.5
406.436	1050.5
406.66	1048.5
406.883	979.5
407.107	1055.5
407.331	1089.5
407.555	1125.5
407.778	1082.5
408.002	980.5
408.226	957.5
408.449	915.5
408.673	930.5
408.896	958.5
409.12	926.5
409.344	914.5
409.567	845.5
409.791	870.5
410.014	842.5
410.238	826.5
410.461	841.5
410.685	873.5
410.908	892.5
411.132	891.5
411.355	895.5
411.578	860.5
411.802	820.5
412.025	807.5
412.249	814.5
412.472	811.5
412.695	836.5
412.919	791.5
413.142	766.5
413.365	766.5
413.589	777.5
413.812	787.5
414.035	790.5
414.258	771.5
414.482	783.5
414.705	772.5
414.928	750.5
415.151	798.5
415.374	801.5
415.597	794.5
415.821	785.5
416.044	794.5
416.267	757.5
416.49	754.5
416.713	757.5
416.936	785.5
417.159	765.5
417.382	763.5
417.605	811.5
417.828	808.5
418.051	819.5
418.274	805.5
418.497	784.5
418.72	795.5
418.943	764.5
419.166	829.5
419.389	826.5
419.611	837.5
419.834	808.5
420.057	819.5
420.28	774.5
420.503	752.5
420.726	805.5
420.948	850.5
421.171	884.5
421.394	849.5
421.617	798.5
421.839	794.5
422.062	816.5
422.285	870.5
422.507	930.5
422.73	947.5
422.953	877.5
423.175	858.5
423.398	850.5
423.621	851.5
423.843	866.5
424.066	860.5
424.288	873.5
424.511	921.5
424.733	990.5
424.956	1021.5
425.178	960.5
425.401	1011.5
425.623	934.5
425.846	828.5
426.068	810.5
426.291	825.5
426.513	792.5
426.735	831.5
426.958	931.5
427.18	1070.5
427.402	1238.5
427.625	1254.5
427.847	976.5
428.069	818.5
428.292	782.5
428.514	756.5
428.736	736.5
428.958	742.5
429.181	743.5
429.403	733.5
429.625	770.5
429.847	840.5
430.069	864.5
430.292	790.5
430.514	751.5
430.736	732.5
430.958	708.5
431.18	718.5
431.402	722.5
431.624	752.5
431.846	684.5
432.068	690.5
432.29	700.5
432.512	685.5
432.734	745.5
432.956	728.5
433.178	745.5
433.4	744.5
433.622	713.5
433.844	737.5
434.066	712.5
434.287	732.5
434.509	746.5
434.731	784.5
434.953	806.5
435.175	830.5
435.397	813.5
435.618	837.5
435.84	920.5
436.062	990.5
436.284	960.5
436.505	832.5
436.727	803.5
436.949	738.5
437.17	756.5
437.392	760.5
437.614	799.5
437.835	906.5
438.057	1009.5
438.278	1067.5
438.5	1079.5
438.721	1092.5
438.943	909.5
439.165	820.5
439.386	789.5
439.608	805.5
439.829	891.5
440.05	957.5
440.272	965.5
440.493	816.5
440.715	778.5
440.936	780.5
441.158	782.5
441.379	793.5
441.6	851.5
441.822	904.5
442.043	963.5
442.264	1033.5
442.486	983.5
442.707	867.5
442.928	881.5
443.149	936.5
443.371	972.5
443.592	1074.5
443.813	1119.5
444.034	1036.5
444.255	921.5
444.476	894.5
444.698	924.5
444.919	943.5
445.14	944.5
445.361	964.5
445.582	1043.5
445.803	1170.5
446.024	1222.5
446.245	1141.5
446.466	971.5
446.687	808.5
446.908	776.5
447.129	748.5
447.35	738.5
447.571	720.5
447.792	744.5
448.013	756.5
448.234	811.5
448.455	933.5
448.675	1066.5
448.896	1025.5
449.117	906.5
449.338	984.5
449.559	1089.5
449.779	1042.5
450	831.5
450.221	750.5
450.442	722.5
450.662	727.5
450.883	826.5
451.104	846.5
451.324	729.5
451.545	696.5
451.766	717.5
451.986	685.5
452.207	670.5
452.428	676.5
452.648	687.5
452.869	694.5
453.089	716.5
453.31	692.5
453.53	671.5
453.751	660.5
453.971	728.5
454.192	744.5
454.412	663.5
454.633	625.5
454.853	647.5
455.073	645.5
455.294	710.5
455.514	760.5
455.734	700.5
455.955	598.5
456.175	600.5
456.395	602.5
456.616	628.5
456.836	601.5
457.056	601.5
457.276	566.5
457.497	598.5
457.717	629.5
457.937	626.5
458.157	649.5
458.377	685.5
458.598	794.5
458.818	1007.5
459.038	1019.5
459.258	880.5
459.478	766.5
459.698	720.5
459.918	721.5
460.138	749.5
460.358	761.5
460.578	747.5
460.798	803.5
461.018	765.5
461.238	755.5
461.458	785.5
461.678	749.5
461.898	764.5
462.118	786.5
462.338	820.5
462.558	832.5
462.777	851.5
462.997	921.5
463.217	934.5
463.437	903.5
463.657	884.5
463.876	861.5
464.096	879.5
464.316	890.5
464.536	888.5
464.755	877.5
464.975	960.5
465.195	1175.5
465.414	1084.5
465.634	826.5
465.854	774.5
466.073	719.5
466.293	716.5
466.512	702.5
466.732	689.5
466.951	691.5
467.171	693.5
467.391	736.5
467.61	768.5
467.829	742.5
468.049	694.5
468.268	663.5
468.488	644.5
468.707	647.5
468.927	672.5
469.146	650.5
469.365	638.5
469.585	679.5
469.804	746.5
470.023	766.5
470.243	752.5
470.462	770.5
470.681	763.5
470.901	733.5
471.12	691.5
471.339	697.5
471.558	687.5
471.777	690.5
471.997	651.5
472.216	653.5
472.435	625.5
472.654	624.5
472.873	624.5
473.092	643.5
473.311	642.5
473.53	653.5
473.749	692.5
473.968	839.5
474.187	888.5
474.406	769.5
474.625	690.5
474.844	641.5
475.063	618.5
475.282	659.5
475.501	669.5
475.72	648.5
475.939	668.5
476.158	652.5
476.377	688.5
476.596	678.5
476.814	690.5
477.033	749.5
477.252	692.5
477.471	737.5
477.69	745.5
477.908	757.5
478.127	744.5
478.346	758.5
478.564	771.5
478.783	810.5
479.002	794.5
479.22	804.5
479.439	846.5
479.658	889.5
479.876	863.5
480.095	880.5
480.313	900.5
480.532	842.5
480.751	832.5
480.969	832.5
481.188	799.5
481.406	797.5
481.624	764.5
481.843	785.5
482.061	764.5
482.28	757.5
482.498	725.5
482.717	746.5
482.935	740.5
483.153	740.5
483.372	767.5
483.59	751.5
483.808	739.5
484.027	773.5
484.245	732.5
484.463	782.5
484.681	805.5
484.9	781.5
485.118	803.5
485.336	808.5
485.554	781.5
485.772	796.5
485.99	814.5
486.209	809.5
486.427	812.5
486.645	852.5
486.863	884.5
487.081	862.5
487.299	806.5
487.517	817.5
487.735	828.5
487.953	843.5
488.171	820.5
488.389	810.5
488.607	818.5
488.825	777.5
489.043	816.5
489.261	792.5
489.479	822.5
489.696	819.5
489.914	820.5
490.132	864.5
490.35	852.5
490.568	861.5
490.786	886.5
491.003	897.5
491.221	933.5
491.439	954.5
491.657	960.5
491.874	942.5
492.092	965.5
492.31	936.5
492.527	968.5
492.745	947.5
492.963	944.5
493.18	973.5
493.398	996.5
493.615	981.5
493.833	979.5
494.05	992.5
494.268	928.5
494.485	920.5
494.703	925.5
494.92	950.5
495.138	962.5
495.355	970.5
495.573	982.5
495.79	958.5
496.008	974.5
496.225	997.5
496.442	971.5
496.66	978.5
496.877	963.5
497.094	952.5
497.312	1009.5
497.529	999.5
497.746	1033.5
497.963	1038.5
498.181	1078.5
498.398	1109.5
498.615	1146.5
498.832	1214.5
499.049	1251.5
499.267	1345.5
499.484	1424.5
499.701	1522.5
499.918	1625.5
500.135	1762.5
500.352	1865.5
500.569	1860.5
500.786	1813.5
501.003	1707.5
501.22	1615.5
501.437	1483.5
501.654	1459.5
501.871	1368.5
502.088	1259.5
502.305	1184.5
502.522	1164.5
502.739	1088.5
502.956	1060.5
503.172	1034.5
503.389	1035.5
503.606	1050.5
503.823	1033.5
504.04	1038.5
504.256	990.5
504.473	1009.5
504.69	1018.5
504.907	974.5
505.123	970.5
505.34	920.5
505.557	926.5
505.773	913.5
505.99	907.5
506.207	905.5
506.423	900.5
506.64	881.5
506.856	857.5
507.073	862.5
507.289	874.5
507.506	850.5
507.722	958.5
507.939	926.5
508.155	859.5
508.372	829.5
508.588	819.5
508.805	811.5
509.021	845.5
509.238	866.5
509.454	836.5
509.67	836.5
509.887	819.5
510.103	844.5
510.319	976.5
510.536	1708.5
510.752	2736.5
510.968	1185.5
511.184	836.5
511.401	842.5
511.617	783.5
511.833	754.5
512.049	778.5
512.265	768.5
512.481	762.5
512.698	774.5
512.914	800.5
513.13	768.5
513.346	769.5
513.562	801.5
513.778	796.5
513.994	828.5
514.21	849.5
514.426	960.5
514.642	1006.5
514.858	1088.5
515.074	1275.5
515.29	2139.5
515.506	3245.5
515.721	1622.5
515.937	1069.5
516.153	972.5
516.369	902.5
516.585	902.5
516.801	919.5
517.016	909.5
517.232	915.5
517.448	936.5
517.664	952.5
517.879	906.5
518.095	909.5
518.311	915.5
518.527	892.5
518.742	865.5
518.958	850.5
519.173	814.5
519.389	849.5
