Data from TestCu_HRD10591_00051.txt Node
Date: Thu Oct 05 14:05:31 EDT 2023
User: Yrep
Spectrometer: HR+D1059
Trigger mode: 1
Integration Time (sec): 1.000000E-1
Scans to average: 1
Electric dark correction enabled: true
Nonlinearity correction enabled: false
Boxcar width: 0
XAxis mode: Wavelengths
Number of Pixels in Spectrum: 2048
>>>>>Begin Spectral Data<<<<<
223.165	-21
223.4	-21
223.635	-21
223.869	-24
224.104	-18
224.338	-14
224.573	-12
224.808	-14
225.042	-10
225.277	12
225.511	1
225.746	0
225.98	0
226.215	16
226.449	18
226.683	19
226.918	23
227.152	24
227.387	32
227.621	37
227.856	37
228.09	58
228.324	53
228.559	53
228.793	64
229.027	83
229.262	132
229.496	138
229.73	174
229.964	161
230.199	122
230.433	107
230.667	99
230.901	112
231.136	107
231.37	96
231.604	94
231.838	101
232.072	124
232.306	112
232.541	115
232.775	96
233.009	95
233.243	113
233.477	117
233.711	105
233.945	119
234.179	113
234.413	102
234.647	117
234.881	128
235.115	113
235.349	110
235.583	119
235.817	115
236.051	129
236.285	117
236.519	127
236.753	152
236.987	153
237.221	209
237.455	210
237.689	149
237.922	134
238.156	128
238.39	124
238.624	120
238.858	122
239.091	128
239.325	119
239.559	136
239.793	124
240.027	145
240.26	163
240.494	155
240.728	144
240.961	138
241.195	132
241.429	129
241.662	128
241.896	141
242.13	125
242.363	118
242.597	142
242.83	131
243.064	129
243.298	135
243.531	138
243.765	141
243.998	141
244.232	139
244.465	153
244.699	138
244.932	142
245.166	138
245.399	139
245.633	139
245.866	142
246.099	135
246.333	149
246.566	155
246.8	145
247.033	131
247.266	154
247.5	159
247.733	167
247.966	173
248.2	156
248.433	169
248.666	170
248.899	199
249.133	206
249.366	217
249.599	198
249.832	164
250.066	170
250.299	174
250.532	199
250.765	208
250.998	208
251.231	193
251.465	190
251.698	161
251.931	182
252.164	182
252.397	194
252.63	178
252.863	206
253.096	207
253.329	211
253.562	206
253.795	191
254.028	196
254.261	219
254.494	244
254.727	269
254.96	251
255.193	230
255.426	197
255.659	195
255.892	199
256.124	173
256.357	190
256.59	193
256.823	192
257.056	196
257.289	177
257.521	185
257.754	197
257.987	180
258.22	177
258.452	188
258.685	182
258.918	197
259.151	211
259.383	204
259.616	224
259.849	228
260.081	227
260.314	249
260.547	236
260.779	213
261.012	225
261.244	202
261.477	224
261.71	229
261.942	256
262.175	258
262.407	233
262.64	211
262.872	211
263.105	229
263.337	225
263.57	214
263.802	213
264.035	183
264.267	207
264.499	212
264.732	226
264.964	218
265.197	217
265.429	226
265.661	208
265.894	206
266.126	216
266.358	212
266.591	221
266.823	236
267.055	210
267.287	245
267.52	242
267.752	223
267.984	244
268.216	227
268.448	223
268.681	251
268.913	265
269.145	287
269.377	279
269.609	264
269.841	256
270.073	302
270.306	304
270.538	310
270.77	293
271.002	293
271.234	284
271.466	319
271.698	323
271.93	309
272.162	292
272.394	292
272.626	274
272.858	285
273.09	272
273.322	266
273.553	276
273.785	274
274.017	255
274.249	258
274.481	267
274.713	251
274.945	273
275.176	286
275.408	269
275.64	277
275.872	260
276.104	288
276.335	289
276.567	319
276.799	369
277.031	346
277.262	333
277.494	306
277.726	296
277.957	273
278.189	280
278.421	288
278.652	285
278.884	289
279.115	284
279.347	265
279.579	258
279.81	298
280.042	290
280.273	288
280.505	280
280.736	285
280.968	301
281.199	288
281.431	270
281.662	280
281.894	295
282.125	322
282.356	356
282.588	373
282.819	338
283.051	301
283.282	291
283.513	327
283.745	321
283.976	317
284.207	291
284.439	297
284.67	295
284.901	304
285.132	313
285.364	306
285.595	301
285.826	307
286.057	294
286.288	305
286.52	313
286.751	290
286.982	306
287.213	321
287.444	304
287.675	320
287.906	328
288.138	328
288.369	346
288.6	333
288.831	322
289.062	329
289.293	313
289.524	323
289.755	314
289.986	308
290.217	309
290.448	320
290.679	327
290.91	340
291.141	322
291.371	311
291.602	302
291.833	326
292.064	330
292.295	360
292.526	348
292.757	337
292.987	312
293.218	329
293.449	330
293.68	328
293.91	314
294.141	338
294.372	334
294.603	335
294.833	347
295.064	333
295.295	339
295.525	347
295.756	359
295.987	406
296.217	424
296.448	401
296.679	357
296.909	351
297.14	354
297.37	365
297.601	373
297.831	357
298.062	356
298.292	354
298.523	370
298.753	382
298.984	371
299.214	369
299.445	368
299.675	377
299.905	368
300.136	372
300.366	377
300.597	410
300.827	394
301.057	426
301.288	430
301.518	399
301.748	405
301.979	405
302.209	422
302.439	413
302.669	414
302.9	385
303.13	409
303.36	394
303.59	408
303.82	410
304.051	404
304.281	401
304.511	402
304.741	391
304.971	381
305.201	394
305.431	393
305.661	389
305.891	418
306.121	408
306.352	414
306.582	408
306.812	398
307.042	412
307.272	404
307.502	384
307.731	404
307.961	397
308.191	394
308.421	410
308.651	408
308.881	414
309.111	439
309.341	420
309.571	445
309.8	462
310.03	466
310.26	478
310.49	469
310.72	523
310.949	563
311.179	509
311.409	460
311.639	483
311.868	445
312.098	484
312.328	534
312.557	556
312.787	554
313.017	530
313.246	490
313.476	478
313.706	486
313.935	505
314.165	521
314.394	525
314.624	524
314.853	492
315.083	464
315.312	466
315.542	450
315.771	429
316.001	474
316.23	460
316.46	470
316.689	465
316.919	475
317.148	487
317.377	498
317.607	503
317.836	488
318.065	440
318.295	462
318.524	466
318.753	465
318.983	484
319.212	508
319.441	491
319.67	483
319.9	467
320.129	465
320.358	491
320.587	507
320.816	514
321.046	510
321.275	531
321.504	512
321.733	526
321.962	527
322.191	570
322.42	632
322.649	604
322.878	634
323.108	661
323.337	723
323.566	755
323.795	863
324.024	1166
324.253	2003
324.482	3408
324.71	5058
324.939	4477
325.168	1986
325.397	970
325.626	721
325.855	694
326.084	672
326.313	700
326.542	830
326.77	1117
326.999	1900
327.228	2932
327.457	3738
327.686	2501
327.914	1195
328.143	898
328.372	838
328.6	800
328.829	829
329.058	881
329.287	820
329.515	689
329.744	636
329.972	638
330.201	682
330.43	815
330.658	956
330.887	976
331.115	769
331.344	696
331.572	682
331.801	682
332.03	678
332.258	616
332.486	632
332.715	612
332.943	644
333.172	671
333.4	692
333.629	664
333.857	681
334.085	669
334.314	638
334.542	637
334.771	674
334.999	674
335.227	639
335.455	641
335.684	619
335.912	627
336.14	627
336.369	629
336.597	636
336.825	616
337.053	605
337.281	613
337.51	628
337.738	629
337.966	636
338.194	640
338.422	626
338.65	584
338.878	574
339.106	606
339.334	617
339.562	580
339.79	568
340.018	573
340.246	596
340.474	582
340.702	595
340.93	593
341.158	606
341.386	609
341.614	605
341.842	608
342.07	574
342.298	558
342.526	558
342.754	550
342.981	576
343.209	564
343.437	605
343.665	640
343.893	628
344.12	645
344.348	610
344.576	626
344.804	628
345.031	666
345.259	651
345.487	621
345.714	594
345.942	548
346.17	569
346.397	585
346.625	584
346.853	558
347.08	586
347.308	617
347.535	611
347.763	626
347.99	610
348.218	623
348.445	638
348.673	578
348.9	574
349.128	543
349.355	546
349.583	543
349.81	549
350.037	538
350.265	552
350.492	543
350.72	558
350.947	591
351.174	604
351.402	604
351.629	578
351.856	606
352.083	640
352.311	626
352.538	636
352.765	627
352.992	596
353.22	578
353.447	578
353.674	562
353.901	550
354.128	520
354.355	536
354.583	546
354.81	531
355.037	536
355.264	545
355.491	533
355.718	520
355.945	517
356.172	526
356.399	534
356.626	522
356.853	514
357.08	518
357.307	485
357.534	517
357.761	525
357.988	508
358.215	538
358.441	540
358.668	525
358.895	531
359.122	568
359.349	608
359.576	638
359.802	735
360.029	762
360.256	717
360.483	625
360.709	588
360.936	578
361.163	606
361.39	601
361.616	603
361.843	586
362.07	632
362.296	618
362.523	606
362.749	602
362.976	580
363.203	549
363.429	553
363.656	574
363.882	552
364.109	546
364.335	560
364.562	562
364.788	555
365.015	564
365.241	588
365.468	608
365.694	607
365.92	576
366.147	558
366.373	546
366.599	567
366.826	554
367.052	554
367.278	567
367.505	581
367.731	571
367.957	558
368.184	554
368.41	613
368.636	614
368.862	629
369.089	580
369.315	568
369.541	582
369.767	576
369.993	586
370.219	563
370.445	564
370.672	584
370.898	581
371.124	570
371.35	588
371.576	572
371.802	568
372.028	595
372.254	563
372.48	575
372.706	593
372.932	581
373.158	584
373.384	581
373.61	566
373.835	573
374.061	588
374.287	608
374.513	623
374.739	617
374.965	603
375.191	634
375.416	599
375.642	602
375.868	590
376.094	566
376.319	582
376.545	576
376.771	606
376.997	558
377.222	594
377.448	576
377.674	591
377.899	554
378.125	560
378.35	562
378.576	564
378.802	548
379.027	559
379.253	558
379.478	564
379.704	576
379.929	577
380.155	580
380.38	567
380.606	574
380.831	604
381.057	570
381.282	563
381.507	564
381.733	583
381.958	607
382.184	600
382.409	610
382.634	600
382.86	607
383.085	598
383.31	610
383.535	634
383.761	608
383.986	642
384.211	668
384.436	645
384.662	643
384.887	678
385.112	640
385.337	678
385.562	665
385.787	689
386.013	715
386.238	719
386.463	673
386.688	680
386.913	676
387.138	659
387.363	674
387.588	650
387.813	672
388.038	645
388.263	688
388.488	645
388.713	680
388.938	666
389.163	669
389.387	663
389.612	675
389.837	648
390.062	658
390.287	687
390.512	654
390.736	676
390.961	700
391.186	697
391.411	684
391.636	709
391.86	714
392.085	747
392.31	705
392.534	693
392.759	707
392.984	697
393.208	673
393.433	691
393.658	676
393.882	684
394.107	686
394.331	699
394.556	689
394.78	690
395.005	714
395.229	714
395.454	716
395.678	735
395.903	720
396.127	736
396.352	718
396.576	748
396.801	712
397.025	736
397.249	719
397.474	738
397.698	772
397.922	758
398.147	777
398.371	799
398.595	829
398.82	852
399.044	923
399.268	1002
399.492	1058
399.717	1101
399.941	1064
400.165	1021
400.389	965
400.613	885
400.837	844
401.062	840
401.286	818
401.51	829
401.734	803
401.958	858
402.182	906
402.406	925
402.63	916
402.854	892
403.078	906
403.302	889
403.526	911
403.75	872
403.974	909
404.198	914
404.422	938
404.645	915
404.869	922
405.093	920
405.317	944
405.541	927
405.765	892
405.988	948
406.212	1070
406.436	1100
406.66	1065
406.883	1010
407.107	1083
407.331	1111
407.555	1138
407.778	1076
408.002	1004
408.226	957
408.449	966
408.673	972
408.896	949
409.12	940
409.344	904
409.567	872
409.791	870
410.014	854
410.238	834
410.461	883
410.685	881
410.908	897
411.132	948
411.355	935
411.578	889
411.802	819
412.025	818
412.249	815
412.472	822
412.695	822
412.919	793
413.142	781
413.365	788
413.589	779
413.812	786
414.035	803
414.258	802
414.482	797
414.705	798
414.928	771
415.151	800
415.374	815
415.597	789
415.821	803
416.044	779
416.267	771
416.49	773
416.713	764
416.936	780
417.159	805
417.382	786
417.605	805
417.828	814
418.051	819
418.274	829
418.497	797
418.72	813
418.943	814
419.166	841
419.389	846
419.611	833
419.834	838
420.057	824
420.28	802
420.503	799
420.726	815
420.948	855
421.171	883
421.394	864
421.617	825
421.839	783
422.062	838
422.285	866
422.507	947
422.73	962
422.953	909
423.175	849
423.398	873
423.621	862
423.843	896
424.066	900
424.288	873
424.511	930
424.733	1002
424.956	1062
425.178	990
425.401	1002
425.623	967
425.846	854
426.068	860
426.291	835
426.513	846
426.735	874
426.958	960
427.18	1056
427.402	1280
427.625	1299
427.847	1020
428.069	853
428.292	786
428.514	755
428.736	734
428.958	746
429.181	745
429.403	736
429.625	808
429.847	837
430.069	865
430.292	799
430.514	734
430.736	721
430.958	742
431.18	724
431.402	732
431.624	735
431.846	734
432.068	733
432.29	752
432.512	716
432.734	737
432.956	768
433.178	734
433.4	760
433.622	732
433.844	736
434.066	748
434.287	744
434.509	758
434.731	776
434.953	809
435.175	805
435.397	826
435.618	862
435.84	938
436.062	1010
436.284	956
436.505	810
436.727	811
436.949	761
437.17	765
437.392	754
437.614	814
437.835	964
438.057	1048
438.278	1061
438.5	1069
438.721	1127
438.943	941
439.165	840
439.386	814
439.608	841
439.829	882
440.05	930
440.272	1006
440.493	862
440.715	814
440.936	795
441.158	804
441.379	825
441.6	863
441.822	928
442.043	978
442.264	1044
442.486	970
442.707	886
442.928	884
443.149	949
443.371	986
443.592	1041
443.813	1137
444.034	1064
444.255	934
444.476	900
444.698	888
444.919	947
445.14	964
445.361	984
445.582	1068
445.803	1182
446.024	1233
446.245	1140
446.466	974
446.687	808
446.908	770
447.129	771
447.35	749
447.571	734
447.792	730
448.013	758
448.234	787
448.455	925
448.675	1052
448.896	1029
449.117	858
449.338	967
449.559	1117
449.779	1063
450	843
450.221	740
450.442	746
450.662	769
450.883	836
451.104	872
451.324	764
451.545	715
451.766	702
451.986	690
452.207	656
452.428	691
452.648	707
452.869	688
453.089	726
453.31	722
453.53	694
453.751	715
453.971	760
454.192	761
454.412	695
454.633	646
454.853	647
455.073	661
455.294	742
455.514	813
455.734	700
455.955	620
456.175	633
456.395	630
456.616	620
456.836	616
457.056	598
457.276	581
457.497	614
457.717	652
457.937	656
458.157	644
458.377	691
458.598	858
458.818	1018
459.038	1043
459.258	889
459.478	792
459.698	741
459.918	747
460.138	778
460.358	763
460.578	770
460.798	816
461.018	796
461.238	788
461.458	779
461.678	775
461.898	800
462.118	786
462.338	824
462.558	880
462.777	886
462.997	947
463.217	950
463.437	947
463.657	860
463.876	892
464.096	888
464.316	900
464.536	908
464.755	904
464.975	975
465.195	1212
465.414	1101
465.634	838
465.854	777
466.073	744
466.293	703
466.512	712
466.732	682
466.951	709
467.171	708
467.391	749
467.61	781
467.829	749
468.049	692
468.268	669
468.488	646
468.707	659
468.927	672
469.146	645
469.365	697
469.585	693
469.804	723
470.023	803
470.243	720
470.462	806
470.681	800
470.901	739
471.12	727
471.339	723
471.558	715
471.777	701
471.997	684
472.216	664
472.435	650
472.654	662
472.873	659
473.092	637
473.311	639
473.53	665
473.749	718
473.968	829
474.187	886
474.406	782
474.625	694
474.844	678
475.063	680
475.282	676
475.501	684
475.72	664
475.939	694
476.158	689
476.377	684
476.596	698
476.814	732
477.033	738
477.252	736
477.471	716
477.69	740
477.908	774
478.127	787
478.346	787
478.564	792
478.783	776
479.002	815
479.22	844
479.439	880
479.658	885
479.876	867
480.095	870
480.313	873
480.532	898
480.751	838
480.969	823
481.188	828
481.406	816
481.624	796
481.843	769
482.061	799
482.28	797
482.498	753
482.717	772
482.935	773
483.153	749
483.372	769
483.59	790
483.808	767
484.027	768
484.245	765
484.463	798
484.681	793
484.9	790
485.118	826
485.336	819
485.554	825
485.772	805
485.99	796
486.209	829
486.427	832
486.645	870
486.863	908
487.081	862
487.299	841
487.517	843
487.735	824
487.953	829
488.171	839
488.389	816
488.607	817
488.825	804
489.043	794
489.261	810
489.479	835
489.696	846
489.914	848
490.132	840
490.35	862
490.568	889
490.786	896
491.003	944
491.221	939
491.439	954
491.657	925
491.874	948
492.092	964
492.31	992
492.527	986
492.745	976
492.963	952
493.18	994
493.398	1003
493.615	975
493.833	997
494.05	971
494.268	975
494.485	965
494.703	958
494.92	957
495.138	974
495.355	968
495.573	962
495.79	955
496.008	954
496.225	984
496.442	985
496.66	975
496.877	983
497.094	1001
497.312	1035
497.529	1019
497.746	1061
497.963	1066
498.181	1112
498.398	1153
498.615	1218
498.832	1245
499.049	1291
499.267	1379
499.484	1439
499.701	1538
499.918	1620
500.135	1806
500.352	1902
500.569	1886
500.786	1838
501.003	1771
501.22	1642
501.437	1555
501.654	1474
501.871	1447
502.088	1290
502.305	1226
502.522	1170
502.739	1162
502.956	1086
503.172	1057
503.389	1048
503.606	1066
503.823	1057
504.04	1003
504.256	1000
504.473	1053
504.69	1018
504.907	998
505.123	972
505.34	931
505.557	961
505.773	958
505.99	944
506.207	895
506.423	894
506.64	897
506.856	867
507.073	885
507.289	861
507.506	883
507.722	939
507.939	956
508.155	882
508.372	843
508.588	824
508.805	858
509.021	865
509.238	894
509.454	914
509.67	828
509.887	848
510.103	867
510.319	1000
510.536	1837
510.752	3038
510.968	1259
511.184	826
511.401	843
511.617	818
511.833	778
512.049	764
512.265	784
512.481	755
512.698	747
512.914	804
513.13	803
513.346	801
513.562	793
513.778	832
513.994	872
514.21	892
514.426	976
514.642	1090
514.858	1129
515.074	1361
515.29	2360
515.506	3600
515.721	1741
515.937	1132
516.153	988
516.369	950
516.585	895
516.801	885
517.016	904
517.232	942
517.448	949
517.664	941
517.879	979
518.095	950
518.311	913
518.527	886
518.742	881
518.958	866
519.173	890
519.389	834
519.605	854
519.82	895
520.036	902
520.251	950
520.467	970
520.682	954
520.898	1011
521.113	1076
521.329	1246
521.544	1678
521.76	3104
521.975	5978
522.19	3229
522.406	1385
522.621	980
522.836	836
523.052	817
523.267	764
523.482	739
523.698	784
523.913	767
524.128	753
524.343	712
524.559	698
524.774	721
524.989	734
525.204	750
525.419	740
525.634	694
525.849	680
526.064	655
526.28	672
526.495	648
526.71	636
526.925	668
527.14	650
527.355	670
527.57	652
527.785	652
527.999	645
528.214	644
528.429	660
528.644	668
528.859	700
529.074	703
529.289	870
529.503	1070
529.718	808
529.933	698
530.148	665
530.363	637
530.577	644
530.792	640
531.007	640
531.221	643
531.436	644
531.651	633
531.865	650
532.08	630
532.295	615
532.509	650
532.724	642
532.938	636
533.153	640
533.367	658
533.582	627
533.796	627
534.011	614
534.225	611
534.44	599
534.654	629
534.868	627
535.083	631
535.297	642
535.511	651
535.726	680
535.94	641
536.154	614
536.369	620
536.583	590
536.797	586
537.011	605
537.225	600
537.44	596
537.654	590
537.868	614
538.082	608
538.296	588
538.51	602
538.724	618
538.938	602
539.153	628
539.367	656
539.581	617
539.795	609
540.009	580
540.222	588
540.436	602
540.65	578
540.864	631
541.078	612
541.292	630
541.506	610
541.72	600
541.934	597
542.147	614
542.361	607
542.575	570
542.789	585
543.002	577
543.216	611
543.43	627
543.644	605
543.857	588
544.071	592
544.285	587
544.498	608
544.712	622
544.925	634
545.139	595
545.352	599
545.566	590
545.779	592
545.993	601
546.206	589
546.42	620
546.633	594
546.847	618
547.06	585
547.274	597
547.487	582
547.7	602
547.914	612
548.127	614
548.34	605
548.554	584
548.767	625
548.98	600
549.193	612
549.407	610
549.62	595
549.833	586
550.046	593
550.259	612
550.473	559
550.686	594
550.899	598
551.112	594
551.325	569
551.538	564
551.751	566
551.964	572
552.177	574
552.39	591
552.603	603
552.816	594
553.029	611
553.242	622
553.455	663
553.667	678
553.88	683
554.093	644
554.306	620
554.519	610
554.732	584
554.944	576
555.157	578
555.37	571
555.583	560
555.795	538
556.008	548
556.221	541
556.433	537
556.646	541
556.859	524
557.071	524
557.284	506
557.496	524
557.709	532
557.921	514
558.134	520
558.346	519
558.559	496
558.771	494
558.984	515
559.196	487
559.409	490
559.621	497
559.833	501
560.046	504
560.258	488
560.47	500
560.683	495
560.895	498
561.107	476
561.32	505
561.532	500
561.744	488
561.956	514
562.168	513
562.381	485
562.593	462
562.805	505
