Data from TestCu_HRD10591_00037.txt Node
Date: Thu Oct 05 14:05:17 EDT 2023
User: Yrep
Spectrometer: HR+D1059
Trigger mode: 1
Integration Time (sec): 1.000000E-1
Scans to average: 1
Electric dark correction enabled: true
Nonlinearity correction enabled: false
Boxcar width: 0
XAxis mode: Wavelengths
Number of Pixels in Spectrum: 2048
>>>>>Begin Spectral Data<<<<<
223.165	-17.88
223.4	-17.88
223.635	-17.88
223.869	-23.88
224.104	-19.88
224.338	-9.88
224.573	-20.88
224.808	-8.88
225.042	-2.88
225.277	2.12
225.511	-0.88
225.746	-13.88
225.98	1.12
226.215	13.12
226.449	20.12
226.683	19.12
226.918	31.12
227.152	32.12
227.387	26.12
227.621	31.12
227.856	40.12
228.09	44.12
228.324	40.12
228.559	59.12
228.793	76.12
229.027	112.12
229.262	115.12
229.496	134.12
229.73	147.12
229.964	143.12
230.199	115.12
230.433	96.12
230.667	118.12
230.901	113.12
231.136	109.12
231.37	98.12
231.604	94.12
231.838	113.12
232.072	101.12
232.306	98.12
232.541	108.12
232.775	122.12
233.009	102.12
233.243	109.12
233.477	108.12
233.711	121.12
233.945	112.12
234.179	121.12
234.413	117.12
234.647	95.12
234.881	108.12
235.115	112.12
235.349	119.12
235.583	114.12
235.817	114.12
236.051	129.12
236.285	136.12
236.519	142.12
236.753	144.12
236.987	164.12
237.221	218.12
237.455	212.12
237.689	156.12
237.922	139.12
238.156	134.12
238.39	108.12
238.624	107.12
238.858	110.12
239.091	126.12
239.325	123.12
239.559	138.12
239.793	139.12
240.027	137.12
240.26	153.12
240.494	154.12
240.728	133.12
240.961	144.12
241.195	134.12
241.429	129.12
241.662	121.12
241.896	121.12
242.13	118.12
242.363	129.12
242.597	134.12
242.83	129.12
243.064	120.12
243.298	116.12
243.531	122.12
243.765	153.12
243.998	147.12
244.232	136.12
244.465	155.12
244.699	132.12
244.932	134.12
245.166	136.12
245.399	137.12
245.633	139.12
245.866	139.12
246.099	145.12
246.333	144.12
246.566	154.12
246.8	149.12
247.033	160.12
247.266	148.12
247.5	168.12
247.733	169.12
247.966	164.12
248.2	164.12
248.433	152.12
248.666	177.12
248.899	179.12
249.133	185.12
249.366	197.12
249.599	192.12
249.832	165.12
250.066	160.12
250.299	173.12
250.532	177.12
250.765	200.12
250.998	202.12
251.231	203.12
251.465	185.12
251.698	182.12
251.931	186.12
252.164	189.12
252.397	192.12
252.63	205.12
252.863	186.12
253.096	202.12
253.329	218.12
253.562	196.12
253.795	209.12
254.028	190.12
254.261	212.12
254.494	230.12
254.727	271.12
254.96	255.12
255.193	221.12
255.426	194.12
255.659	205.12
255.892	186.12
256.124	181.12
256.357	206.12
256.59	202.12
256.823	209.12
257.056	185.12
257.289	195.12
257.521	189.12
257.754	185.12
257.987	190.12
258.22	202.12
258.452	214.12
258.685	205.12
258.918	197.12
259.151	194.12
259.383	226.12
259.616	204.12
259.849	229.12
260.081	243.12
260.314	259.12
260.547	244.12
260.779	212.12
261.012	225.12
261.244	204.12
261.477	222.12
261.71	226.12
261.942	242.12
262.175	259.12
262.407	223.12
262.64	219.12
262.872	226.12
263.105	208.12
263.337	205.12
263.57	217.12
263.802	224.12
264.035	239.12
264.267	229.12
264.499	205.12
264.732	213.12
264.964	205.12
265.197	213.12
265.429	218.12
265.661	204.12
265.894	208.12
266.126	212.12
266.358	208.12
266.591	222.12
266.823	222.12
267.055	206.12
267.287	222.12
267.52	218.12
267.752	229.12
267.984	251.12
268.216	218.12
268.448	241.12
268.681	237.12
268.913	259.12
269.145	274.12
269.377	267.12
269.609	269.12
269.841	260.12
270.073	294.12
270.306	304.12
270.538	305.12
270.77	285.12
271.002	269.12
271.234	271.12
271.466	277.12
271.698	303.12
271.93	320.12
272.162	311.12
272.394	291.12
272.626	289.12
272.858	265.12
273.09	271.12
273.322	253.12
273.553	247.12
273.785	247.12
274.017	258.12
274.249	281.12
274.481	265.12
274.713	276.12
274.945	276.12
275.176	270.12
275.408	266.12
275.64	267.12
275.872	273.12
276.104	276.12
276.335	294.12
276.567	302.12
276.799	344.12
277.031	334.12
277.262	330.12
277.494	325.12
277.726	292.12
277.957	268.12
278.189	304.12
278.421	298.12
278.652	285.12
278.884	281.12
279.115	297.12
279.347	272.12
279.579	274.12
279.81	285.12
280.042	292.12
280.273	278.12
280.505	286.12
280.736	246.12
280.968	267.12
281.199	295.12
281.431	293.12
281.662	280.12
281.894	286.12
282.125	324.12
282.356	373.12
282.588	357.12
282.819	315.12
283.051	293.12
283.282	303.12
283.513	304.12
283.745	308.12
283.976	312.12
284.207	280.12
284.439	303.12
284.67	310.12
284.901	305.12
285.132	298.12
285.364	292.12
285.595	298.12
285.826	292.12
286.057	304.12
286.288	318.12
286.52	314.12
286.751	281.12
286.982	300.12
287.213	329.12
287.444	320.12
287.675	314.12
287.906	317.12
288.138	340.12
288.369	330.12
288.6	327.12
288.831	332.12
289.062	326.12
289.293	316.12
289.524	314.12
289.755	324.12
289.986	322.12
290.217	333.12
290.448	321.12
290.679	341.12
290.91	317.12
291.141	319.12
291.371	298.12
291.602	322.12
291.833	329.12
292.064	323.12
292.295	315.12
292.526	340.12
292.757	299.12
292.987	336.12
293.218	344.12
293.449	337.12
293.68	310.12
293.91	323.12
294.141	323.12
294.372	329.12
294.603	319.12
294.833	335.12
295.064	338.12
295.295	339.12
295.525	349.12
295.756	366.12
295.987	400.12
296.217	415.12
296.448	395.12
296.679	333.12
296.909	338.12
297.14	356.12
297.37	355.12
297.601	325.12
297.831	362.12
298.062	364.12
298.292	342.12
298.523	378.12
298.753	348.12
298.984	354.12
299.214	381.12
299.445	365.12
299.675	391.12
299.905	382.12
300.136	367.12
300.366	383.12
300.597	376.12
300.827	392.12
301.057	414.12
301.288	418.12
301.518	388.12
301.748	380.12
301.979	441.12
302.209	373.12
302.439	416.12
302.669	390.12
302.9	397.12
303.13	400.12
303.36	400.12
303.59	388.12
303.82	403.12
304.051	403.12
304.281	384.12
304.511	405.12
304.741	398.12
304.971	394.12
305.201	408.12
305.431	395.12
305.661	399.12
305.891	409.12
306.121	411.12
306.352	423.12
306.582	384.12
306.812	384.12
307.042	411.12
307.272	404.12
307.502	400.12
307.731	390.12
307.961	405.12
308.191	385.12
308.421	402.12
308.651	425.12
308.881	404.12
309.111	420.12
309.341	428.12
309.571	445.12
309.8	453.12
310.03	459.12
310.26	467.12
310.49	479.12
310.72	506.12
310.949	519.12
311.179	506.12
311.409	470.12
311.639	466.12
311.868	468.12
312.098	476.12
312.328	510.12
312.557	508.12
312.787	549.12
313.017	486.12
313.246	474.12
313.476	490.12
313.706	475.12
313.935	512.12
314.165	533.12
314.394	541.12
314.624	513.12
314.853	480.12
315.083	469.12
315.312	469.12
315.542	455.12
315.771	448.12
316.001	472.12
316.23	463.12
316.46	456.12
316.689	469.12
316.919	462.12
317.148	480.12
317.377	518.12
317.607	485.12
317.836	481.12
318.065	444.12
318.295	460.12
318.524	452.12
318.753	452.12
318.983	469.12
319.212	474.12
319.441	518.12
319.67	503.12
319.9	457.12
320.129	492.12
320.358	487.12
320.587	494.12
320.816	506.12
321.046	482.12
321.275	510.12
321.504	497.12
321.733	524.12
321.962	537.12
322.191	570.12
322.42	611.12
322.649	600.12
322.878	626.12
323.108	645.12
323.337	685.12
323.566	784.12
323.795	860.12
324.024	1142.12
324.253	1991.12
324.482	3392.12
324.71	5093.12
324.939	4454.12
325.168	1947.12
325.397	989.12
325.626	753.12
325.855	672.12
326.084	682.12
326.313	736.12
326.542	833.12
326.77	1106.12
326.999	1886.12
327.228	3004.12
327.457	3728.12
327.686	2472.12
327.914	1194.12
328.143	910.12
328.372	798.12
328.6	794.12
328.829	817.12
329.058	842.12
329.287	798.12
329.515	691.12
329.744	651.12
329.972	637.12
330.201	685.12
330.43	829.12
330.658	910.12
330.887	922.12
331.115	754.12
331.344	656.12
331.572	680.12
331.801	697.12
332.03	666.12
332.258	620.12
332.486	615.12
332.715	628.12
332.943	648.12
333.172	646.12
333.4	669.12
333.629	678.12
333.857	676.12
334.085	649.12
334.314	655.12
334.542	638.12
334.771	636.12
334.999	647.12
335.227	632.12
335.455	614.12
335.684	624.12
335.912	617.12
336.14	613.12
336.369	630.12
336.597	649.12
336.825	616.12
337.053	607.12
337.281	592.12
337.51	585.12
337.738	642.12
337.966	632.12
338.194	609.12
338.422	602.12
338.65	606.12
338.878	576.12
339.106	580.12
339.334	568.12
339.562	580.12
339.79	549.12
340.018	589.12
340.246	592.12
340.474	586.12
340.702	576.12
340.93	585.12
341.158	584.12
341.386	590.12
341.614	601.12
341.842	589.12
342.07	583.12
342.298	556.12
342.526	580.12
342.754	563.12
342.981	567.12
343.209	558.12
343.437	616.12
343.665	640.12
343.893	645.12
344.12	633.12
344.348	598.12
344.576	604.12
344.804	644.12
345.031	645.12
345.259	642.12
345.487	578.12
345.714	593.12
345.942	556.12
346.17	567.12
346.397	570.12
346.625	582.12
346.853	576.12
347.08	559.12
347.308	575.12
347.535	612.12
347.763	593.12
347.99	610.12
348.218	620.12
348.445	604.12
348.673	592.12
348.9	580.12
349.128	538.12
349.355	572.12
349.583	546.12
349.81	547.12
350.037	548.12
350.265	540.12
350.492	541.12
350.72	565.12
350.947	574.12
351.174	590.12
351.402	612.12
351.629	602.12
351.856	604.12
352.083	616.12
352.311	658.12
352.538	639.12
352.765	607.12
352.992	592.12
353.22	586.12
353.447	561.12
353.674	559.12
353.901	540.12
354.128	522.12
354.355	534.12
354.583	560.12
354.81	522.12
355.037	529.12
355.264	506.12
355.491	528.12
355.718	509.12
355.945	495.12
356.172	532.12
356.399	542.12
356.626	530.12
356.853	529.12
357.08	516.12
357.307	533.12
357.534	524.12
357.761	525.12
357.988	537.12
358.215	541.12
358.441	530.12
358.668	548.12
358.895	556.12
359.122	556.12
359.349	597.12
359.576	642.12
359.802	706.12
360.029	745.12
360.256	702.12
360.483	627.12
360.709	584.12
360.936	595.12
361.163	598.12
361.39	603.12
361.616	608.12
361.843	582.12
362.07	618.12
362.296	593.12
362.523	581.12
362.749	583.12
362.976	592.12
363.203	576.12
363.429	561.12
363.656	567.12
363.882	573.12
364.109	559.12
364.335	567.12
364.562	589.12
364.788	550.12
365.015	562.12
365.241	555.12
365.468	594.12
365.694	581.12
365.92	577.12
366.147	566.12
366.373	553.12
366.599	555.12
366.826	534.12
367.052	550.12
367.278	581.12
367.505	572.12
367.731	577.12
367.957	572.12
368.184	562.12
368.41	608.12
368.636	612.12
368.862	612.12
369.089	570.12
369.315	572.12
369.541	556.12
369.767	575.12
369.993	592.12
370.219	587.12
370.445	569.12
370.672	571.12
370.898	586.12
371.124	562.12
371.35	560.12
371.576	560.12
371.802	574.12
372.028	584.12
372.254	564.12
372.48	579.12
372.706	576.12
372.932	597.12
373.158	572.12
373.384	591.12
373.61	580.12
373.835	559.12
374.061	589.12
374.287	603.12
374.513	603.12
374.739	629.12
374.965	627.12
375.191	631.12
375.416	596.12
375.642	580.12
375.868	593.12
376.094	567.12
376.319	570.12
376.545	580.12
376.771	576.12
376.997	570.12
377.222	563.12
377.448	572.12
377.674	555.12
377.899	560.12
378.125	546.12
378.35	574.12
378.576	557.12
378.802	576.12
379.027	576.12
379.253	545.12
379.478	567.12
379.704	582.12
379.929	591.12
380.155	592.12
380.38	591.12
380.606	574.12
380.831	559.12
381.057	590.12
381.282	558.12
381.507	585.12
381.733	592.12
381.958	602.12
382.184	582.12
382.409	617.12
382.634	586.12
382.86	614.12
383.085	621.12
383.31	619.12
383.535	620.12
383.761	620.12
383.986	621.12
384.211	645.12
384.436	614.12
384.662	638.12
384.887	657.12
385.112	641.12
385.337	658.12
385.562	683.12
385.787	702.12
386.013	716.12
386.238	687.12
386.463	691.12
386.688	670.12
386.913	671.12
387.138	682.12
387.363	664.12
387.588	660.12
387.813	650.12
388.038	670.12
388.263	681.12
388.488	647.12
388.713	672.12
388.938	674.12
389.163	654.12
389.387	658.12
389.612	644.12
389.837	678.12
390.062	668.12
390.287	690.12
390.512	647.12
390.736	676.12
390.961	689.12
391.186	686.12
391.411	732.12
391.636	700.12
391.86	703.12
392.085	701.12
392.31	711.12
392.534	696.12
392.759	701.12
392.984	669.12
393.208	699.12
393.433	693.12
393.658	693.12
393.882	682.12
394.107	684.12
394.331	703.12
394.556	682.12
394.78	690.12
395.005	712.12
395.229	715.12
395.454	743.12
395.678	770.12
395.903	733.12
396.127	749.12
396.352	721.12
396.576	720.12
396.801	683.12
397.025	706.12
397.249	732.12
397.474	729.12
397.698	746.12
397.922	770.12
398.147	796.12
398.371	794.12
398.595	814.12
398.82	862.12
399.044	921.12
399.268	970.12
399.492	1085.12
399.717	1100.12
399.941	1067.12
400.165	1003.12
400.389	927.12
400.613	897.12
400.837	852.12
401.062	819.12
401.286	846.12
401.51	836.12
401.734	819.12
401.958	876.12
402.182	906.12
402.406	941.12
402.63	913.12
402.854	914.12
403.078	868.12
403.302	902.12
403.526	922.12
403.75	906.12
403.974	927.12
404.198	890.12
404.422	932.12
404.645	914.12
404.869	900.12
405.093	909.12
405.317	935.12
405.541	924.12
405.765	903.12
405.988	938.12
406.212	1045.12
406.436	1085.12
406.66	1029.12
406.883	1023.12
407.107	1073.12
407.331	1107.12
407.555	1112.12
407.778	1071.12
408.002	998.12
408.226	955.12
408.449	930.12
408.673	932.12
408.896	948.12
409.12	972.12
409.344	898.12
409.567	873.12
409.791	858.12
410.014	851.12
410.238	839.12
410.461	846.12
410.685	875.12
410.908	894.12
411.132	894.12
411.355	873.12
411.578	848.12
411.802	845.12
412.025	837.12
412.249	840.12
412.472	852.12
412.695	794.12
412.919	804.12
413.142	787.12
413.365	805.12
413.589	795.12
413.812	786.12
414.035	784.12
414.258	806.12
414.482	795.12
414.705	782.12
414.928	816.12
415.151	796.12
415.374	817.12
415.597	801.12
415.821	796.12
416.044	784.12
416.267	787.12
416.49	779.12
416.713	785.12
416.936	795.12
417.159	801.12
417.382	810.12
417.605	811.12
417.828	803.12
418.051	807.12
418.274	839.12
418.497	821.12
418.72	821.12
418.943	810.12
419.166	840.12
419.389	866.12
419.611	838.12
419.834	822.12
420.057	850.12
420.28	797.12
420.503	780.12
420.726	822.12
420.948	842.12
421.171	890.12
421.394	839.12
421.617	803.12
421.839	782.12
422.062	821.12
422.285	865.12
422.507	938.12
422.73	940.12
422.953	877.12
423.175	876.12
423.398	862.12
423.621	822.12
423.843	878.12
424.066	875.12
424.288	890.12
424.511	932.12
424.733	1008.12
424.956	1038.12
425.178	995.12
425.401	974.12
425.623	950.12
425.846	825.12
426.068	828.12
426.291	841.12
426.513	828.12
426.735	871.12
426.958	916.12
427.18	1037.12
427.402	1206.12
427.625	1244.12
427.847	1006.12
428.069	858.12
428.292	804.12
428.514	779.12
428.736	757.12
428.958	757.12
429.181	748.12
429.403	745.12
429.625	785.12
429.847	812.12
430.069	873.12
430.292	800.12
430.514	765.12
430.736	742.12
430.958	767.12
431.18	704.12
431.402	706.12
431.624	710.12
431.846	701.12
432.068	693.12
432.29	721.12
432.512	702.12
432.734	754.12
432.956	728.12
433.178	770.12
433.4	750.12
433.622	761.12
433.844	747.12
434.066	728.12
434.287	746.12
434.509	765.12
434.731	788.12
434.953	796.12
435.175	810.12
435.397	811.12
435.618	858.12
435.84	925.12
436.062	991.12
436.284	969.12
436.505	830.12
436.727	838.12
436.949	778.12
437.17	755.12
437.392	770.12
437.614	802.12
437.835	946.12
438.057	1044.12
438.278	1042.12
438.5	1071.12
438.721	1087.12
438.943	916.12
439.165	812.12
439.386	821.12
439.608	840.12
439.829	884.12
440.05	960.12
440.272	969.12
440.493	804.12
440.715	802.12
440.936	790.12
441.158	794.12
441.379	793.12
441.6	868.12
441.822	893.12
442.043	964.12
442.264	1040.12
442.486	953.12
442.707	859.12
442.928	912.12
443.149	950.12
443.371	985.12
443.592	1037.12
443.813	1116.12
444.034	1031.12
444.255	937.12
444.476	939.12
444.698	913.12
444.919	917.12
445.14	977.12
445.361	943.12
445.582	1061.12
445.803	1196.12
446.024	1224.12
446.245	1116.12
446.466	969.12
446.687	846.12
446.908	753.12
447.129	764.12
447.35	732.12
447.571	739.12
447.792	724.12
448.013	750.12
448.234	819.12
448.455	938.12
448.675	1020.12
448.896	996.12
449.117	912.12
449.338	957.12
449.559	1119.12
449.779	1035.12
450	820.12
450.221	730.12
450.442	761.12
450.662	751.12
450.883	812.12
451.104	817.12
451.324	743.12
451.545	732.12
451.766	686.12
451.986	676.12
452.207	662.12
452.428	676.12
452.648	693.12
452.869	697.12
453.089	698.12
453.31	697.12
453.53	693.12
453.751	688.12
453.971	753.12
454.192	767.12
454.412	695.12
454.633	674.12
454.853	674.12
455.073	688.12
455.294	743.12
455.514	785.12
455.734	691.12
455.955	634.12
456.175	633.12
456.395	610.12
456.616	610.12
456.836	619.12
457.056	618.12
457.276	617.12
457.497	617.12
457.717	638.12
457.937	641.12
458.157	670.12
458.377	679.12
458.598	820.12
458.818	1009.12
459.038	1029.12
459.258	887.12
459.478	790.12
459.698	764.12
459.918	764.12
460.138	765.12
460.358	782.12
460.578	797.12
460.798	808.12
461.018	812.12
461.238	779.12
461.458	784.12
461.678	740.12
461.898	772.12
462.118	806.12
462.338	862.12
462.558	879.12
462.777	861.12
462.997	902.12
463.217	975.12
463.437	938.12
463.657	899.12
463.876	892.12
464.096	878.12
464.316	920.12
464.536	917.12
464.755	904.12
464.975	974.12
465.195	1165.12
465.414	1069.12
465.634	842.12
465.854	776.12
466.073	758.12
466.293	706.12
466.512	701.12
466.732	691.12
466.951	717.12
467.171	708.12
467.391	753.12
467.61	760.12
467.829	741.12
468.049	695.12
468.268	672.12
468.488	690.12
468.707	656.12
468.927	684.12
469.146	664.12
469.365	708.12
469.585	680.12
469.804	728.12
470.023	760.12
470.243	742.12
470.462	789.12
470.681	798.12
470.901	719.12
471.12	718.12
471.339	692.12
471.558	701.12
471.777	701.12
471.997	657.12
472.216	653.12
472.435	661.12
472.654	681.12
472.873	642.12
473.092	650.12
473.311	664.12
473.53	671.12
473.749	703.12
473.968	771.12
474.187	901.12
474.406	786.12
474.625	708.12
474.844	683.12
475.063	658.12
475.282	657.12
475.501	657.12
475.72	699.12
475.939	689.12
476.158	692.12
476.377	687.12
476.596	717.12
476.814	745.12
477.033	733.12
477.252	730.12
477.471	725.12
477.69	748.12
477.908	756.12
478.127	768.12
478.346	800.12
478.564	783.12
478.783	781.12
479.002	809.12
479.22	838.12
479.439	898.12
479.658	887.12
479.876	875.12
480.095	890.12
480.313	902.12
480.532	856.12
480.751	846.12
480.969	831.12
481.188	841.12
481.406	808.12
481.624	758.12
481.843	763.12
482.061	752.12
482.28	741.12
482.498	738.12
482.717	766.12
482.935	740.12
483.153	770.12
483.372	750.12
483.59	782.12
483.808	786.12
484.027	771.12
484.245	785.12
484.463	767.12
484.681	809.12
484.9	787.12
485.118	798.12
485.336	792.12
485.554	811.12
485.772	816.12
485.99	785.12
486.209	816.12
486.427	830.12
486.645	882.12
486.863	862.12
487.081	875.12
487.299	828.12
487.517	842.12
487.735	834.12
487.953	817.12
488.171	841.12
488.389	841.12
488.607	845.12
488.825	816.12
489.043	821.12
489.261	836.12
489.479	831.12
489.696	809.12
489.914	817.12
490.132	845.12
490.35	839.12
490.568	897.12
490.786	882.12
491.003	906.12
491.221	930.12
491.439	924.12
491.657	954.12
491.874	963.12
492.092	966.12
492.31	976.12
492.527	985.12
492.745	946.12
492.963	971.12
493.18	979.12
493.398	986.12
493.615	977.12
493.833	1009.12
494.05	996.12
494.268	962.12
494.485	958.12
494.703	969.12
494.92	984.12
495.138	960.12
495.355	958.12
495.573	994.12
495.79	978.12
496.008	968.12
496.225	971.12
496.442	951.12
496.66	994.12
496.877	954.12
497.094	1011.12
497.312	985.12
497.529	1025.12
497.746	1041.12
497.963	1050.12
498.181	1124.12
498.398	1146.12
498.615	1196.12
498.832	1250.12
499.049	1297.12
499.267	1349.12
499.484	1413.12
499.701	1547.12
499.918	1636.12
500.135	1807.12
500.352	1887.12
500.569	1914.12
500.786	1866.12
501.003	1754.12
501.22	1641.12
501.437	1547.12
501.654	1451.12
501.871	1406.12
