Data from TestCu_HRD10591_00058.txt Node
Date: Thu Oct 05 14:05:38 EDT 2023
User: Yrep
Spectrometer: HR+D1059
Trigger mode: 1
Integration Time (sec): 1.000000E-1
Scans to average: 1
Electric dark correction enabled: true
Nonlinearity correction enabled: false
Boxcar width: 0
XAxis mode: Wavelengths
Number of Pixels in Spectrum: 2048
>>>>>Begin Spectral Data<<<<<
223.165	-17.94
223.4	-17.94
223.635	-17.94
223.869	-21.94
224.104	-17.94
224.338	-21.94
224.573	-9.94
224.808	-15.94
225.042	0.06
225.277	1.06
225.511	-7.94
225.746	-6.94
225.98	17.06
226.215	9.06
226.449	21.06
226.683	31.06
226.918	17.06
227.152	24.06
227.387	34.06
227.621	26.06
227.856	49.06
228.09	41.06
228.324	60.06
228.559	48.06
228.793	69.06
229.027	88.06
229.262	113.06
229.496	133.06
229.73	160.06
229.964	153.06
230.199	111.06
230.433	105.06
230.667	112.06
230.901	102.06
231.136	111.06
231.37	117.06
231.604	116.06
231.838	109.06
232.072	109.06
232.306	125.06
232.541	112.06
232.775	101.06
233.009	114.06
233.243	108.06
233.477	106.06
233.711	122.06
233.945	123.06
234.179	110.06
234.413	113.06
234.647	123.06
234.881	126.06
235.115	110.06
235.349	117.06
235.583	125.06
235.817	133.06
236.051	127.06
236.285	126.06
236.519	133.06
236.753	145.06
236.987	178.06
237.221	214.06
237.455	204.06
237.689	140.06
237.922	121.06
238.156	119.06
238.39	119.06
238.624	121.06
238.858	116.06
239.091	112.06
239.325	127.06
239.559	137.06
239.793	143.06
240.027	150.06
240.26	167.06
240.494	160.06
240.728	158.06
240.961	144.06
241.195	142.06
241.429	134.06
241.662	133.06
241.896	137.06
242.13	113.06
242.363	127.06
242.597	146.06
242.83	121.06
243.064	142.06
243.298	139.06
243.531	130.06
243.765	122.06
243.998	142.06
244.232	147.06
244.465	152.06
244.699	148.06
244.932	127.06
245.166	138.06
245.399	135.06
245.633	140.06
245.866	138.06
246.099	155.06
246.333	153.06
246.566	155.06
246.8	161.06
247.033	152.06
247.266	160.06
247.5	161.06
247.733	169.06
247.966	174.06
248.2	168.06
248.433	182.06
248.666	181.06
248.899	189.06
249.133	201.06
249.366	214.06
249.599	179.06
249.832	158.06
250.066	180.06
250.299	169.06
250.532	174.06
250.765	201.06
250.998	199.06
251.231	173.06
251.465	170.06
251.698	179.06
251.931	182.06
252.164	173.06
252.397	190.06
252.63	182.06
252.863	200.06
253.096	220.06
253.329	221.06
253.562	217.06
253.795	203.06
254.028	206.06
254.261	212.06
254.494	254.06
254.727	245.06
254.96	232.06
255.193	233.06
255.426	200.06
255.659	200.06
255.892	198.06
256.124	180.06
256.357	195.06
256.59	205.06
256.823	205.06
257.056	172.06
257.289	189.06
257.521	195.06
257.754	185.06
257.987	179.06
258.22	197.06
258.452	195.06
258.685	203.06
258.918	192.06
259.151	205.06
259.383	211.06
259.616	212.06
259.849	227.06
260.081	222.06
260.314	246.06
260.547	223.06
260.779	204.06
261.012	222.06
261.244	222.06
261.477	220.06
261.71	241.06
261.942	252.06
262.175	234.06
262.407	212.06
262.64	210.06
262.872	215.06
263.105	212.06
263.337	204.06
263.57	194.06
263.802	222.06
264.035	219.06
264.267	216.06
264.499	228.06
264.732	213.06
264.964	206.06
265.197	210.06
265.429	195.06
265.661	226.06
265.894	206.06
266.126	207.06
266.358	222.06
266.591	214.06
266.823	224.06
267.055	231.06
267.287	232.06
267.52	234.06
267.752	222.06
267.984	221.06
268.216	238.06
268.448	236.06
268.681	242.06
268.913	257.06
269.145	284.06
269.377	263.06
269.609	265.06
269.841	288.06
270.073	286.06
270.306	298.06
270.538	293.06
270.77	282.06
271.002	288.06
271.234	283.06
271.466	323.06
271.698	312.06
271.93	317.06
272.162	300.06
272.394	294.06
272.626	270.06
272.858	278.06
273.09	262.06
273.322	251.06
273.553	253.06
273.785	253.06
274.017	245.06
274.249	256.06
274.481	247.06
274.713	262.06
274.945	244.06
275.176	254.06
275.408	262.06
275.64	266.06
275.872	270.06
276.104	278.06
276.335	271.06
276.567	293.06
276.799	342.06
277.031	349.06
277.262	321.06
277.494	296.06
277.726	280.06
277.957	298.06
278.189	268.06
278.421	257.06
278.652	260.06
278.884	276.06
279.115	264.06
279.347	295.06
279.579	275.06
279.81	274.06
280.042	280.06
280.273	256.06
280.505	293.06
280.736	277.06
280.968	275.06
281.199	293.06
281.431	274.06
281.662	271.06
281.894	306.06
282.125	310.06
282.356	352.06
282.588	355.06
282.819	305.06
283.051	300.06
283.282	296.06
283.513	290.06
283.745	288.06
283.976	289.06
284.207	294.06
284.439	305.06
284.67	290.06
284.901	295.06
285.132	292.06
285.364	288.06
285.595	304.06
285.826	289.06
286.057	298.06
286.288	302.06
286.52	304.06
286.751	290.06
286.982	296.06
287.213	307.06
287.444	297.06
287.675	331.06
287.906	325.06
288.138	334.06
288.369	333.06
288.6	327.06
288.831	306.06
289.062	332.06
289.293	326.06
289.524	334.06
289.755	309.06
289.986	310.06
290.217	328.06
290.448	322.06
290.679	311.06
290.91	321.06
291.141	330.06
291.371	323.06
291.602	318.06
291.833	324.06
292.064	330.06
292.295	322.06
292.526	318.06
292.757	319.06
292.987	314.06
293.218	326.06
293.449	324.06
293.68	355.06
293.91	329.06
294.141	336.06
294.372	324.06
294.603	332.06
294.833	336.06
295.064	333.06
295.295	330.06
295.525	327.06
295.756	368.06
295.987	380.06
296.217	406.06
296.448	375.06
296.679	336.06
296.909	328.06
297.14	334.06
297.37	349.06
297.601	352.06
297.831	350.06
298.062	344.06
298.292	357.06
298.523	369.06
298.753	368.06
298.984	365.06
299.214	350.06
299.445	369.06
299.675	381.06
299.905	371.06
300.136	355.06
300.366	361.06
300.597	380.06
300.827	389.06
301.057	393.06
301.288	400.06
301.518	381.06
301.748	379.06
301.979	399.06
302.209	391.06
302.439	405.06
302.669	388.06
302.9	377.06
303.13	397.06
303.36	391.06
303.59	401.06
303.82	413.06
304.051	390.06
304.281	396.06
304.511	387.06
304.741	376.06
304.971	391.06
305.201	402.06
305.431	350.06
305.661	384.06
305.891	409.06
306.121	379.06
306.352	401.06
306.582	410.06
306.812	374.06
307.042	399.06
307.272	399.06
307.502	407.06
307.731	401.06
307.961	402.06
308.191	384.06
308.421	376.06
308.651	386.06
308.881	417.06
309.111	408.06
309.341	426.06
309.571	425.06
309.8	452.06
310.03	472.06
310.26	466.06
310.49	477.06
310.72	496.06
310.949	511.06
311.179	483.06
311.409	456.06
311.639	468.06
311.868	460.06
312.098	487.06
312.328	510.06
312.557	525.06
312.787	520.06
313.017	484.06
313.246	441.06
313.476	468.06
313.706	461.06
313.935	494.06
314.165	528.06
314.394	528.06
314.624	476.06
314.853	493.06
315.083	455.06
315.312	457.06
315.542	459.06
315.771	422.06
316.001	445.06
316.23	458.06
316.46	453.06
316.689	464.06
316.919	470.06
317.148	474.06
317.377	464.06
317.607	468.06
317.836	488.06
318.065	460.06
318.295	451.06
318.524	455.06
318.753	475.06
318.983	464.06
319.212	463.06
319.441	473.06
319.67	476.06
319.9	457.06
320.129	483.06
320.358	467.06
320.587	492.06
320.816	493.06
321.046	498.06
321.275	475.06
321.504	489.06
321.733	503.06
321.962	524.06
322.191	556.06
322.42	576.06
322.649	601.06
322.878	614.06
323.108	643.06
323.337	695.06
323.566	716.06
323.795	846.06
324.024	1100.06
324.253	1929.06
324.482	3197.06
324.71	4757.06
324.939	4163.06
325.168	1862.06
325.397	901.06
325.626	693.06
325.855	670.06
326.084	656.06
326.313	705.06
326.542	774.06
326.77	1066.06
326.999	1766.06
327.228	2784.06
327.457	3506.06
327.686	2286.06
327.914	1084.06
328.143	860.06
328.372	802.06
328.6	764.06
328.829	804.06
329.058	818.06
329.287	748.06
329.515	637.06
329.744	602.06
329.972	640.06
330.201	670.06
330.43	775.06
330.658	895.06
330.887	875.06
331.115	730.06
331.344	647.06
331.572	638.06
331.801	664.06
332.03	634.06
332.258	590.06
332.486	572.06
332.715	624.06
332.943	638.06
333.172	655.06
333.4	650.06
333.629	661.06
333.857	666.06
334.085	650.06
334.314	640.06
334.542	602.06
334.771	643.06
334.999	612.06
335.227	640.06
335.455	627.06
335.684	595.06
335.912	612.06
336.14	612.06
336.369	603.06
336.597	642.06
336.825	637.06
337.053	575.06
337.281	588.06
337.51	583.06
337.738	623.06
337.966	627.06
338.194	608.06
338.422	585.06
338.65	581.06
338.878	579.06
339.106	571.06
339.334	582.06
339.562	568.06
339.79	548.06
340.018	554.06
340.246	578.06
340.474	581.06
340.702	564.06
340.93	575.06
341.158	576.06
341.386	581.06
341.614	577.06
341.842	551.06
342.07	532.06
342.298	563.06
342.526	548.06
342.754	551.06
342.981	573.06
343.209	543.06
343.437	586.06
343.665	592.06
343.893	668.06
344.12	609.06
344.348	604.06
344.576	605.06
344.804	617.06
345.031	617.06
345.259	622.06
345.487	559.06
345.714	582.06
345.942	565.06
346.17	553.06
346.397	546.06
346.625	566.06
346.853	557.06
347.08	584.06
347.308	580.06
347.535	593.06
347.763	599.06
347.99	576.06
348.218	576.06
348.445	598.06
348.673	561.06
348.9	558.06
349.128	541.06
349.355	533.06
349.583	513.06
349.81	550.06
350.037	525.06
350.265	516.06
350.492	554.06
350.72	557.06
350.947	556.06
351.174	584.06
351.402	588.06
351.629	590.06
351.856	584.06
352.083	602.06
352.311	612.06
352.538	585.06
352.765	580.06
352.992	571.06
353.22	567.06
353.447	560.06
353.674	532.06
353.901	516.06
354.128	517.06
354.355	540.06
354.583	542.06
354.81	517.06
355.037	494.06
355.264	524.06
355.491	521.06
355.718	542.06
355.945	502.06
356.172	478.06
356.399	512.06
356.626	512.06
356.853	527.06
357.08	500.06
357.307	513.06
357.534	504.06
357.761	520.06
357.988	501.06
358.215	526.06
358.441	517.06
358.668	525.06
358.895	530.06
359.122	550.06
359.349	584.06
359.576	628.06
359.802	691.06
360.029	736.06
360.256	663.06
360.483	624.06
360.709	578.06
360.936	558.06
361.163	601.06
361.39	592.06
361.616	562.06
361.843	551.06
362.07	598.06
362.296	604.06
362.523	565.06
362.749	580.06
362.976	565.06
363.203	557.06
363.429	552.06
363.656	560.06
363.882	550.06
364.109	529.06
364.335	552.06
364.562	540.06
364.788	574.06
365.015	564.06
365.241	551.06
365.468	578.06
365.694	604.06
365.92	576.06
366.147	533.06
366.373	535.06
366.599	533.06
366.826	541.06
367.052	532.06
367.278	538.06
367.505	542.06
367.731	568.06
367.957	566.06
368.184	554.06
368.41	607.06
368.636	578.06
368.862	578.06
369.089	556.06
369.315	543.06
369.541	565.06
369.767	565.06
369.993	567.06
370.219	552.06
370.445	545.06
370.672	566.06
370.898	561.06
371.124	552.06
371.35	573.06
371.576	554.06
371.802	571.06
372.028	566.06
372.254	560.06
372.48	575.06
372.706	586.06
372.932	549.06
373.158	580.06
373.384	571.06
373.61	570.06
373.835	587.06
374.061	568.06
374.287	570.06
374.513	615.06
374.739	593.06
374.965	591.06
375.191	605.06
375.416	575.06
375.642	554.06
375.868	568.06
376.094	576.06
376.319	585.06
376.545	585.06
376.771	557.06
376.997	570.06
377.222	560.06
377.448	554.06
377.674	574.06
377.899	569.06
378.125	561.06
378.35	564.06
378.576	550.06
378.802	570.06
379.027	569.06
379.253	552.06
379.478	554.06
379.704	579.06
379.929	569.06
380.155	567.06
380.38	567.06
380.606	555.06
380.831	589.06
381.057	553.06
381.282	574.06
381.507	590.06
381.733	579.06
381.958	590.06
382.184	602.06
382.409	583.06
382.634	592.06
382.86	598.06
383.085	604.06
383.31	599.06
383.535	615.06
383.761	602.06
383.986	618.06
384.211	626.06
384.436	619.06
384.662	612.06
384.887	632.06
385.112	639.06
385.337	658.06
385.562	662.06
385.787	660.06
386.013	686.06
386.238	670.06
386.463	650.06
386.688	675.06
386.913	626.06
387.138	629.06
387.363	652.06
387.588	632.06
387.813	644.06
388.038	649.06
388.263	653.06
388.488	670.06
388.713	653.06
388.938	646.06
389.163	674.06
389.387	668.06
389.612	662.06
389.837	645.06
390.062	666.06
390.287	652.06
390.512	654.06
390.736	667.06
390.961	684.06
391.186	665.06
391.411	690.06
391.636	712.06
391.86	708.06
392.085	706.06
392.31	690.06
392.534	674.06
392.759	703.06
392.984	671.06
393.208	688.06
393.433	678.06
393.658	670.06
393.882	670.06
394.107	693.06
394.331	674.06
394.556	662.06
394.78	675.06
395.005	706.06
395.229	675.06
395.454	714.06
395.678	727.06
395.903	712.06
396.127	740.06
396.352	703.06
396.576	697.06
396.801	694.06
397.025	713.06
397.249	697.06
397.474	738.06
397.698	713.06
397.922	729.06
398.147	765.06
398.371	789.06
398.595	785.06
398.82	830.06
399.044	863.06
399.268	978.06
399.492	1061.06
399.717	1056.06
399.941	1016.06
400.165	996.06
400.389	948.06
400.613	866.06
400.837	840.06
401.062	822.06
401.286	814.06
401.51	820.06
401.734	831.06
401.958	839.06
402.182	871.06
402.406	915.06
402.63	864.06
402.854	839.06
403.078	861.06
403.302	869.06
403.526	877.06
403.75	897.06
403.974	892.06
404.198	889.06
404.422	892.06
404.645	866.06
404.869	884.06
405.093	900.06
405.317	906.06
405.541	893.06
405.765	885.06
405.988	940.06
406.212	1018.06
406.436	1049.06
406.66	1010.06
406.883	976.06
407.107	1042.06
407.331	1084.06
407.555	1101.06
407.778	1041.06
408.002	960.06
408.226	925.06
408.449	924.06
408.673	913.06
408.896	962.06
409.12	952.06
409.344	901.06
409.567	864.06
409.791	853.06
410.014	863.06
410.238	833.06
410.461	879.06
410.685	845.06
410.908	865.06
411.132	887.06
411.355	869.06
411.578	837.06
411.802	857.06
412.025	820.06
412.249	822.06
412.472	813.06
412.695	793.06
412.919	837.06
413.142	767.06
413.365	801.06
413.589	770.06
413.812	772.06
414.035	774.06
414.258	778.06
414.482	775.06
414.705	796.06
414.928	784.06
415.151	773.06
415.374	804.06
415.597	777.06
415.821	787.06
416.044	767.06
416.267	773.06
416.49	774.06
416.713	767.06
416.936	790.06
417.159	779.06
417.382	807.06
417.605	797.06
417.828	797.06
418.051	802.06
418.274	801.06
418.497	789.06
418.72	801.06
418.943	774.06
419.166	831.06
419.389	824.06
419.611	811.06
419.834	828.06
420.057	808.06
420.28	767.06
420.503	820.06
420.726	814.06
420.948	845.06
421.171	889.06
421.394	838.06
421.617	823.06
421.839	832.06
422.062	833.06
422.285	853.06
422.507	955.06
422.73	950.06
422.953	861.06
423.175	834.06
423.398	834.06
423.621	833.06
423.843	846.06
424.066	874.06
424.288	860.06
424.511	892.06
424.733	954.06
424.956	1018.06
425.178	983.06
425.401	994.06
425.623	936.06
425.846	831.06
426.068	830.06
426.291	826.06
426.513	780.06
426.735	833.06
426.958	913.06
427.18	1073.06
427.402	1214.06
427.625	1202.06
427.847	958.06
428.069	807.06
428.292	758.06
428.514	747.06
428.736	740.06
428.958	759.06
429.181	758.06
429.403	733.06
429.625	782.06
429.847	830.06
430.069	832.06
430.292	790.06
430.514	745.06
430.736	736.06
430.958	714.06
431.18	712.06
431.402	699.06
431.624	704.06
431.846	697.06
432.068	728.06
432.29	688.06
432.512	729.06
432.734	722.06
432.956	745.06
433.178	745.06
433.4	772.06
433.622	707.06
433.844	721.06
434.066	709.06
434.287	738.06
434.509	742.06
434.731	760.06
434.953	787.06
435.175	824.06
435.397	835.06
435.618	858.06
435.84	918.06
436.062	983.06
436.284	925.06
436.505	820.06
436.727	816.06
436.949	759.06
437.17	721.06
437.392	742.06
437.614	793.06
437.835	893.06
438.057	1016.06
438.278	1037.06
438.5	1059.06
438.721	1068.06
438.943	933.06
439.165	800.06
439.386	778.06
439.608	818.06
439.829	835.06
440.05	941.06
440.272	958.06
440.493	845.06
440.715	768.06
440.936	765.06
441.158	776.06
441.379	825.06
441.6	827.06
441.822	862.06
442.043	940.06
442.264	993.06
442.486	916.06
442.707	883.06
442.928	855.06
443.149	905.06
443.371	947.06
443.592	1020.06
443.813	1096.06
444.034	1022.06
444.255	895.06
444.476	888.06
444.698	922.06
444.919	900.06
445.14	937.06
445.361	933.06
445.582	978.06
445.803	1159.06
446.024	1163.06
446.245	1076.06
446.466	962.06
446.687	812.06
446.908	784.06
447.129	750.06
447.35	728.06
447.571	739.06
447.792	728.06
448.013	735.06
448.234	791.06
448.455	929.06
448.675	1026.06
448.896	994.06
449.117	863.06
449.338	969.06
449.559	1062.06
449.779	1029.06
450	793.06
450.221	750.06
450.442	737.06
450.662	739.06
450.883	791.06
451.104	780.06
451.324	739.06
451.545	704.06
451.766	672.06
451.986	664.06
452.207	671.06
452.428	676.06
452.648	682.06
452.869	684.06
453.089	724.06
453.31	690.06
453.53	662.06
453.751	656.06
453.971	700.06
454.192	739.06
454.412	693.06
454.633	631.06
454.853	654.06
455.073	662.06
455.294	718.06
455.514	753.06
455.734	698.06
455.955	647.06
456.175	608.06
456.395	613.06
456.616	600.06
456.836	605.06
457.056	630.06
457.276	602.06
457.497	606.06
457.717	636.06
457.937	636.06
458.157	616.06
458.377	672.06
458.598	770.06
458.818	952.06
459.038	988.06
459.258	886.06
459.478	768.06
459.698	742.06
459.918	736.06
460.138	740.06
460.358	791.06
460.578	759.06
460.798	773.06
461.018	769.06
461.238	766.06
461.458	777.06
461.678	779.06
461.898	790.06
462.118	816.06
462.338	798.06
462.558	847.06
462.777	876.06
462.997	908.06
463.217	930.06
463.437	924.06
463.657	873.06
463.876	864.06
464.096	882.06
464.316	864.06
464.536	864.06
464.755	863.06
464.975	948.06
465.195	1124.06
465.414	1063.06
465.634	828.06
465.854	752.06
466.073	715.06
466.293	710.06
466.512	709.06
466.732	702.06
466.951	661.06
467.171	680.06
467.391	722.06
467.61	759.06
467.829	741.06
468.049	669.06
468.268	663.06
468.488	660.06
468.707	654.06
468.927	670.06
469.146	656.06
469.365	657.06
469.585	693.06
469.804	721.06
470.023	752.06
470.243	719.06
470.462	772.06
470.681	788.06
470.901	746.06
471.12	688.06
471.339	686.06
471.558	672.06
471.777	674.06
471.997	654.06
472.216	642.06
472.435	638.06
472.654	642.06
472.873	654.06
473.092	642.06
473.311	639.06
473.53	652.06
473.749	699.06
473.968	816.06
474.187	892.06
474.406	752.06
474.625	656.06
474.844	633.06
475.063	654.06
475.282	648.06
475.501	664.06
475.72	681.06
475.939	664.06
476.158	661.06
476.377	674.06
476.596	664.06
476.814	718.06
477.033	690.06
477.252	714.06
477.471	694.06
477.69	741.06
477.908	752.06
478.127	750.06
478.346	743.06
478.564	779.06
478.783	788.06
479.002	797.06
479.22	810.06
479.439	840.06
479.658	875.06
479.876	860.06
480.095	856.06
480.313	879.06
480.532	856.06
480.751	816.06
480.969	814.06
481.188	785.06
481.406	759.06
481.624	757.06
481.843	738.06
482.061	755.06
482.28	752.06
482.498	734.06
482.717	721.06
482.935	769.06
483.153	740.06
483.372	777.06
483.59	759.06
483.808	765.06
484.027	708.06
484.245	773.06
484.463	809.06
484.681	772.06
484.9	782.06
485.118	788.06
485.336	780.06
485.554	780.06
485.772	801.06
485.99	792.06
486.209	794.06
486.427	778.06
486.645	828.06
486.863	872.06
487.081	877.06
487.299	820.06
487.517	824.06
487.735	829.06
487.953	853.06
488.171	811.06
488.389	832.06
488.607	816.06
488.825	797.06
489.043	790.06
489.261	812.06
489.479	800.06
489.696	820.06
489.914	806.06
490.132	840.06
490.35	852.06
490.568	838.06
490.786	885.06
491.003	909.06
491.221	944.06
491.439	926.06
491.657	938.06
491.874	926.06
492.092	942.06
492.31	952.06
492.527	940.06
492.745	945.06
492.963	927.06
493.18	949.06
493.398	958.06
493.615	976.06
493.833	962.06
494.05	954.06
494.268	963.06
494.485	943.06
494.703	933.06
494.92	951.06
495.138	992.06
495.355	955.06
495.573	974.06
495.79	963.06
496.008	952.06
496.225	923.06
496.442	948.06
496.66	968.06
496.877	940.06
497.094	960.06
497.312	989.06
497.529	976.06
497.746	1010.06
497.963	1037.06
498.181	1078.06
498.398	1152.06
498.615	1138.06
498.832	1216.06
499.049	1241.06
499.267	1316.06
499.484	1386.06
499.701	1524.06
499.918	1618.06
500.135	1768.06
500.352	1863.06
500.569	1864.06
500.786	1807.06
501.003	1698.06
501.22	1609.06
501.437	1505.06
501.654	1405.06
501.871	1351.06
