Data from TestCu_HRD10591_00053.txt Node
Date: Thu Oct 05 14:05:33 EDT 2023
User: Yrep
Spectrometer: HR+D1059
Trigger mode: 1
Integration Time (sec): 1.000000E-1
Scans to average: 1
Electric dark correction enabled: true
Nonlinearity correction enabled: false
Boxcar width: 0
XAxis mode: Wavelengths
Number of Pixels in Spectrum: 2048
>>>>>Begin Spectral Data<<<<<
223.165	-22.81
223.4	-22.81
223.635	-22.81
223.869	-33.81
224.104	-20.81
224.338	-15.81
224.573	-10.81
224.808	-13.81
225.042	-11.81
225.277	-2.81
225.511	-6.81
225.746	13.19
225.98	13.19
226.215	31.19
226.449	17.19
226.683	8.19
226.918	20.19
227.152	36.19
227.387	40.19
227.621	40.19
227.856	52.19
228.09	32.19
228.324	56.19
228.559	74.19
228.793	72.19
229.027	111.19
229.262	113.19
229.496	155.19
229.73	168.19
229.964	160.19
230.199	108.19
230.433	128.19
230.667	113.19
230.901	112.19
231.136	116.19
231.37	105.19
231.604	99.19
231.838	101.19
232.072	103.19
232.306	90.19
232.541	91.19
232.775	97.19
233.009	115.19
233.243	116.19
233.477	117.19
233.711	116.19
233.945	111.19
234.179	122.19
234.413	119.19
234.647	109.19
234.881	126.19
235.115	118.19
235.349	132.19
235.583	132.19
235.817	137.19
236.051	120.19
236.285	132.19
236.519	130.19
236.753	142.19
236.987	182.19
237.221	233.19
237.455	226.19
237.689	152.19
237.922	128.19
238.156	129.19
238.39	130.19
238.624	131.19
238.858	126.19
239.091	126.19
239.325	123.19
239.559	141.19
239.793	154.19
240.027	154.19
240.26	151.19
240.494	169.19
240.728	157.19
240.961	146.19
241.195	142.19
241.429	134.19
241.662	120.19
241.896	125.19
242.13	129.19
242.363	143.19
242.597	122.19
242.83	132.19
243.064	145.19
243.298	137.19
243.531	136.19
243.765	132.19
243.998	130.19
244.232	156.19
244.465	135.19
244.699	136.19
244.932	136.19
245.166	137.19
245.399	138.19
245.633	145.19
245.866	162.19
246.099	140.19
246.333	152.19
246.566	143.19
246.8	142.19
247.033	156.19
247.266	158.19
247.5	169.19
247.733	164.19
247.966	176.19
248.2	173.19
248.433	176.19
248.666	168.19
248.899	198.19
249.133	185.19
249.366	217.19
249.599	189.19
249.832	172.19
250.066	182.19
250.299	201.19
250.532	177.19
250.765	200.19
250.998	208.19
251.231	194.19
251.465	197.19
251.698	186.19
251.931	180.19
252.164	183.19
252.397	193.19
252.63	186.19
252.863	208.19
253.096	215.19
253.329	212.19
253.562	203.19
253.795	206.19
254.028	209.19
254.261	212.19
254.494	258.19
254.727	268.19
254.96	241.19
255.193	223.19
255.426	216.19
255.659	192.19
255.892	201.19
256.124	205.19
256.357	178.19
256.59	196.19
256.823	193.19
257.056	209.19
257.289	205.19
257.521	195.19
257.754	214.19
257.987	193.19
258.22	182.19
258.452	188.19
258.685	194.19
258.918	206.19
259.151	188.19
259.383	198.19
259.616	233.19
259.849	237.19
260.081	256.19
260.314	266.19
260.547	230.19
260.779	234.19
261.012	197.19
261.244	202.19
261.477	213.19
261.71	224.19
261.942	257.19
262.175	267.19
262.407	235.19
262.64	210.19
262.872	203.19
263.105	220.19
263.337	225.19
263.57	222.19
263.802	214.19
264.035	213.19
264.267	212.19
264.499	222.19
264.732	213.19
264.964	207.19
265.197	217.19
265.429	195.19
265.661	225.19
265.894	210.19
266.126	225.19
266.358	236.19
266.591	227.19
266.823	221.19
267.055	224.19
267.287	223.19
267.52	234.19
267.752	215.19
267.984	236.19
268.216	242.19
268.448	240.19
268.681	233.19
268.913	263.19
269.145	278.19
269.377	288.19
269.609	256.19
269.841	277.19
270.073	311.19
270.306	318.19
270.538	314.19
270.77	279.19
271.002	313.19
271.234	309.19
271.466	322.19
271.698	315.19
271.93	318.19
272.162	319.19
272.394	296.19
272.626	306.19
272.858	258.19
273.09	246.19
273.322	255.19
273.553	264.19
273.785	264.19
274.017	242.19
274.249	264.19
274.481	256.19
274.713	273.19
274.945	265.19
275.176	282.19
275.408	276.19
275.64	271.19
275.872	266.19
276.104	277.19
276.335	284.19
276.567	314.19
276.799	355.19
277.031	351.19
277.262	355.19
277.494	318.19
277.726	284.19
277.957	279.19
278.189	296.19
278.421	292.19
278.652	276.19
278.884	276.19
279.115	284.19
279.347	274.19
279.579	279.19
279.81	287.19
280.042	274.19
280.273	280.19
280.505	271.19
280.736	302.19
280.968	290.19
281.199	290.19
281.431	298.19
281.662	297.19
281.894	305.19
282.125	317.19
282.356	358.19
282.588	393.19
282.819	349.19
283.051	302.19
283.282	290.19
283.513	306.19
283.745	308.19
283.976	303.19
284.207	302.19
284.439	307.19
284.67	309.19
284.901	311.19
285.132	297.19
285.364	305.19
285.595	327.19
285.826	295.19
286.057	310.19
286.288	296.19
286.52	321.19
286.751	319.19
286.982	309.19
287.213	325.19
287.444	329.19
287.675	325.19
287.906	360.19
288.138	334.19
288.369	344.19
288.6	338.19
288.831	339.19
289.062	351.19
289.293	340.19
289.524	320.19
289.755	306.19
289.986	307.19
290.217	317.19
290.448	319.19
290.679	328.19
290.91	323.19
291.141	336.19
291.371	343.19
291.602	322.19
291.833	320.19
292.064	325.19
292.295	335.19
292.526	345.19
292.757	342.19
292.987	333.19
293.218	348.19
293.449	331.19
293.68	341.19
293.91	330.19
294.141	331.19
294.372	337.19
294.603	336.19
294.833	331.19
295.064	332.19
295.295	336.19
295.525	346.19
295.756	372.19
295.987	404.19
296.217	417.19
296.448	397.19
296.679	370.19
296.909	346.19
297.14	341.19
297.37	350.19
297.601	374.19
297.831	378.19
298.062	353.19
298.292	364.19
298.523	374.19
298.753	375.19
298.984	365.19
299.214	364.19
299.445	373.19
299.675	386.19
299.905	386.19
300.136	373.19
300.366	373.19
300.597	381.19
300.827	385.19
301.057	408.19
301.288	403.19
301.518	398.19
301.748	413.19
301.979	432.19
302.209	415.19
302.439	415.19
302.669	393.19
302.9	405.19
303.13	404.19
303.36	415.19
303.59	432.19
303.82	424.19
304.051	408.19
304.281	406.19
304.511	382.19
304.741	405.19
304.971	392.19
305.201	402.19
305.431	380.19
305.661	407.19
305.891	381.19
306.121	405.19
306.352	406.19
306.582	394.19
306.812	403.19
307.042	407.19
307.272	400.19
307.502	411.19
307.731	403.19
307.961	393.19
308.191	417.19
308.421	409.19
308.651	422.19
308.881	400.19
309.111	420.19
309.341	436.19
309.571	464.19
309.8	458.19
310.03	483.19
310.26	488.19
310.49	486.19
310.72	533.19
310.949	549.19
311.179	471.19
311.409	461.19
311.639	480.19
311.868	482.19
312.098	494.19
312.328	493.19
312.557	551.19
312.787	540.19
313.017	496.19
313.246	480.19
313.476	469.19
313.706	493.19
313.935	527.19
314.165	553.19
314.394	529.19
314.624	510.19
314.853	488.19
315.083	477.19
315.312	468.19
315.542	469.19
315.771	460.19
316.001	450.19
316.23	468.19
316.46	476.19
316.689	462.19
316.919	494.19
317.148	490.19
317.377	511.19
317.607	492.19
317.836	500.19
318.065	497.19
318.295	469.19
318.524	464.19
318.753	466.19
318.983	473.19
319.212	474.19
319.441	488.19
319.67	481.19
319.9	484.19
320.129	481.19
320.358	467.19
320.587	506.19
320.816	514.19
321.046	495.19
321.275	508.19
321.504	528.19
321.733	505.19
321.962	542.19
322.191	560.19
322.42	607.19
322.649	617.19
322.878	622.19
323.108	651.19
323.337	717.19
323.566	760.19
323.795	887.19
324.024	1159.19
324.253	2050.19
324.482	3469.19
324.71	5166.19
324.939	4629.19
325.168	2026.19
325.397	974.19
325.626	745.19
325.855	678.19
326.084	695.19
326.313	730.19
326.542	816.19
326.77	1122.19
326.999	1879.19
327.228	3054.19
327.457	3801.19
327.686	2521.19
327.914	1216.19
328.143	904.19
328.372	830.19
328.6	830.19
328.829	836.19
329.058	876.19
329.287	786.19
329.515	716.19
329.744	640.19
329.972	661.19
330.201	706.19
330.43	794.19
330.658	918.19
330.887	947.19
331.115	776.19
331.344	692.19
331.572	685.19
331.801	690.19
332.03	646.19
332.258	628.19
332.486	615.19
332.715	640.19
332.943	648.19
333.172	650.19
333.4	674.19
333.629	689.19
333.857	694.19
334.085	657.19
334.314	650.19
334.542	645.19
334.771	640.19
334.999	640.19
335.227	663.19
335.455	630.19
335.684	636.19
335.912	617.19
336.14	612.19
336.369	649.19
336.597	652.19
336.825	612.19
337.053	599.19
337.281	616.19
337.51	612.19
337.738	607.19
337.966	621.19
338.194	639.19
338.422	589.19
338.65	582.19
338.878	593.19
339.106	579.19
339.334	580.19
339.562	598.19
339.79	574.19
340.018	611.19
340.246	599.19
340.474	600.19
340.702	579.19
340.93	577.19
341.158	593.19
341.386	621.19
341.614	609.19
341.842	598.19
342.07	606.19
342.298	560.19
342.526	569.19
342.754	568.19
342.981	585.19
343.209	590.19
343.437	608.19
343.665	609.19
343.893	625.19
344.12	641.19
344.348	609.19
344.576	615.19
344.804	640.19
345.031	657.19
345.259	629.19
345.487	606.19
345.714	604.19
345.942	579.19
346.17	569.19
346.397	563.19
346.625	538.19
346.853	555.19
347.08	560.19
347.308	609.19
347.535	627.19
347.763	628.19
347.99	599.19
348.218	609.19
348.445	632.19
348.673	613.19
348.9	567.19
349.128	564.19
349.355	549.19
349.583	554.19
349.81	543.19
350.037	539.19
350.265	551.19
350.492	567.19
350.72	571.19
350.947	610.19
351.174	644.19
351.402	611.19
351.629	598.19
351.856	620.19
352.083	624.19
352.311	664.19
352.538	619.19
352.765	618.19
352.992	605.19
353.22	579.19
353.447	558.19
353.674	560.19
353.901	530.19
354.128	552.19
354.355	529.19
354.583	550.19
354.81	549.19
355.037	526.19
355.264	506.19
355.491	534.19
355.718	527.19
355.945	549.19
356.172	539.19
356.399	511.19
356.626	503.19
356.853	545.19
357.08	536.19
357.307	524.19
357.534	514.19
357.761	544.19
357.988	519.19
358.215	552.19
358.441	535.19
358.668	569.19
358.895	551.19
359.122	553.19
359.349	587.19
359.576	647.19
359.802	721.19
360.029	761.19
360.256	704.19
360.483	626.19
360.709	596.19
360.936	609.19
361.163	616.19
361.39	616.19
361.616	583.19
361.843	586.19
362.07	593.19
362.296	612.19
362.523	614.19
362.749	597.19
362.976	574.19
363.203	559.19
363.429	558.19
363.656	568.19
363.882	576.19
364.109	560.19
364.335	560.19
364.562	569.19
364.788	573.19
365.015	576.19
365.241	592.19
365.468	605.19
365.694	594.19
365.92	592.19
366.147	578.19
366.373	565.19
366.599	558.19
366.826	567.19
367.052	563.19
367.278	562.19
367.505	562.19
367.731	572.19
367.957	570.19
368.184	574.19
368.41	610.19
368.636	621.19
368.862	605.19
369.089	584.19
369.315	589.19
369.541	564.19
369.767	571.19
369.993	615.19
370.219	595.19
370.445	566.19
370.672	566.19
370.898	576.19
371.124	567.19
371.35	578.19
371.576	584.19
371.802	591.19
372.028	576.19
372.254	591.19
372.48	583.19
372.706	586.19
372.932	578.19
373.158	579.19
373.384	588.19
373.61	568.19
373.835	576.19
374.061	607.19
374.287	608.19
374.513	620.19
374.739	620.19
374.965	638.19
375.191	605.19
375.416	612.19
375.642	587.19
375.868	623.19
376.094	591.19
376.319	564.19
376.545	576.19
376.771	559.19
376.997	576.19
377.222	597.19
377.448	583.19
377.674	547.19
377.899	567.19
378.125	573.19
378.35	584.19
378.576	568.19
378.802	548.19
379.027	567.19
379.253	597.19
379.478	578.19
379.704	574.19
379.929	563.19
380.155	582.19
380.38	582.19
380.606	581.19
380.831	586.19
381.057	578.19
381.282	585.19
381.507	589.19
381.733	594.19
381.958	567.19
382.184	621.19
382.409	583.19
382.634	616.19
382.86	604.19
383.085	624.19
383.31	631.19
383.535	612.19
383.761	616.19
383.986	630.19
384.211	610.19
384.436	643.19
384.662	632.19
384.887	680.19
385.112	684.19
385.337	686.19
385.562	664.19
385.787	688.19
386.013	694.19
386.238	722.19
386.463	708.19
386.688	693.19
386.913	664.19
387.138	686.19
387.363	658.19
387.588	654.19
387.813	662.19
388.038	688.19
388.263	680.19
388.488	669.19
388.713	658.19
388.938	692.19
389.163	668.19
389.387	655.19
389.612	656.19
389.837	654.19
390.062	675.19
390.287	684.19
390.512	673.19
390.736	688.19
390.961	693.19
391.186	684.19
391.411	702.19
391.636	739.19
391.86	741.19
392.085	726.19
392.31	711.19
392.534	673.19
392.759	696.19
392.984	694.19
393.208	676.19
393.433	685.19
393.658	699.19
393.882	676.19
394.107	704.19
394.331	717.19
394.556	721.19
394.78	706.19
395.005	724.19
395.229	734.19
395.454	734.19
395.678	734.19
395.903	744.19
396.127	730.19
396.352	732.19
396.576	718.19
396.801	683.19
397.025	709.19
397.249	729.19
397.474	764.19
397.698	770.19
397.922	769.19
398.147	788.19
398.371	779.19
398.595	817.19
398.82	841.19
399.044	929.19
399.268	1014.19
399.492	1100.19
399.717	1088.19
399.941	1045.19
400.165	1036.19
400.389	998.19
400.613	897.19
400.837	848.19
401.062	877.19
401.286	865.19
401.51	843.19
401.734	856.19
401.958	871.19
402.182	890.19
402.406	944.19
402.63	909.19
402.854	924.19
403.078	894.19
403.302	915.19
403.526	936.19
403.75	911.19
403.974	897.19
404.198	915.19
404.422	938.19
404.645	916.19
404.869	928.19
405.093	940.19
405.317	961.19
405.541	970.19
405.765	927.19
405.988	978.19
406.212	1081.19
406.436	1112.19
406.66	1080.19
406.883	1032.19
407.107	1086.19
407.331	1156.19
407.555	1164.19
407.778	1096.19
408.002	1015.19
408.226	978.19
408.449	978.19
408.673	975.19
408.896	946.19
409.12	996.19
409.344	893.19
409.567	883.19
409.791	883.19
410.014	861.19
410.238	866.19
410.461	884.19
410.685	883.19
410.908	935.19
411.132	923.19
411.355	929.19
411.578	856.19
411.802	832.19
412.025	843.19
412.249	852.19
412.472	829.19
412.695	826.19
412.919	803.19
413.142	831.19
413.365	819.19
413.589	808.19
413.812	804.19
414.035	807.19
414.258	793.19
414.482	801.19
414.705	816.19
414.928	804.19
415.151	797.19
415.374	806.19
415.597	780.19
415.821	778.19
416.044	797.19
416.267	781.19
416.49	805.19
416.713	787.19
416.936	788.19
417.159	790.19
417.382	799.19
417.605	810.19
417.828	841.19
418.051	826.19
418.274	813.19
418.497	819.19
418.72	823.19
418.943	825.19
419.166	819.19
419.389	871.19
419.611	836.19
419.834	839.19
420.057	809.19
420.28	821.19
420.503	809.19
420.726	843.19
420.948	848.19
421.171	906.19
421.394	875.19
421.617	830.19
421.839	812.19
422.062	864.19
422.285	911.19
422.507	965.19
422.73	994.19
422.953	900.19
423.175	856.19
423.398	876.19
423.621	882.19
423.843	878.19
424.066	899.19
424.288	912.19
424.511	939.19
424.733	1002.19
424.956	1057.19
425.178	1010.19
425.401	1003.19
425.623	962.19
425.846	868.19
426.068	856.19
426.291	850.19
426.513	844.19
426.735	888.19
426.958	940.19
427.18	1104.19
427.402	1263.19
427.625	1316.19
427.847	1012.19
428.069	837.19
428.292	797.19
428.514	769.19
428.736	781.19
428.958	749.19
429.181	759.19
429.403	754.19
429.625	790.19
429.847	844.19
430.069	903.19
430.292	820.19
430.514	756.19
430.736	752.19
430.958	761.19
431.18	722.19
431.402	733.19
431.624	729.19
431.846	708.19
432.068	703.19
432.29	736.19
432.512	745.19
432.734	750.19
432.956	755.19
433.178	773.19
433.4	765.19
433.622	781.19
433.844	764.19
434.066	738.19
434.287	758.19
434.509	772.19
434.731	784.19
434.953	807.19
435.175	812.19
435.397	833.19
435.618	864.19
435.84	959.19
436.062	1021.19
436.284	988.19
436.505	850.19
436.727	816.19
436.949	760.19
437.17	777.19
437.392	765.19
437.614	826.19
437.835	968.19
438.057	1025.19
438.278	1113.19
438.5	1044.19
438.721	1116.19
438.943	957.19
439.165	861.19
439.386	833.19
439.608	837.19
439.829	878.19
440.05	979.19
440.272	1015.19
440.493	855.19
440.715	800.19
440.936	790.19
441.158	787.19
441.379	818.19
441.6	880.19
441.822	912.19
442.043	1001.19
442.264	1055.19
442.486	982.19
442.707	900.19
442.928	940.19
443.149	968.19
443.371	998.19
443.592	1095.19
443.813	1154.19
444.034	1061.19
444.255	936.19
444.476	941.19
444.698	951.19
444.919	972.19
445.14	973.19
445.361	998.19
445.582	1080.19
445.803	1204.19
446.024	1269.19
446.245	1145.19
446.466	976.19
446.687	822.19
446.908	811.19
447.129	754.19
447.35	756.19
447.571	731.19
447.792	766.19
448.013	789.19
448.234	840.19
448.455	950.19
448.675	1092.19
448.896	1078.19
449.117	932.19
449.338	996.19
449.559	1138.19
449.779	1072.19
450	825.19
450.221	729.19
450.442	722.19
450.662	768.19
450.883	834.19
451.104	858.19
451.324	775.19
451.545	716.19
451.766	689.19
451.986	679.19
452.207	680.19
452.428	676.19
452.648	696.19
452.869	695.19
453.089	732.19
453.31	723.19
453.53	713.19
453.751	678.19
453.971	760.19
454.192	774.19
454.412	724.19
454.633	629.19
454.853	657.19
455.073	686.19
455.294	736.19
455.514	781.19
455.734	685.19
455.955	648.19
456.175	621.19
456.395	598.19
456.616	602.19
456.836	613.19
457.056	616.19
457.276	616.19
457.497	625.19
457.717	629.19
457.937	656.19
458.157	644.19
458.377	701.19
458.598	798.19
458.818	1039.19
459.038	1025.19
459.258	869.19
459.478	788.19
459.698	756.19
459.918	756.19
460.138	778.19
460.358	792.19
460.578	779.19
460.798	826.19
461.018	800.19
461.238	779.19
461.458	799.19
461.678	791.19
461.898	778.19
462.118	815.19
462.338	844.19
462.558	868.19
462.777	901.19
462.997	949.19
463.217	980.19
463.437	963.19
463.657	891.19
463.876	872.19
464.096	909.19
464.316	928.19
464.536	908.19
464.755	921.19
464.975	972.19
465.195	1188.19
465.414	1138.19
465.634	862.19
465.854	778.19
466.073	738.19
466.293	720.19
466.512	709.19
466.732	700.19
466.951	695.19
467.171	723.19
467.391	749.19
467.61	800.19
467.829	741.19
468.049	700.19
468.268	692.19
468.488	664.19
468.707	648.19
468.927	685.19
469.146	667.19
469.365	687.19
469.585	678.19
469.804	736.19
470.023	760.19
470.243	751.19
470.462	785.19
470.681	808.19
470.901	734.19
471.12	722.19
471.339	746.19
471.558	704.19
471.777	689.19
471.997	685.19
472.216	647.19
472.435	654.19
472.654	644.19
472.873	649.19
473.092	671.19
473.311	631.19
473.53	678.19
473.749	722.19
473.968	802.19
474.187	910.19
474.406	760.19
474.625	702.19
474.844	668.19
475.063	650.19
475.282	686.19
475.501	667.19
475.72	678.19
475.939	691.19
476.158	664.19
476.377	697.19
476.596	693.19
476.814	725.19
477.033	714.19
477.252	725.19
477.471	736.19
477.69	744.19
477.908	747.19
478.127	775.19
478.346	781.19
478.564	785.19
478.783	815.19
479.002	826.19
479.22	832.19
479.439	884.19
479.658	880.19
479.876	887.19
480.095	867.19
480.313	928.19
480.532	889.19
480.751	862.19
480.969	828.19
481.188	829.19
481.406	786.19
481.624	773.19
481.843	764.19
482.061	768.19
482.28	778.19
482.498	807.19
482.717	777.19
482.935	769.19
483.153	786.19
483.372	773.19
483.59	783.19
483.808	786.19
484.027	776.19
484.245	800.19
484.463	796.19
484.681	797.19
484.9	806.19
485.118	804.19
485.336	802.19
485.554	827.19
485.772	813.19
485.99	810.19
486.209	836.19
486.427	833.19
486.645	867.19
486.863	917.19
487.081	862.19
487.299	830.19
487.517	813.19
487.735	853.19
487.953	837.19
488.171	841.19
488.389	823.19
488.607	838.19
488.825	828.19
489.043	824.19
489.261	837.19
489.479	810.19
489.696	813.19
489.914	847.19
490.132	866.19
490.35	880.19
490.568	897.19
490.786	918.19
491.003	923.19
491.221	936.19
491.439	944.19
491.657	964.19
491.874	959.19
492.092	998.19
492.31	992.19
492.527	963.19
492.745	956.19
492.963	963.19
493.18	1011.19
493.398	990.19
493.615	1021.19
493.833	996.19
494.05	991.19
494.268	997.19
494.485	972.19
494.703	964.19
494.92	1005.19
495.138	966.19
495.355	981.19
495.573	959.19
495.79	1009.19
496.008	982.19
496.225	977.19
496.442	975.19
496.66	1011.19
496.877	997.19
497.094	1010.19
497.312	1038.19
497.529	1028.19
497.746	1042.19
497.963	1059.19
498.181	1152.19
498.398	1154.19
498.615	1221.19
498.832	1244.19
499.049	1303.19
499.267	1378.19
499.484	1456.19
499.701	1565.19
499.918	1673.19
500.135	1841.19
500.352	1934.19
500.569	1906.19
500.786	1876.19
501.003	1801.19
501.22	1682.19
501.437	1555.19
501.654	1509.19
