Data from TestCu_HRD10591_00024.txt Node
Date: Thu Oct 05 14:05:05 EDT 2023
User: Yrep
Spectrometer: HR+D1059
Trigger mode: 1
Integration Time (sec): 1.000000E-1
Scans to average: 1
Electric dark correction enabled: true
Nonlinearity correction enabled: false
Boxcar width: 0
XAxis mode: Wavelengths
Number of Pixels in Spectrum: 2048
>>>>>Begin Spectral Data<<<<<
223.165	-6.81
223.4	-6.81
223.635	-6.81
223.869	-4.81
224.104	-20.81
224.338	-15.81
224.573	-21.81
224.808	-5.81
225.042	3.19
225.277	-16.81
225.511	0.19
225.746	-11.81
225.98	3.19
226.215	-2.81
226.449	23.19
226.683	29.19
226.918	20.19
227.152	28.19
227.387	43.19
227.621	45.19
227.856	47.19
228.09	47.19
228.324	55.19
228.559	60.19
228.793	66.19
229.027	93.19
229.262	126.19
229.496	141.19
229.73	148.19
229.964	147.19
230.199	126.19
230.433	131.19
230.667	112.19
230.901	121.19
231.136	109.19
231.37	112.19
231.604	103.19
231.838	111.19
232.072	114.19
232.306	124.19
232.541	113.19
232.775	120.19
233.009	131.19
233.243	107.19
233.477	116.19
233.711	110.19
233.945	129.19
234.179	101.19
234.413	102.19
234.647	122.19
234.881	126.19
235.115	117.19
235.349	114.19
235.583	116.19
235.817	124.19
236.051	129.19
236.285	140.19
236.519	139.19
236.753	156.19
236.987	171.19
237.221	220.19
237.455	213.19
237.689	167.19
237.922	136.19
238.156	135.19
238.39	131.19
238.624	135.19
238.858	118.19
239.091	122.19
239.325	136.19
239.559	123.19
239.793	134.19
240.027	140.19
240.26	174.19
240.494	166.19
240.728	136.19
240.961	144.19
241.195	140.19
241.429	129.19
241.662	131.19
241.896	129.19
242.13	128.19
242.363	130.19
242.597	137.19
242.83	137.19
243.064	130.19
243.298	141.19
243.531	130.19
243.765	141.19
243.998	142.19
244.232	150.19
244.465	147.19
244.699	140.19
244.932	146.19
245.166	137.19
245.399	137.19
245.633	136.19
245.866	143.19
246.099	147.19
246.333	142.19
246.566	157.19
246.8	153.19
247.033	149.19
247.266	155.19
247.5	160.19
247.733	167.19
247.966	169.19
248.2	164.19
248.433	169.19
248.666	176.19
248.899	187.19
249.133	212.19
249.366	186.19
249.599	173.19
249.832	170.19
250.066	157.19
250.299	183.19
250.532	178.19
250.765	206.19
250.998	245.19
251.231	212.19
251.465	192.19
251.698	167.19
251.931	200.19
252.164	190.19
252.397	184.19
252.63	200.19
252.863	215.19
253.096	212.19
253.329	218.19
253.562	210.19
253.795	199.19
254.028	200.19
254.261	202.19
254.494	239.19
254.727	264.19
254.96	247.19
255.193	224.19
255.426	196.19
255.659	186.19
255.892	187.19
256.124	192.19
256.357	194.19
256.59	183.19
256.823	190.19
257.056	178.19
257.289	191.19
257.521	214.19
257.754	187.19
257.987	194.19
258.22	194.19
258.452	180.19
258.685	192.19
258.918	207.19
259.151	208.19
259.383	222.19
259.616	214.19
259.849	219.19
260.081	232.19
260.314	240.19
260.547	239.19
260.779	209.19
261.012	215.19
261.244	212.19
261.477	216.19
261.71	230.19
261.942	252.19
262.175	268.19
262.407	223.19
262.64	206.19
262.872	210.19
263.105	211.19
263.337	213.19
263.57	222.19
263.802	212.19
264.035	215.19
264.267	206.19
264.499	205.19
264.732	214.19
264.964	204.19
265.197	210.19
265.429	209.19
265.661	194.19
265.894	202.19
266.126	226.19
266.358	225.19
266.591	224.19
266.823	231.19
267.055	228.19
267.287	240.19
267.52	230.19
267.752	236.19
267.984	230.19
268.216	223.19
268.448	244.19
268.681	263.19
268.913	260.19
269.145	272.19
269.377	272.19
269.609	277.19
269.841	292.19
270.073	299.19
270.306	314.19
270.538	327.19
270.77	305.19
271.002	272.19
271.234	281.19
271.466	304.19
271.698	304.19
271.93	301.19
272.162	314.19
272.394	298.19
272.626	278.19
272.858	288.19
273.09	253.19
273.322	252.19
273.553	257.19
273.785	269.19
274.017	242.19
274.249	259.19
274.481	274.19
274.713	266.19
274.945	263.19
275.176	270.19
275.408	264.19
275.64	263.19
275.872	268.19
276.104	286.19
276.335	287.19
276.567	331.19
276.799	356.19
277.031	337.19
277.262	333.19
277.494	327.19
277.726	288.19
277.957	297.19
278.189	273.19
278.421	268.19
278.652	277.19
278.884	273.19
279.115	267.19
279.347	269.19
279.579	271.19
279.81	276.19
280.042	291.19
280.273	294.19
280.505	288.19
280.736	280.19
280.968	254.19
281.199	286.19
281.431	290.19
281.662	291.19
281.894	296.19
282.125	309.19
282.356	358.19
282.588	365.19
282.819	330.19
283.051	301.19
283.282	281.19
283.513	292.19
283.745	294.19
283.976	319.19
284.207	312.19
284.439	306.19
284.67	313.19
284.901	301.19
285.132	311.19
285.364	278.19
285.595	284.19
285.826	336.19
286.057	322.19
286.288	285.19
286.52	300.19
286.751	282.19
286.982	289.19
287.213	310.19
287.444	331.19
287.675	342.19
287.906	337.19
288.138	347.19
288.369	339.19
288.6	350.19
288.831	322.19
289.062	329.19
289.293	317.19
289.524	326.19
289.755	325.19
289.986	317.19
290.217	322.19
290.448	327.19
290.679	322.19
290.91	325.19
291.141	333.19
291.371	303.19
291.602	320.19
291.833	329.19
292.064	326.19
292.295	340.19
292.526	330.19
292.757	339.19
292.987	332.19
293.218	317.19
293.449	332.19
293.68	342.19
293.91	317.19
294.141	320.19
294.372	317.19
294.603	335.19
294.833	344.19
295.064	350.19
295.295	335.19
295.525	342.19
295.756	385.19
295.987	390.19
296.217	433.19
296.448	386.19
296.679	338.19
296.909	344.19
297.14	340.19
297.37	364.19
297.601	350.19
297.831	355.19
298.062	359.19
298.292	349.19
298.523	368.19
298.753	352.19
298.984	362.19
299.214	376.19
299.445	367.19
299.675	369.19
299.905	373.19
300.136	367.19
300.366	385.19
300.597	368.19
300.827	396.19
301.057	389.19
301.288	405.19
301.518	408.19
301.748	401.19
301.979	405.19
302.209	396.19
302.439	404.19
302.669	407.19
302.9	381.19
303.13	399.19
303.36	375.19
303.59	416.19
303.82	418.19
304.051	409.19
304.281	413.19
304.511	399.19
304.741	390.19
304.971	381.19
305.201	409.19
305.431	389.19
305.661	396.19
305.891	391.19
306.121	416.19
306.352	433.19
306.582	400.19
306.812	390.19
307.042	400.19
307.272	392.19
307.502	371.19
307.731	403.19
307.961	375.19
308.191	405.19
308.421	400.19
308.651	398.19
308.881	406.19
309.111	404.19
309.341	420.19
309.571	460.19
309.8	457.19
310.03	447.19
310.26	479.19
310.49	468.19
310.72	506.19
310.949	529.19
311.179	510.19
311.409	458.19
311.639	457.19
311.868	462.19
312.098	488.19
312.328	509.19
312.557	577.19
312.787	542.19
313.017	457.19
313.246	480.19
313.476	472.19
313.706	474.19
313.935	525.19
314.165	524.19
314.394	507.19
314.624	486.19
314.853	480.19
315.083	480.19
315.312	453.19
315.542	446.19
315.771	457.19
316.001	454.19
316.23	438.19
316.46	471.19
316.689	483.19
316.919	509.19
317.148	502.19
317.377	478.19
317.607	491.19
317.836	469.19
318.065	445.19
318.295	440.19
318.524	434.19
318.753	472.19
318.983	469.19
319.212	495.19
319.441	494.19
319.67	497.19
319.9	476.19
320.129	471.19
320.358	501.19
320.587	487.19
320.816	501.19
321.046	527.19
321.275	510.19
321.504	504.19
321.733	496.19
321.962	542.19
322.191	559.19
322.42	571.19
322.649	591.19
322.878	607.19
323.108	668.19
323.337	707.19
323.566	750.19
323.795	856.19
324.024	1144.19
324.253	1919.19
324.482	3285.19
324.71	4775.19
324.939	4094.19
325.168	1866.19
325.397	914.19
325.626	727.19
325.855	685.19
326.084	660.19
326.313	700.19
326.542	785.19
326.77	1072.19
326.999	1767.19
327.228	2790.19
327.457	3502.19
327.686	2305.19
327.914	1116.19
328.143	884.19
328.372	821.19
328.6	773.19
328.829	810.19
329.058	846.19
329.287	751.19
329.515	652.19
329.744	639.19
329.972	646.19
330.201	686.19
330.43	788.19
330.658	880.19
330.887	912.19
331.115	754.19
331.344	674.19
331.572	662.19
331.801	695.19
332.03	648.19
332.258	592.19
332.486	602.19
332.715	619.19
332.943	672.19
333.172	662.19
333.4	655.19
333.629	674.19
333.857	667.19
334.085	673.19
334.314	653.19
334.542	623.19
334.771	658.19
334.999	639.19
335.227	649.19
335.455	629.19
335.684	597.19
335.912	623.19
336.14	600.19
336.369	655.19
336.597	659.19
336.825	611.19
337.053	596.19
337.281	617.19
337.51	613.19
337.738	602.19
337.966	600.19
338.194	620.19
338.422	594.19
338.65	576.19
338.878	582.19
339.106	569.19
339.334	582.19
339.562	554.19
339.79	565.19
340.018	570.19
340.246	583.19
340.474	622.19
340.702	573.19
340.93	550.19
341.158	576.19
341.386	589.19
341.614	581.19
341.842	584.19
342.07	570.19
342.298	580.19
342.526	561.19
342.754	569.19
342.981	556.19
343.209	567.19
343.437	602.19
343.665	625.19
343.893	633.19
344.12	623.19
344.348	608.19
344.576	606.19
344.804	636.19
345.031	644.19
345.259	648.19
345.487	595.19
345.714	576.19
345.942	558.19
346.17	577.19
346.397	581.19
346.625	546.19
346.853	549.19
347.08	549.19
347.308	574.19
347.535	606.19
347.763	604.19
347.99	579.19
348.218	630.19
348.445	638.19
348.673	585.19
348.9	574.19
349.128	540.19
349.355	543.19
349.583	527.19
349.81	565.19
350.037	553.19
350.265	542.19
350.492	554.19
350.72	554.19
350.947	569.19
351.174	617.19
351.402	601.19
351.629	590.19
351.856	596.19
352.083	610.19
352.311	625.19
352.538	613.19
352.765	594.19
352.992	578.19
353.22	583.19
353.447	562.19
353.674	542.19
353.901	550.19
354.128	534.19
354.355	524.19
354.583	553.19
354.81	520.19
355.037	525.19
355.264	523.19
355.491	527.19
355.718	521.19
355.945	514.19
356.172	511.19
356.399	537.19
356.626	516.19
356.853	522.19
357.08	517.19
357.307	532.19
357.534	521.19
357.761	562.19
357.988	527.19
358.215	521.19
358.441	512.19
358.668	534.19
358.895	549.19
359.122	578.19
359.349	579.19
359.576	645.19
359.802	702.19
360.029	756.19
360.256	696.19
360.483	637.19
360.709	575.19
360.936	601.19
361.163	596.19
361.39	586.19
361.616	598.19
361.843	599.19
362.07	599.19
362.296	593.19
362.523	566.19
362.749	596.19
362.976	568.19
363.203	541.19
363.429	575.19
363.656	570.19
363.882	550.19
364.109	561.19
364.335	558.19
364.562	553.19
364.788	579.19
365.015	582.19
365.241	582.19
365.468	598.19
365.694	576.19
365.92	586.19
366.147	585.19
366.373	569.19
366.599	568.19
366.826	560.19
367.052	565.19
367.278	592.19
367.505	572.19
367.731	538.19
367.957	534.19
368.184	585.19
368.41	597.19
368.636	631.19
368.862	588.19
369.089	586.19
369.315	546.19
369.541	554.19
369.767	568.19
369.993	560.19
370.219	576.19
370.445	548.19
370.672	557.19
370.898	560.19
371.124	546.19
371.35	574.19
371.576	569.19
371.802	569.19
372.028	566.19
372.254	568.19
372.48	592.19
372.706	600.19
372.932	589.19
373.158	596.19
373.384	599.19
373.61	581.19
373.835	583.19
374.061	609.19
374.287	615.19
374.513	587.19
374.739	622.19
374.965	632.19
375.191	610.19
375.416	611.19
375.642	594.19
375.868	593.19
376.094	578.19
376.319	572.19
376.545	558.19
376.771	604.19
376.997	566.19
377.222	584.19
377.448	578.19
377.674	571.19
377.899	579.19
378.125	538.19
378.35	587.19
378.576	547.19
378.802	545.19
379.027	568.19
379.253	580.19
379.478	556.19
379.704	570.19
379.929	562.19
380.155	572.19
380.38	570.19
380.606	588.19
380.831	577.19
381.057	606.19
381.282	582.19
381.507	573.19
381.733	584.19
381.958	576.19
382.184	595.19
382.409	625.19
382.634	605.19
382.86	620.19
383.085	597.19
383.31	600.19
383.535	630.19
383.761	648.19
383.986	645.19
384.211	653.19
384.436	680.19
384.662	653.19
384.887	638.19
385.112	664.19
385.337	673.19
385.562	677.19
385.787	696.19
386.013	692.19
386.238	712.19
386.463	682.19
386.688	696.19
386.913	644.19
387.138	653.19
387.363	636.19
387.588	682.19
387.813	668.19
388.038	682.19
388.263	677.19
388.488	672.19
388.713	678.19
388.938	675.19
389.163	679.19
389.387	689.19
389.612	645.19
389.837	668.19
390.062	645.19
390.287	661.19
390.512	670.19
390.736	661.19
390.961	676.19
391.186	700.19
391.411	692.19
391.636	718.19
391.86	725.19
392.085	708.19
392.31	702.19
392.534	699.19
392.759	712.19
392.984	708.19
393.208	674.19
393.433	704.19
393.658	688.19
393.882	704.19
394.107	691.19
394.331	700.19
394.556	699.19
394.78	711.19
395.005	688.19
395.229	711.19
395.454	748.19
395.678	758.19
395.903	741.19
396.127	737.19
396.352	735.19
396.576	707.19
396.801	728.19
397.025	711.19
397.249	740.19
397.474	744.19
397.698	739.19
397.922	750.19
398.147	766.19
398.371	785.19
398.595	812.19
398.82	838.19
399.044	899.19
399.268	996.19
399.492	1080.19
399.717	1117.19
399.941	1064.19
400.165	1020.19
400.389	937.19
400.613	888.19
400.837	870.19
401.062	848.19
401.286	817.19
401.51	849.19
401.734	810.19
401.958	860.19
402.182	908.19
402.406	916.19
402.63	906.19
402.854	903.19
403.078	896.19
403.302	895.19
403.526	917.19
403.75	914.19
403.974	907.19
404.198	919.19
404.422	909.19
404.645	930.19
404.869	906.19
405.093	932.19
405.317	930.19
405.541	933.19
405.765	936.19
405.988	966.19
406.212	1024.19
406.436	1068.19
406.66	1012.19
406.883	995.19
407.107	1070.19
407.331	1100.19
407.555	1130.19
407.778	1050.19
408.002	974.19
408.226	947.19
408.449	947.19
408.673	979.19
408.896	951.19
409.12	957.19
409.344	911.19
409.567	877.19
409.791	864.19
410.014	864.19
410.238	862.19
410.461	873.19
410.685	861.19
410.908	890.19
411.132	919.19
411.355	911.19
411.578	886.19
411.802	857.19
412.025	832.19
412.249	846.19
412.472	817.19
412.695	794.19
412.919	798.19
413.142	798.19
413.365	770.19
413.589	781.19
413.812	759.19
414.035	790.19
414.258	791.19
414.482	803.19
414.705	791.19
414.928	807.19
415.151	800.19
415.374	786.19
415.597	807.19
415.821	791.19
416.044	776.19
416.267	797.19
416.49	780.19
416.713	781.19
416.936	803.19
417.159	768.19
417.382	792.19
417.605	786.19
417.828	815.19
418.051	836.19
418.274	801.19
418.497	811.19
418.72	810.19
418.943	817.19
419.166	840.19
419.389	863.19
419.611	864.19
419.834	814.19
420.057	849.19
420.28	794.19
420.503	807.19
420.726	846.19
420.948	840.19
421.171	902.19
421.394	854.19
421.617	846.19
421.839	830.19
422.062	833.19
422.285	856.19
422.507	957.19
422.73	965.19
422.953	896.19
423.175	876.19
423.398	855.19
423.621	877.19
423.843	908.19
424.066	891.19
424.288	907.19
424.511	920.19
424.733	983.19
424.956	1025.19
425.178	999.19
425.401	990.19
425.623	930.19
425.846	839.19
426.068	810.19
426.291	835.19
426.513	828.19
426.735	861.19
426.958	960.19
427.18	1072.19
427.402	1227.19
427.625	1262.19
427.847	981.19
428.069	839.19
428.292	807.19
428.514	768.19
428.736	770.19
428.958	769.19
429.181	739.19
429.403	752.19
429.625	808.19
429.847	846.19
430.069	861.19
430.292	804.19
430.514	708.19
430.736	730.19
430.958	722.19
431.18	733.19
431.402	735.19
431.624	722.19
431.846	738.19
432.068	718.19
432.29	731.19
432.512	742.19
432.734	770.19
432.956	747.19
433.178	728.19
433.4	755.19
433.622	754.19
433.844	761.19
434.066	739.19
434.287	734.19
434.509	768.19
434.731	812.19
434.953	818.19
435.175	828.19
435.397	840.19
435.618	870.19
435.84	948.19
436.062	1036.19
436.284	949.19
436.505	834.19
436.727	761.19
436.949	763.19
437.17	761.19
437.392	756.19
437.614	791.19
437.835	894.19
438.057	1024.19
438.278	1056.19
438.5	1069.19
438.721	1138.19
438.943	934.19
439.165	817.19
439.386	811.19
439.608	832.19
439.829	894.19
440.05	917.19
440.272	954.19
440.493	846.19
440.715	783.19
440.936	788.19
441.158	761.19
441.379	848.19
441.6	869.19
441.822	918.19
442.043	957.19
442.264	1028.19
442.486	967.19
442.707	915.19
442.928	918.19
443.149	913.19
443.371	975.19
443.592	1048.19
443.813	1148.19
444.034	1051.19
444.255	949.19
444.476	902.19
444.698	942.19
444.919	942.19
445.14	958.19
445.361	994.19
445.582	1032.19
445.803	1201.19
446.024	1180.19
446.245	1122.19
446.466	973.19
446.687	821.19
446.908	773.19
447.129	755.19
447.35	743.19
447.571	748.19
447.792	736.19
448.013	759.19
448.234	840.19
448.455	928.19
448.675	1041.19
448.896	1011.19
449.117	868.19
449.338	971.19
449.559	1100.19
449.779	1057.19
450	809.19
450.221	742.19
450.442	740.19
450.662	766.19
450.883	837.19
451.104	810.19
451.324	749.19
451.545	691.19
451.766	698.19
451.986	677.19
452.207	660.19
452.428	693.19
452.648	696.19
452.869	713.19
453.089	725.19
453.31	701.19
453.53	666.19
453.751	690.19
453.971	733.19
454.192	732.19
454.412	679.19
454.633	642.19
454.853	663.19
455.073	684.19
455.294	720.19
455.514	783.19
455.734	692.19
455.955	624.19
456.175	612.19
456.395	593.19
456.616	609.19
456.836	608.19
457.056	608.19
457.276	587.19
457.497	614.19
457.717	613.19
457.937	637.19
458.157	643.19
458.377	693.19
458.598	775.19
458.818	974.19
459.038	1034.19
459.258	882.19
459.478	776.19
459.698	756.19
459.918	770.19
460.138	759.19
460.358	788.19
460.578	778.19
460.798	787.19
461.018	775.19
461.238	793.19
461.458	792.19
461.678	786.19
461.898	770.19
462.118	804.19
462.338	820.19
462.558	881.19
462.777	886.19
462.997	954.19
463.217	955.19
463.437	928.19
463.657	876.19
463.876	834.19
464.096	878.19
464.316	922.19
464.536	896.19
464.755	904.19
464.975	965.19
465.195	1142.19
465.414	1072.19
465.634	836.19
465.854	768.19
466.073	730.19
466.293	703.19
466.512	680.19
466.732	687.19
466.951	707.19
467.171	716.19
467.391	720.19
467.61	775.19
467.829	722.19
468.049	684.19
468.268	706.19
468.488	664.19
468.707	674.19
468.927	668.19
469.146	644.19
469.365	691.19
469.585	699.19
469.804	729.19
470.023	757.19
470.243	729.19
470.462	759.19
470.681	778.19
470.901	720.19
471.12	734.19
471.339	724.19
471.558	704.19
471.777	678.19
471.997	676.19
472.216	658.19
472.435	645.19
472.654	660.19
472.873	655.19
473.092	663.19
473.311	681.19
473.53	674.19
473.749	721.19
473.968	799.19
474.187	906.19
474.406	805.19
474.625	719.19
474.844	662.19
475.063	640.19
475.282	661.19
475.501	679.19
475.72	690.19
475.939	688.19
476.158	699.19
476.377	711.19
476.596	686.19
476.814	727.19
477.033	753.19
477.252	729.19
477.471	736.19
477.69	779.19
477.908	791.19
478.127	729.19
478.346	776.19
478.564	767.19
478.783	790.19
479.002	808.19
479.22	834.19
479.439	866.19
479.658	868.19
479.876	875.19
480.095	872.19
480.313	902.19
480.532	883.19
480.751	879.19
480.969	852.19
481.188	802.19
481.406	776.19
481.624	790.19
481.843	782.19
482.061	762.19
482.28	786.19
482.498	765.19
482.717	777.19
482.935	753.19
483.153	772.19
483.372	783.19
483.59	758.19
483.808	784.19
484.027	755.19
484.245	774.19
484.463	785.19
484.681	787.19
484.9	812.19
485.118	808.19
485.336	804.19
485.554	821.19
485.772	814.19
485.99	816.19
486.209	838.19
486.427	855.19
486.645	865.19
486.863	926.19
487.081	832.19
487.299	831.19
487.517	816.19
487.735	826.19
487.953	840.19
488.171	842.19
488.389	834.19
488.607	818.19
488.825	820.19
489.043	827.19
489.261	832.19
489.479	830.19
489.696	849.19
489.914	808.19
490.132	856.19
490.35	885.19
490.568	878.19
490.786	881.19
491.003	921.19
491.221	944.19
491.439	941.19
491.657	954.19
491.874	942.19
492.092	999.19
492.31	980.19
492.527	951.19
492.745	957.19
492.963	954.19
493.18	984.19
493.398	996.19
493.615	968.19
493.833	984.19
494.05	983.19
494.268	967.19
494.485	986.19
494.703	955.19
494.92	942.19
495.138	986.19
495.355	979.19
495.573	969.19
495.79	980.19
496.008	954.19
496.225	975.19
496.442	971.19
496.66	982.19
496.877	966.19
497.094	992.19
497.312	992.19
497.529	1006.19
497.746	1032.19
497.963	1064.19
498.181	1116.19
498.398	1121.19
498.615	1240.19
498.832	1204.19
499.049	1273.19
499.267	1354.19
499.484	1470.19
499.701	1528.19
499.918	1671.19
500.135	1815.19
500.352	1944.19
500.569	1932.19
500.786	1856.19
501.003	1785.19
501.22	1652.19
501.437	1558.19
501.654	1482.19
501.871	1410.19
