Data from TestCu_HRD10591_00006.txt Node
Date: Thu Oct 05 14:04:47 EDT 2023
User: Yrep
Spectrometer: HR+D1059
Trigger mode: 1
Integration Time (sec): 1.000000E-1
Scans to average: 1
Electric dark correction enabled: true
Nonlinearity correction enabled: false
Boxcar width: 0
XAxis mode: Wavelengths
Number of Pixels in Spectrum: 2048
>>>>>Begin Spectral Data<<<<<
223.165	-28.12
223.4	-28.12
223.635	-28.12
223.869	-19.12
224.104	-14.12
224.338	-20.12
224.573	-21.12
224.808	-12.12
225.042	-5.12
225.277	-3.12
225.511	0.88
225.746	8.88
225.98	7.88
226.215	8.88
226.449	26.88
226.683	29.88
226.918	17.88
227.152	21.88
227.387	36.88
227.621	31.88
227.856	45.88
228.09	50.88
228.324	36.88
228.559	59.88
228.793	77.88
229.027	101.88
229.262	116.88
229.496	142.88
229.73	152.88
229.964	157.88
230.199	113.88
230.433	114.88
230.667	113.88
230.901	127.88
231.136	123.88
231.37	96.88
231.604	102.88
231.838	122.88
232.072	101.88
232.306	113.88
232.541	98.88
232.775	112.88
233.009	111.88
233.243	119.88
233.477	111.88
233.711	109.88
233.945	101.88
234.179	127.88
234.413	114.88
234.647	118.88
234.881	107.88
235.115	139.88
235.349	128.88
235.583	122.88
235.817	122.88
236.051	128.88
236.285	128.88
236.519	118.88
236.753	146.88
236.987	175.88
237.221	227.88
237.455	209.88
237.689	149.88
237.922	122.88
238.156	120.88
238.39	121.88
238.624	132.88
238.858	123.88
239.091	133.88
239.325	136.88
239.559	138.88
239.793	130.88
240.027	145.88
240.26	159.88
240.494	177.88
240.728	158.88
240.961	155.88
241.195	127.88
241.429	137.88
241.662	135.88
241.896	142.88
242.13	125.88
242.363	123.88
242.597	122.88
242.83	138.88
243.064	141.88
243.298	147.88
243.531	125.88
243.765	133.88
243.998	120.88
244.232	139.88
244.465	143.88
244.699	152.88
244.932	139.88
245.166	132.88
245.399	144.88
245.633	143.88
245.866	146.88
246.099	143.88
246.333	140.88
246.566	162.88
246.8	165.88
247.033	150.88
247.266	159.88
247.5	152.88
247.733	159.88
247.966	181.88
248.2	145.88
248.433	164.88
248.666	183.88
248.899	191.88
249.133	193.88
249.366	210.88
249.599	187.88
249.832	163.88
250.066	172.88
250.299	180.88
250.532	176.88
250.765	189.88
250.998	221.88
251.231	207.88
251.465	191.88
251.698	175.88
251.931	185.88
252.164	184.88
252.397	193.88
252.63	201.88
252.863	213.88
253.096	214.88
253.329	214.88
253.562	206.88
253.795	196.88
254.028	199.88
254.261	216.88
254.494	241.88
254.727	267.88
254.96	246.88
255.193	235.88
255.426	175.88
255.659	199.88
255.892	198.88
256.124	191.88
256.357	190.88
256.59	181.88
256.823	187.88
257.056	210.88
257.289	200.88
257.521	199.88
257.754	186.88
257.987	188.88
258.22	194.88
258.452	205.88
258.685	212.88
258.918	200.88
259.151	224.88
259.383	216.88
259.616	219.88
259.849	231.88
260.081	250.88
260.314	231.88
260.547	234.88
260.779	232.88
261.012	228.88
261.244	204.88
261.477	209.88
261.71	229.88
261.942	255.88
262.175	265.88
262.407	233.88
262.64	219.88
262.872	197.88
263.105	215.88
263.337	217.88
263.57	196.88
263.802	223.88
264.035	219.88
264.267	203.88
264.499	207.88
264.732	210.88
264.964	208.88
265.197	233.88
265.429	225.88
265.661	216.88
265.894	221.88
266.126	207.88
266.358	227.88
266.591	203.88
266.823	226.88
267.055	236.88
267.287	221.88
267.52	213.88
267.752	224.88
267.984	236.88
268.216	243.88
268.448	235.88
268.681	250.88
268.913	269.88
269.145	270.88
269.377	275.88
269.609	270.88
269.841	279.88
270.073	294.88
270.306	312.88
270.538	318.88
270.77	283.88
271.002	275.88
271.234	287.88
271.466	317.88
271.698	293.88
271.93	312.88
272.162	308.88
272.394	302.88
272.626	289.88
272.858	273.88
273.09	275.88
273.322	261.88
273.553	258.88
273.785	276.88
274.017	249.88
274.249	280.88
274.481	284.88
274.713	264.88
274.945	278.88
275.176	267.88
275.408	260.88
275.64	264.88
275.872	271.88
276.104	276.88
276.335	285.88
276.567	312.88
276.799	346.88
277.031	335.88
277.262	346.88
277.494	307.88
277.726	289.88
277.957	291.88
278.189	280.88
278.421	292.88
278.652	291.88
278.884	281.88
279.115	287.88
279.347	280.88
279.579	262.88
279.81	264.88
280.042	276.88
280.273	284.88
280.505	287.88
280.736	277.88
280.968	283.88
281.199	283.88
281.431	284.88
281.662	284.88
281.894	290.88
282.125	328.88
282.356	378.88
282.588	371.88
282.819	340.88
283.051	310.88
283.282	302.88
283.513	305.88
283.745	304.88
283.976	304.88
284.207	308.88
284.439	318.88
284.67	318.88
284.901	294.88
285.132	292.88
285.364	293.88
285.595	299.88
285.826	301.88
286.057	320.88
286.288	295.88
286.52	311.88
286.751	313.88
286.982	296.88
287.213	303.88
287.444	318.88
287.675	325.88
287.906	342.88
288.138	357.88
288.369	342.88
288.6	338.88
288.831	315.88
289.062	335.88
289.293	312.88
289.524	313.88
289.755	324.88
289.986	322.88
290.217	312.88
290.448	320.88
290.679	319.88
290.91	325.88
291.141	331.88
291.371	321.88
291.602	316.88
291.833	313.88
292.064	321.88
292.295	344.88
292.526	325.88
292.757	324.88
292.987	323.88
293.218	336.88
293.449	328.88
293.68	328.88
293.91	328.88
294.141	343.88
294.372	320.88
294.603	343.88
294.833	324.88
295.064	328.88
295.295	342.88
295.525	358.88
295.756	379.88
295.987	414.88
296.217	439.88
296.448	384.88
296.679	347.88
296.909	353.88
297.14	345.88
297.37	328.88
297.601	351.88
297.831	358.88
298.062	373.88
298.292	377.88
298.523	388.88
298.753	366.88
298.984	372.88
299.214	345.88
299.445	363.88
299.675	371.88
299.905	351.88
300.136	372.88
300.366	385.88
300.597	369.88
300.827	396.88
301.057	411.88
301.288	408.88
301.518	404.88
301.748	388.88
301.979	398.88
302.209	393.88
302.439	389.88
302.669	401.88
302.9	390.88
303.13	388.88
303.36	391.88
303.59	407.88
303.82	419.88
304.051	411.88
304.281	379.88
304.511	385.88
304.741	398.88
304.971	400.88
305.201	381.88
305.431	390.88
305.661	407.88
305.891	383.88
306.121	401.88
306.352	398.88
306.582	418.88
306.812	398.88
307.042	400.88
307.272	400.88
307.502	407.88
307.731	409.88
307.961	416.88
308.191	395.88
308.421	400.88
308.651	396.88
308.881	410.88
309.111	431.88
309.341	418.88
309.571	449.88
309.8	483.88
310.03	472.88
310.26	456.88
310.49	476.88
310.72	506.88
310.949	522.88
311.179	513.88
311.409	468.88
311.639	479.88
311.868	493.88
312.098	485.88
312.328	496.88
312.557	552.88
312.787	554.88
313.017	499.88
313.246	463.88
313.476	453.88
313.706	477.88
313.935	510.88
314.165	534.88
314.394	519.88
314.624	496.88
314.853	471.88
315.083	469.88
315.312	461.88
315.542	454.88
315.771	447.88
316.001	461.88
316.23	465.88
316.46	447.88
316.689	483.88
316.919	479.88
317.148	500.88
317.377	479.88
317.607	514.88
317.836	489.88
318.065	466.88
318.295	456.88
318.524	464.88
318.753	456.88
318.983	478.88
319.212	483.88
319.441	503.88
319.67	510.88
319.9	497.88
320.129	454.88
320.358	468.88
320.587	487.88
320.816	520.88
321.046	535.88
321.275	513.88
321.504	512.88
321.733	520.88
321.962	542.88
322.191	538.88
322.42	591.88
322.649	589.88
322.878	628.88
323.108	663.88
323.337	714.88
323.566	767.88
323.795	889.88
324.024	1195.88
324.253	2021.88
324.482	3428.88
324.71	5096.88
324.939	4406.88
325.168	1963.88
325.397	989.88
325.626	737.88
325.855	656.88
326.084	689.88
326.313	709.88
326.542	806.88
326.77	1099.88
326.999	1875.88
327.228	2939.88
327.457	3685.88
327.686	2438.88
327.914	1168.88
328.143	907.88
328.372	838.88
328.6	779.88
328.829	827.88
329.058	857.88
329.287	817.88
329.515	681.88
329.744	625.88
329.972	637.88
330.201	680.88
330.43	816.88
330.658	935.88
330.887	927.88
331.115	774.88
331.344	659.88
331.572	655.88
331.801	677.88
332.03	647.88
332.258	615.88
332.486	624.88
332.715	616.88
332.943	655.88
333.172	629.88
333.4	661.88
333.629	670.88
333.857	685.88
334.085	659.88
334.314	660.88
334.542	659.88
334.771	646.88
334.999	636.88
335.227	624.88
335.455	626.88
335.684	633.88
335.912	619.88
336.14	642.88
336.369	654.88
336.597	651.88
336.825	619.88
337.053	597.88
337.281	613.88
337.51	574.88
337.738	617.88
337.966	621.88
338.194	621.88
338.422	595.88
338.65	577.88
338.878	579.88
339.106	575.88
339.334	571.88
339.562	563.88
339.79	589.88
340.018	589.88
340.246	601.88
340.474	593.88
340.702	569.88
340.93	585.88
341.158	586.88
341.386	601.88
341.614	585.88
341.842	596.88
342.07	559.88
342.298	586.88
342.526	555.88
342.754	550.88
342.981	564.88
343.209	566.88
343.437	597.88
343.665	615.88
343.893	642.88
344.12	618.88
344.348	589.88
344.576	633.88
344.804	632.88
345.031	653.88
345.259	648.88
345.487	591.88
345.714	573.88
345.942	573.88
346.17	564.88
346.397	571.88
346.625	587.88
346.853	558.88
347.08	567.88
347.308	601.88
347.535	590.88
347.763	600.88
347.99	607.88
348.218	627.88
348.445	611.88
348.673	583.88
348.9	541.88
349.128	558.88
349.355	543.88
349.583	546.88
349.81	535.88
350.037	545.88
350.265	530.88
350.492	555.88
350.72	566.88
350.947	611.88
351.174	625.88
351.402	622.88
351.629	595.88
351.856	613.88
352.083	637.88
352.311	626.88
352.538	619.88
352.765	615.88
352.992	566.88
353.22	565.88
353.447	589.88
353.674	516.88
353.901	542.88
354.128	533.88
354.355	565.88
354.583	539.88
354.81	558.88
355.037	527.88
355.264	501.88
355.491	526.88
355.718	534.88
355.945	540.88
356.172	499.88
356.399	535.88
356.626	513.88
356.853	519.88
357.08	534.88
357.307	542.88
357.534	527.88
357.761	511.88
357.988	518.88
358.215	541.88
358.441	518.88
358.668	529.88
358.895	520.88
359.122	549.88
359.349	573.88
359.576	648.88
359.802	695.88
360.029	772.88
360.256	708.88
360.483	592.88
360.709	579.88
360.936	582.88
361.163	605.88
361.39	593.88
361.616	579.88
361.843	584.88
362.07	621.88
362.296	617.88
362.523	589.88
362.749	570.88
362.976	572.88
363.203	579.88
363.429	537.88
363.656	553.88
363.882	561.88
364.109	549.88
364.335	551.88
364.562	549.88
364.788	555.88
365.015	575.88
365.241	573.88
365.468	578.88
365.694	567.88
365.92	591.88
366.147	559.88
366.373	524.88
366.599	543.88
366.826	554.88
367.052	545.88
367.278	544.88
367.505	560.88
367.731	555.88
367.957	568.88
368.184	564.88
368.41	610.88
368.636	616.88
368.862	592.88
369.089	546.88
369.315	564.88
369.541	572.88
369.767	554.88
369.993	583.88
370.219	579.88
370.445	567.88
370.672	561.88
370.898	575.88
371.124	573.88
371.35	573.88
371.576	566.88
371.802	578.88
372.028	561.88
372.254	553.88
372.48	569.88
372.706	564.88
372.932	587.88
373.158	584.88
373.384	583.88
373.61	584.88
373.835	576.88
374.061	584.88
374.287	610.88
374.513	610.88
374.739	623.88
374.965	617.88
375.191	608.88
375.416	572.88
375.642	576.88
375.868	582.88
376.094	568.88
376.319	575.88
376.545	565.88
376.771	566.88
376.997	569.88
377.222	592.88
377.448	564.88
377.674	569.88
377.899	565.88
378.125	544.88
378.35	553.88
378.576	555.88
378.802	547.88
379.027	569.88
379.253	569.88
379.478	568.88
379.704	567.88
379.929	567.88
380.155	551.88
380.38	569.88
380.606	576.88
380.831	550.88
381.057	589.88
381.282	560.88
381.507	576.88
381.733	592.88
381.958	592.88
382.184	596.88
382.409	591.88
382.634	597.88
382.86	592.88
383.085	598.88
383.31	636.88
383.535	603.88
383.761	633.88
383.986	628.88
384.211	645.88
384.436	661.88
384.662	644.88
384.887	640.88
385.112	660.88
385.337	667.88
385.562	655.88
385.787	679.88
386.013	695.88
386.238	691.88
386.463	662.88
386.688	687.88
386.913	664.88
387.138	641.88
387.363	655.88
387.588	650.88
387.813	656.88
388.038	663.88
388.263	651.88
388.488	647.88
388.713	647.88
388.938	670.88
389.163	656.88
389.387	663.88
389.612	653.88
389.837	656.88
390.062	653.88
390.287	656.88
390.512	637.88
390.736	666.88
390.961	644.88
391.186	692.88
391.411	713.88
391.636	703.88
391.86	715.88
392.085	721.88
392.31	717.88
392.534	712.88
392.759	685.88
392.984	705.88
393.208	672.88
393.433	711.88
393.658	680.88
393.882	673.88
394.107	699.88
394.331	709.88
394.556	694.88
394.78	677.88
395.005	721.88
395.229	665.88
395.454	742.88
395.678	754.88
395.903	739.88
396.127	703.88
396.352	715.88
396.576	701.88
396.801	694.88
397.025	690.88
397.249	713.88
397.474	730.88
397.698	771.88
397.922	774.88
398.147	761.88
398.371	809.88
398.595	763.88
398.82	827.88
399.044	878.88
399.268	1007.88
399.492	1041.88
399.717	1076.88
399.941	1048.88
400.165	989.88
400.389	955.88
400.613	890.88
400.837	857.88
401.062	831.88
401.286	829.88
401.51	817.88
401.734	817.88
401.958	837.88
402.182	889.88
402.406	941.88
402.63	886.88
402.854	895.88
403.078	902.88
403.302	892.88
403.526	917.88
403.75	899.88
403.974	906.88
404.198	897.88
404.422	925.88
404.645	928.88
404.869	906.88
405.093	951.88
405.317	921.88
405.541	946.88
405.765	936.88
405.988	963.88
406.212	1053.88
406.436	1089.88
406.66	1076.88
406.883	1006.88
407.107	1055.88
407.331	1080.88
407.555	1131.88
407.778	1075.88
408.002	1000.88
408.226	977.88
408.449	958.88
408.673	964.88
408.896	934.88
409.12	978.88
409.344	909.88
409.567	854.88
409.791	863.88
410.014	891.88
410.238	855.88
410.461	860.88
410.685	869.88
410.908	916.88
411.132	900.88
411.355	882.88
411.578	858.88
411.802	822.88
412.025	834.88
412.249	829.88
412.472	836.88
412.695	808.88
412.919	801.88
413.142	783.88
413.365	819.88
413.589	817.88
413.812	787.88
414.035	795.88
414.258	774.88
414.482	800.88
414.705	798.88
414.928	805.88
415.151	778.88
415.374	782.88
415.597	783.88
415.821	791.88
416.044	779.88
416.267	785.88
416.49	764.88
416.713	772.88
416.936	775.88
417.159	791.88
417.382	781.88
417.605	826.88
417.828	851.88
418.051	833.88
418.274	833.88
418.497	811.88
418.72	790.88
418.943	800.88
419.166	807.88
419.389	849.88
419.611	839.88
419.834	855.88
420.057	828.88
420.28	804.88
420.503	789.88
420.726	835.88
420.948	879.88
421.171	843.88
421.394	852.88
421.617	806.88
421.839	811.88
422.062	817.88
422.285	868.88
422.507	908.88
422.73	986.88
422.953	877.88
423.175	861.88
423.398	846.88
423.621	847.88
423.843	869.88
424.066	869.88
424.288	891.88
424.511	918.88
424.733	996.88
424.956	1023.88
425.178	980.88
425.401	964.88
425.623	965.88
425.846	861.88
426.068	843.88
426.291	831.88
426.513	828.88
426.735	876.88
426.958	940.88
427.18	1081.88
427.402	1276.88
427.625	1256.88
427.847	1000.88
428.069	839.88
428.292	768.88
428.514	744.88
428.736	762.88
428.958	758.88
429.181	739.88
429.403	736.88
429.625	781.88
429.847	818.88
430.069	859.88
430.292	795.88
430.514	749.88
430.736	752.88
430.958	722.88
431.18	700.88
431.402	731.88
431.624	738.88
431.846	715.88
432.068	742.88
432.29	722.88
432.512	724.88
432.734	736.88
432.956	753.88
433.178	787.88
433.4	742.88
433.622	731.88
433.844	738.88
434.066	759.88
434.287	777.88
434.509	784.88
434.731	792.88
434.953	803.88
435.175	833.88
435.397	847.88
435.618	852.88
435.84	943.88
436.062	1000.88
436.284	951.88
436.505	845.88
436.727	816.88
436.949	772.88
437.17	759.88
437.392	759.88
437.614	824.88
437.835	934.88
438.057	1028.88
438.278	1046.88
438.5	1040.88
438.721	1074.88
438.943	953.88
439.165	824.88
439.386	817.88
439.608	853.88
439.829	881.88
440.05	948.88
440.272	1000.88
440.493	833.88
440.715	811.88
440.936	790.88
441.158	787.88
441.379	821.88
441.6	859.88
441.822	901.88
442.043	990.88
442.264	1029.88
442.486	928.88
442.707	872.88
442.928	889.88
443.149	962.88
443.371	1016.88
443.592	1033.88
443.813	1096.88
444.034	1017.88
444.255	915.88
444.476	907.88
444.698	936.88
444.919	935.88
445.14	972.88
445.361	981.88
445.582	1022.88
445.803	1203.88
446.024	1195.88
446.245	1120.88
446.466	963.88
446.687	804.88
446.908	785.88
447.129	769.88
447.35	752.88
447.571	758.88
447.792	730.88
448.013	739.88
448.234	822.88
448.455	937.88
448.675	1015.88
448.896	1030.88
449.117	906.88
449.338	1016.88
449.559	1089.88
449.779	1033.88
450	824.88
450.221	752.88
450.442	726.88
450.662	763.88
450.883	813.88
451.104	822.88
451.324	729.88
451.545	669.88
451.766	667.88
451.986	654.88
452.207	679.88
452.428	680.88
452.648	678.88
452.869	709.88
453.089	746.88
453.31	718.88
453.53	691.88
453.751	689.88
453.971	726.88
454.192	766.88
454.412	677.88
454.633	655.88
454.853	625.88
455.073	688.88
455.294	742.88
455.514	784.88
455.734	677.88
455.955	611.88
456.175	614.88
456.395	599.88
456.616	590.88
456.836	612.88
457.056	605.88
457.276	612.88
457.497	617.88
457.717	622.88
457.937	638.88
458.157	654.88
458.377	695.88
458.598	779.88
458.818	985.88
459.038	1051.88
459.258	876.88
459.478	794.88
459.698	749.88
459.918	755.88
460.138	774.88
460.358	795.88
460.578	775.88
460.798	811.88
461.018	821.88
461.238	791.88
461.458	795.88
461.678	783.88
461.898	805.88
462.118	769.88
462.338	817.88
462.558	807.88
462.777	908.88
462.997	947.88
463.217	953.88
463.437	946.88
463.657	873.88
463.876	865.88
464.096	903.88
464.316	899.88
464.536	927.88
464.755	895.88
464.975	996.88
465.195	1175.88
465.414	1085.88
465.634	825.88
465.854	755.88
466.073	727.88
466.293	719.88
466.512	689.88
466.732	691.88
466.951	702.88
467.171	693.88
467.391	739.88
467.61	740.88
467.829	742.88
468.049	715.88
468.268	648.88
468.488	637.88
468.707	687.88
468.927	673.88
469.146	657.88
469.365	679.88
469.585	697.88
469.804	746.88
470.023	771.88
470.243	709.88
470.462	781.88
470.681	816.88
470.901	752.88
471.12	721.88
471.339	706.88
471.558	702.88
471.777	676.88
471.997	659.88
472.216	648.88
472.435	647.88
472.654	660.88
472.873	646.88
473.092	648.88
473.311	644.88
473.53	676.88
473.749	706.88
473.968	814.88
474.187	871.88
474.406	784.88
474.625	677.88
474.844	697.88
475.063	656.88
475.282	665.88
475.501	664.88
475.72	686.88
475.939	678.88
476.158	685.88
476.377	699.88
476.596	699.88
476.814	755.88
477.033	736.88
477.252	719.88
477.471	731.88
477.69	745.88
477.908	755.88
478.127	766.88
478.346	769.88
478.564	769.88
478.783	782.88
479.002	812.88
479.22	867.88
479.439	854.88
479.658	893.88
479.876	847.88
480.095	883.88
480.313	931.88
480.532	864.88
480.751	857.88
480.969	843.88
481.188	826.88
481.406	790.88
481.624	789.88
481.843	737.88
482.061	763.88
482.28	762.88
482.498	757.88
482.717	745.88
482.935	741.88
483.153	747.88
483.372	760.88
483.59	745.88
483.808	779.88
484.027	771.88
484.245	785.88
484.463	790.88
484.681	793.88
484.9	764.88
485.118	801.88
485.336	813.88
485.554	820.88
485.772	797.88
485.99	806.88
486.209	812.88
486.427	822.88
486.645	867.88
486.863	888.88
487.081	837.88
487.299	805.88
487.517	812.88
487.735	809.88
487.953	833.88
488.171	806.88
488.389	829.88
488.607	821.88
488.825	811.88
489.043	807.88
489.261	811.88
489.479	841.88
489.696	826.88
489.914	839.88
490.132	820.88
490.35	837.88
490.568	883.88
490.786	880.88
491.003	895.88
491.221	947.88
491.439	961.88
491.657	950.88
491.874	953.88
492.092	974.88
492.31	990.88
492.527	1003.88
492.745	937.88
492.963	949.88
493.18	951.88
493.398	959.88
493.615	990.88
493.833	981.88
494.05	995.88
494.268	979.88
494.485	975.88
494.703	958.88
494.92	968.88
495.138	978.88
495.355	983.88
495.573	991.88
495.79	957.88
496.008	955.88
496.225	959.88
496.442	951.88
496.66	988.88
496.877	959.88
497.094	1003.88
497.312	1005.88
497.529	1019.88
497.746	1048.88
497.963	1073.88
498.181	1109.88
498.398	1110.88
498.615	1205.88
498.832	1229.88
499.049	1288.88
499.267	1343.88
499.484	1439.88
499.701	1525.88
499.918	1646.88
500.135	1793.88
500.352	1879.88
500.569	1928.88
500.786	1881.88
501.003	1757.88
501.22	1662.88
501.437	1517.88
501.654	1441.88
