Data from TestCu_HRD10591_00009.txt Node
Date: Thu Oct 05 14:04:50 EDT 2023
User: Yrep
Spectrometer: HR+D1059
Trigger mode: 1
Integration Time (sec): 1.000000E-1
Scans to average: 1
Electric dark correction enabled: true
Nonlinearity correction enabled: false
Boxcar width: 0
XAxis mode: Wavelengths
Number of Pixels in Spectrum: 2048
>>>>>Begin Spectral Data<<<<<
223.165	-12.56
223.4	-12.56
223.635	-12.56
223.869	-13.56
224.104	-18.56
224.338	1.44
224.573	-18.56
224.808	-18.56
225.042	-0.56
225.277	10.44
225.511	-9.56
225.746	7.44
225.98	4.44
226.215	10.44
226.449	10.44
226.683	15.44
226.918	10.44
227.152	21.44
227.387	38.44
227.621	38.44
227.856	49.44
228.09	55.44
228.324	47.44
228.559	59.44
228.793	60.44
229.027	105.44
229.262	131.44
229.496	134.44
229.73	152.44
229.964	146.44
230.199	121.44
230.433	113.44
230.667	119.44
230.901	113.44
231.136	107.44
231.37	104.44
231.604	103.44
231.838	109.44
232.072	128.44
232.306	91.44
232.541	117.44
232.775	101.44
233.009	116.44
233.243	122.44
233.477	111.44
233.711	108.44
233.945	123.44
234.179	115.44
234.413	114.44
234.647	115.44
234.881	116.44
235.115	111.44
235.349	110.44
235.583	115.44
235.817	135.44
236.051	138.44
236.285	135.44
236.519	121.44
236.753	142.44
236.987	188.44
237.221	208.44
237.455	229.44
237.689	147.44
237.922	130.44
238.156	118.44
238.39	123.44
238.624	122.44
238.858	128.44
239.091	118.44
239.325	126.44
239.559	143.44
239.793	142.44
240.027	146.44
240.26	180.44
240.494	165.44
240.728	172.44
240.961	153.44
241.195	138.44
241.429	122.44
241.662	123.44
241.896	139.44
242.13	132.44
242.363	134.44
242.597	132.44
242.83	138.44
243.064	121.44
243.298	133.44
243.531	135.44
243.765	150.44
243.998	136.44
244.232	135.44
244.465	143.44
244.699	144.44
244.932	134.44
245.166	139.44
245.399	152.44
245.633	138.44
245.866	144.44
246.099	154.44
246.333	145.44
246.566	146.44
246.8	154.44
247.033	148.44
247.266	142.44
247.5	155.44
247.733	141.44
247.966	167.44
248.2	171.44
248.433	160.44
248.666	180.44
248.899	183.44
249.133	195.44
249.366	203.44
249.599	180.44
249.832	171.44
250.066	166.44
250.299	170.44
250.532	206.44
250.765	206.44
250.998	214.44
251.231	193.44
251.465	189.44
251.698	181.44
251.931	181.44
252.164	173.44
252.397	199.44
252.63	182.44
252.863	193.44
253.096	212.44
253.329	213.44
253.562	193.44
253.795	192.44
254.028	199.44
254.261	211.44
254.494	233.44
254.727	256.44
254.96	231.44
255.193	212.44
255.426	191.44
255.659	194.44
255.892	201.44
256.124	182.44
256.357	191.44
256.59	192.44
256.823	181.44
257.056	184.44
257.289	182.44
257.521	193.44
257.754	204.44
257.987	201.44
258.22	205.44
258.452	201.44
258.685	184.44
258.918	200.44
259.151	224.44
259.383	228.44
259.616	219.44
259.849	227.44
260.081	242.44
260.314	254.44
260.547	224.44
260.779	209.44
261.012	208.44
261.244	204.44
261.477	209.44
261.71	244.44
261.942	256.44
262.175	262.44
262.407	217.44
262.64	215.44
262.872	223.44
263.105	223.44
263.337	213.44
263.57	196.44
263.802	203.44
264.035	211.44
264.267	214.44
264.499	218.44
264.732	202.44
264.964	201.44
265.197	215.44
265.429	235.44
265.661	218.44
265.894	218.44
266.126	223.44
266.358	222.44
266.591	232.44
266.823	241.44
267.055	228.44
267.287	229.44
267.52	224.44
267.752	219.44
267.984	234.44
268.216	225.44
268.448	247.44
268.681	248.44
268.913	256.44
269.145	292.44
269.377	267.44
269.609	257.44
269.841	276.44
270.073	291.44
270.306	303.44
270.538	323.44
270.77	290.44
271.002	281.44
271.234	291.44
271.466	293.44
271.698	309.44
271.93	307.44
272.162	325.44
272.394	300.44
272.626	289.44
272.858	253.44
273.09	263.44
273.322	262.44
273.553	261.44
273.785	270.44
274.017	266.44
274.249	258.44
274.481	274.44
274.713	237.44
274.945	269.44
275.176	274.44
275.408	256.44
275.64	277.44
275.872	258.44
276.104	271.44
276.335	309.44
276.567	312.44
276.799	332.44
277.031	341.44
277.262	327.44
277.494	313.44
277.726	288.44
277.957	283.44
278.189	274.44
278.421	258.44
278.652	268.44
278.884	269.44
279.115	274.44
279.347	283.44
279.579	273.44
279.81	274.44
280.042	268.44
280.273	297.44
280.505	271.44
280.736	273.44
280.968	278.44
281.199	299.44
281.431	278.44
281.662	255.44
281.894	278.44
282.125	319.44
282.356	348.44
282.588	369.44
282.819	324.44
283.051	258.44
283.282	268.44
283.513	290.44
283.745	291.44
283.976	307.44
284.207	308.44
284.439	279.44
284.67	297.44
284.901	323.44
285.132	303.44
285.364	295.44
285.595	304.44
285.826	306.44
286.057	308.44
286.288	297.44
286.52	310.44
286.751	321.44
286.982	303.44
287.213	277.44
287.444	322.44
287.675	312.44
287.906	326.44
288.138	357.44
288.369	333.44
288.6	349.44
288.831	310.44
289.062	318.44
289.293	315.44
289.524	332.44
289.755	333.44
289.986	296.44
290.217	307.44
290.448	329.44
290.679	326.44
290.91	322.44
291.141	312.44
291.371	330.44
291.602	326.44
291.833	311.44
292.064	329.44
292.295	327.44
292.526	336.44
292.757	348.44
292.987	310.44
293.218	316.44
293.449	341.44
293.68	305.44
293.91	313.44
294.141	339.44
294.372	304.44
294.603	320.44
294.833	334.44
295.064	349.44
295.295	333.44
295.525	339.44
295.756	357.44
295.987	383.44
296.217	406.44
296.448	387.44
296.679	339.44
296.909	354.44
297.14	352.44
297.37	335.44
297.601	362.44
297.831	354.44
298.062	359.44
298.292	371.44
298.523	380.44
298.753	364.44
298.984	375.44
299.214	365.44
299.445	363.44
299.675	378.44
299.905	365.44
300.136	378.44
300.366	386.44
300.597	376.44
300.827	396.44
301.057	414.44
301.288	399.44
301.518	385.44
301.748	406.44
301.979	404.44
302.209	400.44
302.439	369.44
302.669	380.44
302.9	387.44
303.13	391.44
303.36	406.44
303.59	413.44
303.82	417.44
304.051	387.44
304.281	397.44
304.511	393.44
304.741	387.44
304.971	360.44
305.201	394.44
305.431	392.44
305.661	395.44
305.891	382.44
306.121	403.44
306.352	399.44
306.582	397.44
306.812	406.44
307.042	405.44
307.272	397.44
307.502	377.44
307.731	403.44
307.961	386.44
308.191	396.44
308.421	412.44
308.651	410.44
308.881	399.44
309.111	402.44
309.341	427.44
309.571	458.44
309.8	455.44
310.03	454.44
310.26	458.44
310.49	484.44
310.72	504.44
310.949	502.44
311.179	489.44
311.409	453.44
311.639	466.44
311.868	447.44
312.098	452.44
312.328	499.44
312.557	523.44
312.787	541.44
313.017	509.44
313.246	474.44
313.476	453.44
313.706	473.44
313.935	491.44
314.165	497.44
314.394	506.44
314.624	513.44
314.853	487.44
315.083	463.44
315.312	441.44
315.542	465.44
315.771	434.44
316.001	447.44
316.23	458.44
316.46	460.44
316.689	483.44
316.919	490.44
317.148	497.44
317.377	489.44
317.607	487.44
317.836	471.44
318.065	460.44
318.295	439.44
318.524	438.44
318.753	452.44
318.983	447.44
319.212	459.44
319.441	472.44
319.67	486.44
319.9	469.44
320.129	465.44
320.358	458.44
320.587	494.44
320.816	491.44
321.046	507.44
321.275	508.44
321.504	506.44
321.733	515.44
321.962	518.44
322.191	553.44
322.42	561.44
322.649	610.44
322.878	611.44
323.108	638.44
323.337	664.44
323.566	725.44
323.795	828.44
324.024	1107.44
324.253	1895.44
324.482	3177.44
324.71	4766.44
324.939	4229.44
325.168	1863.44
325.397	921.44
325.626	710.44
325.855	665.44
326.084	693.44
326.313	691.44
326.542	797.44
326.77	1077.44
326.999	1783.44
327.228	2821.44
327.457	3489.44
327.686	2393.44
327.914	1105.44
328.143	846.44
328.372	788.44
328.6	747.44
328.829	781.44
329.058	815.44
329.287	775.44
329.515	667.44
329.744	636.44
329.972	631.44
330.201	679.44
330.43	743.44
330.658	879.44
330.887	905.44
331.115	759.44
331.344	658.44
331.572	657.44
331.801	693.44
332.03	659.44
332.258	623.44
332.486	587.44
332.715	605.44
332.943	630.44
333.172	659.44
333.4	645.44
333.629	658.44
333.857	662.44
334.085	650.44
334.314	627.44
334.542	639.44
334.771	640.44
334.999	622.44
335.227	623.44
335.455	630.44
335.684	578.44
335.912	600.44
336.14	593.44
336.369	638.44
336.597	656.44
336.825	628.44
337.053	602.44
337.281	589.44
337.51	594.44
337.738	607.44
337.966	589.44
338.194	609.44
338.422	600.44
338.65	601.44
338.878	592.44
339.106	558.44
339.334	585.44
339.562	563.44
339.79	558.44
340.018	569.44
340.246	594.44
340.474	563.44
340.702	588.44
340.93	557.44
341.158	572.44
341.386	563.44
341.614	583.44
341.842	583.44
342.07	564.44
342.298	579.44
342.526	550.44
342.754	549.44
342.981	554.44
343.209	553.44
343.437	594.44
343.665	626.44
343.893	638.44
344.12	635.44
344.348	586.44
344.576	590.44
344.804	619.44
345.031	638.44
345.259	602.44
345.487	598.44
345.714	577.44
345.942	556.44
346.17	562.44
346.397	549.44
346.625	536.44
346.853	545.44
347.08	548.44
347.308	579.44
347.535	600.44
347.763	587.44
347.99	575.44
348.218	622.44
348.445	614.44
348.673	565.44
348.9	557.44
349.128	555.44
349.355	546.44
349.583	549.44
349.81	541.44
350.037	513.44
350.265	522.44
350.492	550.44
350.72	558.44
350.947	579.44
351.174	577.44
351.402	595.44
351.629	565.44
351.856	618.44
352.083	620.44
352.311	631.44
352.538	620.44
352.765	590.44
352.992	573.44
353.22	588.44
353.447	560.44
353.674	536.44
353.901	528.44
354.128	519.44
354.355	512.44
354.583	532.44
354.81	527.44
355.037	524.44
355.264	518.44
355.491	503.44
355.718	522.44
355.945	516.44
356.172	532.44
356.399	515.44
356.626	535.44
356.853	520.44
357.08	527.44
357.307	503.44
357.534	522.44
357.761	519.44
357.988	531.44
358.215	519.44
358.441	509.44
358.668	522.44
358.895	533.44
359.122	566.44
359.349	594.44
359.576	625.44
359.802	723.44
360.029	717.44
360.256	670.44
360.483	623.44
360.709	577.44
360.936	551.44
361.163	597.44
361.39	604.44
361.616	589.44
361.843	578.44
362.07	611.44
362.296	597.44
362.523	577.44
362.749	578.44
362.976	544.44
363.203	563.44
363.429	529.44
363.656	557.44
363.882	551.44
364.109	541.44
364.335	527.44
364.562	556.44
364.788	547.44
365.015	551.44
365.241	584.44
365.468	585.44
365.694	587.44
365.92	580.44
366.147	564.44
366.373	545.44
366.599	553.44
366.826	548.44
367.052	539.44
367.278	571.44
367.505	570.44
367.731	567.44
367.957	565.44
368.184	565.44
368.41	590.44
368.636	592.44
368.862	577.44
369.089	570.44
369.315	544.44
369.541	554.44
369.767	541.44
369.993	574.44
370.219	543.44
370.445	544.44
370.672	569.44
370.898	557.44
371.124	562.44
371.35	575.44
371.576	555.44
371.802	561.44
372.028	577.44
372.254	578.44
372.48	554.44
372.706	549.44
372.932	594.44
373.158	569.44
373.384	546.44
373.61	554.44
373.835	578.44
374.061	573.44
374.287	585.44
374.513	586.44
374.739	612.44
374.965	611.44
375.191	623.44
375.416	596.44
375.642	575.44
375.868	590.44
376.094	569.44
376.319	585.44
376.545	554.44
376.771	566.44
376.997	573.44
377.222	579.44
377.448	566.44
377.674	559.44
377.899	550.44
378.125	569.44
378.35	560.44
378.576	550.44
378.802	560.44
379.027	557.44
379.253	557.44
379.478	562.44
379.704	544.44
379.929	594.44
380.155	594.44
380.38	581.44
380.606	578.44
380.831	565.44
381.057	595.44
381.282	566.44
381.507	552.44
381.733	562.44
381.958	563.44
382.184	581.44
382.409	585.44
382.634	604.44
382.86	589.44
383.085	602.44
383.31	593.44
383.535	612.44
383.761	634.44
383.986	627.44
384.211	646.44
384.436	637.44
384.662	617.44
384.887	646.44
385.112	646.44
385.337	672.44
385.562	668.44
385.787	665.44
386.013	697.44
386.238	699.44
386.463	688.44
386.688	650.44
386.913	633.44
387.138	648.44
387.363	643.44
387.588	645.44
387.813	649.44
388.038	656.44
388.263	651.44
388.488	655.44
388.713	659.44
388.938	648.44
389.163	665.44
389.387	669.44
389.612	619.44
389.837	645.44
390.062	644.44
390.287	647.44
390.512	638.44
390.736	633.44
390.961	666.44
391.186	689.44
391.411	704.44
391.636	691.44
391.86	727.44
392.085	705.44
392.31	715.44
392.534	713.44
392.759	694.44
392.984	670.44
393.208	695.44
393.433	699.44
393.658	694.44
393.882	679.44
394.107	691.44
394.331	660.44
394.556	698.44
394.78	705.44
395.005	716.44
395.229	708.44
395.454	730.44
395.678	745.44
395.903	722.44
396.127	732.44
396.352	704.44
396.576	703.44
396.801	687.44
397.025	698.44
397.249	724.44
397.474	752.44
397.698	749.44
397.922	767.44
398.147	766.44
398.371	781.44
398.595	791.44
398.82	845.44
399.044	899.44
399.268	980.44
399.492	1073.44
399.717	1089.44
399.941	1050.44
400.165	995.44
400.389	943.44
400.613	879.44
400.837	828.44
401.062	826.44
401.286	849.44
401.51	792.44
401.734	813.44
401.958	825.44
402.182	877.44
402.406	933.44
402.63	856.44
402.854	887.44
403.078	880.44
403.302	876.44
403.526	883.44
403.75	899.44
403.974	876.44
404.198	897.44
404.422	895.44
404.645	873.44
404.869	897.44
405.093	910.44
405.317	909.44
405.541	912.44
405.765	922.44
405.988	933.44
406.212	991.44
406.436	1057.44
406.66	1031.44
406.883	985.44
407.107	1034.44
407.331	1092.44
407.555	1131.44
407.778	1066.44
408.002	982.44
408.226	942.44
408.449	934.44
408.673	946.44
408.896	922.44
409.12	929.44
409.344	891.44
409.567	858.44
409.791	853.44
410.014	865.44
410.238	853.44
410.461	869.44
410.685	848.44
410.908	884.44
411.132	874.44
411.355	863.44
411.578	854.44
411.802	837.44
412.025	820.44
412.249	863.44
412.472	843.44
412.695	799.44
412.919	790.44
413.142	790.44
413.365	790.44
413.589	782.44
413.812	789.44
414.035	790.44
414.258	799.44
414.482	786.44
414.705	787.44
414.928	778.44
415.151	774.44
415.374	782.44
415.597	780.44
415.821	783.44
416.044	769.44
416.267	777.44
416.49	785.44
416.713	776.44
416.936	778.44
417.159	760.44
417.382	788.44
417.605	763.44
417.828	810.44
418.051	810.44
418.274	820.44
418.497	803.44
418.72	794.44
418.943	780.44
419.166	834.44
419.389	853.44
419.611	842.44
419.834	831.44
420.057	839.44
420.28	775.44
420.503	781.44
420.726	801.44
420.948	857.44
421.171	854.44
421.394	822.44
421.617	805.44
421.839	809.44
422.062	819.44
422.285	844.44
422.507	929.44
422.73	943.44
422.953	843.44
423.175	827.44
423.398	866.44
423.621	869.44
423.843	901.44
424.066	891.44
424.288	845.44
424.511	920.44
424.733	974.44
424.956	980.44
425.178	971.44
425.401	947.44
425.623	908.44
425.846	819.44
426.068	811.44
426.291	799.44
426.513	820.44
426.735	831.44
426.958	951.44
427.18	1058.44
427.402	1243.44
427.625	1281.44
427.847	1005.44
428.069	822.44
428.292	795.44
428.514	764.44
428.736	726.44
428.958	751.44
429.181	741.44
429.403	728.44
429.625	777.44
429.847	810.44
430.069	867.44
430.292	774.44
430.514	749.44
430.736	741.44
430.958	714.44
431.18	717.44
431.402	703.44
431.624	723.44
431.846	705.44
432.068	730.44
432.29	715.44
432.512	742.44
432.734	722.44
432.956	737.44
433.178	764.44
433.4	747.44
433.622	736.44
433.844	712.44
434.066	725.44
434.287	741.44
434.509	747.44
434.731	775.44
434.953	789.44
435.175	822.44
435.397	821.44
435.618	824.44
435.84	897.44
436.062	995.44
436.284	953.44
436.505	836.44
436.727	806.44
436.949	752.44
437.17	728.44
437.392	739.44
437.614	786.44
437.835	928.44
438.057	1005.44
438.278	1057.44
438.5	1044.44
438.721	1075.44
438.943	918.44
439.165	831.44
439.386	803.44
439.608	819.44
439.829	850.44
440.05	926.44
440.272	953.44
440.493	851.44
440.715	816.44
440.936	784.44
441.158	777.44
441.379	808.44
441.6	859.44
441.822	878.44
442.043	967.44
442.264	1031.44
442.486	950.44
442.707	863.44
442.928	874.44
443.149	932.44
443.371	974.44
443.592	1017.44
443.813	1093.44
444.034	1030.44
444.255	931.44
444.476	902.44
444.698	883.44
444.919	899.44
445.14	951.44
445.361	962.44
445.582	1041.44
445.803	1154.44
446.024	1194.44
446.245	1121.44
446.466	939.44
446.687	818.44
446.908	781.44
447.129	767.44
447.35	737.44
447.571	747.44
447.792	743.44
448.013	753.44
448.234	791.44
448.455	930.44
448.675	1032.44
448.896	1009.44
449.117	871.44
449.338	951.44
449.559	1077.44
449.779	1029.44
450	798.44
450.221	723.44
450.442	725.44
450.662	739.44
450.883	806.44
451.104	825.44
451.324	741.44
451.545	716.44
451.766	708.44
451.986	664.44
452.207	661.44
452.428	658.44
452.648	685.44
452.869	705.44
453.089	714.44
453.31	710.44
453.53	685.44
453.751	657.44
453.971	718.44
454.192	744.44
454.412	649.44
454.633	624.44
454.853	646.44
455.073	682.44
455.294	712.44
455.514	768.44
455.734	691.44
455.955	641.44
456.175	614.44
456.395	601.44
456.616	595.44
456.836	590.44
457.056	603.44
457.276	620.44
457.497	637.44
457.717	638.44
457.937	630.44
458.157	678.44
458.377	680.44
458.598	782.44
458.818	971.44
459.038	984.44
459.258	863.44
459.478	771.44
459.698	728.44
459.918	733.44
460.138	759.44
460.358	773.44
460.578	790.44
460.798	819.44
461.018	791.44
461.238	749.44
461.458	794.44
461.678	787.44
461.898	798.44
462.118	787.44
462.338	833.44
462.558	848.44
462.777	865.44
462.997	929.44
463.217	944.44
463.437	922.44
463.657	858.44
463.876	864.44
464.096	872.44
464.316	906.44
464.536	885.44
464.755	885.44
464.975	940.44
465.195	1136.44
465.414	1050.44
465.634	831.44
465.854	756.44
466.073	733.44
466.293	708.44
466.512	683.44
466.732	659.44
466.951	678.44
467.171	677.44
467.391	713.44
467.61	739.44
467.829	727.44
468.049	674.44
468.268	656.44
468.488	646.44
468.707	641.44
468.927	663.44
469.146	652.44
469.365	684.44
469.585	684.44
469.804	714.44
470.023	757.44
470.243	730.44
470.462	792.44
470.681	771.44
470.901	749.44
471.12	705.44
471.339	691.44
471.558	673.44
471.777	666.44
471.997	658.44
472.216	649.44
472.435	652.44
472.654	627.44
472.873	639.44
473.092	644.44
473.311	666.44
473.53	662.44
473.749	715.44
473.968	795.44
474.187	904.44
474.406	787.44
474.625	673.44
474.844	666.44
475.063	664.44
475.282	662.44
475.501	665.44
475.72	663.44
475.939	664.44
476.158	689.44
476.377	671.44
476.596	704.44
476.814	720.44
477.033	734.44
477.252	712.44
477.471	722.44
477.69	752.44
477.908	761.44
478.127	783.44
478.346	768.44
478.564	784.44
478.783	786.44
479.002	812.44
479.22	837.44
479.439	842.44
479.658	858.44
479.876	840.44
480.095	878.44
480.313	890.44
480.532	874.44
480.751	839.44
480.969	814.44
481.188	789.44
481.406	759.44
481.624	773.44
481.843	755.44
482.061	758.44
482.28	767.44
482.498	762.44
482.717	757.44
482.935	761.44
483.153	758.44
483.372	769.44
483.59	755.44
483.808	752.44
484.027	751.44
484.245	766.44
484.463	770.44
484.681	814.44
484.9	799.44
485.118	793.44
485.336	785.44
485.554	815.44
485.772	813.44
485.99	814.44
486.209	813.44
486.427	801.44
486.645	859.44
486.863	876.44
487.081	839.44
487.299	815.44
487.517	822.44
487.735	817.44
487.953	803.44
488.171	827.44
488.389	808.44
488.607	824.44
488.825	791.44
489.043	819.44
489.261	797.44
489.479	825.44
489.696	805.44
489.914	817.44
490.132	859.44
490.35	842.44
490.568	837.44
490.786	866.44
491.003	929.44
491.221	914.44
491.439	951.44
491.657	916.44
491.874	946.44
492.092	973.44
492.31	964.44
492.527	961.44
492.745	943.44
492.963	961.44
493.18	947.44
493.398	1002.44
493.615	997.44
493.833	999.44
494.05	980.44
494.268	962.44
494.485	953.44
494.703	959.44
494.92	968.44
495.138	944.44
495.355	954.44
495.573	951.44
495.79	972.44
496.008	957.44
496.225	946.44
496.442	951.44
496.66	944.44
496.877	948.44
497.094	965.44
497.312	995.44
497.529	1010.44
497.746	1038.44
497.963	1046.44
498.181	1097.44
498.398	1115.44
498.615	1154.44
498.832	1233.44
499.049	1277.44
499.267	1350.44
499.484	1446.44
499.701	1505.44
499.918	1598.44
500.135	1766.44
500.352	1864.44
500.569	1917.44
500.786	1861.44
501.003	1742.44
501.22	1604.44
501.437	1514.44
501.654	1475.44
501.871	1398.44
