Data from TestCu_HRD10591_00016.txt Node
Date: Thu Oct 05 14:04:57 EDT 2023
User: Yrep
Spectrometer: HR+D1059
Trigger mode: 1
Integration Time (sec): 1.000000E-1
Scans to average: 1
Electric dark correction enabled: true
Nonlinearity correction enabled: false
Boxcar width: 0
XAxis mode: Wavelengths
Number of Pixels in Spectrum: 2048
>>>>>Begin Spectral Data<<<<<
223.165	-20.62
223.4	-20.62
223.635	-20.62
223.869	-13.62
224.104	-14.62
224.338	-8.62
224.573	-7.62
224.808	-21.62
225.042	-4.62
225.277	-5.62
225.511	8.38
225.746	1.38
225.98	4.38
226.215	18.38
226.449	7.38
226.683	19.38
226.918	10.38
227.152	27.38
227.387	33.38
227.621	39.38
227.856	54.38
228.09	49.38
228.324	43.38
228.559	61.38
228.793	70.38
229.027	115.38
229.262	115.38
229.496	127.38
229.73	176.38
229.964	166.38
230.199	110.38
230.433	96.38
230.667	107.38
230.901	122.38
231.136	94.38
231.37	96.38
231.604	120.38
231.838	118.38
232.072	111.38
232.306	117.38
232.541	113.38
232.775	119.38
233.009	121.38
233.243	99.38
233.477	105.38
233.711	123.38
233.945	131.38
234.179	104.38
234.413	113.38
234.647	117.38
234.881	116.38
235.115	118.38
235.349	122.38
235.583	130.38
235.817	126.38
236.051	137.38
236.285	124.38
236.519	119.38
236.753	142.38
236.987	187.38
237.221	207.38
237.455	234.38
237.689	154.38
237.922	140.38
238.156	118.38
238.39	131.38
238.624	125.38
238.858	134.38
239.091	126.38
239.325	140.38
239.559	141.38
239.793	141.38
240.027	141.38
240.26	166.38
240.494	164.38
240.728	154.38
240.961	151.38
241.195	141.38
241.429	144.38
241.662	138.38
241.896	120.38
242.13	132.38
242.363	135.38
242.597	126.38
242.83	134.38
243.064	136.38
243.298	135.38
243.531	139.38
243.765	131.38
243.998	119.38
244.232	139.38
244.465	163.38
244.699	156.38
244.932	140.38
245.166	143.38
245.399	122.38
245.633	150.38
245.866	135.38
246.099	135.38
246.333	138.38
246.566	139.38
246.8	157.38
247.033	167.38
247.266	143.38
247.5	145.38
247.733	169.38
247.966	144.38
248.2	156.38
248.433	176.38
248.666	183.38
248.899	176.38
249.133	202.38
249.366	205.38
249.599	184.38
249.832	175.38
250.066	161.38
250.299	161.38
250.532	184.38
250.765	212.38
250.998	205.38
251.231	213.38
251.465	191.38
251.698	179.38
251.931	168.38
252.164	181.38
252.397	207.38
252.63	208.38
252.863	206.38
253.096	210.38
253.329	220.38
253.562	205.38
253.795	194.38
254.028	208.38
254.261	197.38
254.494	251.38
254.727	260.38
254.96	274.38
255.193	227.38
255.426	207.38
255.659	188.38
255.892	188.38
256.124	187.38
256.357	191.38
256.59	190.38
256.823	188.38
257.056	203.38
257.289	200.38
257.521	195.38
257.754	196.38
257.987	203.38
258.22	194.38
258.452	204.38
258.685	212.38
258.918	199.38
259.151	214.38
259.383	230.38
259.616	216.38
259.849	241.38
260.081	248.38
260.314	258.38
260.547	241.38
260.779	212.38
261.012	206.38
261.244	206.38
261.477	219.38
261.71	236.38
261.942	236.38
262.175	263.38
262.407	237.38
262.64	202.38
262.872	228.38
263.105	204.38
263.337	212.38
263.57	224.38
263.802	214.38
264.035	209.38
264.267	210.38
264.499	208.38
264.732	208.38
264.964	219.38
265.197	220.38
265.429	209.38
265.661	222.38
265.894	220.38
266.126	222.38
266.358	220.38
266.591	239.38
266.823	231.38
267.055	223.38
267.287	235.38
267.52	231.38
267.752	215.38
267.984	219.38
268.216	228.38
268.448	231.38
268.681	251.38
268.913	272.38
269.145	278.38
269.377	286.38
269.609	269.38
269.841	272.38
270.073	292.38
270.306	331.38
270.538	311.38
270.77	291.38
271.002	282.38
271.234	279.38
271.466	322.38
271.698	318.38
271.93	316.38
272.162	316.38
272.394	293.38
272.626	290.38
272.858	278.38
273.09	277.38
273.322	268.38
273.553	266.38
273.785	263.38
274.017	267.38
274.249	256.38
274.481	254.38
274.713	281.38
274.945	258.38
275.176	258.38
275.408	258.38
275.64	272.38
275.872	273.38
276.104	268.38
276.335	299.38
276.567	302.38
276.799	354.38
277.031	358.38
277.262	348.38
277.494	292.38
277.726	280.38
277.957	271.38
278.189	277.38
278.421	264.38
278.652	305.38
278.884	277.38
279.115	271.38
279.347	287.38
279.579	271.38
279.81	276.38
280.042	287.38
280.273	272.38
280.505	278.38
280.736	278.38
280.968	274.38
281.199	297.38
281.431	286.38
281.662	299.38
281.894	308.38
282.125	318.38
282.356	338.38
282.588	366.38
282.819	326.38
283.051	302.38
283.282	288.38
283.513	319.38
283.745	321.38
283.976	293.38
284.207	311.38
284.439	316.38
284.67	292.38
284.901	310.38
285.132	295.38
285.364	295.38
285.595	303.38
285.826	309.38
286.057	319.38
286.288	320.38
286.52	316.38
286.751	319.38
286.982	309.38
287.213	310.38
287.444	326.38
287.675	332.38
287.906	330.38
288.138	374.38
288.369	338.38
288.6	335.38
288.831	324.38
289.062	325.38
289.293	330.38
289.524	312.38
289.755	326.38
289.986	313.38
290.217	306.38
290.448	325.38
290.679	314.38
290.91	332.38
291.141	321.38
291.371	336.38
291.602	318.38
291.833	324.38
292.064	320.38
292.295	338.38
292.526	339.38
292.757	321.38
292.987	334.38
293.218	335.38
293.449	332.38
293.68	327.38
293.91	330.38
294.141	330.38
294.372	330.38
294.603	348.38
294.833	339.38
295.064	352.38
295.295	375.38
295.525	355.38
295.756	366.38
295.987	388.38
296.217	430.38
296.448	420.38
296.679	352.38
296.909	358.38
297.14	336.38
297.37	351.38
297.601	357.38
297.831	352.38
298.062	372.38
298.292	359.38
298.523	368.38
298.753	371.38
298.984	349.38
299.214	362.38
299.445	388.38
299.675	398.38
299.905	370.38
300.136	378.38
300.366	381.38
300.597	363.38
300.827	397.38
301.057	406.38
301.288	405.38
301.518	390.38
301.748	412.38
301.979	408.38
302.209	395.38
302.439	389.38
302.669	396.38
302.9	390.38
303.13	394.38
303.36	405.38
303.59	399.38
303.82	426.38
304.051	418.38
304.281	397.38
304.511	390.38
304.741	396.38
304.971	387.38
305.201	410.38
305.431	397.38
305.661	403.38
305.891	395.38
306.121	394.38
306.352	406.38
306.582	397.38
306.812	400.38
307.042	410.38
307.272	387.38
307.502	394.38
307.731	388.38
307.961	413.38
308.191	416.38
308.421	408.38
308.651	428.38
308.881	403.38
309.111	418.38
309.341	427.38
309.571	442.38
309.8	458.38
310.03	464.38
310.26	484.38
310.49	480.38
310.72	525.38
310.949	530.38
311.179	489.38
311.409	461.38
311.639	462.38
311.868	469.38
312.098	476.38
312.328	510.38
312.557	541.38
312.787	557.38
313.017	500.38
313.246	478.38
313.476	468.38
313.706	507.38
313.935	512.38
314.165	524.38
314.394	506.38
314.624	542.38
314.853	497.38
315.083	503.38
315.312	484.38
315.542	458.38
315.771	468.38
316.001	463.38
316.23	466.38
316.46	464.38
316.689	481.38
316.919	487.38
317.148	493.38
317.377	492.38
317.607	491.38
317.836	451.38
318.065	475.38
318.295	459.38
318.524	462.38
318.753	456.38
318.983	471.38
319.212	486.38
319.441	495.38
319.67	496.38
319.9	475.38
320.129	490.38
320.358	485.38
320.587	469.38
320.816	527.38
321.046	519.38
321.275	503.38
321.504	510.38
321.733	508.38
321.962	532.38
322.191	554.38
322.42	586.38
322.649	605.38
322.878	639.38
323.108	648.38
323.337	709.38
323.566	754.38
323.795	870.38
324.024	1165.38
324.253	2004.38
324.482	3324.38
324.71	4986.38
324.939	4370.38
325.168	1929.38
325.397	949.38
325.626	722.38
325.855	675.38
326.084	672.38
326.313	686.38
326.542	804.38
326.77	1090.38
326.999	1846.38
327.228	2916.38
327.457	3691.38
327.686	2450.38
327.914	1129.38
328.143	875.38
328.372	802.38
328.6	797.38
328.829	808.38
329.058	876.38
329.287	800.38
329.515	671.38
329.744	642.38
329.972	613.38
330.201	686.38
330.43	796.38
330.658	906.38
330.887	931.38
331.115	774.38
331.344	667.38
331.572	673.38
331.801	691.38
332.03	682.38
332.258	644.38
332.486	653.38
332.715	632.38
332.943	652.38
333.172	660.38
333.4	674.38
333.629	682.38
333.857	674.38
334.085	650.38
334.314	641.38
334.542	648.38
334.771	652.38
334.999	667.38
335.227	637.38
335.455	643.38
335.684	626.38
335.912	637.38
336.14	630.38
336.369	631.38
336.597	659.38
336.825	621.38
337.053	606.38
337.281	622.38
337.51	583.38
337.738	621.38
337.966	650.38
338.194	617.38
338.422	631.38
338.65	579.38
338.878	583.38
339.106	568.38
339.334	586.38
339.562	561.38
339.79	572.38
340.018	565.38
340.246	593.38
340.474	587.38
340.702	603.38
340.93	577.38
341.158	582.38
341.386	600.38
341.614	582.38
341.842	596.38
342.07	574.38
342.298	577.38
342.526	564.38
342.754	554.38
342.981	544.38
343.209	564.38
343.437	618.38
343.665	628.38
343.893	626.38
344.12	630.38
344.348	632.38
344.576	646.38
344.804	639.38
345.031	642.38
345.259	623.38
345.487	594.38
345.714	600.38
345.942	578.38
346.17	566.38
346.397	584.38
346.625	554.38
346.853	562.38
347.08	580.38
347.308	596.38
347.535	603.38
347.763	604.38
347.99	603.38
348.218	620.38
348.445	619.38
348.673	581.38
348.9	562.38
349.128	557.38
349.355	560.38
349.583	569.38
349.81	543.38
350.037	546.38
350.265	533.38
350.492	552.38
350.72	578.38
350.947	580.38
351.174	621.38
351.402	614.38
351.629	599.38
351.856	607.38
352.083	630.38
352.311	609.38
352.538	630.38
352.765	613.38
352.992	584.38
353.22	594.38
353.447	563.38
353.674	538.38
353.901	524.38
354.128	536.38
354.355	538.38
354.583	558.38
354.81	549.38
355.037	522.38
355.264	526.38
355.491	518.38
355.718	525.38
355.945	524.38
356.172	528.38
356.399	526.38
356.626	540.38
356.853	524.38
357.08	497.38
357.307	529.38
357.534	546.38
357.761	566.38
357.988	534.38
358.215	523.38
358.441	521.38
358.668	544.38
358.895	558.38
359.122	577.38
359.349	589.38
359.576	668.38
359.802	743.38
360.029	766.38
360.256	699.38
360.483	643.38
360.709	594.38
360.936	570.38
361.163	589.38
361.39	628.38
361.616	611.38
361.843	625.38
362.07	605.38
362.296	626.38
362.523	588.38
362.749	609.38
362.976	574.38
363.203	556.38
363.429	577.38
363.656	594.38
363.882	582.38
364.109	560.38
364.335	572.38
364.562	565.38
364.788	560.38
365.015	570.38
365.241	564.38
365.468	609.38
365.694	586.38
365.92	582.38
366.147	579.38
366.373	558.38
366.599	564.38
366.826	554.38
367.052	552.38
367.278	553.38
367.505	556.38
367.731	559.38
367.957	580.38
368.184	562.38
368.41	592.38
368.636	617.38
368.862	616.38
369.089	587.38
369.315	571.38
369.541	558.38
369.767	563.38
369.993	597.38
370.219	564.38
370.445	563.38
370.672	559.38
370.898	554.38
371.124	571.38
371.35	591.38
371.576	564.38
371.802	550.38
372.028	576.38
372.254	579.38
372.48	596.38
372.706	579.38
372.932	582.38
373.158	570.38
373.384	594.38
373.61	598.38
373.835	593.38
374.061	618.38
374.287	606.38
374.513	623.38
374.739	624.38
374.965	610.38
375.191	626.38
375.416	585.38
375.642	598.38
375.868	586.38
376.094	583.38
376.319	588.38
376.545	606.38
376.771	591.38
376.997	586.38
377.222	596.38
377.448	588.38
377.674	582.38
377.899	576.38
378.125	564.38
378.35	566.38
378.576	580.38
378.802	566.38
379.027	581.38
379.253	605.38
379.478	568.38
379.704	593.38
379.929	580.38
380.155	572.38
380.38	579.38
380.606	599.38
380.831	580.38
381.057	588.38
381.282	592.38
381.507	583.38
381.733	586.38
381.958	602.38
382.184	610.38
382.409	635.38
382.634	625.38
382.86	595.38
383.085	628.38
383.31	642.38
383.535	631.38
383.761	642.38
383.986	631.38
384.211	654.38
384.436	660.38
384.662	663.38
384.887	667.38
385.112	655.38
385.337	669.38
385.562	700.38
385.787	688.38
386.013	685.38
386.238	696.38
386.463	706.38
386.688	670.38
386.913	664.38
387.138	680.38
387.363	660.38
387.588	655.38
387.813	667.38
388.038	675.38
388.263	684.38
388.488	683.38
388.713	665.38
388.938	687.38
389.163	690.38
389.387	696.38
389.612	669.38
389.837	666.38
390.062	658.38
390.287	680.38
390.512	690.38
390.736	689.38
390.961	695.38
391.186	698.38
391.411	706.38
391.636	738.38
391.86	732.38
392.085	737.38
392.31	734.38
392.534	736.38
392.759	710.38
392.984	698.38
393.208	703.38
393.433	667.38
393.658	686.38
393.882	687.38
394.107	709.38
394.331	709.38
394.556	715.38
394.78	710.38
395.005	718.38
395.229	706.38
395.454	749.38
395.678	759.38
395.903	738.38
396.127	739.38
396.352	731.38
396.576	724.38
396.801	733.38
397.025	732.38
397.249	767.38
397.474	760.38
397.698	771.38
397.922	780.38
398.147	800.38
398.371	818.38
398.595	852.38
398.82	891.38
399.044	930.38
399.268	1006.38
399.492	1131.38
399.717	1117.38
399.941	1077.38
400.165	1028.38
400.389	990.38
400.613	902.38
400.837	870.38
401.062	895.38
401.286	846.38
401.51	844.38
401.734	849.38
401.958	888.38
402.182	915.38
402.406	955.38
402.63	919.38
402.854	917.38
403.078	906.38
403.302	887.38
403.526	913.38
403.75	922.38
403.974	929.38
404.198	907.38
404.422	942.38
404.645	927.38
404.869	940.38
405.093	941.38
405.317	943.38
405.541	952.38
405.765	939.38
405.988	964.38
406.212	1048.38
406.436	1077.38
406.66	1031.38
406.883	1015.38
407.107	1105.38
407.331	1126.38
407.555	1161.38
407.778	1102.38
408.002	1006.38
408.226	960.38
408.449	955.38
408.673	975.38
408.896	975.38
409.12	959.38
409.344	902.38
409.567	881.38
409.791	872.38
410.014	877.38
410.238	834.38
410.461	902.38
410.685	897.38
410.908	895.38
411.132	934.38
411.355	906.38
411.578	884.38
411.802	843.38
412.025	839.38
412.249	860.38
412.472	850.38
412.695	846.38
412.919	823.38
413.142	824.38
413.365	813.38
413.589	811.38
413.812	800.38
414.035	800.38
414.258	784.38
414.482	814.38
414.705	810.38
414.928	811.38
415.151	795.38
415.374	832.38
415.597	795.38
415.821	774.38
416.044	785.38
416.267	796.38
416.49	804.38
416.713	769.38
416.936	789.38
417.159	794.38
417.382	830.38
417.605	806.38
417.828	821.38
418.051	846.38
418.274	813.38
418.497	796.38
418.72	824.38
418.943	810.38
419.166	848.38
419.389	884.38
419.611	875.38
419.834	862.38
420.057	843.38
420.28	821.38
420.503	828.38
420.726	807.38
420.948	871.38
421.171	906.38
421.394	878.38
421.617	832.38
421.839	810.38
422.062	856.38
422.285	905.38
422.507	965.38
422.73	1007.38
422.953	903.38
423.175	844.38
423.398	870.38
423.621	882.38
423.843	916.38
424.066	868.38
424.288	907.38
424.511	931.38
424.733	1012.38
424.956	1063.38
425.178	998.38
425.401	1028.38
425.623	962.38
425.846	878.38
426.068	848.38
426.291	855.38
426.513	848.38
426.735	879.38
426.958	973.38
427.18	1086.38
427.402	1251.38
427.625	1309.38
427.847	1028.38
428.069	866.38
428.292	811.38
428.514	792.38
428.736	776.38
428.958	750.38
429.181	769.38
429.403	751.38
429.625	797.38
429.847	855.38
430.069	879.38
430.292	816.38
430.514	740.38
430.736	750.38
430.958	732.38
431.18	712.38
431.402	748.38
431.624	728.38
431.846	735.38
432.068	731.38
432.29	732.38
432.512	723.38
432.734	771.38
432.956	770.38
433.178	783.38
433.4	760.38
433.622	758.38
433.844	761.38
434.066	743.38
434.287	716.38
434.509	762.38
434.731	822.38
434.953	818.38
435.175	822.38
435.397	860.38
435.618	868.38
435.84	952.38
436.062	1044.38
436.284	979.38
436.505	858.38
436.727	819.38
436.949	778.38
437.17	769.38
437.392	789.38
437.614	817.38
437.835	947.38
438.057	1029.38
438.278	1098.38
438.5	1090.38
438.721	1137.38
438.943	948.38
439.165	828.38
439.386	810.38
439.608	862.38
439.829	923.38
440.05	981.38
440.272	1000.38
440.493	871.38
440.715	815.38
440.936	794.38
441.158	818.38
441.379	799.38
441.6	868.38
441.822	926.38
442.043	993.38
442.264	1043.38
442.486	1008.38
442.707	892.38
442.928	926.38
443.149	983.38
443.371	999.38
443.592	1070.38
443.813	1139.38
444.034	1077.38
444.255	911.38
444.476	908.38
444.698	927.38
444.919	940.38
445.14	981.38
445.361	976.38
445.582	1060.38
445.803	1206.38
446.024	1242.38
446.245	1173.38
446.466	1002.38
446.687	846.38
446.908	787.38
447.129	759.38
447.35	768.38
447.571	751.38
447.792	754.38
448.013	795.38
448.234	828.38
448.455	947.38
448.675	1089.38
448.896	1055.38
449.117	956.38
449.338	1015.38
449.559	1138.38
449.779	1076.38
450	846.38
450.221	736.38
450.442	726.38
450.662	764.38
450.883	830.38
451.104	834.38
451.324	774.38
451.545	706.38
451.766	712.38
451.986	695.38
452.207	684.38
452.428	692.38
452.648	674.38
452.869	696.38
453.089	710.38
453.31	725.38
453.53	673.38
453.751	709.38
453.971	752.38
454.192	760.38
454.412	690.38
454.633	666.38
454.853	656.38
455.073	697.38
455.294	759.38
455.514	795.38
455.734	697.38
455.955	645.38
456.175	639.38
456.395	645.38
456.616	622.38
456.836	570.38
457.056	641.38
457.276	631.38
457.497	629.38
457.717	635.38
457.937	657.38
458.157	667.38
458.377	710.38
458.598	795.38
458.818	994.38
459.038	1021.38
459.258	893.38
459.478	775.38
459.698	746.38
459.918	779.38
460.138	786.38
460.358	767.38
460.578	786.38
460.798	814.38
461.018	818.38
461.238	778.38
461.458	785.38
461.678	801.38
461.898	830.38
462.118	782.38
462.338	852.38
462.558	862.38
462.777	887.38
462.997	923.38
463.217	977.38
463.437	932.38
463.657	907.38
463.876	909.38
464.096	932.38
464.316	932.38
464.536	908.38
464.755	893.38
464.975	966.38
465.195	1156.38
465.414	1080.38
465.634	874.38
465.854	772.38
466.073	748.38
466.293	735.38
466.512	724.38
466.732	717.38
466.951	703.38
467.171	723.38
467.391	754.38
467.61	758.38
467.829	744.38
468.049	705.38
468.268	689.38
468.488	677.38
468.707	669.38
468.927	668.38
469.146	643.38
469.365	700.38
469.585	694.38
469.804	755.38
470.023	760.38
470.243	753.38
470.462	795.38
470.681	807.38
470.901	741.38
471.12	724.38
471.339	737.38
471.558	708.38
471.777	679.38
471.997	694.38
472.216	679.38
472.435	647.38
472.654	643.38
472.873	645.38
473.092	671.38
473.311	666.38
473.53	668.38
473.749	697.38
473.968	849.38
474.187	906.38
474.406	777.38
474.625	709.38
474.844	672.38
475.063	663.38
475.282	666.38
475.501	686.38
475.72	682.38
475.939	669.38
476.158	702.38
476.377	715.38
476.596	686.38
476.814	734.38
477.033	755.38
477.252	734.38
477.471	772.38
477.69	758.38
477.908	771.38
478.127	784.38
478.346	791.38
478.564	791.38
478.783	820.38
479.002	814.38
479.22	817.38
479.439	860.38
479.658	907.38
479.876	912.38
480.095	920.38
480.313	918.38
480.532	894.38
480.751	859.38
480.969	848.38
481.188	803.38
481.406	812.38
481.624	805.38
481.843	778.38
482.061	774.38
482.28	777.38
482.498	770.38
482.717	760.38
482.935	775.38
483.153	771.38
483.372	774.38
483.59	766.38
483.808	795.38
484.027	787.38
484.245	766.38
484.463	817.38
484.681	812.38
484.9	829.38
485.118	822.38
485.336	792.38
485.554	826.38
485.772	830.38
485.99	820.38
486.209	817.38
486.427	840.38
486.645	855.38
486.863	931.38
487.081	862.38
487.299	847.38
487.517	816.38
487.735	870.38
487.953	839.38
488.171	842.38
488.389	851.38
488.607	837.38
488.825	845.38
489.043	835.38
489.261	842.38
489.479	843.38
489.696	849.38
489.914	875.38
490.132	851.38
490.35	876.38
490.568	884.38
490.786	909.38
491.003	930.38
491.221	948.38
491.439	966.38
491.657	966.38
491.874	940.38
492.092	998.38
492.31	998.38
492.527	959.38
492.745	967.38
492.963	979.38
493.18	995.38
493.398	1002.38
493.615	980.38
493.833	980.38
494.05	1009.38
494.268	986.38
494.485	997.38
494.703	949.38
494.92	980.38
495.138	979.38
495.355	992.38
495.573	1002.38
495.79	977.38
496.008	1005.38
496.225	986.38
496.442	982.38
496.66	1008.38
496.877	1000.38
497.094	1016.38
497.312	1029.38
497.529	1066.38
497.746	1043.38
497.963	1080.38
498.181	1114.38
498.398	1153.38
498.615	1199.38
498.832	1272.38
499.049	1309.38
499.267	1390.38
499.484	1469.38
499.701	1558.38
499.918	1656.38
500.135	1814.38
500.352	1950.38
500.569	1913.38
500.786	1911.38
501.003	1820.38
501.22	1637.38
501.437	1606.38
501.654	1515.38
