Data from TestCu_HRD10591_00001.txt Node
Date: Thu Oct 05 14:04:28 EDT 2023
User: Yrep
Spectrometer: HR+D1059
Trigger mode: 1
Integration Time (sec): 1.000000E-1
Scans to average: 1
Electric dark correction enabled: true
Nonlinearity correction enabled: false
Boxcar width: 0
XAxis mode: Wavelengths
Number of Pixels in Spectrum: 2048
>>>>>Begin Spectral Data<<<<<
223.165	-9.19
223.4	-9.19
223.635	-9.19
223.869	-19.19
224.104	-36.19
224.338	-0.19
224.573	-25.19
224.808	-12.19
225.042	-14.19
225.277	-0.19
225.511	-1.19
225.746	-2.19
225.98	19.81
226.215	10.81
226.449	32.81
226.683	6.81
226.918	22.81
227.152	26.81
227.387	18.81
227.621	38.81
227.856	29.81
228.09	41.81
228.324	45.81
228.559	54.81
228.793	73.81
229.027	102.81
229.262	108.81
229.496	132.81
229.73	158.81
229.964	158.81
230.199	111.81
230.433	99.81
230.667	107.81
230.901	120.81
231.136	102.81
231.37	108.81
231.604	100.81
231.838	107.81
232.072	113.81
232.306	98.81
232.541	103.81
232.775	91.81
233.009	90.81
233.243	106.81
233.477	107.81
233.711	104.81
233.945	101.81
234.179	113.81
234.413	104.81
234.647	107.81
234.881	102.81
235.115	104.81
235.349	120.81
235.583	127.81
235.817	121.81
236.051	128.81
236.285	133.81
236.519	136.81
236.753	143.81
236.987	174.81
237.221	214.81
237.455	212.81
237.689	144.81
237.922	132.81
238.156	113.81
238.39	129.81
238.624	108.81
238.858	125.81
239.091	116.81
239.325	119.81
239.559	138.81
239.793	125.81
240.027	141.81
240.26	154.81
240.494	167.81
240.728	148.81
240.961	122.81
241.195	138.81
241.429	140.81
241.662	132.81
241.896	122.81
242.13	138.81
242.363	116.81
242.597	138.81
242.83	124.81
243.064	122.81
243.298	131.81
243.531	125.81
243.765	127.81
243.998	132.81
244.232	132.81
244.465	132.81
244.699	134.81
244.932	143.81
245.166	134.81
245.399	135.81
245.633	130.81
245.866	135.81
246.099	132.81
246.333	144.81
246.566	125.81
246.8	145.81
247.033	142.81
247.266	147.81
247.5	175.81
247.733	164.81
247.966	160.81
248.2	147.81
248.433	158.81
248.666	184.81
248.899	190.81
249.133	209.81
249.366	200.81
249.599	171.81
249.832	151.81
250.066	162.81
250.299	179.81
250.532	186.81
250.765	190.81
250.998	205.81
251.231	220.81
251.465	194.81
251.698	182.81
251.931	195.81
252.164	185.81
252.397	172.81
252.63	190.81
252.863	179.81
253.096	210.81
253.329	203.81
253.562	186.81
253.795	180.81
254.028	178.81
254.261	217.81
254.494	229.81
254.727	282.81
254.96	251.81
255.193	214.81
255.426	208.81
255.659	191.81
255.892	186.81
256.124	175.81
256.357	180.81
256.59	167.81
256.823	204.81
257.056	173.81
257.289	183.81
257.521	194.81
257.754	194.81
257.987	188.81
258.22	186.81
258.452	200.81
258.685	189.81
258.918	191.81
259.151	191.81
259.383	190.81
259.616	208.81
259.849	222.81
260.081	251.81
260.314	243.81
260.547	239.81
260.779	204.81
261.012	210.81
261.244	201.81
261.477	224.81
261.71	234.81
261.942	228.81
262.175	238.81
262.407	214.81
262.64	209.81
262.872	195.81
263.105	205.81
263.337	220.81
263.57	219.81
263.802	211.81
264.035	196.81
264.267	193.81
264.499	195.81
264.732	196.81
264.964	211.81
265.197	195.81
265.429	199.81
265.661	212.81
265.894	202.81
266.126	209.81
266.358	210.81
266.591	210.81
266.823	223.81
267.055	221.81
267.287	236.81
267.52	210.81
267.752	229.81
267.984	235.81
268.216	226.81
268.448	227.81
268.681	243.81
268.913	254.81
269.145	255.81
269.377	264.81
269.609	263.81
269.841	253.81
270.073	268.81
270.306	314.81
270.538	290.81
270.77	278.81
271.002	283.81
271.234	279.81
271.466	295.81
271.698	305.81
271.93	309.81
272.162	306.81
272.394	302.81
272.626	254.81
272.858	271.81
273.09	255.81
273.322	241.81
273.553	247.81
273.785	252.81
274.017	247.81
274.249	248.81
274.481	254.81
274.713	272.81
274.945	264.81
275.176	256.81
275.408	257.81
275.64	263.81
275.872	250.81
276.104	279.81
276.335	300.81
276.567	309.81
276.799	339.81
277.031	334.81
277.262	330.81
277.494	282.81
277.726	287.81
277.957	291.81
278.189	279.81
278.421	273.81
278.652	273.81
278.884	258.81
279.115	262.81
279.347	294.81
279.579	259.81
279.81	268.81
280.042	256.81
280.273	282.81
280.505	272.81
280.736	267.81
280.968	282.81
281.199	282.81
281.431	275.81
281.662	280.81
281.894	300.81
282.125	305.81
282.356	344.81
282.588	344.81
282.819	317.81
283.051	292.81
283.282	288.81
283.513	295.81
283.745	296.81
283.976	294.81
284.207	286.81
284.439	284.81
284.67	292.81
284.901	268.81
285.132	282.81
285.364	308.81
285.595	294.81
285.826	299.81
286.057	299.81
286.288	308.81
286.52	291.81
286.751	301.81
286.982	304.81
287.213	324.81
287.444	306.81
287.675	325.81
287.906	346.81
288.138	333.81
288.369	336.81
288.6	331.81
288.831	325.81
289.062	314.81
289.293	306.81
289.524	311.81
289.755	296.81
289.986	320.81
290.217	323.81
290.448	308.81
290.679	307.81
290.91	326.81
291.141	309.81
291.371	321.81
291.602	323.81
291.833	313.81
292.064	297.81
292.295	323.81
292.526	324.81
292.757	327.81
292.987	326.81
293.218	326.81
293.449	333.81
293.68	331.81
293.91	338.81
294.141	331.81
294.372	321.81
294.603	319.81
294.833	304.81
295.064	328.81
295.295	337.81
295.525	339.81
295.756	371.81
295.987	394.81
296.217	417.81
296.448	396.81
296.679	348.81
296.909	331.81
297.14	344.81
297.37	344.81
297.601	344.81
297.831	358.81
298.062	346.81
298.292	350.81
298.523	368.81
298.753	348.81
298.984	335.81
299.214	361.81
299.445	354.81
299.675	354.81
299.905	361.81
300.136	360.81
300.366	360.81
300.597	368.81
300.827	365.81
301.057	387.81
301.288	394.81
301.518	400.81
301.748	406.81
301.979	409.81
302.209	405.81
302.439	408.81
302.669	399.81
302.9	374.81
303.13	381.81
303.36	393.81
303.59	410.81
303.82	400.81
304.051	382.81
304.281	375.81
304.511	363.81
304.741	370.81
304.971	374.81
305.201	376.81
305.431	379.81
305.661	383.81
305.891	379.81
306.121	385.81
306.352	421.81
306.582	380.81
306.812	369.81
307.042	376.81
307.272	404.81
307.502	395.81
307.731	386.81
307.961	364.81
308.191	405.81
308.421	381.81
308.651	383.81
308.881	424.81
309.111	422.81
309.341	412.81
309.571	420.81
309.8	439.81
310.03	461.81
310.26	455.81
310.49	460.81
310.72	503.81
310.949	513.81
311.179	497.81
311.409	464.81
311.639	464.81
311.868	452.81
312.098	446.81
312.328	488.81
312.557	546.81
312.787	520.81
313.017	484.81
313.246	467.81
313.476	455.81
313.706	480.81
313.935	505.81
314.165	513.81
314.394	503.81
314.624	490.81
314.853	489.81
315.083	462.81
315.312	470.81
315.542	451.81
315.771	456.81
316.001	444.81
316.23	440.81
316.46	446.81
316.689	453.81
316.919	485.81
317.148	467.81
317.377	478.81
317.607	492.81
317.836	447.81
318.065	453.81
318.295	461.81
318.524	433.81
318.753	464.81
318.983	456.81
319.212	471.81
319.441	505.81
319.67	473.81
319.9	448.81
320.129	465.81
320.358	459.81
320.587	499.81
320.816	500.81
321.046	483.81
321.275	498.81
321.504	489.81
321.733	511.81
321.962	519.81
322.191	547.81
322.42	576.81
322.649	588.81
322.878	592.81
323.108	644.81
323.337	706.81
323.566	770.81
323.795	840.81
324.024	1110.81
324.253	1903.81
324.482	3196.81
324.71	4798.81
324.939	4204.81
325.168	1884.81
325.397	915.81
325.626	665.81
325.855	644.81
326.084	651.81
326.313	684.81
326.542	781.81
326.77	1065.81
326.999	1788.81
327.228	2812.81
327.457	3556.81
327.686	2360.81
327.914	1114.81
328.143	882.81
328.372	782.81
328.6	765.81
328.829	808.81
329.058	817.81
329.287	781.81
329.515	664.81
329.744	610.81
329.972	595.81
330.201	660.81
330.43	791.81
330.658	900.81
330.887	877.81
331.115	744.81
331.344	630.81
331.572	659.81
331.801	663.81
332.03	648.81
332.258	616.81
332.486	607.81
332.715	608.81
332.943	631.81
333.172	642.81
333.4	650.81
333.629	658.81
333.857	678.81
334.085	647.81
334.314	617.81
334.542	649.81
334.771	634.81
334.999	651.81
335.227	634.81
335.455	604.81
335.684	603.81
335.912	598.81
336.14	575.81
336.369	608.81
336.597	651.81
336.825	620.81
337.053	569.81
337.281	586.81
337.51	600.81
337.738	588.81
337.966	622.81
338.194	608.81
338.422	579.81
338.65	562.81
338.878	560.81
339.106	572.81
339.334	544.81
339.562	545.81
339.79	559.81
340.018	568.81
340.246	582.81
340.474	574.81
340.702	550.81
340.93	547.81
341.158	579.81
341.386	568.81
341.614	593.81
341.842	578.81
342.07	538.81
342.298	553.81
342.526	549.81
342.754	550.81
342.981	555.81
343.209	541.81
343.437	580.81
343.665	599.81
343.893	629.81
344.12	623.81
344.348	604.81
344.576	581.81
344.804	607.81
345.031	610.81
345.259	625.81
345.487	575.81
345.714	584.81
345.942	550.81
346.17	559.81
346.397	556.81
346.625	573.81
346.853	562.81
347.08	525.81
347.308	561.81
347.535	582.81
347.763	592.81
347.99	576.81
348.218	611.81
348.445	612.81
348.673	586.81
348.9	544.81
349.128	544.81
349.355	516.81
349.583	527.81
349.81	537.81
350.037	532.81
350.265	544.81
350.492	548.81
350.72	558.81
350.947	560.81
351.174	588.81
351.402	572.81
351.629	572.81
351.856	594.81
352.083	596.81
352.311	629.81
352.538	616.81
352.765	584.81
352.992	545.81
353.22	585.81
353.447	553.81
353.674	529.81
353.901	521.81
354.128	535.81
354.355	518.81
354.583	518.81
354.81	530.81
355.037	511.81
355.264	506.81
355.491	503.81
355.718	508.81
355.945	507.81
356.172	511.81
356.399	508.81
356.626	530.81
356.853	512.81
357.08	496.81
357.307	500.81
357.534	500.81
357.761	502.81
357.988	536.81
358.215	512.81
358.441	533.81
358.668	514.81
358.895	518.81
359.122	537.81
359.349	587.81
359.576	614.81
359.802	682.81
360.029	709.81
360.256	690.81
360.483	610.81
360.709	568.81
360.936	577.81
361.163	571.81
361.39	597.81
361.616	578.81
361.843	580.81
362.07	616.81
362.296	606.81
362.523	586.81
362.749	574.81
362.976	554.81
363.203	562.81
363.429	543.81
363.656	561.81
363.882	537.81
364.109	545.81
364.335	555.81
364.562	546.81
364.788	531.81
365.015	544.81
365.241	558.81
365.468	570.81
365.694	585.81
365.92	530.81
366.147	544.81
366.373	542.81
366.599	540.81
366.826	544.81
367.052	546.81
367.278	562.81
367.505	542.81
367.731	556.81
367.957	550.81
368.184	570.81
368.41	557.81
368.636	594.81
368.862	608.81
369.089	570.81
369.315	549.81
369.541	556.81
369.767	572.81
369.993	553.81
370.219	570.81
370.445	557.81
370.672	562.81
370.898	556.81
371.124	576.81
371.35	545.81
371.576	556.81
371.802	568.81
372.028	554.81
372.254	562.81
372.48	571.81
372.706	550.81
372.932	561.81
373.158	577.81
373.384	575.81
373.61	571.81
373.835	554.81
374.061	592.81
374.287	595.81
374.513	579.81
374.739	602.81
374.965	570.81
375.191	573.81
375.416	591.81
375.642	570.81
375.868	579.81
376.094	556.81
376.319	573.81
376.545	576.81
376.771	563.81
376.997	549.81
377.222	543.81
377.448	542.81
377.674	546.81
377.899	559.81
378.125	561.81
378.35	531.81
378.576	562.81
378.802	556.81
379.027	542.81
379.253	552.81
379.478	558.81
379.704	560.81
379.929	565.81
380.155	572.81
380.38	557.81
380.606	569.81
380.831	573.81
381.057	590.81
381.282	583.81
381.507	579.81
381.733	561.81
381.958	574.81
382.184	575.81
382.409	603.81
382.634	589.81
382.86	585.81
383.085	609.81
383.31	616.81
383.535	598.81
383.761	596.81
383.986	625.81
384.211	649.81
384.436	648.81
384.662	640.81
384.887	635.81
385.112	652.81
385.337	678.81
385.562	644.81
385.787	663.81
386.013	655.81
386.238	697.81
386.463	674.81
386.688	646.81
386.913	659.81
387.138	648.81
387.363	639.81
387.588	655.81
387.813	644.81
388.038	646.81
388.263	637.81
388.488	645.81
388.713	664.81
388.938	659.81
389.163	642.81
389.387	660.81
389.612	655.81
389.837	662.81
390.062	646.81
390.287	660.81
390.512	625.81
390.736	663.81
390.961	670.81
391.186	674.81
391.411	678.81
391.636	685.81
391.86	712.81
392.085	704.81
392.31	732.81
392.534	711.81
392.759	720.81
392.984	671.81
393.208	688.81
393.433	658.81
393.658	698.81
393.882	696.81
394.107	684.81
394.331	692.81
394.556	679.81
394.78	705.81
395.005	690.81
395.229	706.81
395.454	721.81
395.678	706.81
395.903	701.81
396.127	729.81
396.352	734.81
396.576	689.81
396.801	704.81
397.025	704.81
397.249	715.81
397.474	754.81
397.698	739.81
397.922	765.81
398.147	769.81
398.371	761.81
398.595	813.81
398.82	818.81
399.044	887.81
399.268	962.81
399.492	1067.81
399.717	1069.81
399.941	995.81
400.165	990.81
400.389	964.81
400.613	878.81
400.837	826.81
401.062	832.81
401.286	833.81
401.51	810.81
401.734	829.81
401.958	838.81
402.182	876.81
402.406	895.81
402.63	889.81
402.854	864.81
403.078	880.81
403.302	888.81
403.526	899.81
403.75	904.81
403.974	889.81
404.198	897.81
404.422	894.81
404.645	918.81
404.869	900.81
405.093	899.81
405.317	915.81
405.541	912.81
405.765	901.81
405.988	913.81
406.212	997.81
406.436	1052.81
406.66	974.81
406.883	981.81
407.107	1035.81
407.331	1099.81
407.555	1105.81
407.778	1052.81
408.002	931.81
408.226	923.81
408.449	929.81
408.673	938.81
408.896	948.81
409.12	960.81
409.344	877.81
409.567	836.81
409.791	869.81
410.014	857.81
410.238	822.81
410.461	865.81
410.685	871.81
410.908	883.81
411.132	915.81
411.355	863.81
411.578	814.81
411.802	806.81
412.025	807.81
412.249	795.81
412.472	798.81
412.695	803.81
412.919	775.81
413.142	790.81
413.365	772.81
413.589	786.81
413.812	788.81
414.035	766.81
414.258	769.81
414.482	808.81
414.705	778.81
414.928	780.81
415.151	771.81
415.374	792.81
415.597	784.81
415.821	767.81
416.044	762.81
416.267	779.81
416.49	781.81
416.713	776.81
416.936	794.81
417.159	776.81
417.382	779.81
417.605	797.81
417.828	810.81
418.051	796.81
418.274	810.81
418.497	778.81
418.72	810.81
418.943	768.81
419.166	819.81
419.389	850.81
419.611	836.81
419.834	824.81
420.057	804.81
420.28	802.81
420.503	779.81
420.726	843.81
420.948	826.81
421.171	848.81
421.394	855.81
421.617	797.81
421.839	795.81
422.062	819.81
422.285	854.81
422.507	884.81
422.73	923.81
422.953	879.81
423.175	848.81
423.398	854.81
423.621	848.81
423.843	867.81
424.066	860.81
424.288	847.81
424.511	924.81
424.733	972.81
424.956	1056.81
425.178	961.81
425.401	944.81
425.623	936.81
425.846	839.81
426.068	790.81
426.291	800.81
426.513	810.81
426.735	830.81
426.958	923.81
427.18	1074.81
427.402	1222.81
427.625	1228.81
427.847	989.81
428.069	813.81
428.292	777.81
428.514	754.81
428.736	732.81
428.958	728.81
429.181	721.81
429.403	734.81
429.625	762.81
429.847	802.81
430.069	844.81
430.292	779.81
430.514	721.81
430.736	726.81
430.958	710.81
431.18	720.81
431.402	699.81
431.624	689.81
431.846	697.81
432.068	692.81
432.29	698.81
432.512	705.81
432.734	754.81
432.956	738.81
433.178	730.81
433.4	763.81
433.622	726.81
433.844	725.81
434.066	751.81
434.287	767.81
434.509	751.81
434.731	776.81
434.953	810.81
435.175	801.81
435.397	802.81
435.618	818.81
435.84	955.81
436.062	975.81
436.284	947.81
436.505	832.81
436.727	800.81
436.949	748.81
437.17	740.81
437.392	764.81
437.614	805.81
437.835	907.81
438.057	1019.81
438.278	1065.81
438.5	1050.81
438.721	1067.81
438.943	940.81
439.165	797.81
439.386	802.81
439.608	803.81
439.829	858.81
440.05	944.81
440.272	939.81
440.493	849.81
440.715	769.81
440.936	790.81
441.158	772.81
441.379	814.81
441.6	872.81
441.822	888.81
442.043	931.81
442.264	1003.81
442.486	977.81
442.707	860.81
442.928	875.81
443.149	937.81
443.371	950.81
443.592	1038.81
443.813	1098.81
444.034	1066.81
444.255	890.81
444.476	901.81
444.698	927.81
444.919	910.81
445.14	996.81
445.361	940.81
445.582	999.81
445.803	1151.81
446.024	1207.81
446.245	1100.81
446.466	962.81
446.687	809.81
446.908	770.81
447.129	734.81
447.35	732.81
447.571	732.81
447.792	744.81
448.013	755.81
448.234	818.81
448.455	908.81
448.675	1024.81
448.896	988.81
449.117	860.81
449.338	986.81
449.559	1064.81
449.779	1038.81
450	807.81
450.221	751.81
450.442	732.81
450.662	748.81
450.883	807.81
451.104	804.81
451.324	731.81
451.545	694.81
451.766	670.81
451.986	669.81
452.207	634.81
452.428	664.81
452.648	670.81
452.869	691.81
453.089	678.81
453.31	721.81
453.53	669.81
453.751	659.81
453.971	717.81
454.192	726.81
454.412	677.81
454.633	662.81
454.853	625.81
455.073	658.81
455.294	738.81
455.514	774.81
455.734	697.81
455.955	647.81
456.175	588.81
456.395	605.81
456.616	604.81
456.836	604.81
457.056	587.81
457.276	605.81
457.497	574.81
457.717	643.81
457.937	620.81
458.157	648.81
458.377	700.81
458.598	765.81
458.818	975.81
459.038	968.81
459.258	883.81
459.478	772.81
459.698	734.81
459.918	730.81
460.138	758.81
460.358	779.81
460.578	770.81
460.798	794.81
461.018	795.81
461.238	768.81
461.458	781.81
461.678	777.81
461.898	781.81
462.118	774.81
462.338	832.81
462.558	862.81
462.777	870.81
462.997	916.81
463.217	934.81
463.437	937.81
463.657	864.81
463.876	863.81
464.096	882.81
464.316	901.81
464.536	890.81
464.755	872.81
464.975	931.81
465.195	1146.81
465.414	1080.81
465.634	824.81
465.854	750.81
466.073	733.81
466.293	676.81
466.512	686.81
466.732	657.81
466.951	692.81
467.171	684.81
467.391	714.81
467.61	732.81
467.829	682.81
468.049	662.81
468.268	656.81
468.488	650.81
468.707	652.81
468.927	658.81
469.146	653.81
469.365	644.81
469.585	695.81
469.804	730.81
470.023	734.81
470.243	737.81
470.462	771.81
470.681	754.81
470.901	735.81
471.12	700.81
471.339	694.81
471.558	679.81
471.777	667.81
471.997	659.81
472.216	642.81
472.435	654.81
472.654	633.81
472.873	628.81
473.092	647.81
473.311	643.81
473.53	634.81
473.749	674.81
473.968	776.81
474.187	872.81
474.406	755.81
474.625	678.81
474.844	660.81
475.063	652.81
475.282	653.81
475.501	654.81
475.72	683.81
475.939	687.81
476.158	692.81
476.377	672.81
476.596	702.81
476.814	705.81
477.033	714.81
477.252	717.81
477.471	734.81
477.69	741.81
477.908	760.81
478.127	738.81
478.346	754.81
478.564	788.81
478.783	783.81
479.002	805.81
479.22	796.81
479.439	839.81
479.658	850.81
479.876	852.81
480.095	870.81
480.313	890.81
480.532	866.81
480.751	829.81
480.969	822.81
481.188	762.81
481.406	779.81
481.624	762.81
481.843	750.81
482.061	769.81
482.28	750.81
482.498	739.81
482.717	734.81
482.935	745.81
483.153	751.81
483.372	763.81
483.59	745.81
483.808	771.81
484.027	743.81
484.245	783.81
484.463	776.81
484.681	790.81
484.9	815.81
485.118	762.81
485.336	772.81
485.554	788.81
485.772	811.81
485.99	783.81
486.209	818.81
486.427	818.81
486.645	862.81
486.863	883.81
487.081	849.81
487.299	838.81
487.517	825.81
487.735	828.81
487.953	847.81
488.171	823.81
488.389	822.81
488.607	818.81
488.825	808.81
489.043	791.81
489.261	801.81
489.479	801.81
489.696	810.81
489.914	845.81
490.132	833.81
490.35	836.81
490.568	853.81
490.786	877.81
491.003	898.81
491.221	914.81
491.439	927.81
491.657	918.81
491.874	959.81
492.092	980.81
492.31	936.81
492.527	935.81
492.745	938.81
492.963	948.81
493.18	975.81
493.398	971.81
493.615	959.81
493.833	966.81
494.05	991.81
494.268	964.81
494.485	967.81
494.703	936.81
494.92	945.81
495.138	970.81
495.355	953.81
495.573	922.81
495.79	959.81
496.008	960.81
496.225	955.81
496.442	929.81
496.66	923.81
496.877	948.81
497.094	986.81
497.312	970.81
497.529	991.81
497.746	1000.81
497.963	1041.81
498.181	1063.81
498.398	1116.81
498.615	1169.81
498.832	1217.81
499.049	1278.81
499.267	1323.81
499.484	1377.81
499.701	1553.81
499.918	1636.81
500.135	1774.81
500.352	1874.81
500.569	1908.81
500.786	1792.81
501.003	1742.81
501.22	1609.81
501.437	1472.81
501.654	1434.81
501.871	1389.81
