Data from TestCu_HRD10591_00045.txt Node
Date: Thu Oct 05 14:05:25 EDT 2023
User: Yrep
Spectrometer: HR+D1059
Trigger mode: 1
Integration Time (sec): 1.000000E-1
Scans to average: 1
Electric dark correction enabled: true
Nonlinearity correction enabled: false
Boxcar width: 0
XAxis mode: Wavelengths
Number of Pixels in Spectrum: 2048
>>>>>Begin Spectral Data<<<<<
223.165	-5.38
223.4	-5.38
223.635	-5.38
223.869	-22.38
224.104	-26.38
224.338	-33.38
224.573	-3.38
224.808	-21.38
225.042	-12.38
225.277	-7.38
225.511	-5.38
225.746	6.62
225.98	16.62
226.215	14.62
226.449	22.62
226.683	23.62
226.918	13.62
227.152	39.62
227.387	33.62
227.621	49.62
227.856	42.62
228.09	56.62
228.324	51.62
228.559	49.62
228.793	64.62
229.027	111.62
229.262	109.62
229.496	137.62
229.73	160.62
229.964	160.62
230.199	97.62
230.433	115.62
230.667	117.62
230.901	116.62
231.136	115.62
231.37	103.62
231.604	115.62
231.838	115.62
232.072	115.62
232.306	112.62
232.541	129.62
232.775	111.62
233.009	120.62
233.243	114.62
233.477	120.62
233.711	122.62
233.945	133.62
234.179	119.62
234.413	117.62
234.647	104.62
234.881	113.62
235.115	125.62
235.349	124.62
235.583	128.62
235.817	132.62
236.051	119.62
236.285	122.62
236.519	126.62
236.753	161.62
236.987	175.62
237.221	224.62
237.455	210.62
237.689	158.62
237.922	134.62
238.156	120.62
238.39	128.62
238.624	109.62
238.858	128.62
239.091	137.62
239.325	127.62
239.559	134.62
239.793	134.62
240.027	137.62
240.26	147.62
240.494	163.62
240.728	147.62
240.961	138.62
241.195	133.62
241.429	135.62
241.662	130.62
241.896	124.62
242.13	140.62
242.363	128.62
242.597	129.62
242.83	128.62
243.064	134.62
243.298	151.62
243.531	142.62
243.765	128.62
243.998	145.62
244.232	136.62
244.465	146.62
244.699	138.62
244.932	143.62
245.166	132.62
245.399	143.62
245.633	141.62
245.866	157.62
246.099	149.62
246.333	143.62
246.566	151.62
246.8	150.62
247.033	147.62
247.266	143.62
247.5	154.62
247.733	165.62
247.966	165.62
248.2	171.62
248.433	148.62
248.666	179.62
248.899	187.62
249.133	216.62
249.366	195.62
249.599	192.62
249.832	165.62
250.066	177.62
250.299	174.62
250.532	183.62
250.765	210.62
250.998	212.62
251.231	194.62
251.465	191.62
251.698	162.62
251.931	175.62
252.164	192.62
252.397	175.62
252.63	202.62
252.863	199.62
253.096	234.62
253.329	207.62
253.562	211.62
253.795	197.62
254.028	205.62
254.261	199.62
254.494	227.62
254.727	264.62
254.96	254.62
255.193	236.62
255.426	195.62
255.659	191.62
255.892	178.62
256.124	170.62
256.357	187.62
256.59	196.62
256.823	210.62
257.056	201.62
257.289	197.62
257.521	185.62
257.754	189.62
257.987	189.62
258.22	200.62
258.452	195.62
258.685	189.62
258.918	206.62
259.151	197.62
259.383	207.62
259.616	213.62
259.849	226.62
260.081	238.62
260.314	258.62
260.547	225.62
260.779	214.62
261.012	213.62
261.244	206.62
261.477	214.62
261.71	227.62
261.942	245.62
262.175	258.62
262.407	233.62
262.64	215.62
262.872	205.62
263.105	210.62
263.337	205.62
263.57	213.62
263.802	197.62
264.035	210.62
264.267	205.62
264.499	204.62
264.732	207.62
264.964	218.62
265.197	222.62
265.429	223.62
265.661	206.62
265.894	211.62
266.126	202.62
266.358	211.62
266.591	216.62
266.823	247.62
267.055	225.62
267.287	233.62
267.52	229.62
267.752	238.62
267.984	229.62
268.216	223.62
268.448	241.62
268.681	232.62
268.913	260.62
269.145	271.62
269.377	287.62
269.609	265.62
269.841	259.62
270.073	297.62
270.306	306.62
270.538	313.62
270.77	286.62
271.002	270.62
271.234	272.62
271.466	292.62
271.698	281.62
271.93	303.62
272.162	295.62
272.394	282.62
272.626	271.62
272.858	255.62
273.09	260.62
273.322	261.62
273.553	255.62
273.785	249.62
274.017	282.62
274.249	264.62
274.481	276.62
274.713	245.62
274.945	261.62
275.176	259.62
275.408	267.62
275.64	251.62
275.872	262.62
276.104	255.62
276.335	257.62
276.567	309.62
276.799	345.62
277.031	353.62
277.262	344.62
277.494	308.62
277.726	298.62
277.957	294.62
278.189	280.62
278.421	278.62
278.652	285.62
278.884	265.62
279.115	269.62
279.347	268.62
279.579	258.62
279.81	281.62
280.042	259.62
280.273	275.62
280.505	272.62
280.736	276.62
280.968	267.62
281.199	285.62
281.431	280.62
281.662	271.62
281.894	288.62
282.125	299.62
282.356	341.62
282.588	367.62
282.819	301.62
283.051	306.62
283.282	287.62
283.513	301.62
283.745	315.62
283.976	305.62
284.207	286.62
284.439	293.62
284.67	273.62
284.901	305.62
285.132	297.62
285.364	296.62
285.595	297.62
285.826	294.62
286.057	303.62
286.288	305.62
286.52	303.62
286.751	302.62
286.982	309.62
287.213	324.62
287.444	315.62
287.675	322.62
287.906	333.62
288.138	346.62
288.369	339.62
288.6	330.62
288.831	329.62
289.062	328.62
289.293	315.62
289.524	324.62
289.755	321.62
289.986	312.62
290.217	313.62
290.448	311.62
290.679	323.62
290.91	315.62
291.141	313.62
291.371	327.62
291.602	323.62
291.833	319.62
292.064	333.62
292.295	320.62
292.526	318.62
292.757	341.62
292.987	335.62
293.218	321.62
293.449	327.62
293.68	335.62
293.91	341.62
294.141	323.62
294.372	338.62
294.603	337.62
294.833	331.62
295.064	341.62
295.295	335.62
295.525	332.62
295.756	361.62
295.987	374.62
296.217	388.62
296.448	371.62
296.679	334.62
296.909	341.62
297.14	352.62
297.37	355.62
297.601	344.62
297.831	357.62
298.062	350.62
298.292	357.62
298.523	361.62
298.753	372.62
298.984	362.62
299.214	370.62
299.445	351.62
299.675	370.62
299.905	362.62
300.136	368.62
300.366	368.62
300.597	363.62
300.827	384.62
301.057	393.62
301.288	391.62
301.518	389.62
301.748	389.62
301.979	420.62
302.209	400.62
302.439	399.62
302.669	397.62
302.9	383.62
303.13	380.62
303.36	375.62
303.59	392.62
303.82	391.62
304.051	390.62
304.281	379.62
304.511	377.62
304.741	387.62
304.971	379.62
305.201	377.62
305.431	378.62
305.661	369.62
305.891	394.62
306.121	389.62
306.352	415.62
306.582	409.62
306.812	394.62
307.042	387.62
307.272	408.62
307.502	378.62
307.731	403.62
307.961	412.62
308.191	394.62
308.421	387.62
308.651	398.62
308.881	404.62
309.111	382.62
309.341	428.62
309.571	439.62
309.8	435.62
310.03	477.62
310.26	461.62
310.49	483.62
310.72	480.62
310.949	498.62
311.179	494.62
311.409	479.62
311.639	451.62
311.868	447.62
312.098	468.62
312.328	506.62
312.557	506.62
312.787	524.62
313.017	493.62
313.246	448.62
313.476	433.62
313.706	451.62
313.935	479.62
314.165	516.62
314.394	499.62
314.624	480.62
314.853	494.62
315.083	474.62
315.312	460.62
315.542	440.62
315.771	437.62
316.001	434.62
316.23	453.62
316.46	437.62
316.689	467.62
316.919	468.62
317.148	458.62
317.377	474.62
317.607	487.62
317.836	472.62
318.065	453.62
318.295	430.62
318.524	439.62
318.753	455.62
318.983	453.62
319.212	491.62
319.441	469.62
319.67	456.62
319.9	452.62
320.129	451.62
320.358	461.62
320.587	479.62
320.816	498.62
321.046	513.62
321.275	508.62
321.504	474.62
321.733	501.62
321.962	515.62
322.191	535.62
322.42	586.62
322.649	590.62
322.878	598.62
323.108	624.62
323.337	699.62
323.566	719.62
323.795	804.62
324.024	1065.62
324.253	1831.62
324.482	3113.62
324.71	4689.62
324.939	4121.62
325.168	1807.62
325.397	881.62
325.626	689.62
325.855	646.62
326.084	649.62
326.313	675.62
326.542	779.62
326.77	1030.62
326.999	1731.62
327.228	2727.62
327.457	3446.62
327.686	2256.62
327.914	1069.62
328.143	850.62
328.372	777.62
328.6	775.62
328.829	770.62
329.058	814.62
329.287	749.62
329.515	625.62
329.744	613.62
329.972	634.62
330.201	643.62
330.43	763.62
330.658	835.62
330.887	843.62
331.115	740.62
331.344	665.62
331.572	659.62
331.801	650.62
332.03	651.62
332.258	600.62
332.486	599.62
332.715	598.62
332.943	610.62
333.172	645.62
333.4	650.62
333.629	648.62
333.857	683.62
334.085	647.62
334.314	624.62
334.542	635.62
334.771	643.62
334.999	656.62
335.227	616.62
335.455	618.62
335.684	601.62
335.912	587.62
336.14	601.62
336.369	611.62
336.597	626.62
336.825	615.62
337.053	565.62
337.281	584.62
337.51	590.62
337.738	605.62
337.966	597.62
338.194	592.62
338.422	569.62
338.65	557.62
338.878	559.62
339.106	567.62
339.334	555.62
339.562	562.62
339.79	561.62
340.018	551.62
340.246	569.62
340.474	561.62
340.702	560.62
340.93	563.62
341.158	552.62
341.386	569.62
341.614	547.62
341.842	561.62
342.07	559.62
342.298	552.62
342.526	556.62
342.754	524.62
342.981	568.62
343.209	567.62
343.437	579.62
343.665	615.62
343.893	614.62
344.12	591.62
344.348	589.62
344.576	601.62
344.804	613.62
345.031	608.62
345.259	611.62
345.487	575.62
345.714	567.62
345.942	562.62
346.17	561.62
346.397	572.62
346.625	571.62
346.853	519.62
347.08	528.62
347.308	565.62
347.535	579.62
347.763	578.62
347.99	593.62
348.218	575.62
348.445	580.62
348.673	555.62
348.9	558.62
349.128	538.62
349.355	539.62
349.583	526.62
349.81	530.62
350.037	557.62
350.265	554.62
350.492	543.62
350.72	545.62
350.947	567.62
351.174	594.62
351.402	577.62
351.629	581.62
351.856	555.62
352.083	620.62
352.311	643.62
352.538	593.62
352.765	577.62
352.992	568.62
353.22	562.62
353.447	541.62
353.674	536.62
353.901	530.62
354.128	520.62
354.355	540.62
354.583	525.62
354.81	508.62
355.037	514.62
355.264	521.62
355.491	513.62
355.718	506.62
355.945	523.62
356.172	511.62
356.399	506.62
356.626	489.62
356.853	527.62
357.08	513.62
357.307	513.62
357.534	508.62
357.761	529.62
357.988	524.62
358.215	529.62
358.441	538.62
358.668	516.62
358.895	539.62
359.122	544.62
359.349	579.62
359.576	607.62
359.802	669.62
360.029	741.62
360.256	675.62
360.483	592.62
360.709	549.62
360.936	560.62
361.163	558.62
361.39	579.62
361.616	568.62
361.843	577.62
362.07	587.62
362.296	583.62
362.523	574.62
362.749	558.62
362.976	551.62
363.203	556.62
363.429	557.62
363.656	558.62
363.882	555.62
364.109	554.62
364.335	535.62
364.562	529.62
364.788	536.62
365.015	563.62
365.241	572.62
365.468	563.62
365.694	594.62
365.92	583.62
366.147	559.62
366.373	567.62
366.599	530.62
366.826	548.62
367.052	553.62
367.278	534.62
367.505	539.62
367.731	555.62
367.957	570.62
368.184	568.62
368.41	562.62
368.636	606.62
368.862	582.62
369.089	549.62
369.315	559.62
369.541	552.62
369.767	572.62
369.993	559.62
370.219	564.62
370.445	551.62
370.672	552.62
370.898	532.62
371.124	555.62
371.35	569.62
371.576	562.62
371.802	568.62
372.028	589.62
372.254	554.62
372.48	568.62
372.706	591.62
372.932	570.62
373.158	556.62
373.384	579.62
373.61	586.62
373.835	545.62
374.061	576.62
374.287	583.62
374.513	579.62
374.739	592.62
374.965	586.62
375.191	590.62
375.416	570.62
375.642	565.62
375.868	577.62
376.094	595.62
376.319	586.62
376.545	578.62
376.771	550.62
376.997	561.62
377.222	563.62
377.448	542.62
377.674	563.62
377.899	562.62
378.125	564.62
378.35	561.62
378.576	553.62
378.802	579.62
379.027	554.62
379.253	552.62
379.478	565.62
379.704	567.62
379.929	576.62
380.155	589.62
380.38	555.62
380.606	555.62
380.831	580.62
381.057	549.62
381.282	574.62
381.507	565.62
381.733	576.62
381.958	562.62
382.184	587.62
382.409	584.62
382.634	586.62
382.86	588.62
383.085	595.62
383.31	581.62
383.535	616.62
383.761	601.62
383.986	600.62
384.211	608.62
384.436	625.62
384.662	643.62
384.887	654.62
385.112	632.62
385.337	654.62
385.562	654.62
385.787	676.62
386.013	699.62
386.238	687.62
386.463	636.62
386.688	677.62
386.913	649.62
387.138	617.62
387.363	642.62
387.588	677.62
387.813	627.62
388.038	646.62
388.263	656.62
388.488	645.62
388.713	658.62
388.938	647.62
389.163	646.62
389.387	650.62
389.612	647.62
389.837	634.62
390.062	653.62
390.287	656.62
390.512	628.62
390.736	649.62
390.961	665.62
391.186	669.62
391.411	698.62
391.636	704.62
391.86	694.62
392.085	723.62
392.31	705.62
392.534	704.62
392.759	701.62
392.984	672.62
393.208	662.62
393.433	657.62
393.658	664.62
393.882	693.62
394.107	693.62
394.331	675.62
394.556	696.62
394.78	711.62
395.005	689.62
395.229	720.62
395.454	719.62
395.678	717.62
395.903	737.62
396.127	721.62
396.352	710.62
396.576	691.62
396.801	686.62
397.025	689.62
397.249	725.62
397.474	753.62
397.698	733.62
397.922	766.62
398.147	765.62
398.371	786.62
398.595	798.62
398.82	812.62
399.044	909.62
399.268	968.62
399.492	1079.62
399.717	1095.62
399.941	1029.62
400.165	994.62
400.389	935.62
400.613	878.62
400.837	842.62
401.062	819.62
401.286	831.62
401.51	793.62
401.734	809.62
401.958	835.62
402.182	874.62
402.406	885.62
402.63	882.62
402.854	853.62
403.078	907.62
403.302	896.62
403.526	901.62
403.75	895.62
403.974	915.62
404.198	891.62
404.422	874.62
404.645	928.62
404.869	870.62
405.093	935.62
405.317	921.62
405.541	897.62
405.765	881.62
405.988	944.62
406.212	1002.62
406.436	1032.62
406.66	1019.62
406.883	970.62
407.107	1027.62
407.331	1080.62
407.555	1105.62
407.778	1049.62
408.002	965.62
408.226	909.62
408.449	933.62
408.673	933.62
408.896	935.62
409.12	964.62
409.344	893.62
409.567	850.62
409.791	834.62
410.014	855.62
410.238	863.62
410.461	861.62
410.685	871.62
410.908	877.62
411.132	905.62
411.355	881.62
411.578	841.62
411.802	797.62
412.025	822.62
412.249	824.62
412.472	801.62
412.695	793.62
412.919	786.62
413.142	787.62
413.365	806.62
413.589	801.62
413.812	770.62
414.035	771.62
414.258	791.62
414.482	811.62
414.705	794.62
414.928	792.62
415.151	763.62
415.374	764.62
415.597	749.62
415.821	782.62
416.044	796.62
416.267	798.62
416.49	760.62
416.713	767.62
416.936	769.62
417.159	784.62
417.382	775.62
417.605	790.62
417.828	813.62
418.051	829.62
418.274	815.62
418.497	793.62
418.72	823.62
418.943	797.62
419.166	803.62
419.389	846.62
419.611	837.62
419.834	815.62
420.057	792.62
420.28	805.62
420.503	755.62
420.726	799.62
420.948	824.62
421.171	868.62
421.394	850.62
421.617	815.62
421.839	801.62
422.062	821.62
422.285	856.62
422.507	909.62
422.73	928.62
422.953	869.62
423.175	843.62
423.398	822.62
423.621	851.62
423.843	865.62
424.066	866.62
424.288	851.62
424.511	931.62
424.733	962.62
424.956	997.62
425.178	978.62
425.401	970.62
425.623	918.62
425.846	831.62
426.068	810.62
426.291	791.62
426.513	799.62
426.735	863.62
426.958	951.62
427.18	1065.62
427.402	1211.62
427.625	1206.62
427.847	984.62
428.069	821.62
428.292	797.62
428.514	744.62
428.736	735.62
428.958	733.62
429.181	695.62
429.403	745.62
429.625	757.62
429.847	795.62
430.069	872.62
430.292	790.62
430.514	739.62
430.736	737.62
430.958	719.62
431.18	709.62
431.402	707.62
431.624	703.62
431.846	704.62
432.068	698.62
432.29	719.62
432.512	719.62
432.734	718.62
432.956	739.62
433.178	716.62
433.4	725.62
433.622	717.62
433.844	739.62
434.066	737.62
434.287	735.62
434.509	736.62
434.731	774.62
434.953	797.62
435.175	836.62
435.397	826.62
435.618	863.62
435.84	920.62
436.062	999.62
436.284	968.62
436.505	815.62
436.727	790.62
436.949	749.62
437.17	747.62
437.392	730.62
437.614	784.62
437.835	901.62
438.057	1015.62
438.278	1070.62
438.5	1038.62
438.721	1071.62
438.943	895.62
439.165	817.62
439.386	781.62
439.608	818.62
439.829	878.62
440.05	922.62
440.272	959.62
440.493	817.62
440.715	789.62
440.936	799.62
441.158	778.62
441.379	786.62
441.6	841.62
441.822	874.62
442.043	953.62
442.264	1032.62
442.486	938.62
442.707	851.62
442.928	855.62
443.149	925.62
443.371	979.62
443.592	1051.62
443.813	1096.62
444.034	1023.62
444.255	899.62
444.476	881.62
444.698	883.62
444.919	928.62
445.14	951.62
445.361	930.62
445.582	1024.62
445.803	1153.62
446.024	1174.62
446.245	1109.62
446.466	947.62
446.687	816.62
446.908	759.62
447.129	729.62
447.35	719.62
447.571	745.62
447.792	743.62
448.013	747.62
448.234	808.62
448.455	886.62
448.675	1032.62
448.896	1018.62
449.117	879.62
449.338	964.62
449.559	1105.62
449.779	1029.62
450	816.62
450.221	726.62
450.442	689.62
450.662	726.62
450.883	795.62
451.104	775.62
451.324	733.62
451.545	696.62
451.766	662.62
451.986	653.62
452.207	659.62
452.428	672.62
452.648	675.62
452.869	699.62
453.089	688.62
453.31	705.62
453.53	670.62
453.751	657.62
453.971	733.62
454.192	727.62
454.412	660.62
454.633	633.62
454.853	645.62
455.073	667.62
455.294	727.62
455.514	754.62
455.734	663.62
455.955	613.62
456.175	590.62
456.395	580.62
456.616	614.62
456.836	615.62
457.056	590.62
457.276	601.62
457.497	602.62
457.717	622.62
457.937	623.62
458.157	640.62
458.377	657.62
458.598	774.62
458.818	952.62
459.038	987.62
459.258	881.62
459.478	741.62
459.698	717.62
459.918	741.62
460.138	727.62
460.358	771.62
460.578	777.62
460.798	821.62
461.018	801.62
461.238	721.62
461.458	764.62
461.678	773.62
461.898	779.62
462.118	792.62
462.338	813.62
462.558	831.62
462.777	882.62
462.997	903.62
463.217	949.62
463.437	894.62
463.657	879.62
463.876	862.62
464.096	867.62
464.316	889.62
464.536	887.62
464.755	878.62
464.975	931.62
465.195	1137.62
465.414	1048.62
465.634	831.62
465.854	757.62
466.073	722.62
466.293	706.62
466.512	675.62
466.732	689.62
466.951	657.62
467.171	677.62
467.391	716.62
467.61	738.62
467.829	737.62
468.049	664.62
468.268	668.62
468.488	631.62
468.707	634.62
468.927	653.62
469.146	658.62
469.365	666.62
469.585	657.62
469.804	722.62
470.023	749.62
470.243	767.62
470.462	759.62
470.681	766.62
470.901	739.62
471.12	688.62
471.339	693.62
471.558	686.62
471.777	642.62
471.997	653.62
472.216	648.62
472.435	649.62
472.654	659.62
472.873	625.62
473.092	635.62
473.311	645.62
473.53	658.62
473.749	699.62
473.968	797.62
474.187	855.62
474.406	777.62
474.625	687.62
474.844	655.62
475.063	628.62
475.282	648.62
475.501	647.62
475.72	661.62
475.939	653.62
476.158	688.62
476.377	691.62
476.596	685.62
476.814	684.62
477.033	717.62
477.252	714.62
477.471	685.62
477.69	760.62
477.908	743.62
478.127	767.62
478.346	746.62
478.564	766.62
478.783	763.62
479.002	804.62
479.22	835.62
479.439	849.62
479.658	897.62
479.876	833.62
480.095	867.62
480.313	911.62
480.532	847.62
480.751	825.62
480.969	817.62
481.188	811.62
481.406	766.62
481.624	757.62
481.843	749.62
482.061	747.62
482.28	718.62
482.498	741.62
482.717	739.62
482.935	746.62
483.153	751.62
483.372	769.62
483.59	745.62
483.808	729.62
484.027	763.62
484.245	776.62
484.463	814.62
484.681	783.62
484.9	774.62
485.118	787.62
485.336	789.62
485.554	766.62
485.772	821.62
485.99	776.62
486.209	808.62
486.427	816.62
486.645	855.62
486.863	872.62
487.081	839.62
487.299	801.62
487.517	810.62
487.735	843.62
487.953	801.62
488.171	823.62
488.389	800.62
488.607	807.62
488.825	793.62
489.043	807.62
489.261	811.62
489.479	803.62
489.696	820.62
489.914	809.62
490.132	825.62
490.35	846.62
490.568	871.62
490.786	837.62
491.003	889.62
491.221	898.62
491.439	918.62
491.657	933.62
491.874	977.62
492.092	946.62
492.31	936.62
492.527	930.62
492.745	938.62
492.963	939.62
493.18	948.62
493.398	960.62
493.615	968.62
493.833	955.62
494.05	958.62
494.268	965.62
494.485	948.62
494.703	927.62
494.92	955.62
495.138	926.62
495.355	965.62
495.573	948.62
495.79	949.62
496.008	962.62
496.225	930.62
496.442	954.62
496.66	945.62
496.877	941.62
497.094	958.62
497.312	966.62
497.529	969.62
497.746	1035.62
497.963	1040.62
498.181	1070.62
498.398	1111.62
498.615	1199.62
498.832	1242.62
499.049	1257.62
499.267	1311.62
499.484	1385.62
499.701	1523.62
499.918	1587.62
500.135	1786.62
500.352	1849.62
500.569	1855.62
500.786	1845.62
501.003	1719.62
501.22	1608.62
501.437	1507.62
501.654	1426.62
501.871	1348.62
