Data from TestCu_HRD10591_00054.txt Node
Date: Thu Oct 05 14:05:34 EDT 2023
User: Yrep
Spectrometer: HR+D1059
Trigger mode: 1
Integration Time (sec): 1.000000E-1
Scans to average: 1
Electric dark correction enabled: true
Nonlinearity correction enabled: false
Boxcar width: 0
XAxis mode: Wavelengths
Number of Pixels in Spectrum: 2048
>>>>>Begin Spectral Data<<<<<
223.165	-21.31
223.4	-21.31
223.635	-21.31
223.869	-22.31
224.104	-27.31
224.338	-6.31
224.573	-22.31
224.808	-20.31
225.042	-4.31
225.277	-5.31
225.511	-10.31
225.746	-1.31
225.98	13.69
226.215	12.69
226.449	29.69
226.683	27.69
226.918	31.69
227.152	25.69
227.387	31.69
227.621	40.69
227.856	35.69
228.09	37.69
228.324	47.69
228.559	57.69
228.793	78.69
229.027	109.69
229.262	111.69
229.496	128.69
229.73	166.69
229.964	165.69
230.199	127.69
230.433	113.69
230.667	101.69
230.901	116.69
231.136	125.69
231.37	106.69
231.604	99.69
231.838	118.69
232.072	114.69
232.306	111.69
232.541	109.69
232.775	117.69
233.009	79.69
233.243	109.69
233.477	108.69
233.711	117.69
233.945	113.69
234.179	121.69
234.413	124.69
234.647	119.69
234.881	116.69
235.115	127.69
235.349	118.69
235.583	119.69
235.817	118.69
236.051	128.69
236.285	142.69
236.519	149.69
236.753	154.69
236.987	188.69
237.221	229.69
237.455	225.69
237.689	149.69
237.922	132.69
238.156	113.69
238.39	126.69
238.624	137.69
238.858	125.69
239.091	119.69
239.325	119.69
239.559	133.69
239.793	148.69
240.027	148.69
240.26	156.69
240.494	158.69
240.728	153.69
240.961	127.69
241.195	137.69
241.429	143.69
241.662	124.69
241.896	125.69
242.13	134.69
242.363	134.69
242.597	132.69
242.83	125.69
243.064	136.69
243.298	144.69
243.531	138.69
243.765	129.69
243.998	133.69
244.232	143.69
244.465	138.69
244.699	127.69
244.932	143.69
245.166	136.69
245.399	127.69
245.633	137.69
245.866	131.69
246.099	122.69
246.333	133.69
246.566	159.69
246.8	157.69
247.033	156.69
247.266	145.69
247.5	157.69
247.733	149.69
247.966	163.69
248.2	172.69
248.433	172.69
248.666	170.69
248.899	200.69
249.133	208.69
249.366	204.69
249.599	204.69
249.832	165.69
250.066	170.69
250.299	148.69
250.532	172.69
250.765	199.69
250.998	224.69
251.231	194.69
251.465	179.69
251.698	175.69
251.931	190.69
252.164	181.69
252.397	187.69
252.63	185.69
252.863	192.69
253.096	210.69
253.329	213.69
253.562	190.69
253.795	188.69
254.028	189.69
254.261	207.69
254.494	237.69
254.727	275.69
254.96	262.69
255.193	217.69
255.426	188.69
255.659	190.69
255.892	202.69
256.124	193.69
256.357	177.69
256.59	190.69
256.823	176.69
257.056	190.69
257.289	184.69
257.521	194.69
257.754	212.69
257.987	200.69
258.22	193.69
258.452	204.69
258.685	202.69
258.918	209.69
259.151	200.69
259.383	208.69
259.616	212.69
259.849	230.69
260.081	236.69
260.314	254.69
260.547	233.69
260.779	220.69
261.012	213.69
261.244	216.69
261.477	216.69
261.71	230.69
261.942	264.69
262.175	258.69
262.407	205.69
262.64	204.69
262.872	212.69
263.105	210.69
263.337	198.69
263.57	205.69
263.802	205.69
264.035	221.69
264.267	220.69
264.499	193.69
264.732	208.69
264.964	217.69
265.197	211.69
265.429	204.69
265.661	205.69
265.894	218.69
266.126	220.69
266.358	228.69
266.591	232.69
266.823	225.69
267.055	222.69
267.287	241.69
267.52	222.69
267.752	224.69
267.984	225.69
268.216	202.69
268.448	236.69
268.681	246.69
268.913	256.69
269.145	275.69
269.377	270.69
269.609	251.69
269.841	266.69
270.073	288.69
270.306	328.69
270.538	321.69
270.77	293.69
271.002	281.69
271.234	288.69
271.466	302.69
271.698	301.69
271.93	316.69
272.162	310.69
272.394	281.69
272.626	271.69
272.858	270.69
273.09	259.69
273.322	263.69
273.553	256.69
273.785	253.69
274.017	260.69
274.249	271.69
274.481	264.69
274.713	275.69
274.945	290.69
275.176	267.69
275.408	280.69
275.64	282.69
275.872	268.69
276.104	284.69
276.335	287.69
276.567	299.69
276.799	325.69
277.031	364.69
277.262	334.69
277.494	315.69
277.726	301.69
277.957	277.69
278.189	270.69
278.421	275.69
278.652	296.69
278.884	277.69
279.115	269.69
279.347	265.69
279.579	280.69
279.81	273.69
280.042	292.69
280.273	290.69
280.505	270.69
280.736	288.69
280.968	285.69
281.199	282.69
281.431	294.69
281.662	301.69
281.894	287.69
282.125	331.69
282.356	344.69
282.588	374.69
282.819	323.69
283.051	296.69
283.282	288.69
283.513	306.69
283.745	306.69
283.976	299.69
284.207	290.69
284.439	280.69
284.67	280.69
284.901	301.69
285.132	301.69
285.364	299.69
285.595	298.69
285.826	313.69
286.057	303.69
286.288	316.69
286.52	310.69
286.751	300.69
286.982	316.69
287.213	335.69
287.444	311.69
287.675	324.69
287.906	352.69
288.138	332.69
288.369	350.69
288.6	323.69
288.831	322.69
289.062	336.69
289.293	332.69
289.524	311.69
289.755	316.69
289.986	310.69
290.217	304.69
290.448	315.69
290.679	318.69
290.91	311.69
291.141	317.69
291.371	320.69
291.602	325.69
291.833	312.69
292.064	325.69
292.295	339.69
292.526	334.69
292.757	340.69
292.987	332.69
293.218	327.69
293.449	332.69
293.68	326.69
293.91	342.69
294.141	336.69
294.372	348.69
294.603	321.69
294.833	338.69
295.064	356.69
295.295	335.69
295.525	344.69
295.756	365.69
295.987	404.69
296.217	428.69
296.448	384.69
296.679	360.69
296.909	348.69
297.14	354.69
297.37	357.69
297.601	350.69
297.831	361.69
298.062	360.69
298.292	378.69
298.523	361.69
298.753	368.69
298.984	353.69
299.214	365.69
299.445	354.69
299.675	378.69
299.905	366.69
300.136	385.69
300.366	381.69
300.597	381.69
300.827	402.69
301.057	403.69
301.288	396.69
301.518	408.69
301.748	387.69
301.979	410.69
302.209	410.69
302.439	404.69
302.669	403.69
302.9	400.69
303.13	405.69
303.36	404.69
303.59	427.69
303.82	413.69
304.051	382.69
304.281	392.69
304.511	384.69
304.741	390.69
304.971	370.69
305.201	412.69
305.431	373.69
305.661	390.69
305.891	388.69
306.121	379.69
306.352	413.69
306.582	412.69
306.812	379.69
307.042	388.69
307.272	393.69
307.502	366.69
307.731	407.69
307.961	383.69
308.191	400.69
308.421	412.69
308.651	418.69
308.881	410.69
309.111	426.69
309.341	409.69
309.571	448.69
309.8	462.69
310.03	449.69
310.26	465.69
310.49	473.69
310.72	509.69
310.949	517.69
311.179	490.69
311.409	472.69
311.639	473.69
311.868	474.69
312.098	491.69
312.328	511.69
312.557	524.69
312.787	539.69
313.017	524.69
313.246	485.69
313.476	466.69
313.706	499.69
313.935	509.69
314.165	516.69
314.394	523.69
314.624	506.69
314.853	481.69
315.083	472.69
315.312	468.69
315.542	452.69
315.771	461.69
316.001	463.69
316.23	461.69
316.46	487.69
316.689	479.69
316.919	464.69
317.148	504.69
317.377	497.69
317.607	494.69
317.836	459.69
318.065	484.69
318.295	441.69
318.524	450.69
318.753	462.69
318.983	484.69
319.212	507.69
319.441	515.69
319.67	474.69
319.9	473.69
320.129	476.69
320.358	472.69
320.587	487.69
320.816	502.69
321.046	497.69
321.275	504.69
321.504	515.69
321.733	522.69
321.962	512.69
322.191	560.69
322.42	601.69
322.649	606.69
322.878	597.69
323.108	642.69
323.337	703.69
323.566	762.69
323.795	866.69
324.024	1139.69
324.253	1977.69
324.482	3398.69
324.71	4933.69
324.939	4331.69
325.168	1908.69
325.397	901.69
325.626	743.69
325.855	666.69
326.084	671.69
326.313	699.69
326.542	812.69
326.77	1093.69
326.999	1843.69
327.228	2920.69
327.457	3621.69
327.686	2376.69
327.914	1148.69
328.143	885.69
328.372	834.69
328.6	789.69
328.829	837.69
329.058	872.69
329.287	800.69
329.515	686.69
329.744	628.69
329.972	650.69
330.201	707.69
330.43	776.69
330.658	887.69
330.887	927.69
331.115	752.69
331.344	682.69
331.572	658.69
331.801	689.69
332.03	650.69
332.258	621.69
332.486	625.69
332.715	612.69
332.943	638.69
333.172	643.69
333.4	663.69
333.629	697.69
333.857	671.69
334.085	672.69
334.314	643.69
334.542	650.69
334.771	675.69
334.999	658.69
335.227	631.69
335.455	631.69
335.684	610.69
335.912	612.69
336.14	638.69
336.369	633.69
336.597	642.69
336.825	629.69
337.053	595.69
337.281	601.69
337.51	607.69
337.738	622.69
337.966	625.69
338.194	628.69
338.422	593.69
338.65	578.69
338.878	590.69
339.106	563.69
339.334	588.69
339.562	563.69
339.79	566.69
340.018	593.69
340.246	588.69
340.474	571.69
340.702	576.69
340.93	578.69
341.158	573.69
341.386	581.69
341.614	582.69
341.842	553.69
342.07	568.69
342.298	567.69
342.526	556.69
342.754	548.69
342.981	534.69
343.209	579.69
343.437	619.69
343.665	628.69
343.893	638.69
344.12	635.69
344.348	617.69
344.576	633.69
344.804	646.69
345.031	669.69
345.259	652.69
345.487	597.69
345.714	574.69
345.942	552.69
346.17	573.69
346.397	567.69
346.625	576.69
346.853	568.69
347.08	553.69
347.308	588.69
347.535	596.69
347.763	617.69
347.99	602.69
348.218	618.69
348.445	620.69
348.673	582.69
348.9	564.69
349.128	544.69
349.355	555.69
349.583	540.69
349.81	549.69
350.037	547.69
350.265	526.69
350.492	542.69
350.72	548.69
350.947	591.69
351.174	616.69
351.402	624.69
351.629	581.69
351.856	600.69
352.083	635.69
352.311	630.69
352.538	602.69
352.765	606.69
352.992	586.69
353.22	580.69
353.447	575.69
353.674	548.69
353.901	537.69
354.128	522.69
354.355	508.69
354.583	539.69
354.81	517.69
355.037	503.69
355.264	532.69
355.491	520.69
355.718	516.69
355.945	520.69
356.172	540.69
356.399	520.69
356.626	544.69
356.853	538.69
357.08	520.69
357.307	503.69
357.534	534.69
357.761	516.69
357.988	529.69
358.215	542.69
358.441	537.69
358.668	532.69
358.895	543.69
359.122	553.69
359.349	598.69
359.576	649.69
359.802	736.69
360.029	758.69
360.256	721.69
360.483	620.69
360.709	594.69
360.936	584.69
361.163	602.69
361.39	608.69
361.616	602.69
361.843	592.69
362.07	610.69
362.296	604.69
362.523	586.69
362.749	579.69
362.976	577.69
363.203	552.69
363.429	575.69
363.656	543.69
363.882	557.69
364.109	555.69
364.335	565.69
364.562	564.69
364.788	561.69
365.015	547.69
365.241	576.69
365.468	601.69
365.694	578.69
365.92	586.69
366.147	568.69
366.373	580.69
366.599	573.69
366.826	560.69
367.052	558.69
367.278	554.69
367.505	569.69
367.731	578.69
367.957	573.69
368.184	557.69
368.41	578.69
368.636	606.69
368.862	600.69
369.089	572.69
369.315	563.69
369.541	561.69
369.767	577.69
369.993	566.69
370.219	575.69
370.445	570.69
370.672	559.69
370.898	546.69
371.124	574.69
371.35	566.69
371.576	566.69
371.802	569.69
372.028	570.69
372.254	562.69
372.48	581.69
372.706	568.69
372.932	597.69
373.158	567.69
373.384	580.69
373.61	598.69
373.835	579.69
374.061	582.69
374.287	599.69
374.513	596.69
374.739	608.69
374.965	616.69
375.191	596.69
375.416	574.69
375.642	591.69
375.868	573.69
376.094	586.69
376.319	564.69
376.545	556.69
376.771	577.69
376.997	587.69
377.222	582.69
377.448	554.69
377.674	554.69
377.899	545.69
378.125	553.69
378.35	563.69
378.576	560.69
378.802	521.69
379.027	565.69
379.253	562.69
379.478	562.69
379.704	546.69
379.929	577.69
380.155	544.69
380.38	576.69
380.606	592.69
380.831	584.69
381.057	588.69
381.282	573.69
381.507	603.69
381.733	584.69
381.958	581.69
382.184	596.69
382.409	598.69
382.634	577.69
382.86	594.69
383.085	614.69
383.31	589.69
383.535	646.69
383.761	627.69
383.986	644.69
384.211	654.69
384.436	664.69
384.662	634.69
384.887	655.69
385.112	639.69
385.337	681.69
385.562	679.69
385.787	666.69
386.013	712.69
386.238	685.69
386.463	692.69
386.688	693.69
386.913	690.69
387.138	655.69
387.363	668.69
387.588	673.69
387.813	675.69
388.038	669.69
388.263	684.69
388.488	694.69
388.713	668.69
388.938	677.69
389.163	667.69
389.387	659.69
389.612	662.69
389.837	659.69
390.062	671.69
390.287	669.69
390.512	653.69
390.736	677.69
390.961	682.69
391.186	650.69
391.411	707.69
391.636	706.69
391.86	756.69
392.085	765.69
392.31	729.69
392.534	713.69
392.759	694.69
392.984	697.69
393.208	670.69
393.433	699.69
393.658	678.69
393.882	691.69
394.107	680.69
394.331	697.69
394.556	701.69
394.78	732.69
395.005	708.69
395.229	712.69
395.454	730.69
395.678	719.69
395.903	742.69
396.127	776.69
396.352	720.69
396.576	704.69
396.801	718.69
397.025	726.69
397.249	750.69
397.474	768.69
397.698	760.69
397.922	775.69
398.147	778.69
398.371	796.69
398.595	802.69
398.82	817.69
399.044	902.69
399.268	988.69
399.492	1073.69
399.717	1094.69
399.941	1061.69
400.165	1012.69
400.389	980.69
400.613	892.69
400.837	836.69
401.062	857.69
401.286	807.69
401.51	837.69
401.734	830.69
401.958	873.69
402.182	890.69
402.406	914.69
402.63	893.69
402.854	885.69
403.078	914.69
403.302	902.69
403.526	904.69
403.75	929.69
403.974	914.69
404.198	913.69
404.422	893.69
404.645	914.69
404.869	910.69
405.093	941.69
405.317	963.69
405.541	948.69
405.765	924.69
405.988	952.69
406.212	1027.69
406.436	1076.69
406.66	1054.69
406.883	1005.69
407.107	1065.69
407.331	1130.69
407.555	1169.69
407.778	1071.69
408.002	978.69
408.226	949.69
408.449	947.69
408.673	946.69
408.896	980.69
409.12	976.69
409.344	901.69
409.567	868.69
409.791	868.69
410.014	873.69
410.238	837.69
410.461	852.69
410.685	890.69
410.908	891.69
411.132	904.69
411.355	897.69
411.578	883.69
411.802	838.69
412.025	824.69
412.249	846.69
412.472	839.69
412.695	799.69
412.919	798.69
413.142	798.69
413.365	794.69
413.589	802.69
413.812	777.69
414.035	783.69
414.258	793.69
414.482	794.69
414.705	816.69
414.928	801.69
415.151	769.69
415.374	764.69
415.597	801.69
415.821	777.69
416.044	778.69
416.267	781.69
416.49	772.69
416.713	789.69
416.936	777.69
417.159	765.69
417.382	806.69
417.605	825.69
417.828	837.69
418.051	823.69
418.274	821.69
418.497	809.69
418.72	795.69
418.943	782.69
419.166	808.69
419.389	820.69
419.611	837.69
419.834	839.69
420.057	829.69
420.28	807.69
420.503	817.69
420.726	815.69
420.948	867.69
421.171	886.69
421.394	857.69
421.617	819.69
421.839	818.69
422.062	827.69
422.285	880.69
422.507	946.69
422.73	983.69
422.953	888.69
423.175	856.69
423.398	852.69
423.621	851.69
423.843	879.69
424.066	893.69
424.288	915.69
424.511	924.69
424.733	985.69
424.956	1060.69
425.178	1008.69
425.401	962.69
425.623	971.69
425.846	851.69
426.068	822.69
426.291	823.69
426.513	794.69
426.735	869.69
426.958	974.69
427.18	1066.69
427.402	1281.69
427.625	1270.69
427.847	1001.69
428.069	859.69
428.292	818.69
428.514	781.69
428.736	740.69
428.958	756.69
429.181	699.69
429.403	744.69
429.625	786.69
429.847	841.69
430.069	860.69
430.292	799.69
430.514	725.69
430.736	755.69
430.958	731.69
431.18	724.69
431.402	735.69
431.624	730.69
431.846	711.69
432.068	740.69
432.29	741.69
432.512	706.69
432.734	740.69
432.956	740.69
433.178	764.69
433.4	755.69
433.622	717.69
433.844	732.69
434.066	723.69
434.287	753.69
434.509	759.69
434.731	759.69
434.953	822.69
435.175	836.69
435.397	848.69
435.618	885.69
435.84	952.69
436.062	1040.69
436.284	962.69
436.505	837.69
436.727	829.69
436.949	776.69
437.17	770.69
437.392	764.69
437.614	800.69
437.835	932.69
438.057	1057.69
438.278	1104.69
438.5	1094.69
438.721	1104.69
438.943	942.69
439.165	814.69
439.386	829.69
439.608	838.69
439.829	878.69
440.05	949.69
440.272	1010.69
440.493	883.69
440.715	785.69
440.936	770.69
441.158	794.69
441.379	826.69
441.6	857.69
441.822	892.69
442.043	1005.69
442.264	1028.69
442.486	959.69
442.707	885.69
442.928	902.69
443.149	939.69
443.371	997.69
443.592	1074.69
443.813	1116.69
444.034	1082.69
444.255	953.69
444.476	904.69
444.698	915.69
444.919	954.69
445.14	977.69
445.361	978.69
445.582	1071.69
445.803	1202.69
446.024	1229.69
446.245	1170.69
446.466	966.69
446.687	816.69
446.908	799.69
447.129	761.69
447.35	753.69
447.571	786.69
447.792	743.69
448.013	772.69
448.234	850.69
448.455	950.69
448.675	1034.69
448.896	1003.69
449.117	919.69
449.338	992.69
449.559	1124.69
449.779	1070.69
450	806.69
450.221	750.69
450.442	762.69
450.662	770.69
450.883	837.69
451.104	836.69
451.324	752.69
451.545	712.69
451.766	683.69
451.986	670.69
452.207	662.69
452.428	687.69
452.648	678.69
452.869	708.69
453.089	732.69
453.31	703.69
453.53	680.69
453.751	686.69
453.971	704.69
454.192	763.69
454.412	684.69
454.633	658.69
454.853	676.69
455.073	668.69
455.294	752.69
455.514	802.69
455.734	709.69
455.955	645.69
456.175	624.69
456.395	628.69
456.616	585.69
456.836	604.69
457.056	613.69
457.276	600.69
457.497	630.69
457.717	616.69
457.937	643.69
458.157	648.69
458.377	651.69
458.598	794.69
458.818	1005.69
459.038	1040.69
459.258	889.69
459.478	779.69
459.698	769.69
459.918	763.69
460.138	753.69
460.358	804.69
460.578	770.69
460.798	805.69
461.018	785.69
461.238	798.69
461.458	764.69
461.678	791.69
461.898	788.69
462.118	798.69
462.338	811.69
462.558	857.69
462.777	900.69
462.997	950.69
463.217	970.69
463.437	922.69
463.657	875.69
463.876	874.69
464.096	882.69
464.316	909.69
464.536	890.69
464.755	911.69
464.975	967.69
465.195	1164.69
465.414	1079.69
465.634	839.69
465.854	784.69
466.073	740.69
466.293	696.69
466.512	708.69
466.732	703.69
466.951	701.69
467.171	705.69
467.391	740.69
467.61	794.69
467.829	754.69
468.049	706.69
468.268	668.69
468.488	689.69
468.707	677.69
468.927	669.69
469.146	698.69
469.365	732.69
469.585	722.69
469.804	745.69
470.023	761.69
470.243	729.69
470.462	797.69
470.681	792.69
470.901	747.69
471.12	714.69
471.339	732.69
471.558	722.69
471.777	661.69
471.997	657.69
472.216	654.69
472.435	640.69
472.654	625.69
472.873	666.69
473.092	667.69
473.311	673.69
473.53	675.69
473.749	677.69
473.968	823.69
474.187	907.69
474.406	785.69
474.625	709.69
474.844	639.69
475.063	650.69
475.282	655.69
475.501	693.69
475.72	709.69
475.939	686.69
476.158	690.69
476.377	721.69
476.596	687.69
476.814	732.69
477.033	744.69
477.252	735.69
477.471	740.69
477.69	729.69
477.908	760.69
478.127	800.69
478.346	761.69
478.564	796.69
478.783	815.69
479.002	806.69
479.22	827.69
479.439	870.69
479.658	868.69
479.876	863.69
480.095	880.69
480.313	890.69
480.532	836.69
480.751	850.69
480.969	827.69
481.188	839.69
481.406	821.69
481.624	780.69
481.843	785.69
482.061	741.69
482.28	766.69
482.498	759.69
482.717	751.69
482.935	763.69
483.153	761.69
483.372	762.69
483.59	794.69
483.808	781.69
484.027	778.69
484.245	776.69
484.463	782.69
484.681	813.69
484.9	808.69
485.118	816.69
485.336	810.69
485.554	799.69
485.772	805.69
485.99	796.69
486.209	810.69
486.427	833.69
486.645	899.69
486.863	892.69
487.081	832.69
487.299	822.69
487.517	818.69
487.735	820.69
487.953	832.69
488.171	838.69
488.389	829.69
488.607	838.69
488.825	829.69
489.043	808.69
489.261	821.69
489.479	840.69
489.696	830.69
489.914	831.69
490.132	828.69
490.35	865.69
490.568	876.69
490.786	886.69
491.003	925.69
491.221	970.69
491.439	932.69
491.657	974.69
491.874	970.69
492.092	986.69
492.31	989.69
492.527	981.69
492.745	957.69
492.963	1006.69
493.18	999.69
493.398	992.69
493.615	1023.69
493.833	987.69
494.05	1004.69
494.268	968.69
494.485	969.69
494.703	989.69
494.92	993.69
495.138	961.69
495.355	1006.69
495.573	979.69
495.79	1003.69
496.008	959.69
496.225	976.69
496.442	978.69
496.66	992.69
496.877	1011.69
497.094	990.69
497.312	1021.69
497.529	1034.69
497.746	1046.69
497.963	1070.69
498.181	1136.69
498.398	1166.69
498.615	1220.69
498.832	1228.69
499.049	1275.69
499.267	1369.69
499.484	1445.69
499.701	1539.69
499.918	1659.69
500.135	1801.69
500.352	1925.69
500.569	1907.69
500.786	1867.69
501.003	1770.69
501.22	1634.69
501.437	1521.69
501.654	1494.69
