Data from TestCu_HRD10591_00040.txt Node
Date: Thu Oct 05 14:05:20 EDT 2023
User: Yrep
Spectrometer: HR+D1059
Trigger mode: 1
Integration Time (sec): 1.000000E-1
Scans to average: 1
Electric dark correction enabled: true
Nonlinearity correction enabled: false
Boxcar width: 0
XAxis mode: Wavelengths
Number of Pixels in Spectrum: 2048
>>>>>Begin Spectral Data<<<<<
223.165	-30.94
223.4	-30.94
223.635	-30.94
223.869	-7.94
224.104	-19.94
224.338	-24.94
224.573	-14.94
224.808	-5.94
225.042	-13.94
225.277	0.06
225.511	-0.94
225.746	3.06
225.98	4.06
226.215	14.06
226.449	21.06
226.683	26.06
226.918	15.06
227.152	36.06
227.387	40.06
227.621	37.06
227.856	52.06
228.09	43.06
228.324	51.06
228.559	69.06
228.793	70.06
229.027	107.06
229.262	100.06
229.496	140.06
229.73	167.06
229.964	164.06
230.199	125.06
230.433	115.06
230.667	117.06
230.901	110.06
231.136	100.06
231.37	112.06
231.604	100.06
231.838	103.06
232.072	99.06
232.306	114.06
232.541	110.06
232.775	108.06
233.009	109.06
233.243	117.06
233.477	140.06
233.711	132.06
233.945	120.06
234.179	112.06
234.413	103.06
234.647	109.06
234.881	111.06
235.115	109.06
235.349	126.06
235.583	118.06
235.817	116.06
236.051	138.06
236.285	116.06
236.519	130.06
236.753	138.06
236.987	184.06
237.221	203.06
237.455	215.06
237.689	147.06
237.922	124.06
238.156	124.06
238.39	128.06
238.624	110.06
238.858	123.06
239.091	122.06
239.325	119.06
239.559	119.06
239.793	136.06
240.027	140.06
240.26	158.06
240.494	154.06
240.728	158.06
240.961	133.06
241.195	132.06
241.429	127.06
241.662	120.06
241.896	133.06
242.13	139.06
242.363	130.06
242.597	127.06
242.83	130.06
243.064	132.06
243.298	128.06
243.531	132.06
243.765	126.06
243.998	131.06
244.232	122.06
244.465	148.06
244.699	140.06
244.932	136.06
245.166	142.06
245.399	157.06
245.633	158.06
245.866	134.06
246.099	158.06
246.333	134.06
246.566	142.06
246.8	140.06
247.033	159.06
247.266	162.06
247.5	163.06
247.733	176.06
247.966	160.06
248.2	168.06
248.433	176.06
248.666	177.06
248.899	196.06
249.133	214.06
249.366	215.06
249.599	179.06
249.832	178.06
250.066	183.06
250.299	184.06
250.532	196.06
250.765	211.06
250.998	214.06
251.231	200.06
251.465	168.06
251.698	180.06
251.931	176.06
252.164	177.06
252.397	171.06
252.63	203.06
252.863	197.06
253.096	201.06
253.329	224.06
253.562	218.06
253.795	205.06
254.028	220.06
254.261	220.06
254.494	241.06
254.727	255.06
254.96	245.06
255.193	220.06
255.426	212.06
255.659	196.06
255.892	208.06
256.124	196.06
256.357	198.06
256.59	195.06
256.823	192.06
257.056	195.06
257.289	200.06
257.521	186.06
257.754	189.06
257.987	196.06
258.22	203.06
258.452	193.06
258.685	203.06
258.918	191.06
259.151	205.06
259.383	199.06
259.616	215.06
259.849	212.06
260.081	248.06
260.314	239.06
260.547	219.06
260.779	222.06
261.012	218.06
261.244	236.06
261.477	224.06
261.71	238.06
261.942	237.06
262.175	259.06
262.407	223.06
262.64	219.06
262.872	199.06
263.105	204.06
263.337	222.06
263.57	192.06
263.802	219.06
264.035	218.06
264.267	207.06
264.499	226.06
264.732	213.06
264.964	218.06
265.197	210.06
265.429	215.06
265.661	209.06
265.894	201.06
266.126	220.06
266.358	204.06
266.591	215.06
266.823	221.06
267.055	229.06
267.287	229.06
267.52	221.06
267.752	230.06
267.984	219.06
268.216	234.06
268.448	246.06
268.681	243.06
268.913	261.06
269.145	282.06
269.377	271.06
269.609	257.06
269.841	265.06
270.073	296.06
270.306	307.06
270.538	282.06
270.77	293.06
271.002	279.06
271.234	290.06
271.466	298.06
271.698	319.06
271.93	294.06
272.162	316.06
272.394	305.06
272.626	274.06
272.858	254.06
273.09	264.06
273.322	272.06
273.553	254.06
273.785	250.06
274.017	271.06
274.249	268.06
274.481	277.06
274.713	285.06
274.945	277.06
275.176	270.06
275.408	261.06
275.64	267.06
275.872	262.06
276.104	263.06
276.335	287.06
276.567	296.06
276.799	345.06
277.031	356.06
277.262	343.06
277.494	307.06
277.726	300.06
277.957	290.06
278.189	262.06
278.421	276.06
278.652	290.06
278.884	265.06
279.115	254.06
279.347	276.06
279.579	265.06
279.81	269.06
280.042	284.06
280.273	279.06
280.505	296.06
280.736	288.06
280.968	278.06
281.199	289.06
281.431	278.06
281.662	279.06
281.894	307.06
282.125	322.06
282.356	353.06
282.588	382.06
282.819	325.06
283.051	306.06
283.282	304.06
283.513	304.06
283.745	318.06
283.976	304.06
284.207	292.06
284.439	292.06
284.67	289.06
284.901	299.06
285.132	286.06
285.364	294.06
285.595	289.06
285.826	289.06
286.057	301.06
286.288	305.06
286.52	318.06
286.751	292.06
286.982	315.06
287.213	309.06
287.444	308.06
287.675	333.06
287.906	332.06
288.138	347.06
288.369	331.06
288.6	328.06
288.831	315.06
289.062	323.06
289.293	318.06
289.524	309.06
289.755	314.06
289.986	325.06
290.217	334.06
290.448	308.06
290.679	327.06
290.91	330.06
291.141	312.06
291.371	328.06
291.602	334.06
291.833	321.06
292.064	314.06
292.295	316.06
292.526	301.06
292.757	348.06
292.987	319.06
293.218	318.06
293.449	340.06
293.68	330.06
293.91	326.06
294.141	334.06
294.372	316.06
294.603	346.06
294.833	341.06
295.064	358.06
295.295	350.06
295.525	343.06
295.756	381.06
295.987	403.06
296.217	398.06
296.448	386.06
296.679	332.06
296.909	352.06
297.14	342.06
297.37	352.06
297.601	343.06
297.831	367.06
298.062	380.06
298.292	358.06
298.523	359.06
298.753	369.06
298.984	359.06
299.214	363.06
299.445	355.06
299.675	382.06
299.905	373.06
300.136	382.06
300.366	376.06
300.597	382.06
300.827	389.06
301.057	395.06
301.288	397.06
301.518	388.06
301.748	389.06
301.979	404.06
302.209	433.06
302.439	418.06
302.669	405.06
302.9	402.06
303.13	392.06
303.36	408.06
303.59	414.06
303.82	404.06
304.051	397.06
304.281	378.06
304.511	404.06
304.741	400.06
304.971	400.06
305.201	403.06
305.431	384.06
305.661	402.06
305.891	401.06
306.121	395.06
306.352	429.06
306.582	407.06
306.812	387.06
307.042	407.06
307.272	399.06
307.502	383.06
307.731	401.06
307.961	397.06
308.191	397.06
308.421	414.06
308.651	407.06
308.881	409.06
309.111	424.06
309.341	428.06
309.571	446.06
309.8	468.06
310.03	462.06
310.26	476.06
310.49	484.06
310.72	506.06
310.949	510.06
311.179	475.06
311.409	459.06
311.639	466.06
311.868	480.06
312.098	465.06
312.328	508.06
312.557	535.06
312.787	540.06
313.017	509.06
313.246	476.06
313.476	472.06
313.706	484.06
313.935	517.06
314.165	531.06
314.394	509.06
314.624	489.06
314.853	466.06
315.083	480.06
315.312	478.06
315.542	471.06
315.771	453.06
316.001	467.06
316.23	483.06
316.46	458.06
316.689	462.06
316.919	484.06
317.148	460.06
317.377	476.06
317.607	491.06
317.836	485.06
318.065	472.06
318.295	456.06
318.524	445.06
318.753	469.06
318.983	486.06
319.212	466.06
319.441	512.06
319.67	461.06
319.9	457.06
320.129	464.06
320.358	468.06
320.587	491.06
320.816	504.06
321.046	499.06
321.275	491.06
321.504	511.06
321.733	510.06
321.962	510.06
322.191	559.06
322.42	569.06
322.649	600.06
322.878	630.06
323.108	660.06
323.337	731.06
323.566	756.06
323.795	858.06
324.024	1160.06
324.253	1972.06
324.482	3379.06
324.71	4922.06
324.939	4332.06
325.168	1911.06
325.397	924.06
325.626	711.06
325.855	668.06
326.084	668.06
326.313	699.06
326.542	795.06
326.77	1109.06
326.999	1846.06
327.228	2956.06
327.457	3612.06
327.686	2381.06
327.914	1142.06
328.143	874.06
328.372	830.06
328.6	780.06
328.829	809.06
329.058	862.06
329.287	786.06
329.515	669.06
329.744	627.06
329.972	643.06
330.201	687.06
330.43	805.06
330.658	943.06
330.887	924.06
331.115	782.06
331.344	683.06
331.572	645.06
331.801	659.06
332.03	651.06
332.258	622.06
332.486	622.06
332.715	653.06
332.943	636.06
333.172	631.06
333.4	678.06
333.629	692.06
333.857	671.06
334.085	683.06
334.314	648.06
334.542	652.06
334.771	644.06
334.999	658.06
335.227	621.06
335.455	623.06
335.684	600.06
335.912	622.06
336.14	616.06
336.369	631.06
336.597	662.06
336.825	631.06
337.053	612.06
337.281	627.06
337.51	581.06
337.738	623.06
337.966	618.06
338.194	590.06
338.422	587.06
338.65	571.06
338.878	581.06
339.106	562.06
339.334	567.06
339.562	577.06
339.79	582.06
340.018	558.06
340.246	581.06
340.474	580.06
340.702	594.06
340.93	592.06
341.158	574.06
341.386	592.06
341.614	599.06
341.842	595.06
342.07	556.06
342.298	563.06
342.526	543.06
342.754	559.06
342.981	548.06
343.209	578.06
343.437	571.06
343.665	592.06
343.893	634.06
344.12	625.06
344.348	602.06
344.576	632.06
344.804	630.06
345.031	640.06
345.259	634.06
345.487	603.06
345.714	580.06
345.942	559.06
346.17	540.06
346.397	557.06
346.625	569.06
346.853	554.06
347.08	570.06
347.308	599.06
347.535	606.06
347.763	604.06
347.99	587.06
348.218	626.06
348.445	614.06
348.673	589.06
348.9	578.06
349.128	562.06
349.355	541.06
349.583	547.06
349.81	577.06
350.037	549.06
350.265	534.06
350.492	530.06
350.72	558.06
350.947	580.06
351.174	609.06
351.402	588.06
351.629	600.06
351.856	596.06
352.083	603.06
352.311	618.06
352.538	624.06
352.765	582.06
352.992	620.06
353.22	582.06
353.447	566.06
353.674	564.06
353.901	532.06
354.128	544.06
354.355	528.06
354.583	541.06
354.81	548.06
355.037	531.06
355.264	546.06
355.491	514.06
355.718	509.06
355.945	523.06
356.172	520.06
356.399	547.06
356.626	528.06
356.853	500.06
357.08	524.06
357.307	538.06
357.534	527.06
357.761	542.06
357.988	544.06
358.215	519.06
358.441	530.06
358.668	526.06
358.895	560.06
359.122	572.06
359.349	583.06
359.576	638.06
359.802	720.06
360.029	747.06
360.256	717.06
360.483	612.06
360.709	596.06
360.936	569.06
361.163	618.06
361.39	618.06
361.616	594.06
361.843	589.06
362.07	616.06
362.296	611.06
362.523	614.06
362.749	604.06
362.976	567.06
363.203	570.06
363.429	588.06
363.656	554.06
363.882	558.06
364.109	563.06
364.335	557.06
364.562	566.06
364.788	566.06
365.015	580.06
365.241	576.06
365.468	602.06
365.694	579.06
365.92	575.06
366.147	571.06
366.373	557.06
366.599	529.06
366.826	560.06
367.052	553.06
367.278	550.06
367.505	562.06
367.731	538.06
367.957	533.06
368.184	558.06
368.41	610.06
368.636	599.06
368.862	614.06
369.089	568.06
369.315	572.06
369.541	566.06
369.767	560.06
369.993	581.06
370.219	570.06
370.445	552.06
370.672	569.06
370.898	540.06
371.124	565.06
371.35	569.06
371.576	595.06
371.802	562.06
372.028	557.06
372.254	588.06
372.48	582.06
372.706	593.06
372.932	583.06
373.158	562.06
373.384	618.06
373.61	560.06
373.835	574.06
374.061	594.06
374.287	605.06
374.513	593.06
374.739	591.06
374.965	592.06
375.191	619.06
375.416	607.06
375.642	594.06
375.868	576.06
376.094	599.06
376.319	580.06
376.545	573.06
376.771	583.06
376.997	555.06
377.222	572.06
377.448	579.06
377.674	540.06
377.899	555.06
378.125	541.06
378.35	564.06
378.576	556.06
378.802	527.06
379.027	582.06
379.253	570.06
379.478	584.06
379.704	586.06
379.929	563.06
380.155	589.06
380.38	588.06
380.606	565.06
380.831	569.06
381.057	590.06
381.282	596.06
381.507	580.06
381.733	606.06
381.958	608.06
382.184	568.06
382.409	606.06
382.634	623.06
382.86	601.06
383.085	611.06
383.31	630.06
383.535	620.06
383.761	626.06
383.986	631.06
384.211	639.06
384.436	658.06
384.662	644.06
384.887	660.06
385.112	661.06
385.337	692.06
385.562	677.06
385.787	690.06
386.013	711.06
386.238	697.06
386.463	667.06
386.688	680.06
386.913	657.06
387.138	684.06
387.363	670.06
387.588	645.06
387.813	658.06
388.038	661.06
388.263	656.06
388.488	663.06
388.713	686.06
388.938	677.06
389.163	682.06
389.387	681.06
389.612	660.06
389.837	646.06
390.062	646.06
390.287	679.06
390.512	656.06
390.736	667.06
390.961	665.06
391.186	694.06
391.411	700.06
391.636	762.06
391.86	725.06
392.085	710.06
392.31	707.06
392.534	719.06
392.759	706.06
392.984	687.06
393.208	675.06
393.433	701.06
393.658	707.06
393.882	694.06
394.107	687.06
394.331	696.06
394.556	696.06
394.78	711.06
395.005	725.06
395.229	695.06
395.454	725.06
395.678	744.06
395.903	732.06
396.127	751.06
396.352	738.06
396.576	691.06
396.801	696.06
397.025	747.06
397.249	751.06
397.474	756.06
397.698	767.06
397.922	770.06
398.147	770.06
398.371	789.06
398.595	820.06
398.82	855.06
399.044	901.06
399.268	1019.06
399.492	1095.06
399.717	1130.06
399.941	1063.06
400.165	1004.06
400.389	933.06
400.613	876.06
400.837	864.06
401.062	848.06
401.286	845.06
401.51	850.06
401.734	839.06
401.958	851.06
402.182	917.06
402.406	921.06
402.63	914.06
402.854	923.06
403.078	888.06
403.302	926.06
403.526	934.06
403.75	916.06
403.974	904.06
404.198	899.06
404.422	903.06
404.645	899.06
404.869	936.06
405.093	932.06
405.317	951.06
405.541	955.06
405.765	914.06
405.988	944.06
406.212	1032.06
406.436	1083.06
406.66	1045.06
406.883	1022.06
407.107	1060.06
407.331	1098.06
407.555	1150.06
407.778	1082.06
408.002	996.06
408.226	980.06
408.449	925.06
408.673	940.06
408.896	962.06
409.12	981.06
409.344	927.06
409.567	861.06
409.791	861.06
410.014	864.06
410.238	860.06
410.461	904.06
410.685	885.06
410.908	926.06
411.132	932.06
411.355	909.06
411.578	892.06
411.802	850.06
412.025	834.06
412.249	862.06
412.472	839.06
412.695	823.06
412.919	790.06
413.142	803.06
413.365	803.06
413.589	788.06
413.812	794.06
414.035	812.06
414.258	814.06
414.482	808.06
414.705	818.06
414.928	827.06
415.151	796.06
415.374	796.06
415.597	818.06
415.821	801.06
416.044	773.06
416.267	774.06
416.49	778.06
416.713	777.06
416.936	797.06
417.159	789.06
417.382	796.06
417.605	787.06
417.828	858.06
418.051	818.06
418.274	811.06
418.497	816.06
418.72	821.06
418.943	834.06
419.166	824.06
419.389	844.06
419.611	848.06
419.834	850.06
420.057	829.06
420.28	802.06
420.503	798.06
420.726	811.06
420.948	843.06
421.171	903.06
421.394	879.06
421.617	845.06
421.839	792.06
422.062	864.06
422.285	910.06
422.507	956.06
422.73	955.06
422.953	924.06
423.175	868.06
423.398	879.06
423.621	866.06
423.843	880.06
424.066	899.06
424.288	892.06
424.511	935.06
424.733	1000.06
424.956	1070.06
425.178	1001.06
425.401	967.06
425.623	971.06
425.846	842.06
426.068	825.06
426.291	826.06
426.513	848.06
426.735	865.06
426.958	972.06
427.18	1078.06
427.402	1232.06
427.625	1261.06
427.847	1014.06
428.069	815.06
428.292	803.06
428.514	750.06
428.736	772.06
428.958	743.06
429.181	739.06
429.403	750.06
429.625	792.06
429.847	820.06
430.069	878.06
430.292	800.06
430.514	738.06
430.736	740.06
430.958	773.06
431.18	725.06
431.402	730.06
431.624	726.06
431.846	721.06
432.068	715.06
432.29	725.06
432.512	719.06
432.734	766.06
432.956	744.06
433.178	749.06
433.4	750.06
433.622	759.06
433.844	766.06
434.066	757.06
434.287	766.06
434.509	785.06
434.731	796.06
434.953	801.06
435.175	818.06
435.397	826.06
435.618	859.06
435.84	939.06
436.062	1039.06
436.284	978.06
436.505	846.06
436.727	818.06
436.949	759.06
437.17	754.06
437.392	771.06
437.614	817.06
437.835	963.06
438.057	1046.06
438.278	1050.06
438.5	1059.06
438.721	1078.06
438.943	916.06
439.165	838.06
439.386	783.06
439.608	816.06
439.829	890.06
440.05	960.06
440.272	953.06
440.493	858.06
440.715	787.06
440.936	806.06
441.158	806.06
441.379	809.06
441.6	859.06
441.822	919.06
442.043	978.06
442.264	1024.06
442.486	972.06
442.707	940.06
442.928	890.06
443.149	954.06
443.371	1012.06
443.592	1060.06
443.813	1118.06
444.034	1066.06
444.255	949.06
444.476	911.06
444.698	940.06
444.919	929.06
445.14	974.06
445.361	939.06
445.582	1060.06
445.803	1199.06
446.024	1234.06
446.245	1121.06
446.466	974.06
446.687	868.06
446.908	800.06
447.129	754.06
447.35	744.06
447.571	737.06
447.792	748.06
448.013	778.06
448.234	819.06
448.455	922.06
448.675	1060.06
448.896	1013.06
449.117	912.06
449.338	978.06
449.559	1118.06
449.779	1058.06
450	818.06
450.221	757.06
450.442	749.06
450.662	755.06
450.883	812.06
451.104	831.06
451.324	753.06
451.545	710.06
451.766	679.06
451.986	673.06
452.207	659.06
452.428	683.06
452.648	696.06
452.869	716.06
453.089	719.06
453.31	727.06
453.53	677.06
453.751	683.06
453.971	730.06
454.192	738.06
454.412	656.06
454.633	642.06
454.853	670.06
455.073	688.06
455.294	718.06
455.514	786.06
455.734	686.06
455.955	622.06
456.175	627.06
456.395	624.06
456.616	614.06
456.836	632.06
457.056	613.06
457.276	596.06
457.497	604.06
457.717	632.06
457.937	631.06
458.157	659.06
458.377	691.06
458.598	808.06
458.818	1000.06
459.038	1030.06
459.258	903.06
459.478	775.06
459.698	737.06
459.918	761.06
460.138	757.06
460.358	807.06
460.578	768.06
460.798	797.06
461.018	796.06
461.238	787.06
461.458	804.06
461.678	780.06
461.898	773.06
462.118	814.06
462.338	855.06
462.558	856.06
462.777	908.06
462.997	929.06
463.217	962.06
463.437	914.06
463.657	905.06
463.876	875.06
464.096	888.06
464.316	908.06
464.536	892.06
464.755	899.06
464.975	980.06
465.195	1207.06
465.414	1080.06
465.634	822.06
465.854	768.06
466.073	762.06
466.293	698.06
466.512	714.06
466.732	706.06
466.951	707.06
467.171	689.06
467.391	740.06
467.61	782.06
467.829	743.06
468.049	720.06
468.268	674.06
468.488	665.06
468.707	691.06
468.927	683.06
469.146	659.06
469.365	698.06
469.585	708.06
469.804	725.06
470.023	780.06
470.243	741.06
470.462	797.06
470.681	791.06
470.901	753.06
471.12	713.06
471.339	702.06
471.558	717.06
471.777	662.06
471.997	674.06
472.216	679.06
472.435	653.06
472.654	663.06
472.873	640.06
473.092	667.06
473.311	663.06
473.53	655.06
473.749	711.06
473.968	803.06
474.187	910.06
474.406	780.06
474.625	691.06
474.844	658.06
475.063	673.06
475.282	667.06
475.501	668.06
475.72	705.06
475.939	714.06
476.158	676.06
476.377	682.06
476.596	677.06
476.814	738.06
477.033	764.06
477.252	736.06
477.471	743.06
477.69	757.06
477.908	770.06
478.127	779.06
478.346	768.06
478.564	798.06
478.783	796.06
479.002	794.06
479.22	836.06
479.439	872.06
479.658	890.06
479.876	893.06
480.095	896.06
480.313	931.06
480.532	906.06
480.751	864.06
480.969	843.06
481.188	807.06
481.406	787.06
481.624	790.06
481.843	778.06
482.061	763.06
482.28	779.06
482.498	756.06
482.717	747.06
482.935	743.06
483.153	772.06
483.372	781.06
483.59	788.06
483.808	797.06
484.027	765.06
484.245	774.06
484.463	793.06
484.681	803.06
484.9	786.06
485.118	840.06
485.336	812.06
485.554	822.06
485.772	814.06
485.99	845.06
486.209	811.06
486.427	826.06
486.645	853.06
486.863	885.06
487.081	870.06
487.299	847.06
487.517	834.06
487.735	835.06
487.953	809.06
488.171	826.06
488.389	840.06
488.607	824.06
488.825	802.06
489.043	836.06
489.261	848.06
489.479	824.06
489.696	842.06
489.914	860.06
490.132	872.06
490.35	864.06
490.568	866.06
490.786	920.06
491.003	934.06
491.221	933.06
491.439	966.06
491.657	970.06
491.874	979.06
492.092	1002.06
492.31	979.06
492.527	951.06
492.745	950.06
492.963	965.06
493.18	991.06
493.398	988.06
493.615	980.06
493.833	990.06
494.05	1012.06
494.268	974.06
494.485	943.06
494.703	984.06
494.92	954.06
495.138	985.06
495.355	961.06
495.573	987.06
495.79	968.06
496.008	986.06
496.225	981.06
496.442	980.06
496.66	976.06
496.877	981.06
497.094	990.06
497.312	1015.06
497.529	1045.06
497.746	1028.06
497.963	1074.06
498.181	1116.06
498.398	1163.06
498.615	1246.06
498.832	1253.06
499.049	1326.06
499.267	1364.06
499.484	1424.06
499.701	1524.06
499.918	1680.06
500.135	1800.06
500.352	1936.06
500.569	1922.06
500.786	1834.06
501.003	1786.06
501.22	1662.06
501.437	1553.06
501.654	1475.06
