Data from TestCu_HRD10591_00046.txt Node
Date: Thu Oct 05 14:05:26 EDT 2023
User: Yrep
Spectrometer: HR+D1059
Trigger mode: 1
Integration Time (sec): 1.000000E-1
Scans to average: 1
Electric dark correction enabled: true
Nonlinearity correction enabled: false
Boxcar width: 0
XAxis mode: Wavelengths
Number of Pixels in Spectrum: 2048
>>>>>Begin Spectral Data<<<<<
223.165	-17
223.4	-17
223.635	-17
223.869	-12
224.104	-14
224.338	-17
224.573	-26
224.808	-5
225.042	-20
225.277	2
225.511	-11
225.746	4
225.98	11
226.215	12
226.449	18
226.683	22
226.918	20
227.152	33
227.387	46
227.621	49
227.856	46
228.09	45
228.324	53
228.559	67
228.793	66
229.027	104
229.262	125
229.496	134
229.73	173
229.964	146
230.199	124
230.433	115
230.667	126
230.901	102
231.136	80
231.37	122
231.604	117
231.838	106
232.072	119
232.306	132
232.541	107
232.775	112
233.009	119
233.243	114
233.477	130
233.711	121
233.945	129
234.179	119
234.413	119
234.647	109
234.881	124
235.115	125
235.349	123
235.583	118
235.817	123
236.051	130
236.285	130
236.519	144
236.753	162
236.987	167
237.221	223
237.455	218
237.689	154
237.922	153
238.156	126
238.39	123
238.624	117
238.858	131
239.091	116
239.325	139
239.559	147
239.793	140
240.027	155
240.26	174
240.494	190
240.728	167
240.961	137
241.195	126
241.429	144
241.662	130
241.896	122
242.13	134
242.363	125
242.597	137
242.83	140
243.064	129
243.298	133
243.531	139
243.765	122
243.998	123
244.232	148
244.465	147
244.699	134
244.932	148
245.166	145
245.399	159
245.633	133
245.866	146
246.099	153
246.333	158
246.566	130
246.8	140
247.033	150
247.266	159
247.5	175
247.733	176
247.966	155
248.2	163
248.433	162
248.666	171
248.899	190
249.133	205
249.366	192
249.599	184
249.832	176
250.066	167
250.299	174
250.532	196
250.765	198
250.998	208
251.231	202
251.465	193
251.698	178
251.931	185
252.164	172
252.397	194
252.63	206
252.863	209
253.096	228
253.329	218
253.562	208
253.795	216
254.028	209
254.261	226
254.494	242
254.727	277
254.96	256
255.193	217
255.426	200
255.659	186
255.892	208
256.124	185
256.357	185
256.59	182
256.823	178
257.056	202
257.289	197
257.521	194
257.754	187
257.987	199
258.22	211
258.452	196
258.685	198
258.918	205
259.151	210
259.383	229
259.616	232
259.849	230
260.081	244
260.314	250
260.547	235
260.779	206
261.012	238
261.244	215
261.477	206
261.71	234
261.942	238
262.175	265
262.407	241
262.64	228
262.872	216
263.105	197
263.337	222
263.57	202
263.802	225
264.035	218
264.267	226
264.499	222
264.732	219
264.964	218
265.197	224
265.429	216
265.661	220
265.894	225
266.126	214
266.358	215
266.591	225
266.823	230
267.055	219
267.287	239
267.52	222
267.752	219
267.984	218
268.216	259
268.448	243
268.681	256
268.913	272
269.145	264
269.377	290
269.609	272
269.841	283
270.073	294
270.306	324
270.538	318
270.77	312
271.002	296
271.234	302
271.466	316
271.698	312
271.93	307
272.162	298
272.394	292
272.626	275
272.858	264
273.09	253
273.322	258
273.553	251
273.785	276
274.017	269
274.249	257
274.481	281
274.713	274
274.945	281
275.176	271
275.408	289
275.64	265
275.872	272
276.104	274
276.335	302
276.567	316
276.799	365
277.031	369
277.262	352
277.494	300
277.726	272
277.957	289
278.189	282
278.421	281
278.652	266
278.884	270
279.115	273
279.347	273
279.579	274
279.81	275
280.042	269
280.273	265
280.505	279
280.736	294
280.968	275
281.199	296
281.431	296
281.662	291
281.894	297
282.125	317
282.356	332
282.588	374
282.819	341
283.051	298
283.282	279
283.513	310
283.745	320
283.976	306
284.207	310
284.439	297
284.67	308
284.901	295
285.132	324
285.364	306
285.595	305
285.826	308
286.057	304
286.288	308
286.52	326
286.751	294
286.982	319
287.213	326
287.444	327
287.675	341
287.906	360
288.138	340
288.369	338
288.6	332
288.831	327
289.062	338
289.293	322
289.524	314
289.755	314
289.986	312
290.217	337
290.448	329
290.679	330
290.91	346
291.141	331
291.371	328
291.602	319
291.833	328
292.064	335
292.295	333
292.526	335
292.757	338
292.987	316
293.218	320
293.449	335
293.68	342
293.91	328
294.141	325
294.372	330
294.603	330
294.833	344
295.064	336
295.295	351
295.525	346
295.756	366
295.987	386
296.217	416
296.448	389
296.679	363
296.909	351
297.14	358
297.37	346
297.601	380
297.831	377
298.062	379
298.292	367
298.523	367
298.753	359
298.984	363
299.214	369
299.445	377
299.675	365
299.905	387
300.136	380
300.366	398
300.597	380
300.827	418
301.057	399
301.288	409
301.518	390
301.748	406
301.979	423
302.209	412
302.439	404
302.669	396
302.9	375
303.13	378
303.36	392
303.59	417
303.82	426
304.051	384
304.281	390
304.511	398
304.741	394
304.971	398
305.201	395
305.431	386
305.661	399
305.891	397
306.121	400
306.352	412
306.582	403
306.812	409
307.042	382
307.272	390
307.502	408
307.731	386
307.961	408
308.191	392
308.421	410
308.651	394
308.881	429
309.111	422
309.341	422
309.571	463
309.8	448
310.03	454
310.26	473
310.49	498
310.72	522
310.949	515
311.179	511
311.409	479
311.639	474
311.868	475
312.098	475
312.328	529
312.557	556
312.787	537
313.017	501
313.246	495
313.476	476
313.706	506
313.935	528
314.165	545
314.394	531
314.624	496
314.853	506
315.083	458
315.312	475
315.542	451
315.771	469
316.001	460
316.23	462
316.46	459
316.689	485
316.919	480
317.148	494
317.377	494
317.607	503
317.836	484
318.065	480
318.295	474
318.524	462
318.753	482
318.983	472
319.212	474
319.441	484
319.67	486
319.9	472
320.129	489
320.358	484
320.587	521
320.816	523
321.046	508
321.275	522
321.504	510
321.733	527
321.962	551
322.191	558
322.42	599
322.649	601
322.878	631
323.108	672
323.337	723
323.566	776
323.795	899
324.024	1157
324.253	1946
324.482	3343
324.71	4880
324.939	4315
325.168	1945
325.397	936
325.626	726
325.855	667
326.084	663
326.313	724
326.542	831
326.77	1121
326.999	1837
327.228	2889
327.457	3608
327.686	2388
327.914	1154
328.143	878
328.372	835
328.6	807
328.829	833
329.058	887
329.287	782
329.515	698
329.744	624
329.972	653
330.201	681
330.43	798
330.658	915
330.887	959
331.115	792
331.344	672
331.572	672
331.801	710
332.03	655
332.258	620
332.486	626
332.715	659
332.943	651
333.172	657
333.4	662
333.629	668
333.857	698
334.085	642
334.314	662
334.542	657
334.771	658
334.999	662
335.227	637
335.455	646
335.684	627
335.912	635
336.14	625
336.369	651
336.597	647
336.825	643
337.053	623
337.281	613
337.51	608
337.738	610
337.966	642
338.194	633
338.422	607
338.65	580
338.878	566
339.106	609
339.334	585
339.562	598
339.79	589
340.018	575
340.246	600
340.474	582
340.702	588
340.93	594
341.158	562
341.386	601
341.614	600
341.842	601
342.07	588
342.298	597
342.526	558
342.754	537
342.981	564
343.209	567
343.437	618
343.665	651
343.893	638
344.12	650
344.348	617
344.576	634
344.804	641
345.031	654
345.259	661
345.487	585
345.714	570
345.942	591
346.17	563
346.397	580
346.625	568
346.853	563
347.08	589
347.308	623
347.535	609
347.763	614
347.99	618
348.218	625
348.445	623
348.673	569
348.9	568
349.128	565
349.355	553
349.583	560
349.81	556
350.037	556
350.265	544
350.492	559
350.72	578
350.947	566
351.174	634
351.402	616
351.629	585
351.856	618
352.083	623
352.311	636
352.538	627
352.765	624
352.992	636
353.22	593
353.447	579
353.674	554
353.901	523
354.128	532
354.355	530
354.583	537
354.81	530
355.037	530
355.264	524
355.491	526
355.718	527
355.945	539
356.172	542
356.399	520
356.626	548
356.853	530
357.08	524
357.307	526
357.534	530
357.761	536
357.988	543
358.215	535
358.441	530
358.668	527
358.895	561
359.122	565
359.349	580
359.576	619
359.802	708
360.029	758
360.256	696
360.483	648
360.709	602
360.936	600
361.163	616
361.39	590
361.616	600
361.843	599
362.07	631
362.296	614
362.523	611
362.749	595
362.976	599
363.203	570
363.429	566
363.656	570
363.882	559
364.109	538
364.335	575
364.562	568
364.788	578
365.015	576
365.241	597
365.468	592
365.694	591
365.92	580
366.147	566
366.373	561
366.599	580
366.826	561
367.052	561
367.278	556
367.505	564
367.731	586
367.957	552
368.184	620
368.41	611
368.636	641
368.862	607
369.089	584
369.315	590
369.541	587
369.767	572
369.993	583
370.219	567
370.445	590
370.672	612
370.898	586
371.124	569
371.35	572
371.576	581
371.802	564
372.028	584
372.254	582
372.48	575
372.706	595
372.932	595
373.158	584
373.384	568
373.61	583
373.835	581
374.061	588
374.287	608
374.513	581
374.739	600
374.965	613
375.191	617
375.416	586
375.642	597
375.868	588
376.094	584
376.319	579
376.545	566
376.771	571
376.997	592
377.222	581
377.448	574
377.674	573
377.899	585
378.125	588
378.35	568
378.576	587
378.802	574
379.027	573
379.253	561
379.478	578
379.704	590
379.929	592
380.155	586
380.38	577
380.606	601
380.831	587
381.057	592
381.282	583
381.507	599
381.733	600
381.958	581
382.184	596
382.409	611
382.634	626
382.86	590
383.085	633
383.31	606
383.535	638
383.761	641
383.986	642
384.211	625
384.436	660
384.662	665
384.887	666
385.112	657
385.337	670
385.562	682
385.787	710
386.013	713
386.238	719
386.463	698
386.688	688
386.913	647
387.138	678
387.363	658
387.588	662
387.813	654
388.038	690
388.263	675
388.488	672
388.713	656
388.938	656
389.163	654
389.387	671
389.612	670
389.837	681
390.062	681
390.287	646
390.512	666
390.736	673
390.961	709
391.186	696
391.411	693
391.636	709
391.86	730
392.085	721
392.31	725
392.534	695
392.759	712
392.984	689
393.208	726
393.433	682
393.658	694
393.882	699
394.107	703
394.331	710
394.556	710
394.78	716
395.005	726
395.229	720
395.454	735
395.678	758
395.903	745
396.127	738
396.352	731
396.576	722
396.801	697
397.025	714
397.249	753
397.474	778
397.698	777
397.922	798
398.147	802
398.371	819
398.595	825
398.82	855
399.044	936
399.268	1010
399.492	1132
399.717	1112
399.941	1074
400.165	1048
400.389	967
400.613	879
400.837	853
401.062	822
401.286	828
401.51	848
401.734	852
401.958	853
402.182	905
402.406	923
402.63	923
402.854	895
403.078	910
403.302	908
403.526	924
403.75	931
403.974	935
404.198	921
404.422	953
404.645	915
404.869	918
405.093	928
405.317	952
405.541	960
405.765	939
405.988	952
406.212	1054
406.436	1116
406.66	1056
406.883	1035
407.107	1072
407.331	1092
407.555	1143
407.778	1062
408.002	967
408.226	981
408.449	948
408.673	966
408.896	984
409.12	969
409.344	920
409.567	884
409.791	876
410.014	871
410.238	856
410.461	900
410.685	883
410.908	900
411.132	927
411.355	895
411.578	888
411.802	826
412.025	854
412.249	834
412.472	867
412.695	836
412.919	811
413.142	827
413.365	826
413.589	811
413.812	804
414.035	799
414.258	792
414.482	776
414.705	816
414.928	810
415.151	811
415.374	820
415.597	805
415.821	806
416.044	788
416.267	803
416.49	802
416.713	768
416.936	810
417.159	808
417.382	822
417.605	822
417.828	843
418.051	836
418.274	806
418.497	806
418.72	821
418.943	818
419.166	833
419.389	882
419.611	843
419.834	851
420.057	809
420.28	822
420.503	789
420.726	823
420.948	844
421.171	898
421.394	864
421.617	840
421.839	825
422.062	859
422.285	882
422.507	954
422.73	982
422.953	906
423.175	854
423.398	882
423.621	855
423.843	907
424.066	870
424.288	890
424.511	972
424.733	1019
424.956	1033
425.178	1018
425.401	976
425.623	950
425.846	847
426.068	863
426.291	846
426.513	837
426.735	869
426.958	987
427.18	1122
427.402	1254
427.625	1282
427.847	988
428.069	838
428.292	816
428.514	793
428.736	747
428.958	764
429.181	751
429.403	758
429.625	814
429.847	814
430.069	867
430.292	795
430.514	734
430.736	736
430.958	734
431.18	750
431.402	744
431.624	729
431.846	720
432.068	697
432.29	747
432.512	730
432.734	738
432.956	760
433.178	771
433.4	762
433.622	763
433.844	774
434.066	760
434.287	767
434.509	761
434.731	785
434.953	805
435.175	820
435.397	836
435.618	882
435.84	961
436.062	1044
436.284	990
436.505	866
436.727	827
436.949	791
437.17	758
437.392	777
437.614	838
437.835	934
438.057	1069
438.278	1107
438.5	1078
438.721	1134
438.943	972
439.165	814
439.386	833
439.608	851
439.829	907
440.05	975
440.272	972
440.493	848
440.715	793
440.936	793
441.158	809
441.379	834
441.6	882
441.822	907
442.043	1014
442.264	1064
442.486	948
442.707	877
442.928	894
443.149	969
443.371	986
443.592	1062
443.813	1157
444.034	1084
444.255	932
444.476	909
444.698	939
444.919	960
445.14	985
445.361	983
445.582	1084
445.803	1198
446.024	1228
446.245	1136
446.466	998
446.687	833
446.908	814
447.129	761
447.35	734
447.571	731
447.792	747
448.013	776
448.234	824
448.455	946
448.675	1072
448.896	1019
449.117	909
449.338	1008
449.559	1098
449.779	1053
450	846
450.221	751
450.442	764
450.662	775
450.883	822
451.104	837
451.324	765
451.545	732
451.766	694
451.986	685
452.207	668
452.428	670
452.648	708
452.869	704
453.089	747
453.31	734
453.53	706
453.751	690
453.971	758
454.192	764
454.412	675
454.633	666
454.853	636
455.073	683
455.294	757
455.514	789
455.734	696
455.955	652
456.175	625
456.395	609
456.616	615
456.836	611
457.056	624
457.276	609
457.497	623
457.717	620
457.937	633
458.157	652
458.377	694
458.598	808
458.818	999
459.038	1015
459.258	895
459.478	772
459.698	770
459.918	773
460.138	787
460.358	788
460.578	809
460.798	798
461.018	781
461.238	805
461.458	792
461.678	796
461.898	791
462.118	802
462.338	828
462.558	870
462.777	875
462.997	922
463.217	955
463.437	957
463.657	898
463.876	864
464.096	914
464.316	931
464.536	926
464.755	899
464.975	979
465.195	1222
465.414	1084
465.634	824
465.854	798
466.073	739
466.293	711
466.512	716
466.732	701
466.951	694
467.171	707
467.391	762
467.61	782
467.829	751
468.049	699
468.268	671
468.488	650
468.707	658
468.927	679
469.146	683
469.365	681
469.585	707
469.804	732
470.023	748
470.243	754
470.462	776
470.681	818
470.901	752
471.12	726
471.339	703
471.558	720
471.777	701
471.997	654
472.216	664
472.435	674
472.654	656
472.873	648
473.092	672
473.311	656
473.53	696
473.749	701
473.968	811
474.187	904
474.406	789
474.625	713
474.844	699
475.063	654
475.282	670
475.501	695
475.72	686
475.939	694
476.158	700
476.377	709
476.596	692
476.814	719
477.033	743
477.252	718
477.471	760
477.69	750
477.908	746
478.127	799
478.346	788
478.564	804
478.783	812
479.002	828
479.22	819
479.439	856
479.658	888
479.876	907
480.095	890
480.313	905
480.532	902
480.751	849
480.969	841
481.188	836
481.406	812
481.624	790
481.843	771
482.061	786
482.28	769
482.498	745
482.717	755
482.935	764
483.153	789
483.372	794
483.59	777
483.808	764
484.027	764
484.245	773
484.463	793
484.681	774
484.9	813
485.118	820
485.336	816
485.554	808
485.772	840
485.99	810
486.209	828
486.427	821
486.645	874
486.863	903
487.081	870
487.299	859
487.517	848
487.735	834
487.953	854
488.171	836
488.389	831
488.607	847
488.825	809
489.043	833
489.261	846
489.479	836
489.696	834
489.914	862
490.132	867
490.35	839
490.568	846
490.786	932
491.003	921
491.221	960
491.439	965
491.657	960
491.874	980
492.092	985
492.31	972
492.527	971
492.745	995
492.963	961
493.18	987
493.398	983
493.615	1026
493.833	1023
494.05	1015
494.268	1004
494.485	953
494.703	979
494.92	986
495.138	967
495.355	978
495.573	986
495.79	986
496.008	996
496.225	986
496.442	963
496.66	1008
496.877	985
497.094	1016
497.312	1036
497.529	1019
497.746	1062
497.963	1080
498.181	1140
498.398	1159
498.615	1226
498.832	1250
499.049	1293
499.267	1388
499.484	1427
499.701	1585
499.918	1706
500.135	1806
500.352	1959
500.569	1957
500.786	1917
501.003	1791
501.22	1669
501.437	1593
501.654	1497
501.871	1429
502.088	1281
502.305	1210
502.522	1199
502.739	1157
502.956	1084
503.172	1082
503.389	1060
503.606	1076
503.823	1040
504.04	1044
504.256	1031
504.473	1060
504.69	1018
504.907	998
505.123	967
505.34	939
505.557	962
505.773	930
505.99	908
506.207	913
506.423	928
506.64	874
506.856	884
507.073	903
507.289	883
507.506	881
507.722	970
507.939	966
508.155	887
508.372	849
508.588	848
508.805	820
509.021	874
509.238	888
509.454	863
509.67	832
509.887	854
510.103	872
510.319	1001
510.536	1724
510.752	2738
510.968	1225
511.184	846
511.401	823
511.617	812
511.833	791
512.049	772
512.265	746
512.481	775
512.698	785
512.914	790
513.13	783
513.346	786
513.562	808
513.778	800
513.994	809
514.21	891
514.426	963
514.642	1089
514.858	1124
515.074	1326
515.29	2193
515.506	3232
515.721	1630
515.937	1074
516.153	987
516.369	938
516.585	929
516.801	907
517.016	928
517.232	938
517.448	933
517.664	978
517.879	972
518.095	929
518.311	937
518.527	905
518.742	876
518.958	859
519.173	871
519.389	852
519.605	869
519.82	844
520.036	884
520.251	972
520.467	943
520.682	948
520.898	979
521.113	1076
521.329	1252
521.544	1622
521.76	2880
521.975	5272
522.19	2955
522.406	1344
522.621	970
522.836	854
523.052	808
523.267	772
523.482	750
523.698	752
523.913	780
524.128	766
524.343	726
524.559	716
524.774	723
524.989	727
525.204	755
525.419	726
525.634	692
525.849	701
526.064	651
526.28	661
526.495	654
526.71	647
526.925	663
527.14	656
527.355	653
527.57	678
527.785	658
527.999	649
528.214	675
528.429	671
528.644	666
528.859	688
529.074	718
529.289	858
529.503	992
529.718	808
529.933	720
530.148	678
530.363	644
530.577	637
530.792	654
531.007	644
531.221	630
531.436	646
531.651	648
531.865	626
532.08	643
532.295	656
532.509	642
532.724	630
532.938	654
533.153	642
533.367	641
533.582	628
533.796	631
534.011	659
534.225	615
534.44	631
534.654	623
534.868	596
535.083	637
535.297	630
535.511	621
535.726	672
535.94	652
536.154	622
536.369	608
536.583	608
536.797	596
537.011	594
537.225	616
537.44	588
537.654	581
537.868	592
538.082	591
538.296	642
538.51	592
538.724	618
538.938	619
539.153	643
539.367	667
539.581	618
539.795	604
540.009	622
540.222	590
540.436	630
540.65	615
540.864	619
541.078	651
541.292	617
541.506	636
541.72	633
541.934	629
542.147	614
542.361	588
542.575	610
542.789	634
543.002	601
543.216	616
543.43	613
543.644	618
543.857	596
544.071	599
544.285	600
544.498	611
544.712	598
544.925	626
545.139	622
545.352	628
545.566	615
545.779	601
545.993	600
546.206	631
546.42	616
546.633	609
546.847	617
547.06	596
547.274	612
547.487	610
547.7	620
547.914	628
548.127	620
548.34	603
548.554	616
548.767	603
548.98	593
549.193	627
549.407	602
549.62	608
549.833	598
550.046	584
550.259	608
550.473	581
550.686	566
550.899	569
551.112	578
551.325	591
551.538	568
551.751	593
551.964	563
552.177	591
552.39	633
552.603	607
552.816	620
553.029	632
553.242	652
553.455	656
553.667	685
553.88	699
554.093	643
554.306	640
554.519	614
554.732	615
554.944	578
555.157	573
555.37	593
555.583	565
555.795	556
556.008	535
556.221	531
556.433	539
556.646	509
556.859	508
557.071	525
557.284	532
557.496	525
557.709	512
557.921	524
558.134	509
558.346	512
558.559	512
558.771	516
558.984	497
559.196	491
559.409	503
559.621	499
559.833	472
560.046	499
560.258	514
560.47	506
560.683	487
560.895	517
561.107	508
561.32	497
561.532	506
561.744	512
561.956	523
562.168	506
562.381	469
562.593	502
562.805	489
