Data from TestCu_HRD10591_00039.txt Node
Date: Thu Oct 05 14:05:19 EDT 2023
User: Yrep
Spectrometer: HR+D1059
Trigger mode: 1
Integration Time (sec): 1.000000E-1
Scans to average: 1
Electric dark correction enabled: true
Nonlinearity correction enabled: false
Boxcar width: 0
XAxis mode: Wavelengths
Number of Pixels in Spectrum: 2048
>>>>>Begin Spectral Data<<<<<
223.165	-6.44
223.4	-6.44
223.635	-6.44
223.869	-17.44
224.104	-18.44
224.338	-14.44
224.573	-13.44
224.808	-16.44
225.042	-12.44
225.277	-5.44
225.511	-15.44
225.746	5.56
225.98	5.56
226.215	14.56
226.449	10.56
226.683	21.56
226.918	32.56
227.152	29.56
227.387	18.56
227.621	31.56
227.856	42.56
228.09	53.56
228.324	52.56
228.559	33.56
228.793	75.56
229.027	103.56
229.262	122.56
229.496	124.56
229.73	162.56
229.964	164.56
230.199	109.56
230.433	98.56
230.667	116.56
230.901	109.56
231.136	112.56
231.37	106.56
231.604	110.56
231.838	116.56
232.072	111.56
232.306	109.56
232.541	100.56
232.775	102.56
233.009	108.56
233.243	115.56
233.477	107.56
233.711	112.56
233.945	109.56
234.179	106.56
234.413	107.56
234.647	108.56
234.881	112.56
235.115	128.56
235.349	140.56
235.583	109.56
235.817	128.56
236.051	125.56
236.285	140.56
236.519	137.56
236.753	145.56
236.987	169.56
237.221	216.56
237.455	211.56
237.689	149.56
237.922	119.56
238.156	119.56
238.39	131.56
238.624	108.56
238.858	139.56
239.091	122.56
239.325	120.56
239.559	138.56
239.793	132.56
240.027	134.56
240.26	156.56
240.494	152.56
240.728	161.56
240.961	137.56
241.195	139.56
241.429	137.56
241.662	124.56
241.896	126.56
242.13	125.56
242.363	116.56
242.597	136.56
242.83	124.56
243.064	135.56
243.298	138.56
243.531	138.56
243.765	134.56
243.998	141.56
244.232	137.56
244.465	146.56
244.699	138.56
244.932	145.56
245.166	136.56
245.399	143.56
245.633	141.56
245.866	144.56
246.099	136.56
246.333	133.56
246.566	130.56
246.8	152.56
247.033	152.56
247.266	148.56
247.5	171.56
247.733	156.56
247.966	149.56
248.2	155.56
248.433	162.56
248.666	188.56
248.899	196.56
249.133	200.56
249.366	203.56
249.599	189.56
249.832	161.56
250.066	161.56
250.299	172.56
250.532	187.56
250.765	212.56
250.998	198.56
251.231	205.56
251.465	180.56
251.698	176.56
251.931	185.56
252.164	168.56
252.397	178.56
252.63	185.56
252.863	198.56
253.096	213.56
253.329	220.56
253.562	199.56
253.795	190.56
254.028	197.56
254.261	214.56
254.494	241.56
254.727	275.56
254.96	246.56
255.193	226.56
255.426	187.56
255.659	190.56
255.892	191.56
256.124	204.56
256.357	192.56
256.59	179.56
256.823	192.56
257.056	180.56
257.289	194.56
257.521	192.56
257.754	182.56
257.987	193.56
258.22	203.56
258.452	194.56
258.685	211.56
258.918	195.56
259.151	188.56
259.383	209.56
259.616	208.56
259.849	207.56
260.081	241.56
260.314	249.56
260.547	220.56
260.779	223.56
261.012	229.56
261.244	208.56
261.477	218.56
261.71	234.56
261.942	244.56
262.175	260.56
262.407	219.56
262.64	217.56
262.872	225.56
263.105	212.56
263.337	185.56
263.57	211.56
263.802	208.56
264.035	201.56
264.267	232.56
264.499	206.56
264.732	210.56
264.964	202.56
265.197	230.56
265.429	219.56
265.661	201.56
265.894	214.56
266.126	222.56
266.358	209.56
266.591	229.56
266.823	220.56
267.055	224.56
267.287	225.56
267.52	221.56
267.752	232.56
267.984	232.56
268.216	237.56
268.448	240.56
268.681	264.56
268.913	248.56
269.145	271.56
269.377	273.56
269.609	265.56
269.841	283.56
270.073	291.56
270.306	311.56
270.538	320.56
270.77	282.56
271.002	281.56
271.234	291.56
271.466	295.56
271.698	305.56
271.93	302.56
272.162	308.56
272.394	305.56
272.626	270.56
272.858	277.56
273.09	262.56
273.322	273.56
273.553	236.56
273.785	259.56
274.017	257.56
274.249	256.56
274.481	255.56
274.713	247.56
274.945	278.56
275.176	282.56
275.408	281.56
275.64	276.56
275.872	265.56
276.104	283.56
276.335	292.56
276.567	306.56
276.799	330.56
277.031	355.56
277.262	342.56
277.494	288.56
277.726	281.56
277.957	266.56
278.189	260.56
278.421	271.56
278.652	275.56
278.884	288.56
279.115	289.56
279.347	286.56
279.579	285.56
279.81	267.56
280.042	275.56
280.273	277.56
280.505	277.56
280.736	285.56
280.968	267.56
281.199	272.56
281.431	274.56
281.662	279.56
281.894	296.56
282.125	316.56
282.356	355.56
282.588	367.56
282.819	322.56
283.051	301.56
283.282	287.56
283.513	320.56
283.745	310.56
283.976	304.56
284.207	313.56
284.439	310.56
284.67	309.56
284.901	295.56
285.132	299.56
285.364	298.56
285.595	294.56
285.826	287.56
286.057	313.56
286.288	306.56
286.52	290.56
286.751	310.56
286.982	332.56
287.213	311.56
287.444	319.56
287.675	338.56
287.906	327.56
288.138	354.56
288.369	324.56
288.6	344.56
288.831	318.56
289.062	321.56
289.293	331.56
289.524	319.56
289.755	323.56
289.986	324.56
290.217	306.56
290.448	321.56
290.679	327.56
290.91	328.56
291.141	318.56
291.371	332.56
291.602	320.56
291.833	340.56
292.064	324.56
292.295	326.56
292.526	326.56
292.757	327.56
292.987	340.56
293.218	328.56
293.449	334.56
293.68	342.56
293.91	329.56
294.141	330.56
294.372	319.56
294.603	340.56
294.833	341.56
295.064	338.56
295.295	352.56
295.525	334.56
295.756	376.56
295.987	396.56
296.217	409.56
296.448	384.56
296.679	337.56
296.909	338.56
297.14	349.56
297.37	355.56
297.601	361.56
297.831	365.56
298.062	364.56
298.292	361.56
298.523	364.56
298.753	369.56
298.984	362.56
299.214	369.56
299.445	365.56
299.675	381.56
299.905	378.56
300.136	362.56
300.366	371.56
300.597	382.56
300.827	372.56
301.057	414.56
301.288	429.56
301.518	386.56
301.748	391.56
301.979	408.56
302.209	399.56
302.439	383.56
302.669	400.56
302.9	393.56
303.13	396.56
303.36	393.56
303.59	408.56
303.82	388.56
304.051	392.56
304.281	384.56
304.511	404.56
304.741	390.56
304.971	408.56
305.201	389.56
305.431	393.56
305.661	394.56
305.891	388.56
306.121	401.56
306.352	411.56
306.582	411.56
306.812	409.56
307.042	396.56
307.272	395.56
307.502	414.56
307.731	399.56
307.961	395.56
308.191	410.56
308.421	404.56
308.651	418.56
308.881	426.56
309.111	421.56
309.341	415.56
309.571	450.56
309.8	465.56
310.03	487.56
310.26	470.56
310.49	474.56
310.72	504.56
310.949	533.56
311.179	473.56
311.409	481.56
311.639	469.56
311.868	470.56
312.098	486.56
312.328	479.56
312.557	544.56
312.787	516.56
313.017	501.56
313.246	478.56
313.476	467.56
313.706	477.56
313.935	496.56
314.165	545.56
314.394	517.56
314.624	521.56
314.853	472.56
315.083	462.56
315.312	464.56
315.542	464.56
315.771	462.56
316.001	466.56
316.23	462.56
316.46	449.56
316.689	470.56
316.919	500.56
317.148	499.56
317.377	501.56
317.607	488.56
317.836	482.56
318.065	447.56
318.295	454.56
318.524	462.56
318.753	481.56
318.983	497.56
319.212	473.56
319.441	476.56
319.67	496.56
319.9	468.56
320.129	476.56
320.358	465.56
320.587	486.56
320.816	503.56
321.046	528.56
321.275	497.56
321.504	494.56
321.733	498.56
321.962	503.56
322.191	544.56
322.42	590.56
322.649	604.56
322.878	608.56
323.108	670.56
323.337	696.56
323.566	758.56
323.795	853.56
324.024	1132.56
324.253	1939.56
324.482	3294.56
324.71	4837.56
324.939	4184.56
325.168	1891.56
325.397	922.56
325.626	701.56
325.855	671.56
326.084	664.56
326.313	701.56
326.542	782.56
326.77	1093.56
326.999	1797.56
327.228	2807.56
327.457	3561.56
327.686	2345.56
327.914	1141.56
328.143	870.56
328.372	816.56
328.6	793.56
328.829	825.56
329.058	842.56
329.287	783.56
329.515	675.56
329.744	630.56
329.972	624.56
330.201	708.56
330.43	811.56
330.658	909.56
330.887	948.56
331.115	752.56
331.344	673.56
331.572	680.56
331.801	672.56
332.03	688.56
332.258	605.56
332.486	619.56
332.715	624.56
332.943	636.56
333.172	682.56
333.4	685.56
333.629	665.56
333.857	684.56
334.085	646.56
334.314	654.56
334.542	648.56
334.771	664.56
334.999	655.56
335.227	642.56
335.455	617.56
335.684	613.56
335.912	622.56
336.14	625.56
336.369	633.56
336.597	656.56
336.825	650.56
337.053	595.56
337.281	599.56
337.51	608.56
337.738	610.56
337.966	605.56
338.194	641.56
338.422	589.56
338.65	588.56
338.878	578.56
339.106	561.56
339.334	570.56
339.562	579.56
339.79	567.56
340.018	596.56
340.246	588.56
340.474	600.56
340.702	578.56
340.93	558.56
341.158	573.56
341.386	577.56
341.614	593.56
341.842	566.56
342.07	558.56
342.298	556.56
342.526	538.56
342.754	588.56
342.981	561.56
343.209	560.56
343.437	614.56
343.665	609.56
343.893	630.56
344.12	638.56
344.348	626.56
344.576	644.56
344.804	620.56
345.031	642.56
345.259	643.56
345.487	609.56
345.714	579.56
345.942	563.56
346.17	564.56
346.397	564.56
346.625	600.56
346.853	563.56
347.08	559.56
347.308	585.56
347.535	596.56
347.763	577.56
347.99	586.56
348.218	619.56
348.445	624.56
348.673	593.56
348.9	550.56
349.128	538.56
349.355	533.56
349.583	540.56
349.81	536.56
350.037	565.56
350.265	542.56
350.492	536.56
350.72	533.56
350.947	575.56
351.174	630.56
351.402	597.56
351.629	590.56
351.856	594.56
352.083	624.56
352.311	641.56
352.538	617.56
352.765	605.56
352.992	586.56
353.22	581.56
353.447	562.56
353.674	545.56
353.901	524.56
354.128	552.56
354.355	529.56
354.583	542.56
354.81	523.56
355.037	524.56
355.264	499.56
355.491	511.56
355.718	514.56
355.945	523.56
356.172	522.56
356.399	526.56
356.626	540.56
356.853	527.56
357.08	531.56
357.307	520.56
357.534	518.56
357.761	526.56
357.988	529.56
358.215	539.56
358.441	538.56
358.668	544.56
358.895	538.56
359.122	537.56
359.349	564.56
359.576	616.56
359.802	720.56
360.029	782.56
360.256	704.56
360.483	642.56
360.709	577.56
360.936	580.56
361.163	609.56
361.39	591.56
361.616	574.56
361.843	578.56
362.07	588.56
362.296	573.56
362.523	579.56
362.749	585.56
362.976	576.56
363.203	560.56
363.429	558.56
363.656	563.56
363.882	556.56
364.109	566.56
364.335	565.56
364.562	571.56
364.788	563.56
365.015	578.56
365.241	558.56
365.468	606.56
365.694	586.56
365.92	580.56
366.147	554.56
366.373	558.56
366.599	577.56
366.826	576.56
367.052	579.56
367.278	536.56
367.505	551.56
367.731	558.56
367.957	580.56
368.184	575.56
368.41	606.56
368.636	584.56
368.862	603.56
369.089	581.56
369.315	586.56
369.541	549.56
369.767	569.56
369.993	583.56
370.219	576.56
370.445	586.56
370.672	554.56
370.898	569.56
371.124	575.56
371.35	564.56
371.576	542.56
371.802	575.56
372.028	576.56
372.254	595.56
372.48	581.56
372.706	574.56
372.932	608.56
373.158	580.56
373.384	580.56
373.61	573.56
373.835	592.56
374.061	593.56
374.287	618.56
374.513	628.56
374.739	610.56
374.965	624.56
375.191	610.56
375.416	594.56
375.642	581.56
375.868	600.56
376.094	588.56
376.319	585.56
376.545	576.56
376.771	560.56
376.997	576.56
377.222	581.56
377.448	585.56
377.674	581.56
377.899	573.56
378.125	556.56
378.35	570.56
378.576	551.56
378.802	564.56
379.027	555.56
379.253	552.56
379.478	566.56
379.704	563.56
379.929	584.56
380.155	580.56
380.38	574.56
380.606	584.56
380.831	586.56
381.057	600.56
381.282	585.56
381.507	594.56
381.733	601.56
381.958	603.56
382.184	592.56
382.409	602.56
382.634	586.56
382.86	598.56
383.085	605.56
383.31	615.56
383.535	598.56
383.761	625.56
383.986	628.56
384.211	651.56
384.436	638.56
384.662	656.56
384.887	646.56
385.112	682.56
385.337	650.56
385.562	660.56
385.787	705.56
386.013	701.56
386.238	724.56
386.463	697.56
386.688	706.56
386.913	669.56
387.138	647.56
387.363	657.56
387.588	672.56
387.813	685.56
388.038	659.56
388.263	668.56
388.488	666.56
388.713	667.56
388.938	661.56
389.163	665.56
389.387	654.56
389.612	659.56
389.837	674.56
390.062	641.56
390.287	680.56
390.512	685.56
390.736	668.56
390.961	688.56
391.186	697.56
391.411	711.56
391.636	718.56
391.86	732.56
392.085	709.56
392.31	722.56
392.534	692.56
392.759	704.56
392.984	712.56
393.208	715.56
393.433	679.56
393.658	699.56
393.882	712.56
394.107	701.56
394.331	691.56
394.556	688.56
394.78	720.56
395.005	721.56
395.229	695.56
395.454	746.56
395.678	739.56
395.903	726.56
396.127	751.56
396.352	708.56
396.576	716.56
396.801	706.56
397.025	744.56
397.249	724.56
397.474	751.56
397.698	752.56
397.922	790.56
398.147	762.56
398.371	786.56
398.595	840.56
398.82	832.56
399.044	905.56
399.268	1012.56
399.492	1093.56
399.717	1108.56
399.941	1074.56
400.165	1011.56
400.389	961.56
400.613	899.56
400.837	868.56
401.062	854.56
401.286	840.56
401.51	825.56
401.734	827.56
401.958	872.56
402.182	908.56
402.406	921.56
402.63	901.56
402.854	910.56
403.078	909.56
403.302	889.56
403.526	898.56
403.75	914.56
403.974	906.56
404.198	929.56
404.422	926.56
404.645	919.56
404.869	936.56
405.093	911.56
405.317	938.56
405.541	946.56
405.765	927.56
405.988	965.56
406.212	1050.56
406.436	1110.56
406.66	1034.56
406.883	1014.56
407.107	1069.56
407.331	1116.56
407.555	1109.56
407.778	1090.56
408.002	1002.56
408.226	956.56
408.449	948.56
408.673	935.56
408.896	982.56
409.12	966.56
409.344	916.56
409.567	854.56
409.791	886.56
410.014	875.56
410.238	830.56
410.461	868.56
410.685	880.56
410.908	921.56
411.132	896.56
411.355	896.56
411.578	854.56
411.802	816.56
412.025	847.56
412.249	827.56
412.472	829.56
412.695	825.56
412.919	801.56
413.142	783.56
413.365	810.56
413.589	836.56
413.812	772.56
414.035	781.56
414.258	794.56
414.482	807.56
414.705	804.56
414.928	787.56
415.151	782.56
415.374	817.56
415.597	818.56
415.821	773.56
416.044	784.56
416.267	800.56
416.49	802.56
416.713	789.56
416.936	782.56
417.159	792.56
417.382	801.56
417.605	817.56
417.828	826.56
418.051	822.56
418.274	821.56
418.497	802.56
418.72	803.56
418.943	817.56
419.166	836.56
419.389	863.56
419.611	821.56
419.834	857.56
420.057	836.56
420.28	805.56
420.503	819.56
420.726	849.56
420.948	844.56
421.171	885.56
421.394	860.56
421.617	834.56
421.839	849.56
422.062	843.56
422.285	909.56
422.507	899.56
422.73	954.56
422.953	874.56
423.175	836.56
423.398	853.56
423.621	863.56
423.843	874.56
424.066	884.56
424.288	853.56
424.511	936.56
424.733	1008.56
424.956	1033.56
425.178	1010.56
425.401	994.56
425.623	956.56
425.846	843.56
426.068	843.56
426.291	824.56
426.513	820.56
426.735	865.56
426.958	958.56
427.18	1071.56
427.402	1231.56
427.625	1257.56
427.847	976.56
428.069	828.56
428.292	805.56
428.514	790.56
428.736	760.56
428.958	758.56
429.181	757.56
429.403	735.56
429.625	786.56
429.847	804.56
430.069	856.56
430.292	805.56
430.514	781.56
430.736	717.56
430.958	715.56
431.18	747.56
431.402	722.56
431.624	719.56
431.846	731.56
432.068	717.56
432.29	752.56
432.512	720.56
432.734	761.56
432.956	743.56
433.178	755.56
433.4	763.56
433.622	756.56
433.844	733.56
434.066	742.56
434.287	732.56
434.509	767.56
434.731	814.56
434.953	798.56
435.175	820.56
435.397	869.56
435.618	862.56
435.84	947.56
436.062	1011.56
436.284	956.56
436.505	826.56
436.727	815.56
436.949	766.56
437.17	744.56
437.392	751.56
437.614	810.56
437.835	921.56
438.057	1034.56
438.278	1042.56
438.5	1069.56
438.721	1091.56
438.943	936.56
439.165	831.56
439.386	807.56
439.608	829.56
439.829	898.56
440.05	960.56
440.272	974.56
440.493	831.56
440.715	778.56
440.936	771.56
441.158	788.56
441.379	820.56
441.6	844.56
441.822	883.56
442.043	959.56
442.264	1048.56
442.486	948.56
442.707	891.56
442.928	899.56
443.149	949.56
443.371	983.56
443.592	1013.56
443.813	1092.56
444.034	1051.56
444.255	921.56
444.476	909.56
444.698	919.56
444.919	922.56
445.14	970.56
445.361	931.56
445.582	1057.56
445.803	1143.56
446.024	1196.56
446.245	1114.56
446.466	939.56
446.687	824.56
446.908	790.56
447.129	755.56
447.35	764.56
447.571	733.56
447.792	746.56
448.013	778.56
448.234	821.56
448.455	924.56
448.675	1044.56
448.896	1035.56
449.117	868.56
449.338	978.56
449.559	1098.56
449.779	1038.56
450	807.56
450.221	765.56
450.442	753.56
450.662	775.56
450.883	827.56
451.104	815.56
451.324	761.56
451.545	704.56
451.766	684.56
451.986	673.56
452.207	659.56
452.428	667.56
452.648	724.56
452.869	724.56
453.089	730.56
453.31	706.56
453.53	668.56
453.751	680.56
453.971	739.56
454.192	744.56
454.412	671.56
454.633	660.56
454.853	672.56
455.073	644.56
455.294	737.56
455.514	785.56
455.734	705.56
455.955	625.56
456.175	619.56
456.395	616.56
456.616	604.56
456.836	646.56
457.056	607.56
457.276	588.56
457.497	642.56
457.717	612.56
457.937	642.56
458.157	669.56
458.377	667.56
458.598	826.56
458.818	981.56
459.038	990.56
459.258	850.56
459.478	773.56
459.698	771.56
459.918	748.56
460.138	780.56
460.358	806.56
460.578	807.56
460.798	808.56
461.018	786.56
461.238	749.56
461.458	799.56
461.678	788.56
461.898	789.56
462.118	813.56
462.338	841.56
462.558	873.56
462.777	910.56
462.997	936.56
463.217	960.56
463.437	913.56
463.657	900.56
463.876	878.56
464.096	899.56
464.316	883.56
464.536	910.56
464.755	895.56
464.975	949.56
465.195	1166.56
465.414	1081.56
465.634	832.56
465.854	765.56
466.073	746.56
466.293	725.56
466.512	692.56
466.732	716.56
466.951	690.56
467.171	716.56
467.391	740.56
467.61	736.56
467.829	765.56
468.049	706.56
468.268	682.56
468.488	673.56
468.707	672.56
468.927	655.56
469.146	668.56
469.365	693.56
469.585	687.56
469.804	739.56
470.023	749.56
470.243	737.56
470.462	773.56
470.681	794.56
470.901	735.56
471.12	723.56
471.339	693.56
471.558	720.56
471.777	662.56
471.997	661.56
472.216	645.56
472.435	673.56
472.654	641.56
472.873	650.56
473.092	648.56
473.311	682.56
473.53	661.56
473.749	698.56
473.968	774.56
474.187	901.56
474.406	796.56
474.625	694.56
474.844	684.56
475.063	675.56
475.282	674.56
475.501	672.56
475.72	684.56
475.939	680.56
476.158	706.56
476.377	679.56
476.596	702.56
476.814	723.56
477.033	722.56
477.252	724.56
477.471	720.56
477.69	735.56
477.908	761.56
478.127	762.56
478.346	780.56
478.564	794.56
478.783	793.56
479.002	807.56
479.22	815.56
479.439	878.56
479.658	881.56
479.876	900.56
480.095	865.56
480.313	894.56
480.532	867.56
480.751	833.56
480.969	810.56
481.188	790.56
481.406	769.56
481.624	776.56
481.843	746.56
482.061	765.56
482.28	743.56
482.498	749.56
482.717	742.56
482.935	793.56
483.153	772.56
483.372	770.56
483.59	750.56
483.808	785.56
484.027	780.56
484.245	815.56
484.463	796.56
484.681	796.56
484.9	801.56
485.118	815.56
485.336	819.56
485.554	821.56
485.772	816.56
485.99	801.56
486.209	826.56
486.427	806.56
486.645	914.56
486.863	918.56
487.081	852.56
487.299	828.56
487.517	830.56
487.735	829.56
487.953	828.56
488.171	822.56
488.389	826.56
488.607	834.56
488.825	826.56
489.043	825.56
489.261	808.56
489.479	827.56
489.696	822.56
489.914	866.56
490.132	833.56
490.35	820.56
490.568	862.56
490.786	886.56
491.003	901.56
491.221	923.56
491.439	975.56
491.657	970.56
491.874	962.56
492.092	995.56
492.31	962.56
492.527	994.56
492.745	988.56
492.963	974.56
493.18	962.56
493.398	985.56
493.615	992.56
493.833	1037.56
494.05	1001.56
494.268	972.56
494.485	976.56
494.703	949.56
494.92	981.56
495.138	962.56
495.355	958.56
495.573	953.56
495.79	1001.56
496.008	1020.56
496.225	951.56
496.442	1002.56
496.66	952.56
496.877	970.56
497.094	981.56
497.312	1000.56
497.529	1018.56
497.746	1044.56
497.963	1048.56
498.181	1105.56
498.398	1158.56
498.615	1203.56
498.832	1218.56
499.049	1264.56
499.267	1398.56
499.484	1466.56
499.701	1544.56
499.918	1657.56
500.135	1781.56
500.352	1901.56
500.569	1874.56
500.786	1857.56
501.003	1794.56
501.22	1647.56
501.437	1538.56
501.654	1472.56
