Data from TestCu_HRD10591_00007.txt Node
Date: Thu Oct 05 14:04:48 EDT 2023
User: Yrep
Spectrometer: HR+D1059
Trigger mode: 1
Integration Time (sec): 1.000000E-1
Scans to average: 1
Electric dark correction enabled: true
Nonlinearity correction enabled: false
Boxcar width: 0
XAxis mode: Wavelengths
Number of Pixels in Spectrum: 2048
>>>>>Begin Spectral Data<<<<<
223.165	-11.31
223.4	-11.31
223.635	-11.31
223.869	-22.31
224.104	-14.31
224.338	-12.31
224.573	-24.31
224.808	-17.31
225.042	-11.31
225.277	-8.31
225.511	4.69
225.746	9.69
225.98	4.69
226.215	3.69
226.449	15.69
226.683	16.69
226.918	29.69
227.152	36.69
227.387	27.69
227.621	39.69
227.856	37.69
228.09	38.69
228.324	45.69
228.559	50.69
228.793	70.69
229.027	101.69
229.262	109.69
229.496	129.69
229.73	139.69
229.964	163.69
230.199	110.69
230.433	108.69
230.667	121.69
230.901	114.69
231.136	104.69
231.37	122.69
231.604	106.69
231.838	108.69
232.072	94.69
232.306	108.69
232.541	104.69
232.775	112.69
233.009	105.69
233.243	113.69
233.477	129.69
233.711	128.69
233.945	117.69
234.179	108.69
234.413	111.69
234.647	121.69
234.881	105.69
235.115	113.69
235.349	120.69
235.583	114.69
235.817	125.69
236.051	120.69
236.285	126.69
236.519	131.69
236.753	132.69
236.987	179.69
237.221	205.69
237.455	213.69
237.689	148.69
237.922	128.69
238.156	125.69
238.39	121.69
238.624	126.69
238.858	118.69
239.091	121.69
239.325	126.69
239.559	125.69
239.793	134.69
240.027	139.69
240.26	154.69
240.494	163.69
240.728	143.69
240.961	149.69
241.195	139.69
241.429	110.69
241.662	120.69
241.896	135.69
242.13	135.69
242.363	133.69
242.597	140.69
242.83	137.69
243.064	118.69
243.298	114.69
243.531	127.69
243.765	140.69
243.998	142.69
244.232	137.69
244.465	136.69
244.699	144.69
244.932	146.69
245.166	136.69
245.399	131.69
245.633	134.69
245.866	137.69
246.099	156.69
246.333	160.69
246.566	162.69
246.8	142.69
247.033	147.69
247.266	149.69
247.5	146.69
247.733	166.69
247.966	154.69
248.2	168.69
248.433	170.69
248.666	180.69
248.899	205.69
249.133	204.69
249.366	179.69
249.599	154.69
249.832	172.69
250.066	156.69
250.299	165.69
250.532	178.69
250.765	206.69
250.998	199.69
251.231	206.69
251.465	184.69
251.698	171.69
251.931	143.69
252.164	181.69
252.397	168.69
252.63	178.69
252.863	194.69
253.096	218.69
253.329	227.69
253.562	214.69
253.795	201.69
254.028	192.69
254.261	206.69
254.494	244.69
254.727	257.69
254.96	252.69
255.193	197.69
255.426	194.69
255.659	193.69
255.892	177.69
256.124	170.69
256.357	187.69
256.59	193.69
256.823	198.69
257.056	193.69
257.289	211.69
257.521	187.69
257.754	190.69
257.987	192.69
258.22	201.69
258.452	194.69
258.685	197.69
258.918	208.69
259.151	218.69
259.383	216.69
259.616	200.69
259.849	218.69
260.081	236.69
260.314	226.69
260.547	237.69
260.779	212.69
261.012	202.69
261.244	197.69
261.477	212.69
261.71	225.69
261.942	241.69
262.175	252.69
262.407	230.69
262.64	203.69
262.872	204.69
263.105	219.69
263.337	214.69
263.57	207.69
263.802	202.69
264.035	202.69
264.267	204.69
264.499	206.69
264.732	189.69
264.964	186.69
265.197	196.69
265.429	211.69
265.661	230.69
265.894	214.69
266.126	210.69
266.358	218.69
266.591	218.69
266.823	235.69
267.055	232.69
267.287	204.69
267.52	229.69
267.752	212.69
267.984	213.69
268.216	225.69
268.448	235.69
268.681	254.69
268.913	270.69
269.145	260.69
269.377	273.69
269.609	260.69
269.841	269.69
270.073	276.69
270.306	311.69
270.538	299.69
270.77	291.69
271.002	277.69
271.234	282.69
271.466	306.69
271.698	311.69
271.93	294.69
272.162	310.69
272.394	293.69
272.626	272.69
272.858	261.69
273.09	267.69
273.322	272.69
273.553	246.69
273.785	251.69
274.017	259.69
274.249	278.69
274.481	245.69
274.713	268.69
274.945	249.69
275.176	245.69
275.408	257.69
275.64	267.69
275.872	270.69
276.104	275.69
276.335	288.69
276.567	292.69
276.799	322.69
277.031	344.69
277.262	332.69
277.494	298.69
277.726	294.69
277.957	265.69
278.189	264.69
278.421	278.69
278.652	270.69
278.884	269.69
279.115	271.69
279.347	282.69
279.579	286.69
279.81	261.69
280.042	264.69
280.273	281.69
280.505	271.69
280.736	271.69
280.968	258.69
281.199	275.69
281.431	269.69
281.662	282.69
281.894	296.69
282.125	298.69
282.356	347.69
282.588	357.69
282.819	331.69
283.051	298.69
283.282	294.69
283.513	284.69
283.745	289.69
283.976	295.69
284.207	306.69
284.439	298.69
284.67	291.69
284.901	285.69
285.132	277.69
285.364	276.69
285.595	304.69
285.826	302.69
286.057	303.69
286.288	308.69
286.52	314.69
286.751	307.69
286.982	301.69
287.213	306.69
287.444	323.69
287.675	315.69
287.906	319.69
288.138	334.69
288.369	318.69
288.6	341.69
288.831	334.69
289.062	338.69
289.293	328.69
289.524	325.69
289.755	301.69
289.986	300.69
290.217	311.69
290.448	320.69
290.679	304.69
290.91	314.69
291.141	325.69
291.371	319.69
291.602	309.69
291.833	312.69
292.064	331.69
292.295	328.69
292.526	328.69
292.757	319.69
292.987	342.69
293.218	332.69
293.449	334.69
293.68	307.69
293.91	345.69
294.141	318.69
294.372	331.69
294.603	324.69
294.833	320.69
295.064	338.69
295.295	329.69
295.525	365.69
295.756	369.69
295.987	379.69
296.217	406.69
296.448	388.69
296.679	352.69
296.909	349.69
297.14	332.69
297.37	364.69
297.601	346.69
297.831	349.69
298.062	353.69
298.292	366.69
298.523	351.69
298.753	371.69
298.984	367.69
299.214	365.69
299.445	375.69
299.675	353.69
299.905	387.69
300.136	387.69
300.366	369.69
300.597	377.69
300.827	413.69
301.057	404.69
301.288	409.69
301.518	396.69
301.748	400.69
301.979	409.69
302.209	400.69
302.439	390.69
302.669	405.69
302.9	381.69
303.13	396.69
303.36	393.69
303.59	393.69
303.82	400.69
304.051	404.69
304.281	397.69
304.511	384.69
304.741	383.69
304.971	389.69
305.201	363.69
305.431	388.69
305.661	385.69
305.891	371.69
306.121	392.69
306.352	408.69
306.582	380.69
306.812	377.69
307.042	378.69
307.272	387.69
307.502	400.69
307.731	384.69
307.961	381.69
308.191	381.69
308.421	400.69
308.651	397.69
308.881	400.69
309.111	401.69
309.341	393.69
309.571	427.69
309.8	440.69
310.03	459.69
310.26	457.69
310.49	467.69
310.72	485.69
310.949	517.69
311.179	484.69
311.409	468.69
311.639	460.69
311.868	458.69
312.098	466.69
312.328	503.69
312.557	513.69
312.787	520.69
313.017	494.69
313.246	473.69
313.476	478.69
313.706	468.69
313.935	503.69
314.165	494.69
314.394	512.69
314.624	496.69
314.853	479.69
315.083	456.69
315.312	442.69
315.542	446.69
315.771	463.69
316.001	436.69
316.23	450.69
316.46	455.69
316.689	462.69
316.919	487.69
317.148	484.69
317.377	476.69
317.607	479.69
317.836	470.69
318.065	432.69
318.295	436.69
318.524	454.69
318.753	448.69
318.983	461.69
319.212	470.69
319.441	458.69
319.67	467.69
319.9	461.69
320.129	456.69
320.358	465.69
320.587	500.69
320.816	515.69
321.046	499.69
321.275	481.69
321.504	500.69
321.733	516.69
321.962	518.69
322.191	573.69
322.42	583.69
322.649	584.69
322.878	601.69
323.108	632.69
323.337	692.69
323.566	737.69
323.795	847.69
324.024	1084.69
324.253	1865.69
324.482	3153.69
324.71	4651.69
324.939	4062.69
325.168	1818.69
325.397	913.69
325.626	715.69
325.855	648.69
326.084	645.69
326.313	706.69
326.542	814.69
326.77	1068.69
326.999	1731.69
327.228	2680.69
327.457	3405.69
327.686	2272.69
327.914	1111.69
328.143	857.69
328.372	800.69
328.6	761.69
328.829	791.69
329.058	834.69
329.287	776.69
329.515	664.69
329.744	621.69
329.972	613.69
330.201	653.69
330.43	774.69
330.658	889.69
330.887	910.69
331.115	744.69
331.344	684.69
331.572	657.69
331.801	692.69
332.03	666.69
332.258	625.69
332.486	596.69
332.715	612.69
332.943	638.69
333.172	634.69
333.4	663.69
333.629	657.69
333.857	664.69
334.085	643.69
334.314	649.69
334.542	640.69
334.771	640.69
334.999	648.69
335.227	626.69
335.455	593.69
335.684	623.69
335.912	586.69
336.14	624.69
336.369	645.69
336.597	629.69
336.825	611.69
337.053	593.69
337.281	588.69
337.51	588.69
337.738	601.69
337.966	615.69
338.194	587.69
338.422	590.69
338.65	595.69
338.878	555.69
339.106	566.69
339.334	573.69
339.562	559.69
339.79	566.69
340.018	582.69
340.246	584.69
340.474	578.69
340.702	572.69
340.93	573.69
341.158	570.69
341.386	582.69
341.614	580.69
341.842	565.69
342.07	549.69
342.298	557.69
342.526	566.69
342.754	556.69
342.981	539.69
343.209	567.69
343.437	575.69
343.665	596.69
343.893	632.69
344.12	622.69
344.348	636.69
344.576	621.69
344.804	634.69
345.031	634.69
345.259	627.69
345.487	588.69
345.714	562.69
345.942	539.69
346.17	538.69
346.397	558.69
346.625	576.69
346.853	556.69
347.08	581.69
347.308	597.69
347.535	586.69
347.763	592.69
347.99	590.69
348.218	616.69
348.445	619.69
348.673	567.69
348.9	531.69
349.128	542.69
349.355	540.69
349.583	562.69
349.81	522.69
350.037	528.69
350.265	517.69
350.492	529.69
350.72	551.69
350.947	569.69
351.174	596.69
351.402	599.69
351.629	578.69
351.856	607.69
352.083	623.69
352.311	618.69
352.538	598.69
352.765	594.69
352.992	579.69
353.22	556.69
353.447	547.69
353.674	527.69
353.901	530.69
354.128	539.69
354.355	528.69
354.583	527.69
354.81	538.69
355.037	516.69
355.264	515.69
355.491	501.69
355.718	500.69
355.945	503.69
356.172	529.69
356.399	508.69
356.626	536.69
356.853	484.69
357.08	516.69
357.307	530.69
357.534	520.69
357.761	529.69
357.988	513.69
358.215	524.69
358.441	534.69
358.668	521.69
358.895	529.69
359.122	560.69
359.349	571.69
359.576	624.69
359.802	713.69
360.029	742.69
360.256	704.69
360.483	620.69
360.709	581.69
360.936	570.69
361.163	599.69
361.39	568.69
361.616	564.69
361.843	578.69
362.07	602.69
362.296	587.69
362.523	566.69
362.749	562.69
362.976	558.69
363.203	550.69
363.429	537.69
363.656	561.69
363.882	561.69
364.109	525.69
364.335	558.69
364.562	565.69
364.788	554.69
365.015	549.69
365.241	555.69
365.468	578.69
365.694	576.69
365.92	584.69
366.147	554.69
366.373	550.69
366.599	546.69
366.826	549.69
367.052	539.69
367.278	577.69
367.505	563.69
367.731	552.69
367.957	578.69
368.184	576.69
368.41	576.69
368.636	571.69
368.862	584.69
369.089	564.69
369.315	561.69
369.541	540.69
369.767	568.69
369.993	553.69
370.219	545.69
370.445	553.69
370.672	542.69
370.898	569.69
371.124	585.69
371.35	571.69
371.576	556.69
371.802	563.69
372.028	555.69
372.254	575.69
372.48	566.69
372.706	594.69
372.932	566.69
373.158	573.69
373.384	556.69
373.61	553.69
373.835	588.69
374.061	569.69
374.287	589.69
374.513	602.69
374.739	626.69
374.965	594.69
375.191	597.69
375.416	588.69
375.642	592.69
375.868	587.69
376.094	570.69
376.319	597.69
376.545	565.69
376.771	553.69
376.997	572.69
377.222	549.69
377.448	567.69
377.674	556.69
377.899	567.69
378.125	578.69
378.35	595.69
378.576	566.69
378.802	553.69
379.027	545.69
379.253	557.69
379.478	555.69
379.704	573.69
379.929	566.69
380.155	577.69
380.38	570.69
380.606	572.69
380.831	567.69
381.057	576.69
381.282	571.69
381.507	585.69
381.733	582.69
381.958	586.69
382.184	579.69
382.409	606.69
382.634	600.69
382.86	591.69
383.085	590.69
383.31	590.69
383.535	605.69
383.761	624.69
383.986	608.69
384.211	633.69
384.436	649.69
384.662	636.69
384.887	645.69
385.112	655.69
385.337	649.69
385.562	633.69
385.787	660.69
386.013	682.69
386.238	690.69
386.463	674.69
386.688	695.69
386.913	641.69
387.138	662.69
387.363	677.69
387.588	646.69
387.813	636.69
388.038	628.69
388.263	650.69
388.488	632.69
388.713	650.69
388.938	661.69
389.163	647.69
389.387	660.69
389.612	641.69
389.837	656.69
390.062	654.69
390.287	654.69
390.512	687.69
390.736	660.69
390.961	680.69
391.186	663.69
391.411	712.69
391.636	716.69
391.86	733.69
392.085	729.69
392.31	708.69
392.534	710.69
392.759	718.69
392.984	669.69
393.208	674.69
393.433	661.69
393.658	680.69
393.882	678.69
394.107	673.69
394.331	671.69
394.556	675.69
394.78	685.69
395.005	672.69
395.229	689.69
395.454	717.69
395.678	734.69
395.903	737.69
396.127	714.69
396.352	709.69
396.576	748.69
396.801	717.69
397.025	719.69
397.249	738.69
397.474	764.69
397.698	740.69
397.922	758.69
398.147	763.69
398.371	796.69
398.595	813.69
398.82	818.69
399.044	861.69
399.268	998.69
399.492	1086.69
399.717	1114.69
399.941	1061.69
400.165	997.69
400.389	933.69
400.613	858.69
400.837	842.69
401.062	818.69
401.286	818.69
401.51	819.69
401.734	830.69
401.958	864.69
402.182	892.69
402.406	921.69
402.63	909.69
402.854	850.69
403.078	857.69
403.302	882.69
403.526	860.69
403.75	886.69
403.974	913.69
404.198	916.69
404.422	904.69
404.645	902.69
404.869	887.69
405.093	914.69
405.317	944.69
405.541	930.69
405.765	912.69
405.988	936.69
406.212	1013.69
406.436	1048.69
406.66	1033.69
406.883	1019.69
407.107	1041.69
407.331	1080.69
407.555	1112.69
407.778	1060.69
408.002	964.69
408.226	913.69
408.449	918.69
408.673	957.69
408.896	961.69
409.12	948.69
409.344	906.69
409.567	856.69
409.791	854.69
410.014	844.69
410.238	846.69
410.461	854.69
410.685	889.69
410.908	915.69
411.132	900.69
411.355	900.69
411.578	837.69
411.802	814.69
412.025	821.69
412.249	824.69
412.472	802.69
412.695	803.69
412.919	793.69
413.142	773.69
413.365	766.69
413.589	805.69
413.812	786.69
414.035	776.69
414.258	769.69
414.482	770.69
414.705	776.69
414.928	805.69
415.151	788.69
415.374	794.69
415.597	759.69
415.821	778.69
416.044	776.69
416.267	772.69
416.49	763.69
416.713	761.69
416.936	782.69
417.159	786.69
417.382	796.69
417.605	774.69
417.828	784.69
418.051	804.69
418.274	811.69
418.497	811.69
418.72	804.69
418.943	768.69
419.166	803.69
419.389	836.69
419.611	849.69
419.834	840.69
420.057	807.69
420.28	813.69
420.503	757.69
420.726	859.69
420.948	828.69
421.171	884.69
421.394	830.69
421.617	800.69
421.839	794.69
422.062	825.69
422.285	889.69
422.507	927.69
422.73	922.69
422.953	864.69
423.175	858.69
423.398	864.69
423.621	854.69
423.843	872.69
424.066	837.69
424.288	882.69
424.511	905.69
424.733	989.69
424.956	1025.69
425.178	968.69
425.401	914.69
425.623	914.69
425.846	835.69
426.068	836.69
426.291	838.69
426.513	841.69
426.735	848.69
426.958	937.69
427.18	1052.69
427.402	1205.69
427.625	1227.69
427.847	970.69
428.069	815.69
428.292	787.69
428.514	730.69
428.736	745.69
428.958	732.69
429.181	743.69
429.403	739.69
429.625	795.69
429.847	826.69
430.069	867.69
430.292	747.69
430.514	746.69
430.736	755.69
430.958	706.69
431.18	718.69
431.402	706.69
431.624	740.69
431.846	740.69
432.068	752.69
432.29	729.69
432.512	718.69
432.734	733.69
432.956	745.69
433.178	770.69
433.4	734.69
433.622	744.69
433.844	728.69
434.066	734.69
434.287	730.69
434.509	766.69
434.731	796.69
434.953	808.69
435.175	812.69
435.397	825.69
435.618	854.69
435.84	932.69
436.062	1027.69
436.284	950.69
436.505	800.69
436.727	799.69
436.949	742.69
437.17	745.69
437.392	770.69
437.614	783.69
437.835	924.69
438.057	976.69
438.278	1040.69
438.5	1021.69
438.721	1092.69
438.943	915.69
439.165	807.69
439.386	826.69
439.608	830.69
439.829	849.69
440.05	927.69
440.272	945.69
440.493	828.69
440.715	783.69
440.936	769.69
441.158	794.69
441.379	810.69
441.6	857.69
441.822	878.69
442.043	946.69
442.264	1022.69
442.486	942.69
442.707	874.69
442.928	886.69
443.149	959.69
443.371	960.69
443.592	1041.69
443.813	1136.69
444.034	1059.69
444.255	936.69
444.476	891.69
444.698	908.69
444.919	902.69
445.14	963.69
445.361	956.69
445.582	1011.69
445.803	1157.69
446.024	1193.69
446.245	1104.69
446.466	949.69
446.687	808.69
446.908	770.69
447.129	741.69
447.35	737.69
447.571	752.69
447.792	734.69
448.013	738.69
448.234	793.69
448.455	947.69
448.675	1009.69
448.896	1006.69
449.117	887.69
449.338	944.69
449.559	1090.69
449.779	1041.69
450	804.69
450.221	734.69
450.442	749.69
450.662	746.69
450.883	800.69
451.104	776.69
451.324	749.69
451.545	694.69
451.766	665.69
451.986	655.69
452.207	685.69
452.428	673.69
452.648	684.69
452.869	712.69
453.089	697.69
453.31	704.69
453.53	691.69
453.751	660.69
453.971	713.69
454.192	719.69
454.412	685.69
454.633	644.69
454.853	672.69
455.073	672.69
455.294	734.69
455.514	779.69
455.734	680.69
455.955	625.69
456.175	605.69
456.395	610.69
456.616	600.69
456.836	607.69
457.056	610.69
457.276	609.69
457.497	612.69
457.717	615.69
457.937	614.69
458.157	657.69
458.377	666.69
458.598	790.69
458.818	988.69
459.038	963.69
459.258	837.69
459.478	779.69
459.698	749.69
459.918	729.69
460.138	739.69
460.358	766.69
460.578	764.69
460.798	801.69
461.018	774.69
461.238	777.69
461.458	785.69
461.678	764.69
461.898	782.69
462.118	782.69
462.338	804.69
462.558	864.69
462.777	864.69
462.997	924.69
463.217	961.69
463.437	930.69
463.657	879.69
463.876	871.69
464.096	889.69
464.316	901.69
464.536	880.69
464.755	877.69
464.975	968.69
465.195	1156.69
465.414	1047.69
465.634	822.69
465.854	754.69
466.073	730.69
466.293	715.69
466.512	707.69
466.732	688.69
466.951	706.69
467.171	702.69
467.391	740.69
467.61	745.69
467.829	712.69
468.049	682.69
468.268	690.69
468.488	639.69
468.707	653.69
468.927	659.69
469.146	668.69
469.365	661.69
469.585	663.69
469.804	726.69
470.023	731.69
470.243	720.69
470.462	781.69
470.681	801.69
470.901	738.69
471.12	700.69
471.339	711.69
471.558	706.69
471.777	657.69
471.997	666.69
472.216	653.69
472.435	634.69
472.654	634.69
472.873	632.69
473.092	644.69
473.311	644.69
473.53	686.69
473.749	682.69
473.968	788.69
474.187	896.69
474.406	813.69
474.625	680.69
474.844	668.69
475.063	651.69
475.282	664.69
475.501	674.69
475.72	680.69
475.939	657.69
476.158	682.69
476.377	686.69
476.596	705.69
476.814	721.69
477.033	715.69
477.252	715.69
477.471	730.69
477.69	732.69
477.908	768.69
478.127	766.69
478.346	767.69
478.564	765.69
478.783	817.69
479.002	831.69
479.22	818.69
479.439	874.69
479.658	857.69
479.876	866.69
480.095	881.69
480.313	884.69
480.532	892.69
480.751	861.69
480.969	830.69
481.188	788.69
481.406	795.69
481.624	756.69
481.843	758.69
482.061	773.69
482.28	776.69
482.498	730.69
482.717	736.69
482.935	757.69
483.153	762.69
483.372	774.69
483.59	786.69
483.808	766.69
484.027	771.69
484.245	750.69
484.463	773.69
484.681	778.69
484.9	810.69
485.118	812.69
485.336	799.69
485.554	788.69
485.772	771.69
485.99	810.69
486.209	812.69
486.427	832.69
486.645	866.69
486.863	870.69
487.081	866.69
487.299	862.69
487.517	809.69
487.735	819.69
487.953	835.69
488.171	804.69
488.389	807.69
488.607	812.69
488.825	797.69
489.043	790.69
489.261	787.69
489.479	824.69
489.696	820.69
489.914	880.69
490.132	827.69
490.35	852.69
490.568	833.69
490.786	889.69
491.003	893.69
491.221	908.69
491.439	915.69
491.657	919.69
491.874	909.69
492.092	956.69
492.31	950.69
492.527	929.69
492.745	951.69
492.963	932.69
493.18	974.69
493.398	962.69
493.615	973.69
493.833	1000.69
494.05	985.69
494.268	952.69
494.485	977.69
494.703	963.69
494.92	943.69
495.138	954.69
495.355	959.69
495.573	976.69
495.79	976.69
496.008	974.69
496.225	975.69
496.442	952.69
496.66	955.69
496.877	989.69
497.094	973.69
497.312	960.69
497.529	1002.69
497.746	1025.69
497.963	1050.69
498.181	1085.69
498.398	1141.69
498.615	1197.69
498.832	1202.69
499.049	1276.69
499.267	1384.69
499.484	1445.69
499.701	1504.69
499.918	1646.69
500.135	1797.69
500.352	1879.69
500.569	1879.69
500.786	1838.69
501.003	1719.69
501.22	1586.69
501.437	1517.69
501.654	1444.69
501.871	1372.69
