Data from TestCu_HRD10591_00060.txt Node
Date: Thu Oct 05 14:05:40 EDT 2023
User: Yrep
Spectrometer: HR+D1059
Trigger mode: 1
Integration Time (sec): 1.000000E-1
Scans to average: 1
Electric dark correction enabled: true
Nonlinearity correction enabled: false
Boxcar width: 0
XAxis mode: Wavelengths
Number of Pixels in Spectrum: 2048
>>>>>Begin Spectral Data<<<<<
223.165	-15.81
223.4	-15.81
223.635	-15.81
223.869	-15.81
224.104	-19.81
224.338	-17.81
224.573	-11.81
224.808	-18.81
225.042	-15.81
225.277	-7.81
225.511	4.19
225.746	7.19
225.98	9.19
226.215	15.19
226.449	21.19
226.683	15.19
226.918	25.19
227.152	26.19
227.387	23.19
227.621	28.19
227.856	52.19
228.09	58.19
228.324	52.19
228.559	38.19
228.793	63.19
229.027	113.19
229.262	125.19
229.496	135.19
229.73	174.19
229.964	177.19
230.199	123.19
230.433	124.19
230.667	118.19
230.901	115.19
231.136	100.19
231.37	110.19
231.604	114.19
231.838	105.19
232.072	111.19
232.306	125.19
232.541	134.19
232.775	122.19
233.009	112.19
233.243	130.19
233.477	109.19
233.711	110.19
233.945	130.19
234.179	106.19
234.413	116.19
234.647	110.19
234.881	106.19
235.115	114.19
235.349	124.19
235.583	119.19
235.817	121.19
236.051	131.19
236.285	133.19
236.519	135.19
236.753	147.19
236.987	181.19
237.221	232.19
237.455	217.19
237.689	155.19
237.922	133.19
238.156	120.19
238.39	111.19
238.624	118.19
238.858	128.19
239.091	125.19
239.325	131.19
239.559	121.19
239.793	143.19
240.027	153.19
240.26	158.19
240.494	168.19
240.728	145.19
240.961	140.19
241.195	148.19
241.429	126.19
241.662	132.19
241.896	148.19
242.13	132.19
242.363	137.19
242.597	131.19
242.83	132.19
243.064	141.19
243.298	150.19
243.531	141.19
243.765	131.19
243.998	148.19
244.232	136.19
244.465	152.19
244.699	145.19
244.932	130.19
245.166	133.19
245.399	149.19
245.633	137.19
245.866	149.19
246.099	139.19
246.333	148.19
246.566	145.19
246.8	150.19
247.033	157.19
247.266	171.19
247.5	170.19
247.733	165.19
247.966	165.19
248.2	152.19
248.433	164.19
248.666	168.19
248.899	202.19
249.133	190.19
249.366	212.19
249.599	199.19
249.832	173.19
250.066	146.19
250.299	185.19
250.532	186.19
250.765	207.19
250.998	200.19
251.231	180.19
251.465	185.19
251.698	182.19
251.931	181.19
252.164	183.19
252.397	189.19
252.63	188.19
252.863	186.19
253.096	222.19
253.329	211.19
253.562	192.19
253.795	197.19
254.028	204.19
254.261	206.19
254.494	236.19
254.727	277.19
254.96	262.19
255.193	204.19
255.426	183.19
255.659	198.19
255.892	211.19
256.124	198.19
256.357	182.19
256.59	188.19
256.823	191.19
257.056	174.19
257.289	209.19
257.521	193.19
257.754	194.19
257.987	193.19
258.22	196.19
258.452	203.19
258.685	198.19
258.918	202.19
259.151	222.19
259.383	210.19
259.616	204.19
259.849	226.19
260.081	253.19
260.314	248.19
260.547	245.19
260.779	207.19
261.012	213.19
261.244	232.19
261.477	216.19
261.71	212.19
261.942	229.19
262.175	231.19
262.407	227.19
262.64	216.19
262.872	218.19
263.105	224.19
263.337	220.19
263.57	197.19
263.802	212.19
264.035	195.19
264.267	214.19
264.499	209.19
264.732	205.19
264.964	215.19
265.197	220.19
265.429	191.19
265.661	220.19
265.894	210.19
266.126	210.19
266.358	206.19
266.591	212.19
266.823	241.19
267.055	231.19
267.287	224.19
267.52	229.19
267.752	231.19
267.984	236.19
268.216	232.19
268.448	246.19
268.681	248.19
268.913	274.19
269.145	279.19
269.377	274.19
269.609	258.19
269.841	269.19
270.073	285.19
270.306	330.19
270.538	310.19
270.77	292.19
271.002	299.19
271.234	287.19
271.466	296.19
271.698	332.19
271.93	294.19
272.162	301.19
272.394	302.19
272.626	269.19
272.858	278.19
273.09	262.19
273.322	261.19
273.553	257.19
273.785	248.19
274.017	246.19
274.249	273.19
274.481	265.19
274.713	275.19
274.945	263.19
275.176	260.19
275.408	264.19
275.64	273.19
275.872	267.19
276.104	265.19
276.335	270.19
276.567	320.19
276.799	342.19
277.031	354.19
277.262	333.19
277.494	313.19
277.726	303.19
277.957	287.19
278.189	280.19
278.421	275.19
278.652	290.19
278.884	255.19
279.115	262.19
279.347	282.19
279.579	276.19
279.81	282.19
280.042	280.19
280.273	310.19
280.505	277.19
280.736	282.19
280.968	271.19
281.199	289.19
281.431	295.19
281.662	289.19
281.894	274.19
282.125	324.19
282.356	353.19
282.588	362.19
282.819	327.19
283.051	300.19
283.282	274.19
283.513	292.19
283.745	318.19
283.976	297.19
284.207	316.19
284.439	296.19
284.67	288.19
284.901	285.19
285.132	302.19
285.364	306.19
285.595	310.19
285.826	314.19
286.057	301.19
286.288	294.19
286.52	309.19
286.751	300.19
286.982	319.19
287.213	308.19
287.444	305.19
287.675	320.19
287.906	339.19
288.138	330.19
288.369	344.19
288.6	338.19
288.831	328.19
289.062	310.19
289.293	314.19
289.524	313.19
289.755	321.19
289.986	306.19
290.217	300.19
290.448	312.19
290.679	316.19
290.91	315.19
291.141	318.19
291.371	335.19
291.602	318.19
291.833	314.19
292.064	337.19
292.295	322.19
292.526	330.19
292.757	327.19
292.987	326.19
293.218	330.19
293.449	334.19
293.68	338.19
293.91	323.19
294.141	346.19
294.372	340.19
294.603	342.19
294.833	328.19
295.064	365.19
295.295	343.19
295.525	339.19
295.756	375.19
295.987	374.19
296.217	416.19
296.448	392.19
296.679	362.19
296.909	345.19
297.14	331.19
297.37	357.19
297.601	370.19
297.831	366.19
298.062	364.19
298.292	360.19
298.523	347.19
298.753	377.19
298.984	349.19
299.214	382.19
299.445	377.19
299.675	381.19
299.905	377.19
300.136	363.19
300.366	378.19
300.597	389.19
300.827	395.19
301.057	428.19
301.288	407.19
301.518	385.19
301.748	387.19
301.979	387.19
302.209	393.19
302.439	414.19
302.669	400.19
302.9	396.19
303.13	400.19
303.36	395.19
303.59	401.19
303.82	413.19
304.051	388.19
304.281	390.19
304.511	391.19
304.741	376.19
304.971	399.19
305.201	387.19
305.431	394.19
305.661	391.19
305.891	402.19
306.121	407.19
306.352	412.19
306.582	416.19
306.812	402.19
307.042	397.19
307.272	402.19
307.502	400.19
307.731	401.19
307.961	401.19
308.191	402.19
308.421	396.19
308.651	413.19
308.881	391.19
309.111	404.19
309.341	431.19
309.571	434.19
309.8	452.19
310.03	459.19
310.26	452.19
310.49	490.19
310.72	508.19
310.949	516.19
311.179	470.19
311.409	449.19
311.639	478.19
311.868	484.19
312.098	477.19
312.328	503.19
312.557	546.19
312.787	540.19
313.017	491.19
313.246	472.19
313.476	455.19
313.706	490.19
313.935	504.19
314.165	537.19
314.394	536.19
314.624	502.19
314.853	467.19
315.083	469.19
315.312	459.19
315.542	461.19
315.771	475.19
316.001	452.19
316.23	447.19
316.46	474.19
316.689	476.19
316.919	492.19
317.148	474.19
317.377	500.19
317.607	502.19
317.836	465.19
318.065	450.19
318.295	448.19
318.524	437.19
318.753	467.19
318.983	488.19
319.212	495.19
319.441	467.19
319.67	479.19
319.9	477.19
320.129	483.19
320.358	487.19
320.587	490.19
320.816	511.19
321.046	517.19
321.275	506.19
321.504	506.19
321.733	528.19
321.962	536.19
322.191	546.19
322.42	577.19
322.649	585.19
322.878	609.19
323.108	654.19
323.337	677.19
323.566	766.19
323.795	854.19
324.024	1116.19
324.253	1914.19
324.482	3335.19
324.71	4884.19
324.939	4278.19
325.168	1911.19
325.397	913.19
325.626	695.19
325.855	654.19
326.084	662.19
326.313	736.19
326.542	798.19
326.77	1116.19
326.999	1797.19
327.228	2858.19
327.457	3561.19
327.686	2300.19
327.914	1091.19
328.143	884.19
328.372	786.19
328.6	784.19
328.829	809.19
329.058	844.19
329.287	752.19
329.515	669.19
329.744	625.19
329.972	635.19
330.201	681.19
330.43	769.19
330.658	897.19
330.887	898.19
331.115	745.19
331.344	646.19
331.572	652.19
331.801	662.19
332.03	659.19
332.258	630.19
332.486	613.19
332.715	624.19
332.943	638.19
333.172	657.19
333.4	654.19
333.629	700.19
333.857	673.19
334.085	649.19
334.314	649.19
334.542	604.19
334.771	639.19
334.999	653.19
335.227	634.19
335.455	611.19
335.684	595.19
335.912	612.19
336.14	633.19
336.369	620.19
336.597	671.19
336.825	632.19
337.053	602.19
337.281	598.19
337.51	607.19
337.738	593.19
337.966	588.19
338.194	597.19
338.422	612.19
338.65	580.19
338.878	591.19
339.106	570.19
339.334	589.19
339.562	553.19
339.79	571.19
340.018	590.19
340.246	583.19
340.474	564.19
340.702	572.19
340.93	575.19
341.158	566.19
341.386	572.19
341.614	572.19
341.842	583.19
342.07	551.19
342.298	558.19
342.526	553.19
342.754	557.19
342.981	564.19
343.209	572.19
343.437	568.19
343.665	615.19
343.893	611.19
344.12	618.19
344.348	624.19
344.576	596.19
344.804	627.19
345.031	622.19
345.259	644.19
345.487	624.19
345.714	569.19
345.942	568.19
346.17	554.19
346.397	569.19
346.625	582.19
346.853	579.19
347.08	542.19
347.308	596.19
347.535	586.19
347.763	579.19
347.99	583.19
348.218	611.19
348.445	591.19
348.673	554.19
348.9	576.19
349.128	533.19
349.355	531.19
349.583	531.19
349.81	538.19
350.037	509.19
350.265	535.19
350.492	549.19
350.72	560.19
350.947	558.19
351.174	566.19
351.402	601.19
351.629	603.19
351.856	610.19
352.083	615.19
352.311	626.19
352.538	626.19
352.765	608.19
352.992	573.19
353.22	579.19
353.447	546.19
353.674	540.19
353.901	537.19
354.128	534.19
354.355	520.19
354.583	546.19
354.81	533.19
355.037	519.19
355.264	523.19
355.491	525.19
355.718	527.19
355.945	550.19
356.172	510.19
356.399	516.19
356.626	540.19
356.853	517.19
357.08	508.19
357.307	512.19
357.534	542.19
357.761	505.19
357.988	524.19
358.215	506.19
358.441	519.19
358.668	526.19
358.895	554.19
359.122	552.19
359.349	559.19
359.576	632.19
359.802	681.19
360.029	732.19
360.256	694.19
360.483	627.19
360.709	579.19
360.936	586.19
361.163	587.19
361.39	632.19
361.616	599.19
361.843	579.19
362.07	610.19
362.296	613.19
362.523	575.19
362.749	580.19
362.976	585.19
363.203	562.19
363.429	543.19
363.656	563.19
363.882	546.19
364.109	544.19
364.335	551.19
364.562	572.19
364.788	555.19
365.015	581.19
365.241	590.19
365.468	561.19
365.694	583.19
365.92	538.19
366.147	556.19
366.373	544.19
366.599	560.19
366.826	557.19
367.052	548.19
367.278	545.19
367.505	541.19
367.731	562.19
367.957	538.19
368.184	566.19
368.41	598.19
368.636	607.19
368.862	592.19
369.089	576.19
369.315	563.19
369.541	575.19
369.767	571.19
369.993	578.19
370.219	546.19
370.445	566.19
370.672	587.19
370.898	576.19
371.124	556.19
371.35	584.19
371.576	564.19
371.802	552.19
372.028	571.19
372.254	582.19
372.48	576.19
372.706	569.19
372.932	580.19
373.158	602.19
373.384	611.19
373.61	565.19
373.835	598.19
374.061	589.19
374.287	595.19
374.513	608.19
374.739	608.19
374.965	631.19
375.191	598.19
375.416	608.19
375.642	588.19
375.868	578.19
376.094	588.19
376.319	562.19
376.545	566.19
376.771	564.19
376.997	580.19
377.222	569.19
377.448	584.19
377.674	576.19
377.899	533.19
378.125	578.19
378.35	558.19
378.576	561.19
378.802	560.19
379.027	562.19
379.253	565.19
379.478	574.19
379.704	588.19
379.929	576.19
380.155	582.19
380.38	584.19
380.606	578.19
380.831	589.19
381.057	550.19
381.282	594.19
381.507	588.19
381.733	576.19
381.958	590.19
382.184	612.19
382.409	589.19
382.634	602.19
382.86	601.19
383.085	618.19
383.31	601.19
383.535	615.19
383.761	637.19
383.986	626.19
384.211	631.19
384.436	655.19
384.662	639.19
384.887	639.19
385.112	643.19
385.337	650.19
385.562	680.19
385.787	684.19
386.013	684.19
386.238	685.19
386.463	694.19
386.688	680.19
386.913	660.19
387.138	648.19
387.363	669.19
387.588	653.19
387.813	655.19
388.038	680.19
388.263	661.19
388.488	651.19
388.713	650.19
388.938	670.19
389.163	649.19
389.387	660.19
389.612	653.19
389.837	653.19
390.062	650.19
390.287	665.19
390.512	659.19
390.736	666.19
390.961	672.19
391.186	665.19
391.411	721.19
391.636	737.19
391.86	734.19
392.085	714.19
392.31	712.19
392.534	716.19
392.759	706.19
392.984	702.19
393.208	723.19
393.433	699.19
393.658	665.19
393.882	698.19
394.107	694.19
394.331	709.19
394.556	725.19
394.78	695.19
395.005	722.19
395.229	706.19
395.454	713.19
395.678	748.19
395.903	732.19
396.127	728.19
396.352	709.19
396.576	712.19
396.801	703.19
397.025	697.19
397.249	742.19
397.474	750.19
397.698	735.19
397.922	777.19
398.147	785.19
398.371	788.19
398.595	803.19
398.82	832.19
399.044	905.19
399.268	985.19
399.492	1074.19
399.717	1098.19
399.941	1064.19
400.165	1023.19
400.389	944.19
400.613	890.19
400.837	836.19
401.062	846.19
401.286	806.19
401.51	799.19
401.734	829.19
401.958	820.19
402.182	891.19
402.406	908.19
402.63	910.19
402.854	903.19
403.078	881.19
403.302	931.19
403.526	901.19
403.75	899.19
403.974	932.19
404.198	896.19
404.422	925.19
404.645	911.19
404.869	913.19
405.093	922.19
405.317	940.19
405.541	932.19
405.765	903.19
405.988	949.19
406.212	983.19
406.436	1026.19
406.66	1030.19
406.883	1026.19
407.107	1063.19
407.331	1098.19
407.555	1162.19
407.778	1068.19
408.002	981.19
408.226	926.19
408.449	955.19
408.673	979.19
408.896	982.19
409.12	962.19
409.344	905.19
409.567	881.19
409.791	863.19
410.014	859.19
410.238	854.19
410.461	867.19
410.685	865.19
410.908	944.19
411.132	917.19
411.355	884.19
411.578	864.19
411.802	824.19
412.025	816.19
412.249	835.19
412.472	810.19
412.695	806.19
412.919	813.19
413.142	791.19
413.365	799.19
413.589	793.19
413.812	786.19
414.035	794.19
414.258	797.19
414.482	779.19
414.705	802.19
414.928	811.19
415.151	793.19
415.374	808.19
415.597	825.19
415.821	785.19
416.044	790.19
416.267	771.19
416.49	775.19
416.713	785.19
416.936	792.19
417.159	791.19
417.382	800.19
417.605	820.19
417.828	844.19
418.051	849.19
418.274	811.19
418.497	822.19
418.72	817.19
418.943	804.19
419.166	826.19
419.389	849.19
419.611	833.19
419.834	824.19
420.057	814.19
420.28	776.19
420.503	789.19
420.726	808.19
420.948	862.19
421.171	876.19
421.394	861.19
421.617	809.19
421.839	776.19
422.062	845.19
422.285	882.19
422.507	940.19
422.73	964.19
422.953	921.19
423.175	847.19
423.398	869.19
423.621	852.19
423.843	917.19
424.066	866.19
424.288	880.19
424.511	926.19
424.733	978.19
424.956	1030.19
425.178	996.19
425.401	990.19
425.623	969.19
425.846	860.19
426.068	857.19
426.291	824.19
426.513	812.19
426.735	865.19
426.958	950.19
427.18	1111.19
427.402	1248.19
427.625	1256.19
427.847	1006.19
428.069	842.19
428.292	781.19
428.514	798.19
428.736	752.19
428.958	754.19
429.181	751.19
429.403	730.19
429.625	791.19
429.847	862.19
430.069	871.19
430.292	796.19
430.514	722.19
430.736	745.19
430.958	710.19
431.18	735.19
431.402	730.19
431.624	732.19
431.846	713.19
432.068	723.19
432.29	725.19
432.512	743.19
432.734	736.19
432.956	761.19
433.178	748.19
433.4	746.19
433.622	720.19
433.844	730.19
434.066	757.19
434.287	751.19
434.509	770.19
434.731	774.19
434.953	804.19
435.175	823.19
435.397	842.19
435.618	860.19
435.84	965.19
436.062	1038.19
436.284	990.19
436.505	840.19
436.727	798.19
436.949	770.19
437.17	763.19
437.392	757.19
437.614	797.19
437.835	922.19
438.057	1028.19
438.278	1078.19
438.5	1056.19
438.721	1111.19
438.943	931.19
439.165	789.19
439.386	839.19
439.608	826.19
439.829	864.19
440.05	966.19
440.272	985.19
440.493	852.19
440.715	783.19
440.936	780.19
441.158	810.19
441.379	804.19
441.6	874.19
441.822	904.19
442.043	978.19
442.264	1059.19
442.486	992.19
442.707	881.19
442.928	913.19
443.149	946.19
443.371	1021.19
443.592	1084.19
443.813	1164.19
444.034	1064.19
444.255	957.19
444.476	906.19
444.698	931.19
444.919	924.19
445.14	980.19
445.361	970.19
445.582	1048.19
445.803	1178.19
446.024	1254.19
446.245	1173.19
446.466	991.19
446.687	818.19
446.908	798.19
447.129	764.19
447.35	735.19
447.571	780.19
447.792	735.19
448.013	777.19
448.234	833.19
448.455	921.19
448.675	1028.19
448.896	1046.19
449.117	898.19
449.338	1014.19
449.559	1120.19
449.779	1049.19
450	840.19
450.221	742.19
450.442	765.19
450.662	745.19
450.883	803.19
451.104	812.19
451.324	720.19
451.545	690.19
451.766	698.19
451.986	690.19
452.207	698.19
452.428	700.19
452.648	686.19
452.869	710.19
453.089	734.19
453.31	698.19
453.53	691.19
453.751	702.19
453.971	726.19
454.192	751.19
454.412	680.19
454.633	676.19
454.853	666.19
455.073	674.19
455.294	736.19
455.514	815.19
455.734	696.19
455.955	626.19
456.175	607.19
456.395	604.19
456.616	617.19
456.836	608.19
457.056	616.19
457.276	588.19
457.497	634.19
457.717	614.19
457.937	648.19
458.157	661.19
458.377	660.19
458.598	797.19
458.818	976.19
459.038	996.19
459.258	882.19
459.478	768.19
459.698	762.19
459.918	738.19
460.138	772.19
460.358	787.19
460.578	800.19
460.798	801.19
461.018	799.19
461.238	791.19
461.458	776.19
461.678	786.19
461.898	798.19
462.118	810.19
462.338	841.19
462.558	874.19
462.777	871.19
462.997	953.19
463.217	960.19
463.437	964.19
463.657	882.19
463.876	871.19
464.096	898.19
464.316	891.19
464.536	876.19
464.755	912.19
464.975	938.19
465.195	1161.19
465.414	1091.19
465.634	830.19
465.854	785.19
466.073	744.19
466.293	740.19
466.512	714.19
466.732	689.19
466.951	707.19
467.171	717.19
467.391	708.19
467.61	749.19
467.829	734.19
468.049	702.19
468.268	652.19
468.488	657.19
468.707	659.19
468.927	669.19
469.146	678.19
469.365	675.19
469.585	679.19
469.804	726.19
470.023	752.19
470.243	739.19
470.462	769.19
470.681	798.19
470.901	740.19
471.12	730.19
471.339	718.19
471.558	712.19
471.777	679.19
471.997	686.19
472.216	661.19
472.435	645.19
472.654	675.19
472.873	634.19
473.092	633.19
473.311	672.19
473.53	651.19
473.749	698.19
473.968	787.19
474.187	924.19
474.406	809.19
474.625	722.19
474.844	670.19
475.063	666.19
475.282	678.19
475.501	651.19
475.72	678.19
475.939	669.19
476.158	696.19
476.377	688.19
476.596	691.19
476.814	709.19
477.033	734.19
477.252	756.19
477.471	732.19
477.69	737.19
477.908	762.19
478.127	761.19
478.346	762.19
478.564	789.19
478.783	796.19
479.002	812.19
479.22	832.19
479.439	899.19
479.658	894.19
479.876	852.19
480.095	856.19
480.313	917.19
480.532	870.19
480.751	850.19
480.969	860.19
481.188	836.19
481.406	803.19
481.624	772.19
481.843	777.19
482.061	764.19
482.28	757.19
482.498	761.19
482.717	758.19
482.935	745.19
483.153	736.19
483.372	794.19
483.59	767.19
483.808	754.19
484.027	735.19
484.245	781.19
484.463	761.19
484.681	791.19
484.9	802.19
485.118	816.19
485.336	793.19
485.554	790.19
485.772	816.19
485.99	822.19
486.209	817.19
486.427	844.19
486.645	845.19
486.863	893.19
487.081	842.19
487.299	804.19
487.517	802.19
487.735	838.19
487.953	820.19
488.171	826.19
488.389	843.19
488.607	804.19
488.825	816.19
489.043	824.19
489.261	859.19
489.479	841.19
489.696	831.19
489.914	829.19
490.132	851.19
490.35	877.19
490.568	874.19
490.786	884.19
491.003	910.19
491.221	930.19
491.439	966.19
491.657	944.19
491.874	966.19
492.092	967.19
492.31	965.19
492.527	972.19
492.745	960.19
492.963	998.19
493.18	994.19
493.398	1007.19
493.615	1022.19
493.833	1001.19
494.05	990.19
494.268	979.19
494.485	984.19
494.703	940.19
494.92	965.19
495.138	957.19
495.355	961.19
495.573	972.19
495.79	990.19
496.008	998.19
496.225	958.19
496.442	966.19
496.66	963.19
496.877	957.19
497.094	1008.19
497.312	1024.19
497.529	1005.19
497.746	1032.19
497.963	1073.19
498.181	1125.19
498.398	1146.19
498.615	1161.19
498.832	1217.19
499.049	1305.19
499.267	1330.19
499.484	1442.19
499.701	1525.19
499.918	1655.19
500.135	1800.19
500.352	1900.19
500.569	1892.19
500.786	1846.19
501.003	1763.19
501.22	1619.19
501.437	1559.19
501.654	1490.19
