Data from TestCu_HRD10591_00035.txt Node
Date: Thu Oct 05 14:05:16 EDT 2023
User: Yrep
Spectrometer: HR+D1059
Trigger mode: 1
Integration Time (sec): 1.000000E-1
Scans to average: 1
Electric dark correction enabled: true
Nonlinearity correction enabled: false
Boxcar width: 0
XAxis mode: Wavelengths
Number of Pixels in Spectrum: 2048
>>>>>Begin Spectral Data<<<<<
223.165	-13.88
223.4	-13.88
223.635	-13.88
223.869	-21.88
224.104	-14.88
224.338	-9.88
224.573	-19.88
224.808	-10.88
225.042	-5.88
225.277	-15.88
225.511	0.12
225.746	2.12
225.98	-0.88
226.215	6.12
226.449	18.12
226.683	14.12
226.918	30.12
227.152	43.12
227.387	32.12
227.621	30.12
227.856	50.12
228.09	46.12
228.324	45.12
228.559	49.12
228.793	80.12
229.027	102.12
229.262	118.12
229.496	125.12
229.73	162.12
229.964	151.12
230.199	136.12
230.433	106.12
230.667	118.12
230.901	107.12
231.136	100.12
231.37	119.12
231.604	112.12
231.838	102.12
232.072	108.12
232.306	101.12
232.541	105.12
232.775	115.12
233.009	123.12
233.243	110.12
233.477	101.12
233.711	110.12
233.945	110.12
234.179	112.12
234.413	118.12
234.647	124.12
234.881	115.12
235.115	112.12
235.349	99.12
235.583	131.12
235.817	115.12
236.051	124.12
236.285	125.12
236.519	112.12
236.753	163.12
236.987	179.12
237.221	232.12
237.455	234.12
237.689	155.12
237.922	132.12
238.156	131.12
238.39	117.12
238.624	116.12
238.858	127.12
239.091	122.12
239.325	128.12
239.559	133.12
239.793	134.12
240.027	148.12
240.26	176.12
240.494	171.12
240.728	160.12
240.961	143.12
241.195	131.12
241.429	129.12
241.662	130.12
241.896	119.12
242.13	128.12
242.363	129.12
242.597	143.12
242.83	131.12
243.064	134.12
243.298	134.12
243.531	132.12
243.765	129.12
243.998	134.12
244.232	143.12
244.465	147.12
244.699	148.12
244.932	134.12
245.166	156.12
245.399	130.12
245.633	139.12
245.866	138.12
246.099	141.12
246.333	144.12
246.566	158.12
246.8	143.12
247.033	137.12
247.266	162.12
247.5	166.12
247.733	172.12
247.966	157.12
248.2	161.12
248.433	158.12
248.666	172.12
248.899	192.12
249.133	194.12
249.366	210.12
249.599	174.12
249.832	165.12
250.066	158.12
250.299	186.12
250.532	197.12
250.765	209.12
250.998	221.12
251.231	207.12
251.465	183.12
251.698	162.12
251.931	183.12
252.164	176.12
252.397	191.12
252.63	208.12
252.863	198.12
253.096	220.12
253.329	208.12
253.562	218.12
253.795	204.12
254.028	204.12
254.261	218.12
254.494	251.12
254.727	278.12
254.96	242.12
255.193	223.12
255.426	211.12
255.659	195.12
255.892	180.12
256.124	182.12
256.357	174.12
256.59	193.12
256.823	174.12
257.056	190.12
257.289	179.12
257.521	197.12
257.754	183.12
257.987	192.12
258.22	199.12
258.452	204.12
258.685	215.12
258.918	206.12
259.151	208.12
259.383	212.12
259.616	214.12
259.849	220.12
260.081	247.12
260.314	264.12
260.547	238.12
260.779	222.12
261.012	211.12
261.244	209.12
261.477	210.12
261.71	222.12
261.942	242.12
262.175	256.12
262.407	238.12
262.64	223.12
262.872	214.12
263.105	213.12
263.337	218.12
263.57	207.12
263.802	211.12
264.035	225.12
264.267	211.12
264.499	218.12
264.732	215.12
264.964	224.12
265.197	208.12
265.429	207.12
265.661	220.12
265.894	226.12
266.126	228.12
266.358	211.12
266.591	221.12
266.823	237.12
267.055	241.12
267.287	205.12
267.52	226.12
267.752	245.12
267.984	229.12
268.216	234.12
268.448	261.12
268.681	259.12
268.913	285.12
269.145	272.12
269.377	275.12
269.609	263.12
269.841	281.12
270.073	302.12
270.306	313.12
270.538	330.12
270.77	304.12
271.002	276.12
271.234	277.12
271.466	310.12
271.698	316.12
271.93	317.12
272.162	294.12
272.394	304.12
272.626	273.12
272.858	256.12
273.09	262.12
273.322	268.12
273.553	255.12
273.785	258.12
274.017	267.12
274.249	255.12
274.481	267.12
274.713	286.12
274.945	267.12
275.176	265.12
275.408	266.12
275.64	265.12
275.872	279.12
276.104	284.12
276.335	308.12
276.567	313.12
276.799	344.12
277.031	375.12
277.262	336.12
277.494	325.12
277.726	288.12
277.957	286.12
278.189	291.12
278.421	266.12
278.652	287.12
278.884	282.12
279.115	262.12
279.347	279.12
279.579	266.12
279.81	292.12
280.042	280.12
280.273	282.12
280.505	275.12
280.736	278.12
280.968	278.12
281.199	276.12
281.431	277.12
281.662	303.12
281.894	291.12
282.125	324.12
282.356	360.12
282.588	388.12
282.819	346.12
283.051	307.12
283.282	298.12
283.513	302.12
283.745	293.12
283.976	299.12
284.207	320.12
284.439	317.12
284.67	316.12
284.901	293.12
285.132	286.12
285.364	306.12
285.595	303.12
285.826	308.12
286.057	305.12
286.288	312.12
286.52	295.12
286.751	319.12
286.982	323.12
287.213	302.12
287.444	327.12
287.675	332.12
287.906	339.12
288.138	360.12
288.369	339.12
288.6	342.12
288.831	327.12
289.062	325.12
289.293	327.12
289.524	330.12
289.755	303.12
289.986	319.12
290.217	326.12
290.448	311.12
290.679	306.12
290.91	325.12
291.141	338.12
291.371	330.12
291.602	324.12
291.833	327.12
292.064	344.12
292.295	330.12
292.526	333.12
292.757	355.12
292.987	355.12
293.218	337.12
293.449	342.12
293.68	330.12
293.91	343.12
294.141	343.12
294.372	346.12
294.603	335.12
294.833	339.12
295.064	327.12
295.295	333.12
295.525	352.12
295.756	386.12
295.987	400.12
296.217	435.12
296.448	402.12
296.679	354.12
296.909	341.12
297.14	362.12
297.37	360.12
297.601	369.12
297.831	374.12
298.062	361.12
298.292	355.12
298.523	376.12
298.753	376.12
298.984	365.12
299.214	384.12
299.445	379.12
299.675	377.12
299.905	376.12
300.136	379.12
300.366	375.12
300.597	395.12
300.827	399.12
301.057	414.12
301.288	397.12
301.518	400.12
301.748	387.12
301.979	414.12
302.209	406.12
302.439	398.12
302.669	402.12
302.9	392.12
303.13	401.12
303.36	392.12
303.59	405.12
303.82	401.12
304.051	425.12
304.281	403.12
304.511	386.12
304.741	380.12
304.971	395.12
305.201	380.12
305.431	394.12
305.661	413.12
305.891	394.12
306.121	391.12
306.352	412.12
306.582	401.12
306.812	382.12
307.042	403.12
307.272	391.12
307.502	386.12
307.731	401.12
307.961	416.12
308.191	405.12
308.421	399.12
308.651	398.12
308.881	407.12
309.111	415.12
309.341	418.12
309.571	453.12
309.8	458.12
310.03	478.12
310.26	466.12
310.49	475.12
310.72	494.12
310.949	565.12
311.179	498.12
311.409	482.12
311.639	493.12
311.868	492.12
312.098	498.12
312.328	514.12
312.557	552.12
312.787	551.12
313.017	503.12
313.246	460.12
313.476	472.12
313.706	495.12
313.935	516.12
314.165	525.12
314.394	525.12
314.624	496.12
314.853	495.12
315.083	455.12
315.312	464.12
315.542	440.12
315.771	447.12
316.001	485.12
316.23	468.12
316.46	458.12
316.689	464.12
316.919	492.12
317.148	506.12
317.377	498.12
317.607	474.12
317.836	478.12
318.065	463.12
318.295	460.12
318.524	463.12
318.753	434.12
318.983	482.12
319.212	484.12
319.441	518.12
319.67	480.12
319.9	467.12
320.129	497.12
320.358	481.12
320.587	488.12
320.816	514.12
321.046	530.12
321.275	500.12
321.504	512.12
321.733	516.12
321.962	535.12
322.191	541.12
322.42	598.12
322.649	628.12
322.878	632.12
323.108	674.12
323.337	716.12
323.566	778.12
323.795	895.12
324.024	1194.12
324.253	2071.12
324.482	3523.12
324.71	5335.12
324.939	4646.12
325.168	2036.12
325.397	947.12
325.626	715.12
325.855	663.12
326.084	658.12
326.313	702.12
326.542	802.12
326.77	1116.12
326.999	1895.12
327.228	3050.12
327.457	3919.12
327.686	2588.12
327.914	1199.12
328.143	882.12
328.372	820.12
328.6	805.12
328.829	863.12
329.058	877.12
329.287	791.12
329.515	665.12
329.744	642.12
329.972	630.12
330.201	675.12
330.43	804.12
330.658	940.12
330.887	974.12
331.115	781.12
331.344	675.12
331.572	677.12
331.801	688.12
332.03	660.12
332.258	628.12
332.486	608.12
332.715	632.12
332.943	653.12
333.172	663.12
333.4	666.12
333.629	675.12
333.857	698.12
334.085	668.12
334.314	671.12
334.542	649.12
334.771	675.12
334.999	654.12
335.227	642.12
335.455	637.12
335.684	627.12
335.912	632.12
336.14	623.12
336.369	614.12
336.597	644.12
336.825	628.12
337.053	600.12
337.281	584.12
337.51	603.12
337.738	610.12
337.966	639.12
338.194	623.12
338.422	632.12
338.65	575.12
338.878	578.12
339.106	541.12
339.334	597.12
339.562	599.12
339.79	578.12
340.018	604.12
340.246	608.12
340.474	578.12
340.702	561.12
340.93	565.12
341.158	591.12
341.386	617.12
341.614	605.12
341.842	579.12
342.07	590.12
342.298	572.12
342.526	560.12
342.754	549.12
342.981	549.12
343.209	569.12
343.437	606.12
343.665	621.12
343.893	630.12
344.12	607.12
344.348	611.12
344.576	622.12
344.804	661.12
345.031	627.12
345.259	620.12
345.487	583.12
345.714	584.12
345.942	572.12
346.17	589.12
346.397	568.12
346.625	579.12
346.853	568.12
347.08	598.12
347.308	604.12
347.535	610.12
347.763	612.12
347.99	611.12
348.218	635.12
348.445	640.12
348.673	575.12
348.9	566.12
349.128	546.12
349.355	547.12
349.583	518.12
349.81	539.12
350.037	556.12
350.265	573.12
350.492	546.12
350.72	558.12
350.947	586.12
351.174	606.12
351.402	588.12
351.629	602.12
351.856	582.12
352.083	622.12
352.311	627.12
352.538	634.12
352.765	602.12
352.992	582.12
353.22	578.12
353.447	574.12
353.674	545.12
353.901	539.12
354.128	549.12
354.355	552.12
354.583	542.12
354.81	518.12
355.037	538.12
355.264	517.12
355.491	516.12
355.718	515.12
355.945	523.12
356.172	551.12
356.399	540.12
356.626	526.12
356.853	498.12
357.08	518.12
357.307	518.12
357.534	513.12
357.761	536.12
357.988	520.12
358.215	534.12
358.441	519.12
358.668	526.12
358.895	548.12
359.122	555.12
359.349	582.12
359.576	651.12
359.802	710.12
360.029	766.12
360.256	708.12
360.483	644.12
360.709	600.12
360.936	603.12
361.163	612.12
361.39	614.12
361.616	610.12
361.843	621.12
362.07	607.12
362.296	599.12
362.523	596.12
362.749	592.12
362.976	595.12
363.203	567.12
363.429	559.12
363.656	595.12
363.882	587.12
364.109	531.12
364.335	575.12
364.562	538.12
364.788	572.12
365.015	548.12
365.241	575.12
365.468	602.12
365.694	595.12
365.92	585.12
366.147	566.12
366.373	549.12
366.599	558.12
366.826	555.12
367.052	549.12
367.278	565.12
367.505	575.12
367.731	575.12
367.957	555.12
368.184	564.12
368.41	589.12
368.636	614.12
368.862	609.12
369.089	566.12
369.315	592.12
369.541	589.12
369.767	571.12
369.993	577.12
370.219	561.12
370.445	561.12
370.672	565.12
370.898	554.12
371.124	600.12
371.35	588.12
371.576	581.12
371.802	561.12
372.028	562.12
372.254	572.12
372.48	566.12
372.706	579.12
372.932	583.12
373.158	588.12
373.384	602.12
373.61	584.12
373.835	608.12
374.061	607.12
374.287	597.12
374.513	602.12
374.739	607.12
374.965	576.12
375.191	587.12
375.416	602.12
375.642	589.12
375.868	593.12
376.094	603.12
376.319	610.12
376.545	573.12
376.771	585.12
376.997	564.12
377.222	591.12
377.448	588.12
377.674	580.12
377.899	580.12
378.125	555.12
378.35	582.12
378.576	572.12
378.802	558.12
379.027	586.12
379.253	587.12
379.478	574.12
379.704	584.12
379.929	582.12
380.155	580.12
380.38	574.12
380.606	594.12
380.831	591.12
381.057	607.12
381.282	598.12
381.507	592.12
381.733	584.12
381.958	599.12
382.184	595.12
382.409	610.12
382.634	594.12
382.86	608.12
383.085	613.12
383.31	624.12
383.535	630.12
383.761	631.12
383.986	645.12
384.211	633.12
384.436	642.12
384.662	643.12
384.887	663.12
385.112	654.12
385.337	672.12
385.562	667.12
385.787	687.12
386.013	702.12
386.238	724.12
386.463	676.12
386.688	707.12
386.913	646.12
387.138	648.12
387.363	682.12
387.588	653.12
387.813	656.12
388.038	671.12
388.263	678.12
388.488	661.12
388.713	688.12
388.938	672.12
389.163	692.12
389.387	677.12
389.612	660.12
389.837	644.12
390.062	648.12
390.287	674.12
390.512	672.12
390.736	671.12
390.961	689.12
391.186	690.12
391.411	725.12
391.636	715.12
391.86	736.12
392.085	722.12
392.31	722.12
392.534	703.12
392.759	716.12
392.984	688.12
393.208	700.12
393.433	677.12
393.658	684.12
393.882	682.12
394.107	707.12
394.331	696.12
394.556	714.12
394.78	722.12
395.005	700.12
395.229	731.12
395.454	738.12
395.678	759.12
395.903	743.12
396.127	764.12
396.352	753.12
396.576	737.12
396.801	705.12
397.025	724.12
397.249	709.12
397.474	758.12
397.698	749.12
397.922	806.12
398.147	782.12
398.371	778.12
398.595	796.12
398.82	843.12
399.044	909.12
399.268	1022.12
399.492	1070.12
399.717	1135.12
399.941	1066.12
400.165	991.12
400.389	944.12
400.613	886.12
400.837	863.12
401.062	836.12
401.286	829.12
401.51	842.12
401.734	831.12
401.958	867.12
402.182	910.12
402.406	933.12
402.63	915.12
402.854	909.12
403.078	871.12
403.302	890.12
403.526	896.12
403.75	901.12
403.974	915.12
404.198	899.12
404.422	939.12
404.645	901.12
404.869	950.12
405.093	915.12
405.317	962.12
405.541	942.12
405.765	915.12
405.988	942.12
406.212	1025.12
406.436	1106.12
406.66	1046.12
406.883	1015.12
407.107	1040.12
407.331	1122.12
407.555	1162.12
407.778	1102.12
408.002	982.12
408.226	971.12
408.449	962.12
408.673	962.12
408.896	954.12
409.12	969.12
409.344	943.12
409.567	898.12
409.791	854.12
410.014	871.12
410.238	872.12
410.461	864.12
410.685	922.12
410.908	902.12
411.132	908.12
411.355	916.12
411.578	859.12
411.802	839.12
412.025	855.12
412.249	854.12
412.472	820.12
412.695	820.12
412.919	807.12
413.142	794.12
413.365	804.12
413.589	806.12
413.812	783.12
414.035	780.12
414.258	803.12
414.482	802.12
414.705	786.12
414.928	804.12
415.151	809.12
415.374	792.12
415.597	814.12
415.821	780.12
416.044	791.12
416.267	782.12
416.49	804.12
416.713	793.12
416.936	811.12
417.159	818.12
417.382	791.12
417.605	790.12
417.828	799.12
418.051	824.12
418.274	813.12
418.497	811.12
418.72	815.12
418.943	812.12
419.166	847.12
419.389	859.12
419.611	831.12
419.834	847.12
420.057	810.12
420.28	809.12
420.503	793.12
420.726	804.12
420.948	878.12
421.171	885.12
421.394	871.12
421.617	833.12
421.839	858.12
422.062	840.12
422.285	902.12
422.507	981.12
422.73	961.12
422.953	902.12
423.175	871.12
423.398	873.12
423.621	870.12
423.843	881.12
424.066	910.12
424.288	889.12
424.511	932.12
424.733	978.12
424.956	1075.12
425.178	1032.12
425.401	1002.12
425.623	935.12
425.846	876.12
426.068	863.12
426.291	834.12
426.513	832.12
426.735	860.12
426.958	966.12
427.18	1097.12
427.402	1272.12
427.625	1312.12
427.847	1004.12
428.069	865.12
428.292	830.12
428.514	776.12
428.736	759.12
428.958	780.12
429.181	732.12
429.403	762.12
429.625	799.12
429.847	828.12
430.069	887.12
430.292	797.12
430.514	746.12
430.736	767.12
430.958	746.12
431.18	704.12
431.402	724.12
431.624	728.12
431.846	742.12
432.068	728.12
432.29	746.12
432.512	722.12
432.734	744.12
432.956	760.12
433.178	778.12
433.4	778.12
433.622	741.12
433.844	751.12
434.066	741.12
434.287	761.12
434.509	757.12
434.731	786.12
434.953	822.12
435.175	820.12
435.397	848.12
435.618	880.12
435.84	976.12
436.062	1069.12
436.284	980.12
436.505	834.12
436.727	795.12
436.949	771.12
437.17	780.12
437.392	756.12
437.614	819.12
437.835	935.12
438.057	1087.12
438.278	1116.12
438.5	1092.12
438.721	1128.12
438.943	964.12
439.165	836.12
439.386	811.12
439.608	860.12
439.829	896.12
440.05	984.12
440.272	1008.12
440.493	862.12
440.715	824.12
440.936	794.12
441.158	801.12
441.379	818.12
441.6	885.12
441.822	920.12
442.043	980.12
442.264	1092.12
442.486	989.12
442.707	887.12
442.928	900.12
443.149	977.12
443.371	1005.12
443.592	1079.12
443.813	1157.12
444.034	1098.12
444.255	936.12
444.476	943.12
444.698	919.12
444.919	899.12
445.14	945.12
445.361	986.12
445.582	1073.12
445.803	1214.12
446.024	1239.12
446.245	1184.12
446.466	994.12
446.687	855.12
446.908	805.12
447.129	779.12
447.35	758.12
447.571	745.12
447.792	770.12
448.013	789.12
448.234	832.12
448.455	938.12
448.675	1063.12
448.896	1036.12
449.117	927.12
449.338	966.12
449.559	1144.12
449.779	1084.12
450	842.12
450.221	771.12
450.442	742.12
450.662	771.12
450.883	816.12
451.104	845.12
451.324	734.12
451.545	739.12
451.766	714.12
451.986	687.12
452.207	676.12
452.428	659.12
452.648	694.12
452.869	690.12
453.089	714.12
453.31	735.12
453.53	692.12
453.751	682.12
453.971	769.12
454.192	787.12
454.412	707.12
454.633	651.12
454.853	676.12
455.073	686.12
455.294	725.12
455.514	801.12
455.734	690.12
455.955	619.12
456.175	619.12
456.395	624.12
456.616	604.12
456.836	627.12
457.056	600.12
457.276	611.12
457.497	625.12
457.717	639.12
457.937	633.12
458.157	655.12
458.377	699.12
458.598	808.12
458.818	1028.12
459.038	1059.12
459.258	908.12
459.478	785.12
459.698	735.12
459.918	770.12
460.138	783.12
460.358	767.12
460.578	784.12
460.798	805.12
461.018	791.12
461.238	789.12
461.458	790.12
461.678	769.12
461.898	780.12
462.118	807.12
462.338	840.12
462.558	852.12
462.777	879.12
462.997	913.12
463.217	926.12
463.437	919.12
463.657	885.12
463.876	865.12
464.096	883.12
464.316	897.12
464.536	902.12
464.755	909.12
464.975	970.12
465.195	1178.12
465.414	1081.12
465.634	854.12
465.854	752.12
466.073	733.12
466.293	713.12
466.512	712.12
466.732	700.12
466.951	701.12
467.171	709.12
467.391	745.12
467.61	775.12
467.829	746.12
468.049	709.12
468.268	684.12
468.488	674.12
468.707	660.12
468.927	670.12
469.146	646.12
469.365	669.12
469.585	700.12
469.804	746.12
470.023	758.12
470.243	731.12
470.462	789.12
470.681	810.12
470.901	748.12
471.12	722.12
471.339	728.12
471.558	694.12
471.777	701.12
471.997	661.12
472.216	671.12
472.435	646.12
472.654	659.12
472.873	638.12
473.092	640.12
473.311	671.12
473.53	691.12
473.749	712.12
473.968	837.12
474.187	918.12
474.406	798.12
474.625	712.12
474.844	691.12
475.063	682.12
475.282	684.12
475.501	663.12
475.72	690.12
475.939	705.12
476.158	704.12
476.377	696.12
476.596	728.12
476.814	737.12
477.033	744.12
477.252	755.12
477.471	743.12
477.69	732.12
477.908	764.12
478.127	771.12
478.346	771.12
478.564	762.12
478.783	824.12
479.002	834.12
479.22	833.12
479.439	850.12
479.658	892.12
479.876	886.12
480.095	898.12
480.313	913.12
480.532	884.12
480.751	870.12
480.969	828.12
481.188	835.12
481.406	813.12
481.624	792.12
481.843	762.12
482.061	772.12
482.28	770.12
482.498	741.12
482.717	753.12
482.935	780.12
483.153	783.12
483.372	801.12
483.59	781.12
483.808	772.12
484.027	788.12
484.245	808.12
484.463	810.12
484.681	806.12
484.9	790.12
485.118	792.12
485.336	800.12
485.554	804.12
485.772	831.12
485.99	798.12
486.209	833.12
486.427	846.12
486.645	880.12
486.863	900.12
487.081	866.12
487.299	851.12
487.517	839.12
487.735	839.12
487.953	837.12
488.171	857.12
488.389	834.12
488.607	836.12
488.825	820.12
489.043	811.12
489.261	812.12
489.479	848.12
489.696	850.12
489.914	855.12
490.132	864.12
490.35	856.12
490.568	884.12
490.786	895.12
491.003	914.12
491.221	969.12
491.439	920.12
491.657	966.12
491.874	972.12
492.092	951.12
492.31	963.12
492.527	979.12
492.745	968.12
492.963	961.12
493.18	986.12
493.398	1002.12
493.615	987.12
493.833	995.12
494.05	988.12
494.268	980.12
494.485	983.12
494.703	1018.12
494.92	986.12
495.138	979.12
495.355	980.12
495.573	990.12
495.79	946.12
496.008	980.12
496.225	934.12
496.442	990.12
496.66	1002.12
496.877	1024.12
497.094	1024.12
497.312	1023.12
497.529	1015.12
497.746	1072.12
497.963	1072.12
498.181	1108.12
498.398	1152.12
498.615	1234.12
498.832	1267.12
499.049	1307.12
499.267	1350.12
499.484	1461.12
499.701	1541.12
499.918	1685.12
500.135	1802.12
500.352	1912.12
500.569	1935.12
500.786	1896.12
501.003	1783.12
501.22	1668.12
501.437	1555.12
501.654	1451.12
