Data from TestCu_HRD10591_00043.txt Node
Date: Thu Oct 05 14:05:23 EDT 2023
User: Yrep
Spectrometer: HR+D1059
Trigger mode: 1
Integration Time (sec): 1.000000E-1
Scans to average: 1
Electric dark correction enabled: true
Nonlinearity correction enabled: false
Boxcar width: 0
XAxis mode: Wavelengths
Number of Pixels in Spectrum: 2048
>>>>>Begin Spectral Data<<<<<
223.165	-23.5
223.4	-23.5
223.635	-23.5
223.869	-24.5
224.104	-14.5
224.338	-24.5
224.573	-7.5
224.808	-6.5
225.042	-6.5
225.277	-2.5
225.511	-5.5
225.746	4.5
225.98	-0.5
226.215	14.5
226.449	22.5
226.683	-0.5
226.918	33.5
227.152	41.5
227.387	36.5
227.621	32.5
227.856	39.5
228.09	52.5
228.324	36.5
228.559	64.5
228.793	55.5
229.027	103.5
229.262	129.5
229.496	133.5
229.73	156.5
229.964	148.5
230.199	118.5
230.433	128.5
230.667	122.5
230.901	123.5
231.136	112.5
231.37	109.5
231.604	98.5
231.838	103.5
232.072	110.5
232.306	120.5
232.541	113.5
232.775	99.5
233.009	115.5
233.243	103.5
233.477	104.5
233.711	126.5
233.945	125.5
234.179	122.5
234.413	109.5
234.647	112.5
234.881	127.5
235.115	112.5
235.349	112.5
235.583	111.5
235.817	125.5
236.051	128.5
236.285	116.5
236.519	119.5
236.753	171.5
236.987	175.5
237.221	222.5
237.455	222.5
237.689	147.5
237.922	125.5
238.156	121.5
238.39	119.5
238.624	124.5
238.858	128.5
239.091	132.5
239.325	118.5
239.559	129.5
239.793	121.5
240.027	135.5
240.26	173.5
240.494	160.5
240.728	153.5
240.961	134.5
241.195	129.5
241.429	156.5
241.662	125.5
241.896	119.5
242.13	134.5
242.363	129.5
242.597	131.5
242.83	137.5
243.064	135.5
243.298	132.5
243.531	121.5
243.765	131.5
243.998	132.5
244.232	145.5
244.465	151.5
244.699	150.5
244.932	150.5
245.166	153.5
245.399	127.5
245.633	137.5
245.866	145.5
246.099	144.5
246.333	150.5
246.566	132.5
246.8	152.5
247.033	151.5
247.266	171.5
247.5	171.5
247.733	174.5
247.966	166.5
248.2	157.5
248.433	165.5
248.666	180.5
248.899	180.5
249.133	186.5
249.366	207.5
249.599	180.5
249.832	162.5
250.066	165.5
250.299	176.5
250.532	190.5
250.765	208.5
250.998	211.5
251.231	204.5
251.465	181.5
251.698	180.5
251.931	189.5
252.164	184.5
252.397	171.5
252.63	181.5
252.863	187.5
253.096	220.5
253.329	214.5
253.562	179.5
253.795	207.5
254.028	191.5
254.261	216.5
254.494	239.5
254.727	280.5
254.96	267.5
255.193	219.5
255.426	202.5
255.659	197.5
255.892	208.5
256.124	185.5
256.357	174.5
256.59	190.5
256.823	199.5
257.056	191.5
257.289	175.5
257.521	196.5
257.754	193.5
257.987	201.5
258.22	196.5
258.452	208.5
258.685	183.5
258.918	207.5
259.151	220.5
259.383	210.5
259.616	221.5
259.849	219.5
260.081	255.5
260.314	271.5
260.547	224.5
260.779	197.5
261.012	222.5
261.244	223.5
261.477	220.5
261.71	219.5
261.942	243.5
262.175	256.5
262.407	216.5
262.64	210.5
262.872	212.5
263.105	203.5
263.337	210.5
263.57	217.5
263.802	213.5
264.035	216.5
264.267	198.5
264.499	202.5
264.732	200.5
264.964	208.5
265.197	215.5
265.429	208.5
265.661	229.5
265.894	221.5
266.126	220.5
266.358	219.5
266.591	228.5
266.823	234.5
267.055	239.5
267.287	224.5
267.52	208.5
267.752	230.5
267.984	238.5
268.216	235.5
268.448	227.5
268.681	239.5
268.913	264.5
269.145	293.5
269.377	287.5
269.609	265.5
269.841	277.5
270.073	291.5
270.306	321.5
270.538	329.5
270.77	291.5
271.002	300.5
271.234	289.5
271.466	320.5
271.698	307.5
271.93	323.5
272.162	312.5
272.394	298.5
272.626	264.5
272.858	273.5
273.09	265.5
273.322	264.5
273.553	263.5
273.785	255.5
274.017	260.5
274.249	275.5
274.481	271.5
274.713	265.5
274.945	252.5
275.176	269.5
275.408	262.5
275.64	269.5
275.872	262.5
276.104	278.5
276.335	316.5
276.567	303.5
276.799	349.5
277.031	365.5
277.262	337.5
277.494	307.5
277.726	289.5
277.957	271.5
278.189	269.5
278.421	277.5
278.652	269.5
278.884	288.5
279.115	276.5
279.347	273.5
279.579	276.5
279.81	289.5
280.042	303.5
280.273	298.5
280.505	283.5
280.736	273.5
280.968	279.5
281.199	270.5
281.431	292.5
281.662	284.5
281.894	300.5
282.125	320.5
282.356	350.5
282.588	358.5
282.819	304.5
283.051	299.5
283.282	296.5
283.513	311.5
283.745	304.5
283.976	331.5
284.207	322.5
284.439	299.5
284.67	295.5
284.901	288.5
285.132	298.5
285.364	313.5
285.595	303.5
285.826	319.5
286.057	303.5
286.288	312.5
286.52	323.5
286.751	306.5
286.982	301.5
287.213	299.5
287.444	321.5
287.675	330.5
287.906	350.5
288.138	342.5
288.369	347.5
288.6	327.5
288.831	317.5
289.062	344.5
289.293	340.5
289.524	321.5
289.755	336.5
289.986	321.5
290.217	323.5
290.448	316.5
290.679	320.5
290.91	328.5
291.141	336.5
291.371	334.5
291.602	326.5
291.833	324.5
292.064	350.5
292.295	336.5
292.526	321.5
292.757	324.5
292.987	341.5
293.218	333.5
293.449	327.5
293.68	323.5
293.91	326.5
294.141	323.5
294.372	353.5
294.603	345.5
294.833	348.5
295.064	359.5
295.295	325.5
295.525	349.5
295.756	371.5
295.987	379.5
296.217	428.5
296.448	386.5
296.679	344.5
296.909	338.5
297.14	361.5
297.37	352.5
297.601	351.5
297.831	350.5
298.062	370.5
298.292	360.5
298.523	364.5
298.753	370.5
298.984	357.5
299.214	371.5
299.445	390.5
299.675	377.5
299.905	374.5
300.136	373.5
300.366	371.5
300.597	369.5
300.827	399.5
301.057	394.5
301.288	403.5
301.518	389.5
301.748	368.5
301.979	433.5
302.209	413.5
302.439	416.5
302.669	407.5
302.9	373.5
303.13	400.5
303.36	404.5
303.59	394.5
303.82	403.5
304.051	396.5
304.281	385.5
304.511	383.5
304.741	395.5
304.971	370.5
305.201	382.5
305.431	392.5
305.661	378.5
305.891	385.5
306.121	390.5
306.352	422.5
306.582	417.5
306.812	388.5
307.042	398.5
307.272	386.5
307.502	396.5
307.731	406.5
307.961	391.5
308.191	396.5
308.421	423.5
308.651	410.5
308.881	422.5
309.111	397.5
309.341	420.5
309.571	444.5
309.8	456.5
310.03	468.5
310.26	487.5
310.49	479.5
310.72	504.5
310.949	522.5
311.179	477.5
311.409	466.5
311.639	464.5
311.868	463.5
312.098	464.5
312.328	542.5
312.557	547.5
312.787	543.5
313.017	513.5
313.246	465.5
313.476	467.5
313.706	503.5
313.935	513.5
314.165	519.5
314.394	527.5
314.624	505.5
314.853	467.5
315.083	488.5
315.312	477.5
315.542	471.5
315.771	459.5
316.001	444.5
316.23	464.5
316.46	458.5
316.689	480.5
316.919	479.5
317.148	509.5
317.377	480.5
317.607	502.5
317.836	450.5
318.065	459.5
318.295	481.5
318.524	469.5
318.753	451.5
318.983	469.5
319.212	491.5
319.441	502.5
319.67	480.5
319.9	475.5
320.129	477.5
320.358	480.5
320.587	492.5
320.816	482.5
321.046	514.5
321.275	480.5
321.504	504.5
321.733	511.5
321.962	520.5
322.191	523.5
322.42	608.5
322.649	600.5
322.878	590.5
323.108	671.5
323.337	694.5
323.566	741.5
323.795	856.5
324.024	1121.5
324.253	1976.5
324.482	3334.5
324.71	4931.5
324.939	4343.5
325.168	1940.5
325.397	932.5
325.626	725.5
325.855	649.5
326.084	674.5
326.313	704.5
326.542	776.5
326.77	1065.5
326.999	1828.5
327.228	2869.5
327.457	3667.5
327.686	2383.5
327.914	1145.5
328.143	883.5
328.372	818.5
328.6	775.5
328.829	815.5
329.058	869.5
329.287	774.5
329.515	657.5
329.744	627.5
329.972	627.5
330.201	715.5
330.43	776.5
330.658	916.5
330.887	944.5
331.115	758.5
331.344	663.5
331.572	683.5
331.801	693.5
332.03	673.5
332.258	633.5
332.486	614.5
332.715	632.5
332.943	655.5
333.172	653.5
333.4	653.5
333.629	671.5
333.857	683.5
334.085	630.5
334.314	644.5
334.542	640.5
334.771	648.5
334.999	655.5
335.227	641.5
335.455	637.5
335.684	619.5
335.912	615.5
336.14	615.5
336.369	624.5
336.597	651.5
336.825	624.5
337.053	588.5
337.281	591.5
337.51	596.5
337.738	584.5
337.966	624.5
338.194	617.5
338.422	597.5
338.65	592.5
338.878	568.5
339.106	563.5
339.334	573.5
339.562	569.5
339.79	556.5
340.018	575.5
340.246	598.5
340.474	578.5
340.702	561.5
340.93	585.5
341.158	591.5
341.386	598.5
341.614	593.5
341.842	592.5
342.07	572.5
342.298	567.5
342.526	547.5
342.754	553.5
342.981	574.5
343.209	569.5
343.437	611.5
343.665	621.5
343.893	645.5
344.12	614.5
344.348	620.5
344.576	628.5
344.804	636.5
345.031	639.5
345.259	632.5
345.487	605.5
345.714	592.5
345.942	592.5
346.17	557.5
346.397	574.5
346.625	569.5
346.853	558.5
347.08	568.5
347.308	601.5
347.535	599.5
347.763	593.5
347.99	595.5
348.218	606.5
348.445	616.5
348.673	579.5
348.9	560.5
349.128	555.5
349.355	528.5
349.583	535.5
349.81	538.5
350.037	543.5
350.265	541.5
350.492	560.5
350.72	555.5
350.947	572.5
351.174	632.5
351.402	596.5
351.629	573.5
351.856	599.5
352.083	636.5
352.311	635.5
352.538	635.5
352.765	605.5
352.992	599.5
353.22	557.5
353.447	569.5
353.674	557.5
353.901	526.5
354.128	525.5
354.355	523.5
354.583	528.5
354.81	537.5
355.037	541.5
355.264	543.5
355.491	531.5
355.718	504.5
355.945	510.5
356.172	533.5
356.399	515.5
356.626	520.5
356.853	530.5
357.08	501.5
357.307	537.5
357.534	517.5
357.761	517.5
357.988	515.5
358.215	510.5
358.441	559.5
358.668	539.5
358.895	523.5
359.122	563.5
359.349	568.5
359.576	646.5
359.802	703.5
360.029	750.5
360.256	700.5
360.483	620.5
360.709	589.5
360.936	582.5
361.163	606.5
361.39	627.5
361.616	599.5
361.843	606.5
362.07	598.5
362.296	579.5
362.523	606.5
362.749	612.5
362.976	552.5
363.203	578.5
363.429	568.5
363.656	559.5
363.882	544.5
364.109	574.5
364.335	564.5
364.562	565.5
364.788	554.5
365.015	561.5
365.241	589.5
365.468	591.5
365.694	569.5
365.92	591.5
366.147	557.5
366.373	560.5
366.599	543.5
366.826	540.5
367.052	558.5
367.278	564.5
367.505	566.5
367.731	562.5
367.957	574.5
368.184	553.5
368.41	585.5
368.636	628.5
368.862	595.5
369.089	585.5
369.315	556.5
369.541	568.5
369.767	582.5
369.993	573.5
370.219	575.5
370.445	573.5
370.672	584.5
370.898	564.5
371.124	570.5
371.35	567.5
371.576	560.5
371.802	560.5
372.028	562.5
372.254	569.5
372.48	589.5
372.706	580.5
372.932	578.5
373.158	597.5
373.384	586.5
373.61	610.5
373.835	605.5
374.061	597.5
374.287	601.5
374.513	587.5
374.739	615.5
374.965	612.5
375.191	609.5
375.416	589.5
375.642	588.5
375.868	610.5
376.094	575.5
376.319	581.5
376.545	576.5
376.771	557.5
376.997	583.5
377.222	591.5
377.448	566.5
377.674	589.5
377.899	557.5
378.125	595.5
378.35	588.5
378.576	566.5
378.802	548.5
379.027	583.5
379.253	564.5
379.478	558.5
379.704	563.5
379.929	573.5
380.155	581.5
380.38	576.5
380.606	589.5
380.831	587.5
381.057	582.5
381.282	594.5
381.507	573.5
381.733	586.5
381.958	591.5
382.184	603.5
382.409	613.5
382.634	597.5
382.86	614.5
383.085	623.5
383.31	628.5
383.535	617.5
383.761	631.5
383.986	643.5
384.211	639.5
384.436	652.5
384.662	662.5
384.887	664.5
385.112	656.5
385.337	670.5
385.562	664.5
385.787	669.5
386.013	708.5
386.238	714.5
386.463	694.5
386.688	689.5
386.913	669.5
387.138	674.5
387.363	678.5
387.588	657.5
387.813	675.5
388.038	657.5
388.263	685.5
388.488	684.5
388.713	694.5
388.938	665.5
389.163	672.5
389.387	679.5
389.612	645.5
389.837	672.5
390.062	652.5
390.287	653.5
390.512	670.5
390.736	679.5
390.961	660.5
391.186	708.5
391.411	689.5
391.636	711.5
391.86	743.5
392.085	725.5
392.31	701.5
392.534	696.5
392.759	667.5
392.984	707.5
393.208	693.5
393.433	677.5
393.658	700.5
393.882	721.5
394.107	703.5
394.331	696.5
394.556	727.5
394.78	705.5
395.005	714.5
395.229	729.5
395.454	739.5
395.678	724.5
395.903	739.5
396.127	762.5
396.352	690.5
396.576	714.5
396.801	714.5
397.025	715.5
397.249	759.5
397.474	748.5
397.698	760.5
397.922	768.5
398.147	782.5
398.371	787.5
398.595	822.5
398.82	835.5
399.044	889.5
399.268	1006.5
399.492	1096.5
399.717	1106.5
399.941	1067.5
400.165	1054.5
400.389	958.5
400.613	869.5
400.837	821.5
401.062	821.5
401.286	824.5
401.51	824.5
401.734	837.5
401.958	872.5
402.182	899.5
402.406	937.5
402.63	919.5
402.854	901.5
403.078	912.5
403.302	900.5
403.526	911.5
403.75	886.5
403.974	936.5
404.198	931.5
404.422	932.5
404.645	916.5
404.869	916.5
405.093	939.5
405.317	938.5
405.541	925.5
405.765	929.5
405.988	969.5
406.212	998.5
406.436	1076.5
406.66	1022.5
406.883	997.5
407.107	1084.5
407.331	1139.5
407.555	1139.5
407.778	1074.5
408.002	1004.5
408.226	965.5
408.449	965.5
408.673	958.5
408.896	995.5
409.12	959.5
409.344	925.5
409.567	883.5
409.791	899.5
410.014	865.5
410.238	860.5
410.461	866.5
410.685	893.5
410.908	885.5
411.132	936.5
411.355	925.5
411.578	852.5
411.802	859.5
412.025	849.5
412.249	826.5
412.472	853.5
412.695	812.5
412.919	815.5
413.142	806.5
413.365	803.5
413.589	805.5
413.812	768.5
414.035	795.5
414.258	807.5
414.482	800.5
414.705	800.5
414.928	784.5
415.151	805.5
415.374	784.5
415.597	782.5
415.821	762.5
416.044	799.5
416.267	811.5
416.49	777.5
416.713	768.5
416.936	782.5
417.159	813.5
417.382	811.5
417.605	824.5
417.828	853.5
418.051	856.5
418.274	809.5
418.497	785.5
418.72	809.5
418.943	792.5
419.166	817.5
419.389	848.5
419.611	867.5
419.834	832.5
420.057	834.5
420.28	806.5
420.503	819.5
420.726	824.5
420.948	874.5
421.171	865.5
421.394	883.5
421.617	832.5
421.839	814.5
422.062	849.5
422.285	889.5
422.507	911.5
422.73	972.5
422.953	887.5
423.175	877.5
423.398	873.5
423.621	867.5
423.843	899.5
424.066	869.5
424.288	869.5
424.511	923.5
424.733	984.5
424.956	1059.5
425.178	990.5
425.401	965.5
425.623	953.5
425.846	883.5
426.068	835.5
426.291	813.5
426.513	831.5
426.735	871.5
426.958	969.5
427.18	1106.5
427.402	1268.5
427.625	1289.5
427.847	1006.5
428.069	831.5
428.292	811.5
428.514	760.5
428.736	752.5
428.958	764.5
429.181	728.5
429.403	743.5
429.625	772.5
429.847	858.5
430.069	869.5
430.292	802.5
430.514	709.5
430.736	744.5
430.958	747.5
431.18	736.5
431.402	729.5
431.624	718.5
431.846	705.5
432.068	723.5
432.29	733.5
432.512	756.5
432.734	748.5
432.956	738.5
433.178	747.5
433.4	760.5
433.622	735.5
433.844	750.5
434.066	739.5
434.287	731.5
434.509	753.5
434.731	802.5
434.953	812.5
435.175	838.5
435.397	835.5
435.618	866.5
435.84	981.5
436.062	1042.5
436.284	989.5
436.505	839.5
436.727	813.5
436.949	804.5
437.17	746.5
437.392	774.5
437.614	799.5
437.835	952.5
438.057	1057.5
438.278	1078.5
438.5	1058.5
438.721	1117.5
438.943	981.5
439.165	822.5
439.386	810.5
439.608	821.5
439.829	884.5
440.05	977.5
440.272	982.5
440.493	833.5
440.715	780.5
440.936	801.5
441.158	812.5
441.379	832.5
441.6	857.5
441.822	898.5
442.043	994.5
442.264	1071.5
442.486	1001.5
442.707	888.5
442.928	916.5
443.149	983.5
443.371	982.5
443.592	1035.5
443.813	1137.5
444.034	1059.5
444.255	922.5
444.476	907.5
444.698	933.5
444.919	939.5
445.14	950.5
445.361	979.5
445.582	1057.5
445.803	1208.5
446.024	1247.5
446.245	1181.5
446.466	951.5
446.687	797.5
446.908	793.5
447.129	753.5
447.35	775.5
447.571	751.5
447.792	764.5
448.013	742.5
448.234	816.5
448.455	961.5
448.675	1053.5
448.896	1083.5
449.117	907.5
449.338	990.5
449.559	1109.5
449.779	1081.5
450	845.5
450.221	743.5
450.442	747.5
450.662	758.5
450.883	830.5
451.104	833.5
451.324	748.5
451.545	708.5
451.766	705.5
451.986	683.5
452.207	665.5
452.428	668.5
452.648	688.5
452.869	717.5
453.089	733.5
453.31	743.5
453.53	687.5
453.751	687.5
453.971	743.5
454.192	763.5
454.412	674.5
454.633	658.5
454.853	664.5
455.073	677.5
455.294	745.5
455.514	798.5
455.734	695.5
455.955	648.5
456.175	587.5
456.395	598.5
456.616	609.5
456.836	639.5
457.056	614.5
457.276	591.5
457.497	615.5
457.717	620.5
457.937	631.5
458.157	661.5
458.377	692.5
458.598	773.5
458.818	991.5
459.038	1020.5
459.258	896.5
459.478	789.5
459.698	735.5
459.918	766.5
460.138	782.5
460.358	818.5
460.578	769.5
460.798	804.5
461.018	764.5
461.238	759.5
461.458	804.5
461.678	786.5
461.898	804.5
462.118	807.5
462.338	828.5
462.558	856.5
462.777	907.5
462.997	931.5
463.217	967.5
463.437	942.5
463.657	882.5
463.876	869.5
464.096	891.5
464.316	882.5
464.536	902.5
464.755	903.5
464.975	973.5
465.195	1181.5
465.414	1107.5
465.634	863.5
465.854	761.5
466.073	731.5
466.293	716.5
466.512	681.5
466.732	703.5
466.951	725.5
467.171	710.5
467.391	719.5
467.61	782.5
467.829	736.5
468.049	692.5
468.268	659.5
468.488	664.5
468.707	676.5
468.927	670.5
469.146	662.5
469.365	699.5
469.585	676.5
469.804	712.5
470.023	747.5
470.243	727.5
470.462	814.5
470.681	808.5
470.901	739.5
471.12	725.5
471.339	726.5
471.558	721.5
471.777	661.5
471.997	673.5
472.216	658.5
472.435	652.5
472.654	633.5
472.873	663.5
473.092	639.5
473.311	660.5
473.53	644.5
473.749	729.5
473.968	809.5
474.187	900.5
474.406	790.5
474.625	715.5
474.844	667.5
475.063	644.5
475.282	657.5
475.501	686.5
475.72	680.5
475.939	664.5
476.158	683.5
476.377	719.5
476.596	694.5
476.814	718.5
477.033	737.5
477.252	733.5
477.471	743.5
477.69	729.5
477.908	779.5
478.127	776.5
478.346	775.5
478.564	778.5
478.783	787.5
479.002	812.5
479.22	827.5
479.439	885.5
479.658	848.5
479.876	882.5
480.095	881.5
480.313	908.5
480.532	886.5
480.751	860.5
480.969	867.5
481.188	809.5
481.406	814.5
481.624	798.5
481.843	772.5
482.061	781.5
482.28	763.5
482.498	759.5
482.717	743.5
482.935	755.5
483.153	745.5
483.372	769.5
483.59	776.5
483.808	781.5
484.027	747.5
484.245	757.5
484.463	794.5
484.681	811.5
484.9	803.5
485.118	792.5
485.336	831.5
485.554	824.5
485.772	827.5
485.99	792.5
486.209	817.5
486.427	824.5
486.645	856.5
486.863	885.5
487.081	853.5
487.299	838.5
487.517	811.5
487.735	818.5
487.953	823.5
488.171	816.5
488.389	838.5
488.607	820.5
488.825	838.5
489.043	806.5
489.261	839.5
489.479	820.5
489.696	816.5
489.914	815.5
490.132	867.5
490.35	882.5
490.568	868.5
490.786	871.5
491.003	904.5
491.221	931.5
491.439	951.5
491.657	964.5
491.874	967.5
492.092	979.5
492.31	975.5
492.527	951.5
492.745	959.5
492.963	945.5
493.18	954.5
493.398	984.5
493.615	952.5
493.833	1003.5
494.05	979.5
494.268	960.5
494.485	948.5
494.703	945.5
494.92	945.5
495.138	939.5
495.355	942.5
495.573	971.5
495.79	968.5
496.008	957.5
496.225	966.5
496.442	975.5
496.66	963.5
496.877	958.5
497.094	1002.5
497.312	997.5
497.529	1029.5
497.746	1056.5
497.963	1073.5
498.181	1121.5
498.398	1129.5
498.615	1205.5
498.832	1214.5
499.049	1284.5
499.267	1388.5
499.484	1419.5
499.701	1544.5
499.918	1642.5
500.135	1803.5
500.352	1955.5
500.569	1930.5
500.786	1880.5
501.003	1769.5
501.22	1628.5
501.437	1577.5
501.654	1481.5
501.871	1431.5
502.088	1310.5
502.305	1261.5
502.522	1172.5
502.739	1109.5
502.956	1095.5
503.172	1062.5
503.389	1043.5
503.606	1072.5
503.823	1053.5
504.04	1032.5
504.256	1007.5
504.473	1005.5
504.69	1031.5
504.907	1015.5
505.123	968.5
505.34	934.5
505.557	926.5
505.773	918.5
505.99	929.5
506.207	900.5
506.423	902.5
506.64	917.5
506.856	877.5
507.073	861.5
507.289	857.5
507.506	904.5
507.722	952.5
507.939	937.5
508.155	901.5
508.372	869.5
508.588	847.5
508.805	843.5
509.021	853.5
509.238	844.5
509.454	847.5
509.67	839.5
509.887	822.5
510.103	844.5
510.319	945.5
510.536	1651.5
510.752	2681.5
510.968	1224.5
511.184	854.5
511.401	820.5
511.617	786.5
511.833	762.5
512.049	751.5
512.265	773.5
512.481	750.5
512.698	768.5
512.914	764.5
513.13	768.5
513.346	784.5
513.562	806.5
513.778	803.5
513.994	828.5
514.21	855.5
514.426	969.5
514.642	1063.5
514.858	1103.5
515.074	1301.5
515.29	2123.5
515.506	3094.5
515.721	1592.5
515.937	1038.5
516.153	962.5
516.369	924.5
516.585	904.5
516.801	880.5
517.016	916.5
517.232	937.5
517.448	892.5
517.664	953.5
517.879	969.5
518.095	925.5
518.311	930.5
518.527	886.5
518.742	887.5
518.958	830.5
519.173	815.5
519.389	851.5
