Data from TestCu_HRD10591_00050.txt Node
Date: Thu Oct 05 14:05:30 EDT 2023
User: Yrep
Spectrometer: HR+D1059
Trigger mode: 1
Integration Time (sec): 1.000000E-1
Scans to average: 1
Electric dark correction enabled: true
Nonlinearity correction enabled: false
Boxcar width: 0
XAxis mode: Wavelengths
Number of Pixels in Spectrum: 2048
>>>>>Begin Spectral Data<<<<<
223.165	-18.12
223.4	-18.12
223.635	-18.12
223.869	-31.12
224.104	-28.12
224.338	-4.12
224.573	-17.12
224.808	-20.12
225.042	-6.12
225.277	-7.12
225.511	1.88
225.746	3.88
225.98	5.88
226.215	5.88
226.449	23.88
226.683	24.88
226.918	29.88
227.152	35.88
227.387	41.88
227.621	39.88
227.856	37.88
228.09	38.88
228.324	54.88
228.559	44.88
228.793	71.88
229.027	97.88
229.262	105.88
229.496	128.88
229.73	170.88
229.964	154.88
230.199	106.88
230.433	116.88
230.667	109.88
230.901	114.88
231.136	83.88
231.37	110.88
231.604	105.88
231.838	123.88
232.072	125.88
232.306	112.88
232.541	116.88
232.775	123.88
233.009	127.88
233.243	120.88
233.477	129.88
233.711	115.88
233.945	123.88
234.179	110.88
234.413	110.88
234.647	126.88
234.881	127.88
235.115	126.88
235.349	133.88
235.583	118.88
235.817	134.88
236.051	121.88
236.285	116.88
236.519	133.88
236.753	141.88
236.987	175.88
237.221	230.88
237.455	205.88
237.689	136.88
237.922	119.88
238.156	110.88
238.39	126.88
238.624	123.88
238.858	122.88
239.091	127.88
239.325	117.88
239.559	148.88
239.793	146.88
240.027	147.88
240.26	154.88
240.494	158.88
240.728	154.88
240.961	133.88
241.195	129.88
241.429	136.88
241.662	130.88
241.896	133.88
242.13	138.88
242.363	129.88
242.597	133.88
242.83	132.88
243.064	122.88
243.298	137.88
243.531	124.88
243.765	127.88
243.998	158.88
244.232	122.88
244.465	136.88
244.699	133.88
244.932	136.88
245.166	137.88
245.399	146.88
245.633	145.88
245.866	150.88
246.099	151.88
246.333	154.88
246.566	157.88
246.8	138.88
247.033	151.88
247.266	157.88
247.5	164.88
247.733	158.88
247.966	164.88
248.2	180.88
248.433	169.88
248.666	158.88
248.899	181.88
249.133	185.88
249.366	183.88
249.599	174.88
249.832	163.88
250.066	165.88
250.299	178.88
250.532	176.88
250.765	210.88
250.998	217.88
251.231	191.88
251.465	164.88
251.698	182.88
251.931	182.88
252.164	184.88
252.397	185.88
252.63	189.88
252.863	185.88
253.096	200.88
253.329	212.88
253.562	191.88
253.795	201.88
254.028	184.88
254.261	199.88
254.494	218.88
254.727	256.88
254.96	239.88
255.193	213.88
255.426	195.88
255.659	186.88
255.892	200.88
256.124	208.88
256.357	198.88
256.59	187.88
256.823	211.88
257.056	202.88
257.289	189.88
257.521	183.88
257.754	181.88
257.987	197.88
258.22	197.88
258.452	191.88
258.685	201.88
258.918	185.88
259.151	191.88
259.383	209.88
259.616	206.88
259.849	237.88
260.081	237.88
260.314	216.88
260.547	223.88
260.779	217.88
261.012	207.88
261.244	207.88
261.477	202.88
261.71	224.88
261.942	237.88
262.175	255.88
262.407	221.88
262.64	206.88
262.872	223.88
263.105	217.88
263.337	193.88
263.57	196.88
263.802	211.88
264.035	212.88
264.267	193.88
264.499	207.88
264.732	203.88
264.964	216.88
265.197	211.88
265.429	198.88
265.661	204.88
265.894	229.88
266.126	194.88
266.358	209.88
266.591	218.88
266.823	211.88
267.055	210.88
267.287	223.88
267.52	233.88
267.752	231.88
267.984	231.88
268.216	223.88
268.448	239.88
268.681	258.88
268.913	260.88
269.145	266.88
269.377	254.88
269.609	263.88
269.841	244.88
270.073	269.88
270.306	305.88
270.538	297.88
270.77	301.88
271.002	291.88
271.234	261.88
271.466	311.88
271.698	301.88
271.93	303.88
272.162	299.88
272.394	289.88
272.626	283.88
272.858	263.88
273.09	249.88
273.322	259.88
273.553	265.88
273.785	251.88
274.017	274.88
274.249	255.88
274.481	260.88
274.713	257.88
274.945	256.88
275.176	266.88
275.408	260.88
275.64	285.88
275.872	256.88
276.104	269.88
276.335	278.88
276.567	295.88
276.799	333.88
277.031	337.88
277.262	330.88
277.494	298.88
277.726	284.88
277.957	262.88
278.189	270.88
278.421	270.88
278.652	264.88
278.884	276.88
279.115	271.88
279.347	276.88
279.579	262.88
279.81	255.88
280.042	267.88
280.273	273.88
280.505	261.88
280.736	274.88
280.968	273.88
281.199	273.88
281.431	263.88
281.662	274.88
281.894	287.88
282.125	307.88
282.356	338.88
282.588	348.88
282.819	307.88
283.051	289.88
283.282	277.88
283.513	283.88
283.745	307.88
283.976	311.88
284.207	289.88
284.439	297.88
284.67	299.88
284.901	289.88
285.132	293.88
285.364	292.88
285.595	296.88
285.826	292.88
286.057	296.88
286.288	302.88
286.52	295.88
286.751	283.88
286.982	290.88
287.213	318.88
287.444	315.88
287.675	318.88
287.906	332.88
288.138	328.88
288.369	334.88
288.6	315.88
288.831	321.88
289.062	313.88
289.293	315.88
289.524	314.88
289.755	312.88
289.986	309.88
290.217	337.88
290.448	309.88
290.679	329.88
290.91	327.88
291.141	303.88
291.371	309.88
291.602	333.88
291.833	322.88
292.064	338.88
292.295	324.88
292.526	330.88
292.757	341.88
292.987	323.88
293.218	326.88
293.449	320.88
293.68	329.88
293.91	327.88
294.141	334.88
294.372	328.88
294.603	337.88
294.833	342.88
295.064	332.88
295.295	333.88
295.525	344.88
295.756	379.88
295.987	390.88
296.217	414.88
296.448	366.88
296.679	361.88
296.909	328.88
297.14	332.88
297.37	355.88
297.601	371.88
297.831	355.88
298.062	357.88
298.292	346.88
298.523	353.88
298.753	357.88
298.984	374.88
299.214	363.88
299.445	376.88
299.675	376.88
299.905	358.88
300.136	361.88
300.366	368.88
300.597	360.88
300.827	369.88
301.057	382.88
301.288	399.88
301.518	382.88
301.748	391.88
301.979	409.88
302.209	394.88
302.439	386.88
302.669	390.88
302.9	395.88
303.13	367.88
303.36	373.88
303.59	406.88
303.82	404.88
304.051	380.88
304.281	379.88
304.511	372.88
304.741	383.88
304.971	387.88
305.201	347.88
305.431	382.88
305.661	381.88
305.891	397.88
306.121	376.88
306.352	386.88
306.582	385.88
306.812	393.88
307.042	393.88
307.272	385.88
307.502	386.88
307.731	393.88
307.961	392.88
308.191	388.88
308.421	407.88
308.651	405.88
308.881	404.88
309.111	406.88
309.341	411.88
309.571	437.88
309.8	455.88
310.03	448.88
310.26	460.88
310.49	448.88
310.72	494.88
310.949	489.88
311.179	473.88
311.409	461.88
311.639	451.88
311.868	475.88
312.098	471.88
312.328	471.88
312.557	515.88
312.787	500.88
313.017	459.88
313.246	469.88
313.476	444.88
313.706	464.88
313.935	484.88
314.165	494.88
314.394	506.88
314.624	471.88
314.853	474.88
315.083	461.88
315.312	463.88
315.542	456.88
315.771	443.88
316.001	450.88
316.23	426.88
316.46	448.88
316.689	464.88
316.919	471.88
317.148	465.88
317.377	459.88
317.607	467.88
317.836	451.88
318.065	442.88
318.295	456.88
318.524	450.88
318.753	463.88
318.983	453.88
319.212	488.88
319.441	473.88
319.67	461.88
319.9	469.88
320.129	458.88
320.358	477.88
320.587	445.88
320.816	504.88
321.046	494.88
321.275	465.88
321.504	481.88
321.733	491.88
321.962	508.88
322.191	538.88
322.42	559.88
322.649	555.88
322.878	572.88
323.108	614.88
323.337	661.88
323.566	692.88
323.795	811.88
324.024	1029.88
324.253	1777.88
324.482	3043.88
324.71	4471.88
324.939	3857.88
325.168	1769.88
325.397	871.88
325.626	677.88
325.855	612.88
326.084	638.88
326.313	645.88
326.542	744.88
326.77	1025.88
326.999	1668.88
327.228	2554.88
327.457	3273.88
327.686	2187.88
327.914	1065.88
328.143	838.88
328.372	759.88
328.6	729.88
328.829	729.88
329.058	787.88
329.287	745.88
329.515	613.88
329.744	594.88
329.972	607.88
330.201	645.88
330.43	742.88
330.658	833.88
330.887	826.88
331.115	731.88
331.344	636.88
331.572	630.88
331.801	657.88
332.03	628.88
332.258	616.88
332.486	611.88
332.715	623.88
332.943	603.88
333.172	622.88
333.4	625.88
333.629	657.88
333.857	663.88
334.085	658.88
334.314	623.88
334.542	619.88
334.771	628.88
334.999	609.88
335.227	629.88
335.455	614.88
335.684	598.88
335.912	587.88
336.14	590.88
336.369	619.88
336.597	609.88
336.825	595.88
337.053	570.88
337.281	586.88
337.51	577.88
337.738	584.88
337.966	576.88
338.194	593.88
338.422	562.88
338.65	571.88
338.878	564.88
339.106	556.88
339.334	553.88
339.562	557.88
339.79	536.88
340.018	555.88
340.246	579.88
340.474	550.88
340.702	586.88
340.93	581.88
341.158	574.88
341.386	576.88
341.614	569.88
341.842	545.88
342.07	570.88
342.298	564.88
342.526	530.88
342.754	560.88
342.981	534.88
343.209	554.88
343.437	567.88
343.665	596.88
343.893	628.88
344.12	610.88
344.348	587.88
344.576	609.88
344.804	586.88
345.031	617.88
345.259	608.88
345.487	598.88
345.714	568.88
345.942	539.88
346.17	547.88
346.397	552.88
346.625	544.88
346.853	526.88
347.08	545.88
347.308	560.88
347.535	569.88
347.763	583.88
347.99	589.88
348.218	585.88
348.445	622.88
348.673	553.88
348.9	537.88
349.128	508.88
349.355	525.88
349.583	537.88
349.81	555.88
350.037	518.88
350.265	527.88
350.492	524.88
350.72	535.88
350.947	577.88
351.174	600.88
351.402	587.88
351.629	565.88
351.856	591.88
352.083	576.88
352.311	611.88
352.538	598.88
352.765	569.88
352.992	561.88
353.22	578.88
353.447	530.88
353.674	521.88
353.901	532.88
354.128	521.88
354.355	534.88
354.583	531.88
354.81	499.88
355.037	523.88
355.264	502.88
355.491	509.88
355.718	507.88
355.945	508.88
356.172	494.88
356.399	522.88
356.626	498.88
356.853	530.88
357.08	517.88
357.307	522.88
357.534	513.88
357.761	503.88
357.988	512.88
358.215	524.88
358.441	528.88
358.668	527.88
358.895	532.88
359.122	545.88
359.349	559.88
359.576	602.88
359.802	685.88
360.029	707.88
360.256	645.88
360.483	592.88
360.709	563.88
360.936	566.88
361.163	569.88
361.39	592.88
361.616	579.88
361.843	552.88
362.07	580.88
362.296	571.88
362.523	569.88
362.749	571.88
362.976	549.88
363.203	545.88
363.429	527.88
363.656	561.88
363.882	543.88
364.109	553.88
364.335	527.88
364.562	534.88
364.788	539.88
365.015	543.88
365.241	561.88
365.468	568.88
365.694	581.88
365.92	559.88
366.147	543.88
366.373	537.88
366.599	534.88
366.826	536.88
367.052	547.88
367.278	541.88
367.505	537.88
367.731	536.88
367.957	534.88
368.184	560.88
368.41	587.88
368.636	609.88
368.862	576.88
369.089	543.88
369.315	536.88
369.541	571.88
369.767	571.88
369.993	546.88
370.219	535.88
370.445	541.88
370.672	548.88
370.898	576.88
371.124	554.88
371.35	579.88
371.576	548.88
371.802	555.88
372.028	563.88
372.254	568.88
372.48	547.88
372.706	564.88
372.932	584.88
373.158	564.88
373.384	558.88
373.61	536.88
373.835	559.88
374.061	572.88
374.287	608.88
374.513	583.88
374.739	594.88
374.965	612.88
375.191	619.88
375.416	596.88
375.642	583.88
375.868	591.88
376.094	577.88
376.319	568.88
376.545	557.88
376.771	571.88
376.997	556.88
377.222	529.88
377.448	575.88
377.674	557.88
377.899	576.88
378.125	555.88
378.35	551.88
378.576	551.88
378.802	544.88
379.027	534.88
379.253	561.88
379.478	551.88
379.704	591.88
379.929	571.88
380.155	559.88
380.38	573.88
380.606	578.88
380.831	583.88
381.057	565.88
381.282	561.88
381.507	569.88
381.733	566.88
381.958	570.88
382.184	594.88
382.409	580.88
382.634	567.88
382.86	603.88
383.085	598.88
383.31	606.88
383.535	617.88
383.761	618.88
383.986	607.88
384.211	643.88
384.436	646.88
384.662	640.88
384.887	632.88
385.112	653.88
385.337	659.88
385.562	670.88
385.787	653.88
386.013	677.88
386.238	681.88
386.463	652.88
386.688	660.88
386.913	644.88
387.138	654.88
387.363	629.88
387.588	637.88
387.813	660.88
388.038	634.88
388.263	673.88
388.488	637.88
388.713	640.88
388.938	671.88
389.163	657.88
389.387	658.88
389.612	646.88
389.837	647.88
390.062	654.88
390.287	638.88
390.512	646.88
390.736	652.88
390.961	677.88
391.186	685.88
391.411	678.88
391.636	707.88
391.86	711.88
392.085	703.88
392.31	687.88
392.534	718.88
392.759	690.88
392.984	667.88
393.208	671.88
393.433	694.88
393.658	697.88
393.882	700.88
394.107	678.88
394.331	694.88
394.556	687.88
394.78	707.88
395.005	701.88
395.229	694.88
395.454	729.88
395.678	730.88
395.903	725.88
396.127	740.88
396.352	706.88
396.576	702.88
396.801	700.88
397.025	703.88
397.249	685.88
397.474	747.88
397.698	731.88
397.922	762.88
398.147	760.88
398.371	754.88
398.595	803.88
398.82	808.88
399.044	881.88
399.268	999.88
399.492	1077.88
399.717	1045.88
399.941	1022.88
400.165	996.88
400.389	911.88
400.613	853.88
400.837	833.88
401.062	809.88
401.286	795.88
401.51	813.88
401.734	799.88
401.958	842.88
402.182	850.88
402.406	887.88
402.63	869.88
402.854	858.88
403.078	887.88
403.302	884.88
403.526	887.88
403.75	900.88
403.974	875.88
404.198	890.88
404.422	890.88
404.645	895.88
404.869	891.88
405.093	900.88
405.317	893.88
405.541	901.88
405.765	895.88
405.988	904.88
406.212	979.88
406.436	1006.88
406.66	994.88
406.883	990.88
407.107	1050.88
407.331	1087.88
407.555	1101.88
407.778	1047.88
408.002	1001.88
408.226	949.88
408.449	942.88
408.673	938.88
408.896	927.88
409.12	938.88
409.344	900.88
409.567	840.88
409.791	874.88
410.014	833.88
410.238	850.88
410.461	844.88
410.685	866.88
410.908	879.88
411.132	890.88
411.355	898.88
411.578	846.88
411.802	817.88
412.025	813.88
412.249	824.88
412.472	815.88
412.695	789.88
412.919	806.88
413.142	775.88
413.365	784.88
413.589	786.88
413.812	784.88
414.035	757.88
414.258	769.88
414.482	804.88
414.705	788.88
414.928	792.88
415.151	774.88
415.374	794.88
415.597	800.88
415.821	748.88
416.044	772.88
416.267	779.88
416.49	763.88
416.713	759.88
416.936	758.88
417.159	758.88
417.382	774.88
417.605	775.88
417.828	837.88
418.051	813.88
418.274	807.88
418.497	767.88
418.72	799.88
418.943	766.88
419.166	839.88
419.389	834.88
419.611	823.88
419.834	853.88
420.057	812.88
420.28	776.88
420.503	773.88
420.726	787.88
420.948	849.88
421.171	862.88
421.394	835.88
421.617	785.88
421.839	798.88
422.062	813.88
422.285	858.88
422.507	907.88
422.73	951.88
422.953	883.88
423.175	840.88
423.398	862.88
423.621	839.88
423.843	848.88
424.066	854.88
424.288	873.88
424.511	895.88
424.733	959.88
424.956	993.88
425.178	976.88
425.401	941.88
425.623	893.88
425.846	838.88
426.068	854.88
426.291	815.88
426.513	793.88
426.735	847.88
426.958	928.88
427.18	1025.88
427.402	1202.88
427.625	1176.88
427.847	963.88
428.069	815.88
428.292	753.88
428.514	736.88
428.736	740.88
428.958	747.88
429.181	730.88
429.403	733.88
429.625	739.88
429.847	825.88
430.069	835.88
430.292	801.88
430.514	702.88
430.736	717.88
430.958	719.88
431.18	709.88
431.402	702.88
431.624	699.88
431.846	733.88
432.068	699.88
432.29	682.88
432.512	696.88
432.734	739.88
432.956	719.88
433.178	746.88
433.4	749.88
433.622	738.88
433.844	743.88
434.066	724.88
434.287	743.88
434.509	743.88
434.731	760.88
434.953	785.88
435.175	783.88
435.397	789.88
435.618	865.88
435.84	915.88
436.062	981.88
436.284	943.88
436.505	803.88
436.727	760.88
436.949	733.88
437.17	723.88
437.392	722.88
437.614	791.88
437.835	885.88
438.057	994.88
438.278	1007.88
438.5	1004.88
438.721	1002.88
438.943	912.88
439.165	788.88
439.386	773.88
439.608	823.88
439.829	850.88
440.05	874.88
440.272	916.88
440.493	804.88
440.715	771.88
440.936	767.88
441.158	760.88
441.379	790.88
441.6	861.88
441.822	849.88
442.043	912.88
442.264	1012.88
442.486	934.88
442.707	871.88
442.928	846.88
443.149	925.88
443.371	919.88
443.592	1017.88
443.813	1077.88
444.034	991.88
444.255	909.88
444.476	894.88
444.698	885.88
444.919	894.88
445.14	930.88
445.361	913.88
445.582	1013.88
445.803	1123.88
446.024	1142.88
446.245	1098.88
446.466	949.88
446.687	794.88
446.908	754.88
447.129	733.88
447.35	735.88
447.571	750.88
447.792	713.88
448.013	735.88
448.234	799.88
448.455	885.88
448.675	1013.88
448.896	982.88
449.117	871.88
449.338	950.88
449.559	1054.88
449.779	1012.88
450	807.88
450.221	716.88
450.442	716.88
450.662	726.88
450.883	764.88
451.104	759.88
451.324	726.88
451.545	693.88
451.766	664.88
451.986	667.88
452.207	640.88
452.428	671.88
452.648	671.88
452.869	671.88
453.089	688.88
453.31	687.88
453.53	639.88
453.751	674.88
453.971	698.88
454.192	670.88
454.412	650.88
454.633	656.88
454.853	651.88
455.073	649.88
455.294	719.88
455.514	778.88
455.734	685.88
455.955	633.88
456.175	594.88
456.395	611.88
456.616	607.88
456.836	601.88
457.056	603.88
457.276	594.88
457.497	615.88
457.717	602.88
457.937	649.88
458.157	623.88
458.377	668.88
458.598	763.88
458.818	911.88
459.038	970.88
459.258	835.88
459.478	751.88
459.698	717.88
459.918	743.88
460.138	758.88
460.358	761.88
460.578	776.88
460.798	772.88
461.018	754.88
461.238	738.88
461.458	759.88
461.678	750.88
461.898	769.88
462.118	791.88
462.338	810.88
462.558	855.88
462.777	878.88
462.997	933.88
463.217	916.88
463.437	892.88
463.657	843.88
463.876	842.88
464.096	857.88
464.316	902.88
464.536	865.88
464.755	878.88
464.975	916.88
465.195	1111.88
465.414	996.88
465.634	826.88
465.854	770.88
466.073	743.88
466.293	703.88
466.512	671.88
466.732	699.88
466.951	682.88
467.171	698.88
467.391	725.88
467.61	752.88
467.829	696.88
468.049	666.88
468.268	639.88
468.488	678.88
468.707	675.88
468.927	657.88
469.146	628.88
469.365	657.88
469.585	685.88
469.804	709.88
470.023	728.88
470.243	722.88
470.462	766.88
470.681	730.88
470.901	702.88
471.12	696.88
471.339	682.88
471.558	696.88
471.777	669.88
471.997	632.88
472.216	651.88
472.435	613.88
472.654	624.88
472.873	629.88
473.092	627.88
473.311	629.88
473.53	643.88
473.749	695.88
473.968	774.88
474.187	861.88
474.406	761.88
474.625	676.88
474.844	667.88
475.063	623.88
475.282	665.88
475.501	658.88
475.72	643.88
475.939	646.88
476.158	661.88
476.377	680.88
476.596	687.88
476.814	706.88
477.033	717.88
477.252	738.88
477.471	719.88
477.69	741.88
477.908	759.88
478.127	737.88
478.346	756.88
478.564	783.88
478.783	779.88
479.002	830.88
479.22	813.88
479.439	847.88
479.658	839.88
479.876	848.88
480.095	857.88
480.313	871.88
480.532	849.88
480.751	831.88
480.969	815.88
481.188	809.88
481.406	769.88
481.624	737.88
481.843	721.88
482.061	754.88
482.28	740.88
482.498	742.88
482.717	745.88
482.935	721.88
483.153	753.88
483.372	770.88
483.59	740.88
483.808	748.88
484.027	737.88
484.245	759.88
484.463	756.88
484.681	776.88
484.9	808.88
485.118	805.88
485.336	788.88
485.554	780.88
485.772	794.88
485.99	799.88
486.209	802.88
486.427	791.88
486.645	847.88
486.863	855.88
487.081	826.88
487.299	777.88
487.517	803.88
487.735	821.88
487.953	827.88
488.171	798.88
488.389	826.88
488.607	804.88
488.825	806.88
489.043	806.88
489.261	775.88
489.479	814.88
489.696	806.88
489.914	795.88
490.132	831.88
490.35	833.88
490.568	849.88
490.786	878.88
491.003	883.88
491.221	885.88
491.439	933.88
491.657	931.88
491.874	938.88
492.092	929.88
492.31	949.88
492.527	908.88
492.745	926.88
492.963	933.88
493.18	950.88
493.398	963.88
493.615	978.88
493.833	970.88
494.05	922.88
494.268	948.88
494.485	954.88
494.703	925.88
494.92	935.88
495.138	943.88
495.355	938.88
495.573	956.88
495.79	931.88
496.008	950.88
496.225	925.88
496.442	943.88
496.66	932.88
496.877	940.88
497.094	957.88
497.312	965.88
497.529	1000.88
497.746	1017.88
497.963	1044.88
498.181	1054.88
498.398	1131.88
498.615	1188.88
498.832	1194.88
499.049	1228.88
499.267	1349.88
499.484	1381.88
499.701	1493.88
499.918	1631.88
500.135	1785.88
500.352	1864.88
500.569	1861.88
500.786	1804.88
501.003	1712.88
501.22	1609.88
501.437	1531.88
501.654	1420.88
501.871	1376.88
