Data from TestCu_HRD10591_00085.txt Node
Date: Thu Oct 05 14:06:05 EDT 2023
User: Yrep
Spectrometer: HR+D1059
Trigger mode: 1
Integration Time (sec): 1.000000E-1
Scans to average: 1
Electric dark correction enabled: true
Nonlinearity correction enabled: false
Boxcar width: 0
XAxis mode: Wavelengths
Number of Pixels in Spectrum: 2048
>>>>>Begin Spectral Data<<<<<
223.165	-19.12
223.4	-19.12
223.635	-19.12
223.869	-29.12
224.104	-20.12
224.338	-13.12
224.573	-4.12
224.808	-24.12
225.042	-6.12
225.277	-4.12
225.511	6.88
225.746	4.88
225.98	11.88
226.215	11.88
226.449	11.88
226.683	13.88
226.918	24.88
227.152	33.88
227.387	36.88
227.621	47.88
227.856	57.88
228.09	46.88
228.324	61.88
228.559	64.88
228.793	68.88
229.027	108.88
229.262	128.88
229.496	136.88
229.73	159.88
229.964	166.88
230.199	114.88
230.433	103.88
230.667	113.88
230.901	110.88
231.136	109.88
231.37	117.88
231.604	120.88
231.838	109.88
232.072	128.88
232.306	124.88
232.541	114.88
232.775	107.88
233.009	101.88
233.243	97.88
233.477	121.88
233.711	118.88
233.945	102.88
234.179	118.88
234.413	121.88
234.647	117.88
234.881	127.88
235.115	112.88
235.349	122.88
235.583	128.88
235.817	115.88
236.051	133.88
236.285	139.88
236.519	124.88
236.753	152.88
236.987	195.88
237.221	222.88
237.455	220.88
237.689	144.88
237.922	134.88
238.156	129.88
238.39	118.88
238.624	118.88
238.858	128.88
239.091	112.88
239.325	124.88
239.559	139.88
239.793	134.88
240.027	152.88
240.26	156.88
240.494	170.88
240.728	155.88
240.961	141.88
241.195	142.88
241.429	124.88
241.662	128.88
241.896	125.88
242.13	137.88
242.363	130.88
242.597	133.88
242.83	135.88
243.064	132.88
243.298	138.88
243.531	138.88
243.765	134.88
243.998	136.88
244.232	129.88
244.465	140.88
244.699	129.88
244.932	142.88
245.166	141.88
245.399	153.88
245.633	129.88
245.866	145.88
246.099	145.88
246.333	147.88
246.566	154.88
246.8	148.88
247.033	149.88
247.266	150.88
247.5	147.88
247.733	160.88
247.966	165.88
248.2	163.88
248.433	158.88
248.666	187.88
248.899	184.88
249.133	204.88
249.366	203.88
249.599	177.88
249.832	172.88
250.066	178.88
250.299	183.88
250.532	176.88
250.765	207.88
250.998	210.88
251.231	210.88
251.465	179.88
251.698	181.88
251.931	186.88
252.164	185.88
252.397	181.88
252.63	215.88
252.863	195.88
253.096	229.88
253.329	214.88
253.562	198.88
253.795	207.88
254.028	214.88
254.261	217.88
254.494	227.88
254.727	275.88
254.96	251.88
255.193	236.88
255.426	196.88
255.659	207.88
255.892	195.88
256.124	188.88
256.357	186.88
256.59	192.88
256.823	197.88
257.056	191.88
257.289	194.88
257.521	178.88
257.754	202.88
257.987	179.88
258.22	188.88
258.452	192.88
258.685	207.88
258.918	209.88
259.151	201.88
259.383	206.88
259.616	212.88
259.849	216.88
260.081	249.88
260.314	251.88
260.547	244.88
260.779	216.88
261.012	211.88
261.244	220.88
261.477	224.88
261.71	240.88
261.942	249.88
262.175	267.88
262.407	240.88
262.64	226.88
262.872	215.88
263.105	214.88
263.337	208.88
263.57	214.88
263.802	217.88
264.035	207.88
264.267	208.88
264.499	218.88
264.732	210.88
264.964	215.88
265.197	203.88
265.429	197.88
265.661	229.88
265.894	219.88
266.126	214.88
266.358	233.88
266.591	226.88
266.823	224.88
267.055	242.88
267.287	246.88
267.52	210.88
267.752	226.88
267.984	229.88
268.216	226.88
268.448	256.88
268.681	246.88
268.913	279.88
269.145	287.88
269.377	275.88
269.609	258.88
269.841	266.88
270.073	313.88
270.306	320.88
270.538	301.88
270.77	296.88
271.002	283.88
271.234	288.88
271.466	306.88
271.698	315.88
271.93	311.88
272.162	297.88
272.394	286.88
272.626	279.88
272.858	254.88
273.09	247.88
273.322	267.88
273.553	252.88
273.785	248.88
274.017	283.88
274.249	271.88
274.481	264.88
274.713	268.88
274.945	281.88
275.176	288.88
275.408	267.88
275.64	292.88
275.872	267.88
276.104	293.88
276.335	283.88
276.567	300.88
276.799	350.88
277.031	346.88
277.262	359.88
277.494	334.88
277.726	308.88
277.957	279.88
278.189	279.88
278.421	284.88
278.652	290.88
278.884	294.88
279.115	288.88
279.347	282.88
279.579	288.88
279.81	281.88
280.042	302.88
280.273	282.88
280.505	284.88
280.736	261.88
280.968	278.88
281.199	273.88
281.431	292.88
281.662	284.88
281.894	304.88
282.125	308.88
282.356	364.88
282.588	365.88
282.819	332.88
283.051	312.88
283.282	312.88
283.513	304.88
283.745	316.88
283.976	308.88
284.207	307.88
284.439	308.88
284.67	316.88
284.901	297.88
285.132	293.88
285.364	305.88
285.595	314.88
285.826	320.88
286.057	326.88
286.288	299.88
286.52	320.88
286.751	302.88
286.982	319.88
287.213	306.88
287.444	325.88
287.675	340.88
287.906	366.88
288.138	343.88
288.369	342.88
288.6	338.88
288.831	329.88
289.062	323.88
289.293	317.88
289.524	335.88
289.755	322.88
289.986	320.88
290.217	314.88
290.448	339.88
290.679	314.88
290.91	312.88
291.141	325.88
291.371	326.88
291.602	340.88
291.833	344.88
292.064	320.88
292.295	326.88
292.526	328.88
292.757	327.88
292.987	350.88
293.218	324.88
293.449	331.88
293.68	340.88
293.91	317.88
294.141	337.88
294.372	326.88
294.603	335.88
294.833	351.88
295.064	347.88
295.295	332.88
295.525	356.88
295.756	350.88
295.987	385.88
296.217	439.88
296.448	405.88
296.679	362.88
296.909	353.88
297.14	367.88
297.37	371.88
297.601	366.88
297.831	351.88
298.062	375.88
298.292	372.88
298.523	385.88
298.753	370.88
298.984	358.88
299.214	378.88
299.445	367.88
299.675	381.88
299.905	386.88
300.136	376.88
300.366	354.88
300.597	395.88
300.827	403.88
301.057	418.88
301.288	406.88
301.518	397.88
301.748	380.88
301.979	421.88
302.209	402.88
302.439	413.88
302.669	416.88
302.9	400.88
303.13	378.88
303.36	389.88
303.59	418.88
303.82	406.88
304.051	400.88
304.281	384.88
304.511	405.88
304.741	380.88
304.971	389.88
305.201	380.88
305.431	377.88
305.661	379.88
305.891	404.88
306.121	419.88
306.352	421.88
306.582	405.88
306.812	393.88
307.042	401.88
307.272	409.88
307.502	386.88
307.731	392.88
307.961	395.88
308.191	410.88
308.421	402.88
308.651	408.88
308.881	396.88
309.111	402.88
309.341	411.88
309.571	452.88
309.8	455.88
310.03	469.88
310.26	468.88
310.49	494.88
310.72	486.88
310.949	521.88
311.179	494.88
311.409	463.88
311.639	460.88
311.868	471.88
312.098	475.88
312.328	513.88
312.557	553.88
312.787	557.88
313.017	524.88
313.246	483.88
313.476	464.88
313.706	455.88
313.935	520.88
314.165	529.88
314.394	532.88
314.624	514.88
314.853	481.88
315.083	481.88
315.312	459.88
315.542	451.88
315.771	441.88
316.001	458.88
316.23	447.88
316.46	466.88
316.689	475.88
316.919	513.88
317.148	497.88
317.377	498.88
317.607	506.88
317.836	497.88
318.065	453.88
318.295	468.88
318.524	448.88
318.753	459.88
318.983	465.88
319.212	475.88
319.441	500.88
319.67	473.88
319.9	490.88
320.129	472.88
320.358	480.88
320.587	500.88
320.816	498.88
321.046	507.88
321.275	499.88
321.504	511.88
321.733	518.88
321.962	525.88
322.191	553.88
322.42	586.88
322.649	608.88
322.878	625.88
323.108	665.88
323.337	707.88
323.566	760.88
323.795	874.88
324.024	1146.88
324.253	1942.88
324.482	3395.88
324.71	4938.88
324.939	4226.88
325.168	1936.88
325.397	948.88
325.626	722.88
325.855	672.88
326.084	679.88
326.313	688.88
326.542	793.88
326.77	1118.88
326.999	1828.88
327.228	2898.88
327.457	3656.88
327.686	2374.88
327.914	1170.88
328.143	881.88
328.372	830.88
328.6	791.88
328.829	820.88
329.058	853.88
329.287	806.88
329.515	699.88
329.744	646.88
329.972	654.88
330.201	701.88
330.43	792.88
330.658	905.88
330.887	931.88
331.115	775.88
331.344	677.88
331.572	677.88
331.801	689.88
332.03	659.88
332.258	650.88
332.486	594.88
332.715	611.88
332.943	645.88
333.172	639.88
333.4	670.88
333.629	692.88
333.857	690.88
334.085	665.88
334.314	641.88
334.542	666.88
334.771	647.88
334.999	666.88
335.227	639.88
335.455	622.88
335.684	637.88
335.912	606.88
336.14	632.88
336.369	633.88
336.597	632.88
336.825	644.88
337.053	612.88
337.281	587.88
337.51	596.88
337.738	615.88
337.966	644.88
338.194	596.88
338.422	611.88
338.65	597.88
338.878	595.88
339.106	569.88
339.334	556.88
339.562	594.88
339.79	572.88
340.018	579.88
340.246	586.88
340.474	586.88
340.702	556.88
340.93	571.88
341.158	607.88
341.386	603.88
341.614	608.88
341.842	589.88
342.07	573.88
342.298	564.88
342.526	572.88
342.754	552.88
342.981	568.88
343.209	580.88
343.437	593.88
343.665	632.88
343.893	644.88
344.12	634.88
344.348	622.88
344.576	622.88
344.804	671.88
345.031	672.88
345.259	612.88
345.487	616.88
345.714	584.88
345.942	549.88
346.17	545.88
346.397	563.88
346.625	581.88
346.853	580.88
347.08	584.88
347.308	579.88
347.535	611.88
347.763	611.88
347.99	609.88
348.218	624.88
348.445	633.88
348.673	582.88
348.9	558.88
349.128	553.88
349.355	580.88
349.583	550.88
349.81	558.88
350.037	553.88
350.265	546.88
350.492	554.88
350.72	566.88
350.947	591.88
351.174	613.88
351.402	607.88
351.629	587.88
351.856	619.88
352.083	630.88
352.311	635.88
352.538	619.88
352.765	607.88
352.992	585.88
353.22	595.88
353.447	587.88
353.674	542.88
353.901	538.88
354.128	534.88
354.355	531.88
354.583	539.88
354.81	526.88
355.037	536.88
355.264	512.88
355.491	510.88
355.718	516.88
355.945	535.88
356.172	526.88
356.399	529.88
356.626	516.88
356.853	538.88
357.08	530.88
357.307	528.88
357.534	542.88
357.761	509.88
357.988	537.88
358.215	519.88
358.441	524.88
358.668	532.88
358.895	544.88
359.122	544.88
359.349	611.88
359.576	664.88
359.802	713.88
360.029	763.88
360.256	704.88
360.483	639.88
360.709	571.88
360.936	603.88
361.163	604.88
361.39	599.88
361.616	601.88
361.843	602.88
362.07	619.88
362.296	604.88
362.523	603.88
362.749	597.88
362.976	558.88
363.203	572.88
363.429	558.88
363.656	578.88
363.882	564.88
364.109	565.88
364.335	573.88
364.562	546.88
364.788	555.88
365.015	570.88
365.241	572.88
365.468	588.88
365.694	614.88
365.92	597.88
366.147	570.88
366.373	562.88
366.599	544.88
366.826	554.88
367.052	536.88
367.278	563.88
367.505	558.88
367.731	562.88
367.957	555.88
368.184	574.88
368.41	600.88
368.636	606.88
368.862	589.88
369.089	580.88
369.315	578.88
369.541	571.88
369.767	586.88
369.993	588.88
370.219	570.88
370.445	576.88
370.672	571.88
370.898	571.88
371.124	572.88
371.35	569.88
371.576	592.88
371.802	586.88
372.028	580.88
372.254	585.88
372.48	576.88
372.706	581.88
372.932	593.88
373.158	587.88
373.384	563.88
373.61	583.88
373.835	569.88
374.061	598.88
374.287	597.88
374.513	609.88
374.739	607.88
374.965	624.88
375.191	609.88
375.416	626.88
375.642	577.88
375.868	597.88
376.094	597.88
376.319	574.88
376.545	580.88
376.771	588.88
376.997	574.88
377.222	580.88
377.448	569.88
377.674	578.88
377.899	556.88
378.125	576.88
378.35	558.88
378.576	565.88
378.802	571.88
379.027	564.88
379.253	570.88
379.478	566.88
379.704	603.88
379.929	596.88
380.155	572.88
380.38	579.88
380.606	593.88
380.831	602.88
381.057	599.88
381.282	591.88
381.507	588.88
381.733	587.88
381.958	612.88
382.184	617.88
382.409	610.88
382.634	612.88
382.86	610.88
383.085	591.88
383.31	620.88
383.535	633.88
383.761	642.88
383.986	635.88
384.211	661.88
384.436	651.88
384.662	651.88
384.887	664.88
385.112	671.88
385.337	664.88
385.562	675.88
385.787	689.88
386.013	705.88
386.238	698.88
386.463	686.88
386.688	674.88
386.913	655.88
387.138	692.88
387.363	665.88
387.588	666.88
387.813	638.88
388.038	662.88
388.263	658.88
388.488	688.88
388.713	675.88
388.938	658.88
389.163	678.88
389.387	672.88
389.612	656.88
389.837	684.88
390.062	665.88
390.287	659.88
390.512	665.88
390.736	658.88
390.961	687.88
391.186	713.88
391.411	700.88
391.636	727.88
391.86	717.88
392.085	734.88
392.31	677.88
392.534	690.88
392.759	704.88
392.984	704.88
393.208	688.88
393.433	702.88
393.658	686.88
393.882	661.88
394.107	698.88
394.331	712.88
394.556	695.88
394.78	707.88
395.005	710.88
395.229	734.88
395.454	747.88
395.678	726.88
395.903	760.88
396.127	739.88
396.352	725.88
396.576	707.88
396.801	720.88
397.025	729.88
397.249	752.88
397.474	735.88
397.698	759.88
397.922	772.88
398.147	802.88
398.371	774.88
398.595	812.88
398.82	851.88
399.044	944.88
399.268	984.88
399.492	1062.88
399.717	1107.88
399.941	1058.88
400.165	1021.88
400.389	953.88
400.613	874.88
400.837	841.88
401.062	843.88
401.286	837.88
401.51	849.88
401.734	827.88
401.958	855.88
402.182	895.88
402.406	912.88
402.63	906.88
402.854	885.88
403.078	904.88
403.302	905.88
403.526	922.88
403.75	904.88
403.974	916.88
404.198	920.88
404.422	934.88
404.645	895.88
404.869	926.88
405.093	951.88
405.317	953.88
405.541	961.88
405.765	926.88
405.988	948.88
406.212	1079.88
406.436	1091.88
406.66	1047.88
406.883	1012.88
407.107	1051.88
407.331	1118.88
407.555	1135.88
407.778	1079.88
408.002	997.88
408.226	924.88
408.449	944.88
408.673	945.88
408.896	972.88
409.12	984.88
409.344	914.88
409.567	887.88
409.791	899.88
410.014	860.88
410.238	849.88
410.461	866.88
410.685	886.88
410.908	908.88
411.132	900.88
411.355	921.88
411.578	884.88
411.802	816.88
412.025	820.88
412.249	823.88
412.472	814.88
412.695	786.88
412.919	803.88
413.142	790.88
413.365	795.88
413.589	762.88
413.812	801.88
414.035	800.88
414.258	788.88
414.482	793.88
414.705	820.88
414.928	794.88
415.151	791.88
415.374	785.88
415.597	784.88
415.821	801.88
416.044	798.88
416.267	811.88
416.49	801.88
416.713	796.88
416.936	790.88
417.159	781.88
417.382	809.88
417.605	822.88
417.828	832.88
418.051	830.88
418.274	803.88
418.497	809.88
418.72	817.88
418.943	782.88
419.166	814.88
419.389	864.88
419.611	838.88
419.834	834.88
420.057	809.88
420.28	818.88
420.503	809.88
420.726	819.88
420.948	844.88
421.171	884.88
421.394	891.88
421.617	828.88
421.839	805.88
422.062	851.88
422.285	896.88
422.507	948.88
422.73	981.88
422.953	903.88
423.175	849.88
423.398	850.88
423.621	864.88
423.843	892.88
424.066	843.88
424.288	886.88
424.511	928.88
424.733	1000.88
424.956	1037.88
425.178	999.88
425.401	1008.88
425.623	971.88
425.846	872.88
426.068	862.88
426.291	849.88
426.513	823.88
426.735	864.88
426.958	968.88
427.18	1078.88
427.402	1260.88
427.625	1279.88
427.847	1000.88
428.069	826.88
428.292	786.88
428.514	777.88
428.736	747.88
428.958	750.88
429.181	743.88
429.403	746.88
429.625	800.88
429.847	838.88
430.069	873.88
430.292	816.88
430.514	744.88
430.736	746.88
430.958	713.88
431.18	720.88
431.402	698.88
431.624	736.88
431.846	736.88
432.068	700.88
432.29	733.88
432.512	726.88
432.734	754.88
432.956	775.88
433.178	764.88
433.4	769.88
433.622	778.88
433.844	726.88
434.066	742.88
434.287	731.88
434.509	782.88
434.731	803.88
434.953	802.88
435.175	841.88
435.397	830.88
435.618	859.88
435.84	951.88
436.062	1035.88
436.284	969.88
436.505	837.88
436.727	801.88
436.949	764.88
437.17	763.88
437.392	758.88
437.614	804.88
437.835	956.88
438.057	1041.88
438.278	1067.88
438.5	1058.88
438.721	1095.88
438.943	954.88
439.165	810.88
439.386	811.88
439.608	834.88
439.829	895.88
440.05	954.88
440.272	977.88
440.493	840.88
440.715	787.88
440.936	809.88
441.158	768.88
441.379	788.88
441.6	860.88
441.822	929.88
442.043	971.88
442.264	1033.88
442.486	973.88
442.707	885.88
442.928	883.88
443.149	950.88
443.371	1007.88
443.592	1047.88
443.813	1130.88
444.034	1090.88
444.255	943.88
444.476	910.88
444.698	922.88
444.919	918.88
445.14	962.88
445.361	984.88
445.582	1042.88
445.803	1220.88
446.024	1220.88
446.245	1132.88
446.466	974.88
446.687	798.88
446.908	781.88
447.129	745.88
447.35	753.88
447.571	725.88
447.792	723.88
448.013	779.88
448.234	827.88
448.455	956.88
448.675	1043.88
448.896	1048.88
449.117	905.88
449.338	986.88
449.559	1158.88
449.779	1056.88
450	852.88
450.221	738.88
450.442	727.88
450.662	767.88
450.883	833.88
451.104	819.88
451.324	777.88
451.545	691.88
451.766	680.88
451.986	685.88
452.207	677.88
452.428	698.88
452.648	681.88
452.869	708.88
453.089	717.88
453.31	725.88
453.53	692.88
453.751	689.88
453.971	768.88
454.192	742.88
454.412	704.88
454.633	653.88
454.853	664.88
455.073	662.88
455.294	717.88
455.514	809.88
455.734	719.88
455.955	632.88
456.175	645.88
456.395	603.88
456.616	615.88
456.836	594.88
457.056	627.88
457.276	609.88
457.497	622.88
457.717	636.88
457.937	644.88
458.157	643.88
458.377	680.88
458.598	804.88
458.818	1024.88
459.038	992.88
459.258	900.88
459.478	761.88
459.698	763.88
459.918	750.88
460.138	766.88
460.358	785.88
460.578	804.88
460.798	798.88
461.018	813.88
461.238	771.88
461.458	786.88
461.678	791.88
461.898	794.88
462.118	815.88
462.338	817.88
462.558	840.88
462.777	909.88
462.997	952.88
463.217	993.88
463.437	946.88
463.657	895.88
463.876	878.88
464.096	912.88
464.316	907.88
464.536	938.88
464.755	896.88
464.975	956.88
465.195	1166.88
465.414	1062.88
465.634	807.88
465.854	781.88
466.073	720.88
466.293	715.88
466.512	692.88
466.732	684.88
466.951	691.88
467.171	695.88
467.391	751.88
467.61	750.88
467.829	722.88
468.049	700.88
468.268	692.88
468.488	673.88
468.707	663.88
468.927	658.88
469.146	666.88
469.365	669.88
469.585	706.88
469.804	743.88
470.023	766.88
470.243	745.88
470.462	800.88
470.681	798.88
470.901	722.88
471.12	708.88
471.339	715.88
471.558	707.88
471.777	683.88
471.997	662.88
472.216	649.88
472.435	623.88
472.654	652.88
472.873	661.88
473.092	666.88
473.311	658.88
473.53	683.88
473.749	686.88
473.968	805.88
474.187	924.88
474.406	790.88
474.625	707.88
474.844	666.88
475.063	664.88
475.282	665.88
475.501	676.88
475.72	710.88
475.939	695.88
476.158	700.88
476.377	715.88
476.596	713.88
476.814	746.88
477.033	758.88
477.252	722.88
477.471	717.88
477.69	755.88
477.908	761.88
478.127	791.88
478.346	775.88
478.564	807.88
478.783	796.88
479.002	818.88
479.22	822.88
479.439	866.88
479.658	880.88
479.876	882.88
480.095	890.88
480.313	927.88
480.532	903.88
480.751	862.88
480.969	836.88
481.188	823.88
481.406	803.88
481.624	763.88
481.843	755.88
482.061	763.88
482.28	776.88
482.498	771.88
482.717	748.88
482.935	787.88
483.153	781.88
483.372	761.88
483.59	766.88
483.808	775.88
484.027	768.88
484.245	759.88
484.463	795.88
484.681	819.88
484.9	811.88
485.118	806.88
485.336	826.88
485.554	811.88
485.772	815.88
485.99	820.88
486.209	814.88
486.427	844.88
486.645	881.88
486.863	907.88
487.081	850.88
487.299	837.88
487.517	831.88
487.735	852.88
487.953	833.88
488.171	834.88
488.389	807.88
488.607	828.88
488.825	843.88
489.043	844.88
489.261	835.88
489.479	832.88
489.696	813.88
489.914	842.88
490.132	851.88
490.35	879.88
490.568	897.88
490.786	904.88
491.003	945.88
491.221	913.88
491.439	949.88
491.657	944.88
491.874	976.88
492.092	963.88
492.31	990.88
492.527	985.88
492.745	964.88
492.963	992.88
493.18	990.88
493.398	1011.88
493.615	1003.88
493.833	1001.88
494.05	1013.88
494.268	975.88
494.485	986.88
494.703	987.88
494.92	962.88
495.138	966.88
495.355	983.88
495.573	982.88
495.79	976.88
496.008	957.88
496.225	973.88
496.442	980.88
496.66	996.88
496.877	988.88
497.094	976.88
497.312	1011.88
497.529	1022.88
497.746	1039.88
497.963	1076.88
498.181	1102.88
498.398	1158.88
498.615	1212.88
498.832	1242.88
499.049	1277.88
499.267	1344.88
499.484	1413.88
499.701	1541.88
499.918	1686.88
500.135	1796.88
500.352	1935.88
500.569	1910.88
500.786	1867.88
501.003	1761.88
501.22	1659.88
501.437	1532.88
501.654	1466.88
