Data from TestCu_HRD10591_00095.txt Node
Date: Thu Oct 05 14:06:15 EDT 2023
User: Yrep
Spectrometer: HR+D1059
Trigger mode: 1
Integration Time (sec): 1.000000E-1
Scans to average: 1
Electric dark correction enabled: true
Nonlinearity correction enabled: false
Boxcar width: 0
XAxis mode: Wavelengths
Number of Pixels in Spectrum: 2048
>>>>>Begin Spectral Data<<<<<
223.165	-13.44
223.4	-13.44
223.635	-13.44
223.869	-15.44
224.104	-19.44
224.338	-2.44
224.573	-10.44
224.808	-7.44
225.042	-2.44
225.277	-17.44
225.511	-13.44
225.746	10.56
225.98	15.56
226.215	-3.44
226.449	16.56
226.683	21.56
226.918	10.56
227.152	30.56
227.387	18.56
227.621	40.56
227.856	35.56
228.09	39.56
228.324	47.56
228.559	43.56
228.793	62.56
229.027	107.56
229.262	121.56
229.496	163.56
229.73	149.56
229.964	158.56
230.199	105.56
230.433	106.56
230.667	113.56
230.901	113.56
231.136	102.56
231.37	95.56
231.604	93.56
231.838	111.56
232.072	117.56
232.306	107.56
232.541	95.56
232.775	104.56
233.009	101.56
233.243	111.56
233.477	110.56
233.711	119.56
233.945	110.56
234.179	114.56
234.413	90.56
234.647	102.56
234.881	98.56
235.115	102.56
235.349	107.56
235.583	120.56
235.817	130.56
236.051	116.56
236.285	128.56
236.519	146.56
236.753	152.56
236.987	175.56
237.221	223.56
237.455	231.56
237.689	145.56
237.922	135.56
238.156	137.56
238.39	117.56
238.624	113.56
238.858	106.56
239.091	123.56
239.325	125.56
239.559	141.56
239.793	132.56
240.027	148.56
240.26	166.56
240.494	169.56
240.728	155.56
240.961	132.56
241.195	141.56
241.429	124.56
241.662	127.56
241.896	127.56
242.13	123.56
242.363	123.56
242.597	132.56
242.83	114.56
243.064	138.56
243.298	123.56
243.531	129.56
243.765	140.56
243.998	121.56
244.232	135.56
244.465	130.56
244.699	134.56
244.932	138.56
245.166	146.56
245.399	143.56
245.633	165.56
245.866	145.56
246.099	127.56
246.333	130.56
246.566	133.56
246.8	152.56
247.033	154.56
247.266	153.56
247.5	167.56
247.733	174.56
247.966	156.56
248.2	160.56
248.433	157.56
248.666	169.56
248.899	173.56
249.133	207.56
249.366	217.56
249.599	185.56
249.832	166.56
250.066	155.56
250.299	168.56
250.532	192.56
250.765	207.56
250.998	207.56
251.231	181.56
251.465	190.56
251.698	163.56
251.931	171.56
252.164	186.56
252.397	183.56
252.63	179.56
252.863	209.56
253.096	210.56
253.329	218.56
253.562	198.56
253.795	194.56
254.028	201.56
254.261	210.56
254.494	250.56
254.727	264.56
254.96	262.56
255.193	227.56
255.426	199.56
255.659	178.56
255.892	189.56
256.124	189.56
256.357	199.56
256.59	203.56
256.823	191.56
257.056	187.56
257.289	187.56
257.521	201.56
257.754	194.56
257.987	191.56
258.22	192.56
258.452	192.56
258.685	199.56
258.918	193.56
259.151	212.56
259.383	207.56
259.616	217.56
259.849	227.56
260.081	232.56
260.314	251.56
260.547	254.56
260.779	215.56
261.012	214.56
261.244	218.56
261.477	221.56
261.71	206.56
261.942	235.56
262.175	264.56
262.407	221.56
262.64	209.56
262.872	213.56
263.105	197.56
263.337	216.56
263.57	215.56
263.802	209.56
264.035	205.56
264.267	206.56
264.499	205.56
264.732	217.56
264.964	216.56
265.197	220.56
265.429	201.56
265.661	222.56
265.894	209.56
266.126	215.56
266.358	212.56
266.591	215.56
266.823	237.56
267.055	228.56
267.287	238.56
267.52	223.56
267.752	225.56
267.984	236.56
268.216	226.56
268.448	250.56
268.681	250.56
268.913	277.56
269.145	280.56
269.377	277.56
269.609	261.56
269.841	271.56
270.073	294.56
270.306	299.56
270.538	308.56
270.77	297.56
271.002	291.56
271.234	302.56
271.466	318.56
271.698	323.56
271.93	327.56
272.162	313.56
272.394	310.56
272.626	272.56
272.858	261.56
273.09	264.56
273.322	259.56
273.553	260.56
273.785	261.56
274.017	263.56
274.249	272.56
274.481	256.56
274.713	263.56
274.945	261.56
275.176	282.56
275.408	268.56
275.64	267.56
275.872	269.56
276.104	271.56
276.335	301.56
276.567	310.56
276.799	350.56
277.031	338.56
277.262	352.56
277.494	317.56
277.726	290.56
277.957	269.56
278.189	267.56
278.421	280.56
278.652	263.56
278.884	277.56
279.115	272.56
279.347	291.56
279.579	288.56
279.81	272.56
280.042	272.56
280.273	275.56
280.505	259.56
280.736	275.56
280.968	274.56
281.199	263.56
281.431	283.56
281.662	278.56
281.894	291.56
282.125	308.56
282.356	362.56
282.588	361.56
282.819	339.56
283.051	293.56
283.282	307.56
283.513	290.56
283.745	302.56
283.976	312.56
284.207	302.56
284.439	289.56
284.67	308.56
284.901	301.56
285.132	287.56
285.364	313.56
285.595	296.56
285.826	314.56
286.057	291.56
286.288	310.56
286.52	298.56
286.751	310.56
286.982	307.56
287.213	313.56
287.444	322.56
287.675	334.56
287.906	346.56
288.138	359.56
288.369	330.56
288.6	333.56
288.831	306.56
289.062	343.56
289.293	334.56
289.524	331.56
289.755	314.56
289.986	320.56
290.217	315.56
290.448	314.56
290.679	311.56
290.91	310.56
291.141	297.56
291.371	309.56
291.602	317.56
291.833	320.56
292.064	330.56
292.295	327.56
292.526	328.56
292.757	339.56
292.987	321.56
293.218	306.56
293.449	336.56
293.68	344.56
293.91	328.56
294.141	356.56
294.372	324.56
294.603	314.56
294.833	332.56
295.064	350.56
295.295	357.56
295.525	361.56
295.756	379.56
295.987	402.56
296.217	398.56
296.448	381.56
296.679	355.56
296.909	346.56
297.14	366.56
297.37	349.56
297.601	357.56
297.831	360.56
298.062	373.56
298.292	369.56
298.523	369.56
298.753	356.56
298.984	352.56
299.214	357.56
299.445	351.56
299.675	382.56
299.905	367.56
300.136	361.56
300.366	370.56
300.597	395.56
300.827	388.56
301.057	413.56
301.288	429.56
301.518	400.56
301.748	399.56
301.979	409.56
302.209	410.56
302.439	411.56
302.669	409.56
302.9	378.56
303.13	412.56
303.36	400.56
303.59	397.56
303.82	394.56
304.051	398.56
304.281	378.56
304.511	368.56
304.741	380.56
304.971	375.56
305.201	377.56
305.431	382.56
305.661	403.56
305.891	399.56
306.121	400.56
306.352	422.56
306.582	399.56
306.812	394.56
307.042	398.56
307.272	392.56
307.502	398.56
307.731	396.56
307.961	399.56
308.191	404.56
308.421	403.56
308.651	410.56
308.881	421.56
309.111	392.56
309.341	429.56
309.571	435.56
309.8	462.56
310.03	459.56
310.26	488.56
310.49	485.56
310.72	513.56
310.949	537.56
311.179	496.56
311.409	463.56
311.639	472.56
311.868	479.56
312.098	480.56
312.328	504.56
312.557	560.56
312.787	555.56
313.017	510.56
313.246	476.56
313.476	452.56
313.706	472.56
313.935	514.56
314.165	519.56
314.394	522.56
314.624	500.56
314.853	494.56
315.083	477.56
315.312	476.56
315.542	458.56
315.771	451.56
316.001	457.56
316.23	457.56
316.46	469.56
316.689	472.56
316.919	466.56
317.148	504.56
317.377	513.56
317.607	492.56
317.836	479.56
318.065	481.56
318.295	455.56
318.524	467.56
318.753	482.56
318.983	476.56
319.212	484.56
319.441	511.56
319.67	470.56
319.9	471.56
320.129	477.56
320.358	489.56
320.587	504.56
320.816	510.56
321.046	500.56
321.275	499.56
321.504	515.56
321.733	519.56
321.962	546.56
322.191	575.56
322.42	603.56
322.649	587.56
322.878	627.56
323.108	662.56
323.337	751.56
323.566	770.56
323.795	891.56
324.024	1187.56
324.253	2060.56
324.482	3425.56
324.71	5225.56
324.939	4606.56
325.168	2016.56
325.397	969.56
325.626	720.56
325.855	654.56
326.084	686.56
326.313	731.56
326.542	814.56
326.77	1146.56
326.999	1920.56
327.228	3020.56
327.457	3884.56
327.686	2504.56
327.914	1187.56
328.143	883.56
328.372	868.56
328.6	819.56
328.829	827.56
329.058	895.56
329.287	808.56
329.515	681.56
329.744	615.56
329.972	642.56
330.201	688.56
330.43	805.56
330.658	892.56
330.887	941.56
331.115	807.56
331.344	684.56
331.572	670.56
331.801	716.56
332.03	663.56
332.258	631.56
332.486	619.56
332.715	631.56
332.943	644.56
333.172	661.56
333.4	656.56
333.629	692.56
333.857	675.56
334.085	655.56
334.314	645.56
334.542	661.56
334.771	651.56
334.999	652.56
335.227	636.56
335.455	628.56
335.684	618.56
335.912	618.56
336.14	629.56
336.369	642.56
336.597	648.56
336.825	632.56
337.053	606.56
337.281	602.56
337.51	617.56
337.738	620.56
337.966	602.56
338.194	621.56
338.422	601.56
338.65	603.56
338.878	604.56
339.106	578.56
339.334	557.56
339.562	567.56
339.79	571.56
340.018	605.56
340.246	584.56
340.474	607.56
340.702	589.56
340.93	583.56
341.158	573.56
341.386	605.56
341.614	580.56
341.842	587.56
342.07	580.56
342.298	577.56
342.526	553.56
342.754	557.56
342.981	571.56
343.209	565.56
343.437	617.56
343.665	626.56
343.893	608.56
344.12	634.56
344.348	625.56
344.576	612.56
344.804	648.56
345.031	655.56
345.259	639.56
345.487	620.56
345.714	549.56
345.942	552.56
346.17	559.56
346.397	576.56
346.625	593.56
346.853	551.56
347.08	573.56
347.308	593.56
347.535	628.56
347.763	600.56
347.99	619.56
348.218	625.56
348.445	624.56
348.673	608.56
348.9	568.56
349.128	538.56
349.355	544.56
349.583	544.56
349.81	546.56
350.037	543.56
350.265	553.56
350.492	530.56
350.72	571.56
350.947	596.56
351.174	620.56
351.402	623.56
351.629	591.56
351.856	638.56
352.083	635.56
352.311	633.56
352.538	626.56
352.765	596.56
352.992	585.56
353.22	579.56
353.447	579.56
353.674	536.56
353.901	539.56
354.128	536.56
354.355	531.56
354.583	538.56
354.81	531.56
355.037	528.56
355.264	527.56
355.491	528.56
355.718	515.56
355.945	496.56
356.172	519.56
356.399	503.56
356.626	499.56
356.853	514.56
357.08	507.56
357.307	533.56
357.534	518.56
357.761	525.56
357.988	533.56
358.215	548.56
358.441	538.56
358.668	521.56
358.895	551.56
359.122	558.56
359.349	606.56
359.576	645.56
359.802	705.56
360.029	765.56
360.256	729.56
360.483	613.56
360.709	573.56
360.936	575.56
361.163	596.56
361.39	617.56
361.616	599.56
361.843	596.56
362.07	626.56
362.296	618.56
362.523	577.56
362.749	597.56
362.976	563.56
363.203	571.56
363.429	548.56
363.656	576.56
363.882	564.56
364.109	573.56
364.335	550.56
364.562	572.56
364.788	565.56
365.015	571.56
365.241	605.56
365.468	600.56
365.694	585.56
365.92	592.56
366.147	585.56
366.373	549.56
366.599	555.56
366.826	540.56
367.052	526.56
367.278	581.56
367.505	571.56
367.731	607.56
367.957	547.56
368.184	585.56
368.41	601.56
368.636	591.56
368.862	592.56
369.089	569.56
369.315	562.56
369.541	552.56
369.767	589.56
369.993	592.56
370.219	574.56
370.445	571.56
370.672	576.56
370.898	566.56
371.124	562.56
371.35	562.56
371.576	546.56
371.802	546.56
372.028	555.56
372.254	556.56
372.48	578.56
372.706	577.56
372.932	565.56
373.158	590.56
373.384	589.56
373.61	596.56
373.835	561.56
374.061	572.56
374.287	612.56
374.513	597.56
374.739	620.56
374.965	586.56
375.191	612.56
375.416	597.56
375.642	601.56
375.868	597.56
376.094	589.56
376.319	601.56
376.545	588.56
376.771	577.56
376.997	559.56
377.222	575.56
377.448	556.56
377.674	541.56
377.899	566.56
378.125	567.56
378.35	570.56
378.576	564.56
378.802	567.56
379.027	549.56
379.253	567.56
379.478	561.56
379.704	577.56
379.929	566.56
380.155	594.56
380.38	591.56
380.606	599.56
380.831	578.56
381.057	593.56
381.282	585.56
381.507	584.56
381.733	592.56
381.958	603.56
382.184	595.56
382.409	607.56
382.634	613.56
382.86	604.56
383.085	599.56
383.31	629.56
383.535	633.56
383.761	625.56
383.986	633.56
384.211	625.56
384.436	635.56
384.662	666.56
384.887	683.56
385.112	634.56
385.337	656.56
385.562	652.56
385.787	667.56
386.013	707.56
386.238	720.56
386.463	682.56
386.688	659.56
386.913	647.56
387.138	653.56
387.363	680.56
387.588	660.56
387.813	651.56
388.038	664.56
388.263	649.56
388.488	668.56
388.713	676.56
388.938	657.56
389.163	671.56
389.387	667.56
389.612	671.56
389.837	659.56
390.062	663.56
390.287	676.56
390.512	660.56
390.736	678.56
390.961	703.56
391.186	690.56
391.411	709.56
391.636	741.56
391.86	720.56
392.085	716.56
392.31	707.56
392.534	703.56
392.759	694.56
392.984	700.56
393.208	681.56
393.433	672.56
393.658	665.56
393.882	684.56
394.107	683.56
394.331	703.56
394.556	699.56
394.78	684.56
395.005	712.56
395.229	712.56
395.454	729.56
395.678	722.56
395.903	753.56
396.127	697.56
396.352	706.56
396.576	705.56
396.801	701.56
397.025	717.56
397.249	738.56
397.474	737.56
397.698	758.56
397.922	779.56
398.147	783.56
398.371	773.56
398.595	794.56
398.82	857.56
399.044	909.56
399.268	996.56
399.492	1101.56
399.717	1088.56
399.941	1055.56
400.165	1000.56
400.389	983.56
400.613	897.56
400.837	853.56
401.062	841.56
401.286	816.56
401.51	827.56
401.734	820.56
401.958	863.56
402.182	891.56
402.406	914.56
402.63	899.56
402.854	889.56
403.078	912.56
403.302	897.56
403.526	900.56
403.75	913.56
403.974	942.56
404.198	917.56
404.422	912.56
404.645	880.56
404.869	925.56
405.093	935.56
405.317	974.56
405.541	962.56
405.765	907.56
405.988	943.56
406.212	1041.56
406.436	1085.56
406.66	1053.56
406.883	1022.56
407.107	1063.56
407.331	1124.56
407.555	1126.56
407.778	1095.56
408.002	988.56
408.226	936.56
408.449	946.56
408.673	956.56
408.896	955.56
409.12	958.56
409.344	936.56
409.567	872.56
409.791	878.56
410.014	855.56
410.238	833.56
410.461	863.56
410.685	865.56
410.908	913.56
411.132	927.56
411.355	904.56
411.578	837.56
411.802	811.56
412.025	821.56
412.249	874.56
412.472	835.56
412.695	774.56
412.919	809.56
413.142	794.56
413.365	816.56
413.589	807.56
413.812	775.56
414.035	818.56
414.258	779.56
414.482	805.56
414.705	788.56
414.928	818.56
415.151	797.56
415.374	795.56
415.597	798.56
415.821	759.56
416.044	771.56
416.267	775.56
416.49	780.56
416.713	780.56
416.936	794.56
417.159	799.56
417.382	818.56
417.605	818.56
417.828	810.56
418.051	838.56
418.274	829.56
418.497	838.56
418.72	825.56
418.943	807.56
419.166	802.56
419.389	846.56
419.611	829.56
419.834	818.56
420.057	830.56
420.28	811.56
420.503	805.56
420.726	818.56
420.948	847.56
421.171	907.56
421.394	854.56
421.617	808.56
421.839	814.56
422.062	847.56
422.285	874.56
422.507	935.56
422.73	987.56
422.953	917.56
423.175	862.56
423.398	869.56
423.621	895.56
423.843	908.56
424.066	881.56
424.288	879.56
424.511	941.56
424.733	994.56
424.956	1087.56
425.178	1009.56
425.401	983.56
425.623	943.56
425.846	856.56
426.068	826.56
426.291	828.56
426.513	831.56
426.735	869.56
426.958	968.56
427.18	1099.56
427.402	1275.56
427.625	1316.56
427.847	1026.56
428.069	867.56
428.292	792.56
428.514	766.56
428.736	757.56
428.958	731.56
429.181	756.56
429.403	765.56
429.625	792.56
429.847	873.56
430.069	898.56
430.292	841.56
430.514	746.56
430.736	757.56
430.958	741.56
431.18	728.56
431.402	728.56
431.624	728.56
431.846	741.56
432.068	713.56
432.29	715.56
432.512	722.56
432.734	713.56
432.956	756.56
433.178	763.56
433.4	761.56
433.622	733.56
433.844	723.56
434.066	735.56
434.287	756.56
434.509	798.56
434.731	817.56
434.953	799.56
435.175	836.56
435.397	865.56
435.618	869.56
435.84	945.56
436.062	1059.56
436.284	1008.56
436.505	815.56
436.727	793.56
436.949	768.56
437.17	765.56
437.392	764.56
437.614	812.56
437.835	950.56
438.057	1059.56
438.278	1097.56
438.5	1093.56
438.721	1145.56
438.943	964.56
439.165	839.56
439.386	831.56
439.608	847.56
439.829	925.56
440.05	948.56
440.272	1012.56
440.493	846.56
440.715	797.56
440.936	823.56
441.158	823.56
441.379	783.56
441.6	877.56
441.822	904.56
442.043	976.56
442.264	1072.56
442.486	976.56
442.707	883.56
442.928	889.56
443.149	926.56
443.371	979.56
443.592	1103.56
443.813	1154.56
444.034	1077.56
444.255	946.56
444.476	909.56
444.698	931.56
444.919	962.56
445.14	973.56
445.361	959.56
445.582	1066.56
445.803	1225.56
446.024	1259.56
446.245	1171.56
446.466	990.56
446.687	821.56
446.908	803.56
447.129	763.56
447.35	743.56
447.571	772.56
447.792	759.56
448.013	762.56
448.234	847.56
448.455	927.56
448.675	1083.56
448.896	1086.56
449.117	932.56
449.338	1035.56
449.559	1098.56
449.779	1063.56
450	835.56
450.221	762.56
450.442	750.56
450.662	791.56
450.883	845.56
451.104	822.56
451.324	767.56
451.545	732.56
451.766	705.56
451.986	667.56
452.207	660.56
452.428	670.56
452.648	699.56
452.869	729.56
453.089	734.56
453.31	725.56
453.53	691.56
453.751	666.56
453.971	733.56
454.192	768.56
454.412	681.56
454.633	670.56
454.853	641.56
455.073	685.56
455.294	753.56
455.514	792.56
455.734	687.56
455.955	626.56
456.175	632.56
456.395	605.56
456.616	615.56
456.836	604.56
457.056	617.56
457.276	594.56
457.497	654.56
457.717	629.56
457.937	622.56
458.157	648.56
458.377	691.56
458.598	814.56
458.818	998.56
459.038	1043.56
459.258	874.56
459.478	793.56
459.698	735.56
459.918	746.56
460.138	779.56
460.358	801.56
460.578	782.56
460.798	789.56
461.018	791.56
461.238	776.56
461.458	783.56
461.678	779.56
461.898	796.56
462.118	829.56
462.338	824.56
462.558	856.56
462.777	871.56
462.997	931.56
463.217	964.56
463.437	924.56
463.657	870.56
463.876	864.56
464.096	914.56
464.316	912.56
464.536	901.56
464.755	890.56
464.975	990.56
465.195	1191.56
465.414	1130.56
465.634	845.56
465.854	764.56
466.073	738.56
466.293	724.56
466.512	704.56
466.732	690.56
466.951	711.56
467.171	700.56
467.391	731.56
467.61	776.56
467.829	719.56
468.049	690.56
468.268	678.56
468.488	656.56
468.707	678.56
468.927	675.56
469.146	655.56
469.365	667.56
469.585	669.56
469.804	724.56
470.023	771.56
470.243	752.56
470.462	779.56
470.681	839.56
470.901	713.56
471.12	703.56
471.339	686.56
471.558	723.56
471.777	670.56
471.997	671.56
472.216	661.56
472.435	640.56
472.654	647.56
472.873	639.56
473.092	653.56
473.311	663.56
473.53	690.56
473.749	715.56
473.968	840.56
474.187	925.56
474.406	820.56
474.625	715.56
474.844	682.56
475.063	645.56
475.282	657.56
475.501	664.56
475.72	656.56
475.939	659.56
476.158	687.56
476.377	700.56
476.596	695.56
476.814	733.56
477.033	740.56
477.252	728.56
477.471	732.56
477.69	760.56
477.908	760.56
478.127	779.56
478.346	782.56
478.564	803.56
478.783	803.56
479.002	805.56
479.22	828.56
479.439	857.56
479.658	880.56
479.876	900.56
480.095	921.56
480.313	912.56
480.532	877.56
480.751	881.56
480.969	836.56
481.188	821.56
481.406	794.56
481.624	795.56
481.843	781.56
482.061	768.56
482.28	758.56
482.498	771.56
482.717	758.56
482.935	750.56
483.153	793.56
483.372	788.56
483.59	771.56
483.808	790.56
484.027	775.56
484.245	780.56
484.463	800.56
484.681	787.56
484.9	799.56
485.118	823.56
485.336	817.56
485.554	804.56
485.772	815.56
485.99	855.56
486.209	821.56
486.427	855.56
486.645	863.56
486.863	893.56
487.081	860.56
487.299	821.56
487.517	825.56
487.735	831.56
487.953	818.56
488.171	828.56
488.389	841.56
488.607	843.56
488.825	818.56
489.043	835.56
489.261	809.56
489.479	826.56
489.696	849.56
489.914	859.56
490.132	835.56
490.35	897.56
490.568	885.56
490.786	888.56
491.003	910.56
491.221	943.56
491.439	968.56
491.657	976.56
491.874	982.56
492.092	992.56
492.31	1008.56
492.527	962.56
492.745	958.56
492.963	971.56
493.18	983.56
493.398	986.56
493.615	1005.56
493.833	1001.56
494.05	976.56
494.268	970.56
494.485	985.56
494.703	985.56
494.92	986.56
495.138	980.56
495.355	997.56
495.573	994.56
495.79	981.56
496.008	971.56
496.225	978.56
496.442	974.56
496.66	988.56
496.877	1005.56
497.094	998.56
497.312	1030.56
497.529	1025.56
497.746	1037.56
497.963	1109.56
498.181	1105.56
498.398	1173.56
498.615	1199.56
498.832	1220.56
499.049	1312.56
499.267	1358.56
499.484	1456.56
499.701	1523.56
499.918	1647.56
500.135	1791.56
500.352	1865.56
500.569	1913.56
500.786	1862.56
501.003	1751.56
501.22	1699.56
501.437	1542.56
501.654	1476.56
