Data from TestCu_HRD10591_00087.txt Node
Date: Thu Oct 05 14:06:07 EDT 2023
User: Yrep
Spectrometer: HR+D1059
Trigger mode: 1
Integration Time (sec): 1.000000E-1
Scans to average: 1
Electric dark correction enabled: true
Nonlinearity correction enabled: false
Boxcar width: 0
XAxis mode: Wavelengths
Number of Pixels in Spectrum: 2048
>>>>>Begin Spectral Data<<<<<
223.165	-14.31
223.4	-14.31
223.635	-14.31
223.869	-15.31
224.104	-23.31
224.338	-6.31
224.573	-23.31
224.808	-19.31
225.042	-20.31
225.277	-11.31
225.511	0.69
225.746	-1.31
225.98	16.69
226.215	17.69
226.449	10.69
226.683	31.69
226.918	32.69
227.152	24.69
227.387	40.69
227.621	46.69
227.856	43.69
228.09	44.69
228.324	44.69
228.559	85.69
228.793	71.69
229.027	104.69
229.262	108.69
229.496	135.69
229.73	159.69
229.964	178.69
230.199	120.69
230.433	114.69
230.667	118.69
230.901	106.69
231.136	110.69
231.37	112.69
231.604	115.69
231.838	118.69
232.072	106.69
232.306	110.69
232.541	105.69
232.775	117.69
233.009	109.69
233.243	103.69
233.477	102.69
233.711	99.69
233.945	116.69
234.179	125.69
234.413	115.69
234.647	106.69
234.881	119.69
235.115	104.69
235.349	107.69
235.583	115.69
235.817	135.69
236.051	143.69
236.285	124.69
236.519	155.69
236.753	160.69
236.987	191.69
237.221	232.69
237.455	231.69
237.689	150.69
237.922	127.69
238.156	123.69
238.39	119.69
238.624	119.69
238.858	131.69
239.091	129.69
239.325	116.69
239.559	133.69
239.793	122.69
240.027	148.69
240.26	155.69
240.494	178.69
240.728	149.69
240.961	140.69
241.195	133.69
241.429	144.69
241.662	134.69
241.896	113.69
242.13	120.69
242.363	118.69
242.597	132.69
242.83	131.69
243.064	141.69
243.298	139.69
243.531	142.69
243.765	123.69
243.998	133.69
244.232	138.69
244.465	134.69
244.699	149.69
244.932	136.69
245.166	150.69
245.399	139.69
245.633	141.69
245.866	151.69
246.099	141.69
246.333	140.69
246.566	144.69
246.8	152.69
247.033	160.69
247.266	175.69
247.5	167.69
247.733	175.69
247.966	162.69
248.2	144.69
248.433	158.69
248.666	182.69
248.899	192.69
249.133	211.69
249.366	190.69
249.599	178.69
249.832	174.69
250.066	154.69
250.299	164.69
250.532	180.69
250.765	190.69
250.998	234.69
251.231	204.69
251.465	180.69
251.698	183.69
251.931	164.69
252.164	163.69
252.397	167.69
252.63	196.69
252.863	212.69
253.096	210.69
253.329	229.69
253.562	210.69
253.795	198.69
254.028	194.69
254.261	219.69
254.494	252.69
254.727	263.69
254.96	236.69
255.193	225.69
255.426	204.69
255.659	188.69
255.892	190.69
256.124	195.69
256.357	189.69
256.59	175.69
256.823	178.69
257.056	192.69
257.289	195.69
257.521	193.69
257.754	204.69
257.987	200.69
258.22	199.69
258.452	190.69
258.685	212.69
258.918	199.69
259.151	204.69
259.383	215.69
259.616	231.69
259.849	227.69
260.081	248.69
260.314	257.69
260.547	229.69
260.779	221.69
261.012	219.69
261.244	215.69
261.477	227.69
261.71	237.69
261.942	234.69
262.175	259.69
262.407	228.69
262.64	214.69
262.872	214.69
263.105	202.69
263.337	200.69
263.57	209.69
263.802	219.69
264.035	214.69
264.267	208.69
264.499	208.69
264.732	211.69
264.964	201.69
265.197	195.69
265.429	218.69
265.661	209.69
265.894	214.69
266.126	219.69
266.358	220.69
266.591	223.69
266.823	229.69
267.055	223.69
267.287	216.69
267.52	227.69
267.752	229.69
267.984	247.69
268.216	229.69
268.448	233.69
268.681	261.69
268.913	271.69
269.145	277.69
269.377	267.69
269.609	263.69
269.841	275.69
270.073	299.69
270.306	328.69
270.538	313.69
270.77	300.69
271.002	270.69
271.234	288.69
271.466	293.69
271.698	305.69
271.93	321.69
272.162	306.69
272.394	292.69
272.626	269.69
272.858	269.69
273.09	263.69
273.322	238.69
273.553	270.69
273.785	259.69
274.017	255.69
274.249	282.69
274.481	256.69
274.713	263.69
274.945	253.69
275.176	269.69
275.408	271.69
275.64	266.69
275.872	275.69
276.104	290.69
276.335	286.69
276.567	313.69
276.799	333.69
277.031	367.69
277.262	337.69
277.494	310.69
277.726	295.69
277.957	293.69
278.189	282.69
278.421	282.69
278.652	283.69
278.884	261.69
279.115	290.69
279.347	278.69
279.579	271.69
279.81	287.69
280.042	291.69
280.273	291.69
280.505	283.69
280.736	290.69
280.968	278.69
281.199	274.69
281.431	270.69
281.662	268.69
281.894	292.69
282.125	308.69
282.356	341.69
282.588	367.69
282.819	319.69
283.051	286.69
283.282	302.69
283.513	304.69
283.745	317.69
283.976	301.69
284.207	323.69
284.439	294.69
284.67	306.69
284.901	308.69
285.132	308.69
285.364	274.69
285.595	304.69
285.826	302.69
286.057	327.69
286.288	317.69
286.52	308.69
286.751	300.69
286.982	312.69
287.213	317.69
287.444	306.69
287.675	321.69
287.906	337.69
288.138	368.69
288.369	350.69
288.6	319.69
288.831	317.69
289.062	325.69
289.293	317.69
289.524	329.69
289.755	331.69
289.986	316.69
290.217	329.69
290.448	355.69
290.679	321.69
290.91	311.69
291.141	320.69
291.371	319.69
291.602	317.69
291.833	310.69
292.064	332.69
292.295	342.69
292.526	336.69
292.757	336.69
292.987	339.69
293.218	325.69
293.449	345.69
293.68	342.69
293.91	334.69
294.141	343.69
294.372	341.69
294.603	344.69
294.833	332.69
295.064	351.69
295.295	342.69
295.525	361.69
295.756	372.69
295.987	405.69
296.217	411.69
296.448	391.69
296.679	358.69
296.909	335.69
297.14	357.69
297.37	360.69
297.601	355.69
297.831	360.69
298.062	368.69
298.292	369.69
298.523	373.69
298.753	360.69
298.984	373.69
299.214	372.69
299.445	357.69
299.675	378.69
299.905	384.69
300.136	381.69
300.366	396.69
300.597	394.69
300.827	398.69
301.057	415.69
301.288	396.69
301.518	399.69
301.748	416.69
301.979	412.69
302.209	424.69
302.439	402.69
302.669	399.69
302.9	386.69
303.13	375.69
303.36	387.69
303.59	401.69
303.82	423.69
304.051	412.69
304.281	390.69
304.511	366.69
304.741	391.69
304.971	385.69
305.201	387.69
305.431	400.69
305.661	385.69
305.891	396.69
306.121	388.69
306.352	424.69
306.582	418.69
306.812	420.69
307.042	402.69
307.272	405.69
307.502	387.69
307.731	379.69
307.961	408.69
308.191	422.69
308.421	399.69
308.651	418.69
308.881	406.69
309.111	439.69
309.341	433.69
309.571	452.69
309.8	446.69
310.03	452.69
310.26	490.69
310.49	493.69
310.72	509.69
310.949	526.69
311.179	477.69
311.409	476.69
311.639	476.69
311.868	475.69
312.098	482.69
312.328	508.69
312.557	554.69
312.787	543.69
313.017	521.69
313.246	482.69
313.476	488.69
313.706	492.69
313.935	511.69
314.165	545.69
314.394	532.69
314.624	515.69
314.853	504.69
315.083	463.69
315.312	451.69
315.542	478.69
315.771	452.69
316.001	466.69
316.23	444.69
316.46	467.69
316.689	476.69
316.919	492.69
317.148	498.69
317.377	494.69
317.607	502.69
317.836	451.69
318.065	449.69
318.295	453.69
318.524	459.69
318.753	478.69
318.983	498.69
319.212	493.69
319.441	484.69
319.67	502.69
319.9	484.69
320.129	472.69
320.358	467.69
320.587	492.69
320.816	500.69
321.046	497.69
321.275	498.69
321.504	512.69
321.733	517.69
321.962	548.69
322.191	578.69
322.42	591.69
322.649	617.69
322.878	621.69
323.108	637.69
323.337	722.69
323.566	788.69
323.795	872.69
324.024	1154.69
324.253	2007.69
324.482	3449.69
324.71	5065.69
324.939	4477.69
325.168	1996.69
325.397	974.69
325.626	741.69
325.855	663.69
326.084	693.69
326.313	727.69
326.542	805.69
326.77	1096.69
326.999	1882.69
327.228	2952.69
327.457	3826.69
327.686	2498.69
327.914	1153.69
328.143	917.69
328.372	845.69
328.6	811.69
328.829	858.69
329.058	888.69
329.287	806.69
329.515	677.69
329.744	642.69
329.972	632.69
330.201	700.69
330.43	821.69
330.658	922.69
330.887	950.69
331.115	796.69
331.344	682.69
331.572	690.69
331.801	677.69
332.03	670.69
332.258	622.69
332.486	623.69
332.715	645.69
332.943	648.69
333.172	663.69
333.4	649.69
333.629	682.69
333.857	692.69
334.085	654.69
334.314	654.69
334.542	625.69
334.771	629.69
334.999	642.69
335.227	649.69
335.455	626.69
335.684	622.69
335.912	620.69
336.14	643.69
336.369	649.69
336.597	670.69
336.825	611.69
337.053	607.69
337.281	611.69
337.51	601.69
337.738	629.69
337.966	613.69
338.194	620.69
338.422	592.69
338.65	586.69
338.878	573.69
339.106	587.69
339.334	604.69
339.562	585.69
339.79	580.69
340.018	581.69
340.246	602.69
340.474	608.69
340.702	577.69
340.93	577.69
341.158	585.69
341.386	620.69
341.614	596.69
341.842	573.69
342.07	583.69
342.298	595.69
342.526	578.69
342.754	542.69
342.981	542.69
343.209	578.69
343.437	620.69
343.665	631.69
343.893	645.69
344.12	630.69
344.348	625.69
344.576	621.69
344.804	629.69
345.031	649.69
345.259	624.69
345.487	604.69
345.714	585.69
345.942	556.69
346.17	586.69
346.397	569.69
346.625	560.69
346.853	568.69
347.08	589.69
347.308	604.69
347.535	637.69
347.763	592.69
347.99	596.69
348.218	631.69
348.445	640.69
348.673	593.69
348.9	552.69
349.128	549.69
349.355	535.69
349.583	550.69
349.81	550.69
350.037	554.69
350.265	538.69
350.492	557.69
350.72	571.69
350.947	580.69
351.174	604.69
351.402	582.69
351.629	600.69
351.856	614.69
352.083	633.69
352.311	622.69
352.538	630.69
352.765	630.69
352.992	605.69
353.22	576.69
353.447	564.69
353.674	550.69
353.901	529.69
354.128	538.69
354.355	550.69
354.583	541.69
354.81	527.69
355.037	528.69
355.264	509.69
355.491	514.69
355.718	523.69
355.945	535.69
356.172	528.69
356.399	541.69
356.626	524.69
356.853	546.69
357.08	506.69
357.307	548.69
357.534	548.69
357.761	526.69
357.988	528.69
358.215	538.69
358.441	520.69
358.668	541.69
358.895	548.69
359.122	550.69
359.349	575.69
359.576	652.69
359.802	724.69
360.029	766.69
360.256	710.69
360.483	638.69
360.709	592.69
360.936	620.69
361.163	609.69
361.39	612.69
361.616	607.69
361.843	620.69
362.07	619.69
362.296	620.69
362.523	593.69
362.749	596.69
362.976	570.69
363.203	596.69
363.429	566.69
363.656	546.69
363.882	544.69
364.109	557.69
364.335	557.69
364.562	550.69
364.788	553.69
365.015	567.69
365.241	579.69
365.468	574.69
365.694	556.69
365.92	580.69
366.147	559.69
366.373	540.69
366.599	542.69
366.826	547.69
367.052	558.69
367.278	559.69
367.505	551.69
367.731	566.69
367.957	562.69
368.184	565.69
368.41	596.69
368.636	606.69
368.862	612.69
369.089	594.69
369.315	570.69
369.541	552.69
369.767	562.69
369.993	577.69
370.219	577.69
370.445	561.69
370.672	583.69
370.898	542.69
371.124	566.69
371.35	561.69
371.576	562.69
371.802	561.69
372.028	564.69
372.254	588.69
372.48	569.69
372.706	584.69
372.932	587.69
373.158	589.69
373.384	583.69
373.61	568.69
373.835	577.69
374.061	595.69
374.287	602.69
374.513	598.69
374.739	596.69
374.965	608.69
375.191	612.69
375.416	591.69
375.642	587.69
375.868	612.69
376.094	573.69
376.319	598.69
376.545	569.69
376.771	583.69
376.997	586.69
377.222	590.69
377.448	579.69
377.674	558.69
377.899	566.69
378.125	568.69
378.35	562.69
378.576	572.69
378.802	562.69
379.027	568.69
379.253	583.69
379.478	560.69
379.704	576.69
379.929	583.69
380.155	595.69
380.38	586.69
380.606	587.69
380.831	588.69
381.057	577.69
381.282	598.69
381.507	566.69
381.733	597.69
381.958	586.69
382.184	586.69
382.409	605.69
382.634	597.69
382.86	596.69
383.085	610.69
383.31	598.69
383.535	612.69
383.761	631.69
383.986	630.69
384.211	653.69
384.436	652.69
384.662	669.69
384.887	686.69
385.112	664.69
385.337	668.69
385.562	689.69
385.787	671.69
386.013	694.69
386.238	704.69
386.463	685.69
386.688	704.69
386.913	662.69
387.138	656.69
387.363	664.69
387.588	651.69
387.813	668.69
388.038	660.69
388.263	671.69
388.488	678.69
388.713	655.69
388.938	651.69
389.163	667.69
389.387	656.69
389.612	691.69
389.837	663.69
390.062	666.69
390.287	668.69
390.512	668.69
390.736	657.69
390.961	656.69
391.186	686.69
391.411	715.69
391.636	718.69
391.86	737.69
392.085	743.69
392.31	723.69
392.534	703.69
392.759	684.69
392.984	680.69
393.208	712.69
393.433	701.69
393.658	697.69
393.882	693.69
394.107	720.69
394.331	707.69
394.556	722.69
394.78	746.69
395.005	719.69
395.229	707.69
395.454	772.69
395.678	765.69
395.903	746.69
396.127	778.69
396.352	741.69
396.576	715.69
396.801	710.69
397.025	725.69
397.249	731.69
397.474	742.69
397.698	748.69
397.922	775.69
398.147	799.69
398.371	797.69
398.595	817.69
398.82	847.69
399.044	914.69
399.268	983.69
399.492	1083.69
399.717	1110.69
399.941	1054.69
400.165	1003.69
400.389	947.69
400.613	854.69
400.837	852.69
401.062	834.69
401.286	808.69
401.51	815.69
401.734	849.69
401.958	877.69
402.182	912.69
402.406	912.69
402.63	906.69
402.854	881.69
403.078	927.69
403.302	897.69
403.526	927.69
403.75	911.69
403.974	915.69
404.198	923.69
404.422	927.69
404.645	915.69
404.869	929.69
405.093	929.69
405.317	969.69
405.541	944.69
405.765	932.69
405.988	945.69
406.212	1035.69
406.436	1081.69
406.66	1034.69
406.883	1023.69
407.107	1078.69
407.331	1103.69
407.555	1151.69
407.778	1091.69
408.002	986.69
408.226	972.69
408.449	967.69
408.673	946.69
408.896	971.69
409.12	952.69
409.344	899.69
409.567	892.69
409.791	891.69
410.014	882.69
410.238	837.69
410.461	869.69
410.685	887.69
410.908	911.69
411.132	926.69
411.355	899.69
411.578	897.69
411.802	823.69
412.025	810.69
412.249	846.69
412.472	827.69
412.695	812.69
412.919	796.69
413.142	800.69
413.365	792.69
413.589	810.69
413.812	846.69
414.035	774.69
414.258	792.69
414.482	811.69
414.705	794.69
414.928	790.69
415.151	789.69
415.374	797.69
415.597	770.69
415.821	769.69
416.044	806.69
416.267	786.69
416.49	782.69
416.713	778.69
416.936	798.69
417.159	798.69
417.382	788.69
417.605	804.69
417.828	848.69
418.051	816.69
418.274	817.69
418.497	801.69
418.72	815.69
418.943	820.69
419.166	842.69
419.389	843.69
419.611	827.69
419.834	833.69
420.057	845.69
420.28	820.69
420.503	778.69
420.726	816.69
420.948	851.69
421.171	911.69
421.394	865.69
421.617	844.69
421.839	809.69
422.062	847.69
422.285	883.69
422.507	986.69
422.73	985.69
422.953	941.69
423.175	858.69
423.398	856.69
423.621	862.69
423.843	864.69
424.066	896.69
424.288	902.69
424.511	947.69
424.733	1000.69
424.956	1070.69
425.178	1018.69
425.401	994.69
425.623	958.69
425.846	872.69
426.068	839.69
426.291	812.69
426.513	822.69
426.735	879.69
426.958	950.69
427.18	1119.69
427.402	1274.69
427.625	1301.69
427.847	1005.69
428.069	821.69
428.292	821.69
428.514	783.69
428.736	732.69
428.958	763.69
429.181	738.69
429.403	739.69
429.625	794.69
429.847	830.69
430.069	881.69
430.292	806.69
430.514	738.69
430.736	751.69
430.958	732.69
431.18	736.69
431.402	738.69
431.624	690.69
431.846	736.69
432.068	722.69
432.29	730.69
432.512	745.69
432.734	729.69
432.956	743.69
433.178	754.69
433.4	774.69
433.622	759.69
433.844	754.69
434.066	750.69
434.287	753.69
434.509	771.69
434.731	782.69
434.953	839.69
435.175	836.69
435.397	835.69
435.618	863.69
435.84	948.69
436.062	1055.69
436.284	994.69
436.505	861.69
436.727	805.69
436.949	761.69
437.17	752.69
437.392	766.69
437.614	803.69
437.835	934.69
438.057	1067.69
438.278	1086.69
438.5	1077.69
438.721	1137.69
438.943	953.69
439.165	807.69
439.386	824.69
439.608	874.69
439.829	934.69
440.05	982.69
440.272	974.69
440.493	880.69
440.715	766.69
440.936	792.69
441.158	807.69
441.379	826.69
441.6	870.69
441.822	888.69
442.043	991.69
442.264	1075.69
442.486	989.69
442.707	855.69
442.928	889.69
443.149	968.69
443.371	1017.69
443.592	1090.69
443.813	1125.69
444.034	1088.69
444.255	940.69
444.476	946.69
444.698	926.69
444.919	911.69
445.14	962.69
445.361	979.69
445.582	1083.69
445.803	1212.69
446.024	1279.69
446.245	1175.69
446.466	999.69
446.687	852.69
446.908	777.69
447.129	752.69
447.35	765.69
447.571	747.69
447.792	736.69
448.013	771.69
448.234	836.69
448.455	965.69
448.675	1068.69
448.896	1054.69
449.117	909.69
449.338	996.69
449.559	1142.69
449.779	1066.69
450	842.69
450.221	756.69
450.442	756.69
450.662	774.69
450.883	837.69
451.104	826.69
451.324	741.69
451.545	738.69
451.766	688.69
451.986	663.69
452.207	668.69
452.428	668.69
452.648	706.69
452.869	711.69
453.089	719.69
453.31	721.69
453.53	678.69
453.751	680.69
453.971	730.69
454.192	738.69
454.412	674.69
454.633	679.69
454.853	661.69
455.073	691.69
455.294	751.69
455.514	804.69
455.734	695.69
455.955	628.69
456.175	618.69
456.395	607.69
456.616	630.69
456.836	622.69
457.056	609.69
457.276	583.69
457.497	641.69
457.717	663.69
457.937	639.69
458.157	664.69
458.377	701.69
458.598	784.69
458.818	996.69
459.038	1040.69
459.258	898.69
459.478	775.69
459.698	749.69
459.918	788.69
460.138	740.69
460.358	789.69
460.578	806.69
460.798	788.69
461.018	797.69
461.238	773.69
461.458	780.69
461.678	768.69
461.898	813.69
462.118	780.69
462.338	847.69
462.558	850.69
462.777	885.69
462.997	973.69
463.217	960.69
463.437	947.69
463.657	850.69
463.876	900.69
464.096	911.69
464.316	918.69
464.536	930.69
464.755	892.69
464.975	947.69
465.195	1187.69
465.414	1127.69
465.634	851.69
465.854	747.69
466.073	732.69
466.293	733.69
466.512	707.69
466.732	691.69
466.951	715.69
467.171	711.69
467.391	738.69
467.61	768.69
467.829	751.69
468.049	718.69
468.268	698.69
468.488	658.69
468.707	660.69
468.927	657.69
469.146	669.69
469.365	684.69
469.585	701.69
469.804	740.69
470.023	734.69
470.243	759.69
470.462	778.69
470.681	824.69
470.901	736.69
471.12	730.69
471.339	727.69
471.558	687.69
471.777	701.69
471.997	669.69
472.216	661.69
472.435	658.69
472.654	666.69
472.873	660.69
473.092	660.69
473.311	636.69
473.53	666.69
473.749	692.69
473.968	817.69
474.187	927.69
474.406	778.69
474.625	695.69
474.844	668.69
475.063	677.69
475.282	631.69
475.501	671.69
475.72	708.69
475.939	702.69
476.158	696.69
476.377	694.69
476.596	703.69
476.814	730.69
477.033	734.69
477.252	754.69
477.471	742.69
477.69	764.69
477.908	757.69
478.127	768.69
478.346	776.69
478.564	802.69
478.783	804.69
479.002	819.69
479.22	805.69
479.439	865.69
479.658	900.69
479.876	881.69
480.095	892.69
480.313	952.69
480.532	898.69
480.751	869.69
480.969	856.69
481.188	822.69
481.406	798.69
481.624	791.69
481.843	772.69
482.061	771.69
482.28	757.69
482.498	753.69
482.717	743.69
482.935	772.69
483.153	758.69
483.372	785.69
483.59	778.69
483.808	785.69
484.027	791.69
484.245	787.69
484.463	797.69
484.681	792.69
484.9	791.69
485.118	823.69
485.336	803.69
485.554	818.69
485.772	802.69
485.99	813.69
486.209	863.69
486.427	860.69
486.645	882.69
486.863	901.69
487.081	845.69
487.299	823.69
487.517	834.69
487.735	834.69
487.953	839.69
488.171	840.69
488.389	832.69
488.607	834.69
488.825	815.69
489.043	846.69
489.261	806.69
489.479	827.69
489.696	824.69
489.914	855.69
490.132	858.69
490.35	861.69
490.568	878.69
490.786	895.69
491.003	892.69
491.221	942.69
491.439	958.69
491.657	979.69
491.874	957.69
492.092	966.69
492.31	992.69
492.527	963.69
492.745	979.69
492.963	955.69
493.18	971.69
493.398	1003.69
493.615	1010.69
493.833	1003.69
494.05	988.69
494.268	964.69
494.485	975.69
494.703	925.69
494.92	960.69
495.138	948.69
495.355	998.69
495.573	1006.69
495.79	970.69
496.008	981.69
496.225	968.69
496.442	978.69
496.66	978.69
496.877	1002.69
497.094	1002.69
497.312	1030.69
497.529	1039.69
497.746	1046.69
497.963	1081.69
498.181	1055.69
498.398	1162.69
498.615	1219.69
498.832	1244.69
499.049	1281.69
499.267	1351.69
499.484	1433.69
499.701	1530.69
499.918	1699.69
500.135	1790.69
500.352	1927.69
500.569	1939.69
500.786	1889.69
501.003	1751.69
501.22	1673.69
501.437	1563.69
501.654	1464.69
