Data from TestCu_HRD10591_00076.txt Node
Date: Thu Oct 05 14:05:56 EDT 2023
User: Yrep
Spectrometer: HR+D1059
Trigger mode: 1
Integration Time (sec): 1.000000E-1
Scans to average: 1
Electric dark correction enabled: true
Nonlinearity correction enabled: false
Boxcar width: 0
XAxis mode: Wavelengths
Number of Pixels in Spectrum: 2048
>>>>>Begin Spectral Data<<<<<
223.165	-6.25
223.4	-6.25
223.635	-6.25
223.869	-24.25
224.104	-20.25
224.338	-20.25
224.573	-17.25
224.808	-4.25
225.042	-5.25
225.277	5.75
225.511	-11.25
225.746	-9.25
225.98	2.75
226.215	7.75
226.449	33.75
226.683	6.75
226.918	25.75
227.152	35.75
227.387	27.75
227.621	48.75
227.856	41.75
228.09	42.75
228.324	51.75
228.559	51.75
228.793	75.75
229.027	107.75
229.262	114.75
229.496	148.75
229.73	178.75
229.964	150.75
230.199	119.75
230.433	128.75
230.667	99.75
230.901	113.75
231.136	118.75
231.37	109.75
231.604	106.75
231.838	122.75
232.072	110.75
232.306	117.75
232.541	100.75
232.775	109.75
233.009	96.75
233.243	102.75
233.477	121.75
233.711	120.75
233.945	124.75
234.179	107.75
234.413	101.75
234.647	113.75
234.881	113.75
235.115	118.75
235.349	115.75
235.583	114.75
235.817	128.75
236.051	107.75
236.285	120.75
236.519	134.75
236.753	128.75
236.987	196.75
237.221	235.75
237.455	220.75
237.689	140.75
237.922	127.75
238.156	113.75
238.39	119.75
238.624	109.75
238.858	127.75
239.091	110.75
239.325	130.75
239.559	128.75
239.793	132.75
240.027	122.75
240.26	143.75
240.494	159.75
240.728	167.75
240.961	131.75
241.195	129.75
241.429	138.75
241.662	119.75
241.896	120.75
242.13	135.75
242.363	120.75
242.597	132.75
242.83	135.75
243.064	137.75
243.298	137.75
243.531	135.75
243.765	124.75
243.998	131.75
244.232	146.75
244.465	154.75
244.699	150.75
244.932	141.75
245.166	123.75
245.399	141.75
245.633	135.75
245.866	137.75
246.099	147.75
246.333	143.75
246.566	141.75
246.8	136.75
247.033	151.75
247.266	136.75
247.5	171.75
247.733	141.75
247.966	168.75
248.2	161.75
248.433	163.75
248.666	183.75
248.899	193.75
249.133	201.75
249.366	198.75
249.599	178.75
249.832	156.75
250.066	152.75
250.299	178.75
250.532	187.75
250.765	198.75
250.998	220.75
251.231	205.75
251.465	193.75
251.698	160.75
251.931	176.75
252.164	183.75
252.397	190.75
252.63	186.75
252.863	201.75
253.096	211.75
253.329	206.75
253.562	224.75
253.795	198.75
254.028	219.75
254.261	211.75
254.494	237.75
254.727	255.75
254.96	259.75
255.193	208.75
255.426	219.75
255.659	217.75
255.892	179.75
256.124	184.75
256.357	180.75
256.59	191.75
256.823	196.75
257.056	192.75
257.289	200.75
257.521	190.75
257.754	190.75
257.987	204.75
258.22	190.75
258.452	189.75
258.685	190.75
258.918	200.75
259.151	193.75
259.383	214.75
259.616	211.75
259.849	229.75
260.081	233.75
260.314	255.75
260.547	217.75
260.779	216.75
261.012	195.75
261.244	225.75
261.477	229.75
261.71	228.75
261.942	238.75
262.175	247.75
262.407	220.75
262.64	213.75
262.872	212.75
263.105	192.75
263.337	194.75
263.57	204.75
263.802	206.75
264.035	207.75
264.267	209.75
264.499	206.75
264.732	213.75
264.964	209.75
265.197	205.75
265.429	221.75
265.661	199.75
265.894	228.75
266.126	213.75
266.358	222.75
266.591	216.75
266.823	227.75
267.055	233.75
267.287	223.75
267.52	218.75
267.752	208.75
267.984	205.75
268.216	251.75
268.448	235.75
268.681	237.75
268.913	276.75
269.145	268.75
269.377	273.75
269.609	260.75
269.841	291.75
270.073	291.75
270.306	325.75
270.538	289.75
270.77	280.75
271.002	277.75
271.234	282.75
271.466	310.75
271.698	326.75
271.93	303.75
272.162	311.75
272.394	283.75
272.626	259.75
272.858	289.75
273.09	276.75
273.322	270.75
273.553	256.75
273.785	267.75
274.017	245.75
274.249	281.75
274.481	269.75
274.713	259.75
274.945	258.75
275.176	272.75
275.408	271.75
275.64	249.75
275.872	273.75
276.104	259.75
276.335	297.75
276.567	319.75
276.799	331.75
277.031	351.75
277.262	352.75
277.494	309.75
277.726	283.75
277.957	255.75
278.189	274.75
278.421	271.75
278.652	280.75
278.884	266.75
279.115	263.75
279.347	271.75
279.579	272.75
279.81	278.75
280.042	268.75
280.273	268.75
280.505	268.75
280.736	261.75
280.968	259.75
281.199	278.75
281.431	289.75
281.662	275.75
281.894	301.75
282.125	307.75
282.356	336.75
282.588	364.75
282.819	318.75
283.051	294.75
283.282	299.75
283.513	303.75
283.745	304.75
283.976	302.75
284.207	303.75
284.439	288.75
284.67	291.75
284.901	294.75
285.132	303.75
285.364	305.75
285.595	304.75
285.826	297.75
286.057	293.75
286.288	295.75
286.52	294.75
286.751	296.75
286.982	297.75
287.213	323.75
287.444	327.75
287.675	322.75
287.906	323.75
288.138	331.75
288.369	320.75
288.6	334.75
288.831	314.75
289.062	309.75
289.293	315.75
289.524	294.75
289.755	339.75
289.986	307.75
290.217	297.75
290.448	316.75
290.679	300.75
290.91	310.75
291.141	302.75
291.371	310.75
291.602	332.75
291.833	314.75
292.064	329.75
292.295	336.75
292.526	345.75
292.757	321.75
292.987	319.75
293.218	314.75
293.449	324.75
293.68	328.75
293.91	330.75
294.141	323.75
294.372	323.75
294.603	326.75
294.833	332.75
295.064	328.75
295.295	342.75
295.525	335.75
295.756	365.75
295.987	379.75
296.217	395.75
296.448	388.75
296.679	358.75
296.909	348.75
297.14	335.75
297.37	355.75
297.601	368.75
297.831	332.75
298.062	352.75
298.292	357.75
298.523	349.75
298.753	369.75
298.984	378.75
299.214	369.75
299.445	373.75
299.675	357.75
299.905	360.75
300.136	378.75
300.366	371.75
300.597	360.75
300.827	380.75
301.057	406.75
301.288	404.75
301.518	394.75
301.748	385.75
301.979	401.75
302.209	403.75
302.439	415.75
302.669	411.75
302.9	379.75
303.13	380.75
303.36	389.75
303.59	413.75
303.82	377.75
304.051	391.75
304.281	387.75
304.511	386.75
304.741	381.75
304.971	395.75
305.201	367.75
305.431	367.75
305.661	388.75
305.891	387.75
306.121	384.75
306.352	397.75
306.582	403.75
306.812	373.75
307.042	395.75
307.272	392.75
307.502	391.75
307.731	392.75
307.961	393.75
308.191	397.75
308.421	388.75
308.651	408.75
308.881	407.75
309.111	429.75
309.341	398.75
309.571	435.75
309.8	482.75
310.03	477.75
310.26	479.75
310.49	484.75
310.72	497.75
310.949	504.75
311.179	471.75
311.409	463.75
311.639	431.75
311.868	441.75
312.098	494.75
312.328	495.75
312.557	535.75
312.787	513.75
313.017	498.75
313.246	476.75
313.476	462.75
313.706	499.75
313.935	497.75
314.165	525.75
314.394	487.75
314.624	505.75
314.853	493.75
315.083	472.75
315.312	471.75
315.542	465.75
315.771	449.75
316.001	446.75
316.23	442.75
316.46	451.75
316.689	467.75
316.919	478.75
317.148	495.75
317.377	480.75
317.607	488.75
317.836	444.75
318.065	454.75
318.295	447.75
318.524	468.75
318.753	454.75
318.983	468.75
319.212	481.75
319.441	475.75
319.67	468.75
319.9	467.75
320.129	449.75
320.358	479.75
320.587	468.75
320.816	502.75
321.046	497.75
321.275	507.75
321.504	485.75
321.733	495.75
321.962	516.75
322.191	526.75
322.42	577.75
322.649	606.75
322.878	599.75
323.108	642.75
323.337	693.75
323.566	729.75
323.795	857.75
324.024	1149.75
324.253	1919.75
324.482	3356.75
324.71	4947.75
324.939	4316.75
325.168	1916.75
325.397	935.75
325.626	703.75
325.855	661.75
326.084	664.75
326.313	700.75
326.542	811.75
326.77	1068.75
326.999	1833.75
327.228	2867.75
327.457	3683.75
327.686	2388.75
327.914	1127.75
328.143	885.75
328.372	776.75
328.6	787.75
328.829	822.75
329.058	832.75
329.287	776.75
329.515	684.75
329.744	626.75
329.972	613.75
330.201	661.75
330.43	761.75
330.658	893.75
330.887	896.75
331.115	757.75
331.344	674.75
331.572	657.75
331.801	675.75
332.03	641.75
332.258	614.75
332.486	596.75
332.715	619.75
332.943	628.75
333.172	638.75
333.4	670.75
333.629	683.75
333.857	678.75
334.085	627.75
334.314	623.75
334.542	624.75
334.771	649.75
334.999	637.75
335.227	638.75
335.455	608.75
335.684	588.75
335.912	617.75
336.14	595.75
336.369	607.75
336.597	637.75
336.825	631.75
337.053	581.75
337.281	594.75
337.51	590.75
337.738	608.75
337.966	621.75
338.194	600.75
338.422	601.75
338.65	570.75
338.878	537.75
339.106	548.75
339.334	579.75
339.562	544.75
339.79	535.75
340.018	574.75
340.246	564.75
340.474	569.75
340.702	571.75
340.93	559.75
341.158	587.75
341.386	582.75
341.614	581.75
341.842	558.75
342.07	548.75
342.298	545.75
342.526	533.75
342.754	551.75
342.981	531.75
343.209	553.75
343.437	584.75
343.665	590.75
343.893	600.75
344.12	600.75
344.348	595.75
344.576	600.75
344.804	606.75
345.031	645.75
345.259	623.75
345.487	585.75
345.714	565.75
345.942	555.75
346.17	556.75
346.397	536.75
346.625	547.75
346.853	550.75
347.08	568.75
347.308	561.75
347.535	601.75
347.763	605.75
347.99	568.75
348.218	600.75
348.445	597.75
348.673	585.75
348.9	541.75
349.128	536.75
349.355	508.75
349.583	525.75
349.81	509.75
350.037	539.75
350.265	546.75
350.492	549.75
350.72	529.75
350.947	536.75
351.174	615.75
351.402	596.75
351.629	570.75
351.856	592.75
352.083	609.75
352.311	628.75
352.538	609.75
352.765	588.75
352.992	579.75
353.22	578.75
353.447	555.75
353.674	530.75
353.901	511.75
354.128	517.75
354.355	503.75
354.583	498.75
354.81	508.75
355.037	504.75
355.264	499.75
355.491	495.75
355.718	518.75
355.945	504.75
356.172	504.75
356.399	511.75
356.626	518.75
356.853	502.75
357.08	504.75
357.307	509.75
357.534	494.75
357.761	527.75
357.988	529.75
358.215	495.75
358.441	536.75
358.668	539.75
358.895	524.75
359.122	517.75
359.349	577.75
359.576	616.75
359.802	693.75
360.029	739.75
360.256	681.75
360.483	610.75
360.709	588.75
360.936	587.75
361.163	579.75
361.39	597.75
361.616	562.75
361.843	575.75
362.07	595.75
362.296	596.75
362.523	571.75
362.749	601.75
362.976	567.75
363.203	532.75
363.429	548.75
363.656	550.75
363.882	526.75
364.109	544.75
364.335	537.75
364.562	567.75
364.788	552.75
365.015	557.75
365.241	563.75
365.468	579.75
365.694	562.75
365.92	552.75
366.147	555.75
366.373	555.75
366.599	547.75
366.826	527.75
367.052	535.75
367.278	561.75
367.505	553.75
367.731	562.75
367.957	546.75
368.184	554.75
368.41	580.75
368.636	579.75
368.862	579.75
369.089	556.75
369.315	551.75
369.541	569.75
369.767	553.75
369.993	563.75
370.219	559.75
370.445	546.75
370.672	549.75
370.898	570.75
371.124	549.75
371.35	553.75
371.576	547.75
371.802	558.75
372.028	537.75
372.254	557.75
372.48	559.75
372.706	559.75
372.932	559.75
373.158	571.75
373.384	553.75
373.61	586.75
373.835	555.75
374.061	578.75
374.287	589.75
374.513	609.75
374.739	610.75
374.965	585.75
375.191	591.75
375.416	589.75
375.642	569.75
375.868	565.75
376.094	548.75
376.319	565.75
376.545	569.75
376.771	574.75
376.997	547.75
377.222	571.75
377.448	532.75
377.674	548.75
377.899	527.75
378.125	569.75
378.35	553.75
378.576	542.75
378.802	541.75
379.027	545.75
379.253	562.75
379.478	560.75
379.704	583.75
379.929	572.75
380.155	550.75
380.38	564.75
380.606	570.75
380.831	573.75
381.057	600.75
381.282	566.75
381.507	569.75
381.733	591.75
381.958	584.75
382.184	581.75
382.409	594.75
382.634	582.75
382.86	576.75
383.085	585.75
383.31	583.75
383.535	601.75
383.761	606.75
383.986	630.75
384.211	634.75
384.436	619.75
384.662	625.75
384.887	630.75
385.112	643.75
385.337	643.75
385.562	649.75
385.787	637.75
386.013	689.75
386.238	702.75
386.463	647.75
386.688	683.75
386.913	632.75
387.138	646.75
387.363	625.75
387.588	627.75
387.813	643.75
388.038	660.75
388.263	643.75
388.488	659.75
388.713	677.75
388.938	663.75
389.163	636.75
389.387	645.75
389.612	650.75
389.837	671.75
390.062	643.75
390.287	658.75
390.512	666.75
390.736	663.75
390.961	669.75
391.186	653.75
391.411	669.75
391.636	693.75
391.86	711.75
392.085	716.75
392.31	696.75
392.534	696.75
392.759	689.75
392.984	690.75
393.208	687.75
393.433	668.75
393.658	656.75
393.882	684.75
394.107	694.75
394.331	663.75
394.556	675.75
394.78	677.75
395.005	686.75
395.229	709.75
395.454	726.75
395.678	714.75
395.903	695.75
396.127	743.75
396.352	718.75
396.576	714.75
396.801	697.75
397.025	711.75
397.249	720.75
397.474	721.75
397.698	741.75
397.922	756.75
398.147	767.75
398.371	757.75
398.595	806.75
398.82	825.75
399.044	863.75
399.268	971.75
399.492	1082.75
399.717	1077.75
399.941	1043.75
400.165	1011.75
400.389	935.75
400.613	839.75
400.837	838.75
401.062	829.75
401.286	804.75
401.51	787.75
401.734	802.75
401.958	846.75
402.182	874.75
402.406	869.75
402.63	904.75
402.854	870.75
403.078	852.75
403.302	863.75
403.526	879.75
403.75	898.75
403.974	887.75
404.198	884.75
404.422	888.75
404.645	889.75
404.869	897.75
405.093	916.75
405.317	938.75
405.541	937.75
405.765	876.75
405.988	939.75
406.212	994.75
406.436	1032.75
406.66	1018.75
406.883	1006.75
407.107	1036.75
407.331	1093.75
407.555	1132.75
407.778	1062.75
408.002	983.75
408.226	925.75
408.449	926.75
408.673	947.75
408.896	939.75
409.12	932.75
409.344	884.75
409.567	866.75
409.791	839.75
410.014	856.75
410.238	841.75
410.461	853.75
410.685	853.75
410.908	872.75
411.132	883.75
411.355	877.75
411.578	849.75
411.802	801.75
412.025	820.75
412.249	798.75
412.472	803.75
412.695	776.75
412.919	805.75
413.142	776.75
413.365	772.75
413.589	785.75
413.812	785.75
414.035	774.75
414.258	775.75
414.482	779.75
414.705	777.75
414.928	791.75
415.151	790.75
415.374	759.75
415.597	772.75
415.821	753.75
416.044	773.75
416.267	766.75
416.49	771.75
416.713	784.75
416.936	769.75
417.159	780.75
417.382	777.75
417.605	790.75
417.828	806.75
418.051	809.75
418.274	781.75
418.497	776.75
418.72	815.75
418.943	825.75
419.166	798.75
419.389	851.75
419.611	851.75
419.834	816.75
420.057	781.75
420.28	781.75
420.503	773.75
420.726	793.75
420.948	851.75
421.171	847.75
421.394	846.75
421.617	804.75
421.839	776.75
422.062	819.75
422.285	852.75
422.507	908.75
422.73	961.75
422.953	895.75
423.175	852.75
423.398	863.75
423.621	849.75
423.843	869.75
424.066	851.75
424.288	871.75
424.511	937.75
424.733	976.75
424.956	1027.75
425.178	966.75
425.401	967.75
425.623	940.75
425.846	851.75
426.068	821.75
426.291	813.75
426.513	804.75
426.735	857.75
426.958	944.75
427.18	1048.75
427.402	1229.75
427.625	1272.75
427.847	967.75
428.069	815.75
428.292	806.75
428.514	741.75
428.736	723.75
428.958	717.75
429.181	711.75
429.403	706.75
429.625	795.75
429.847	824.75
430.069	850.75
430.292	783.75
430.514	730.75
430.736	710.75
430.958	707.75
431.18	703.75
431.402	719.75
431.624	706.75
431.846	700.75
432.068	701.75
432.29	712.75
432.512	738.75
432.734	741.75
432.956	706.75
433.178	740.75
433.4	731.75
433.622	725.75
433.844	720.75
434.066	715.75
434.287	749.75
434.509	730.75
434.731	780.75
434.953	807.75
435.175	825.75
435.397	832.75
435.618	855.75
435.84	943.75
436.062	1006.75
436.284	957.75
436.505	812.75
436.727	811.75
436.949	756.75
437.17	738.75
437.392	746.75
437.614	792.75
437.835	890.75
438.057	1020.75
438.278	1070.75
438.5	1055.75
438.721	1120.75
438.943	951.75
439.165	822.75
439.386	789.75
439.608	826.75
439.829	871.75
440.05	962.75
440.272	969.75
440.493	820.75
440.715	772.75
440.936	763.75
441.158	789.75
441.379	756.75
441.6	830.75
441.822	879.75
442.043	963.75
442.264	1013.75
442.486	979.75
442.707	876.75
442.928	867.75
443.149	932.75
443.371	977.75
443.592	1034.75
443.813	1105.75
444.034	1083.75
444.255	920.75
444.476	878.75
444.698	884.75
444.919	917.75
445.14	964.75
445.361	941.75
445.582	1029.75
445.803	1188.75
446.024	1203.75
446.245	1135.75
446.466	940.75
446.687	821.75
446.908	790.75
447.129	740.75
447.35	751.75
447.571	754.75
447.792	717.75
448.013	740.75
448.234	822.75
448.455	918.75
448.675	1062.75
448.896	1027.75
449.117	873.75
449.338	1004.75
449.559	1089.75
449.779	1090.75
450	811.75
450.221	755.75
450.442	732.75
450.662	721.75
450.883	796.75
451.104	815.75
451.324	727.75
451.545	696.75
451.766	640.75
451.986	662.75
452.207	638.75
452.428	660.75
452.648	687.75
452.869	706.75
453.089	713.75
453.31	720.75
453.53	656.75
453.751	669.75
453.971	735.75
454.192	733.75
454.412	685.75
454.633	660.75
454.853	643.75
455.073	662.75
455.294	728.75
455.514	770.75
455.734	690.75
455.955	605.75
456.175	622.75
456.395	612.75
456.616	607.75
456.836	579.75
457.056	587.75
457.276	582.75
457.497	597.75
457.717	612.75
457.937	623.75
458.157	635.75
458.377	688.75
458.598	769.75
458.818	967.75
459.038	1014.75
459.258	886.75
459.478	740.75
459.698	722.75
459.918	723.75
460.138	746.75
460.358	756.75
460.578	757.75
460.798	770.75
461.018	771.75
461.238	749.75
461.458	753.75
461.678	771.75
461.898	754.75
462.118	776.75
462.338	826.75
462.558	835.75
462.777	859.75
462.997	904.75
463.217	937.75
463.437	875.75
463.657	862.75
463.876	864.75
464.096	873.75
464.316	875.75
464.536	895.75
464.755	886.75
464.975	932.75
465.195	1138.75
465.414	1054.75
465.634	815.75
465.854	747.75
466.073	729.75
466.293	697.75
466.512	690.75
466.732	667.75
466.951	687.75
467.171	673.75
467.391	716.75
467.61	753.75
467.829	701.75
468.049	667.75
468.268	652.75
468.488	648.75
468.707	646.75
468.927	648.75
469.146	656.75
469.365	677.75
469.585	685.75
469.804	707.75
470.023	751.75
470.243	735.75
470.462	764.75
470.681	783.75
470.901	720.75
471.12	724.75
471.339	716.75
471.558	679.75
471.777	668.75
471.997	646.75
472.216	619.75
472.435	652.75
472.654	638.75
472.873	611.75
473.092	637.75
473.311	639.75
473.53	643.75
473.749	716.75
473.968	802.75
474.187	887.75
474.406	800.75
474.625	657.75
474.844	641.75
475.063	663.75
475.282	647.75
475.501	677.75
475.72	659.75
475.939	660.75
476.158	668.75
476.377	650.75
476.596	643.75
476.814	737.75
477.033	703.75
477.252	719.75
477.471	716.75
477.69	728.75
477.908	727.75
478.127	746.75
478.346	761.75
478.564	759.75
478.783	796.75
479.002	809.75
479.22	821.75
479.439	829.75
479.658	839.75
479.876	845.75
480.095	868.75
480.313	885.75
480.532	852.75
480.751	829.75
480.969	780.75
481.188	806.75
481.406	776.75
481.624	780.75
481.843	776.75
482.061	752.75
482.28	733.75
482.498	733.75
482.717	769.75
482.935	768.75
483.153	737.75
483.372	752.75
483.59	723.75
483.808	753.75
484.027	733.75
484.245	759.75
484.463	788.75
484.681	769.75
484.9	765.75
485.118	799.75
485.336	795.75
485.554	790.75
485.772	775.75
485.99	811.75
486.209	778.75
486.427	808.75
486.645	856.75
486.863	869.75
487.081	841.75
487.299	837.75
487.517	806.75
487.735	815.75
487.953	810.75
488.171	815.75
488.389	802.75
488.607	783.75
488.825	805.75
489.043	817.75
489.261	802.75
489.479	794.75
489.696	833.75
489.914	853.75
490.132	827.75
490.35	863.75
490.568	845.75
490.786	864.75
491.003	915.75
491.221	913.75
491.439	939.75
491.657	940.75
491.874	953.75
492.092	960.75
492.31	959.75
492.527	953.75
492.745	950.75
492.963	920.75
493.18	959.75
493.398	973.75
493.615	992.75
493.833	961.75
494.05	976.75
494.268	957.75
494.485	936.75
494.703	919.75
494.92	947.75
495.138	962.75
495.355	958.75
495.573	939.75
495.79	950.75
496.008	939.75
496.225	962.75
496.442	950.75
496.66	941.75
496.877	934.75
497.094	945.75
497.312	977.75
497.529	1017.75
497.746	1036.75
497.963	1058.75
498.181	1071.75
498.398	1095.75
498.615	1176.75
498.832	1230.75
499.049	1263.75
499.267	1291.75
499.484	1382.75
499.701	1497.75
499.918	1631.75
500.135	1777.75
500.352	1884.75
500.569	1877.75
500.786	1811.75
501.003	1703.75
501.22	1627.75
501.437	1526.75
501.654	1449.75
501.871	1397.75
