Data from TestCu_HRD10591_00059.txt Node
Date: Thu Oct 05 14:05:39 EDT 2023
User: Yrep
Spectrometer: HR+D1059
Trigger mode: 1
Integration Time (sec): 1.000000E-1
Scans to average: 1
Electric dark correction enabled: true
Nonlinearity correction enabled: false
Boxcar width: 0
XAxis mode: Wavelengths
Number of Pixels in Spectrum: 2048
>>>>>Begin Spectral Data<<<<<
223.165	-12.5
223.4	-12.5
223.635	-12.5
223.869	-30.5
224.104	-25.5
224.338	-13.5
224.573	-3.5
224.808	-6.5
225.042	-10.5
225.277	-19.5
225.511	-11.5
225.746	1.5
225.98	13.5
226.215	13.5
226.449	20.5
226.683	18.5
226.918	30.5
227.152	35.5
227.387	23.5
227.621	36.5
227.856	54.5
228.09	39.5
228.324	61.5
228.559	61.5
228.793	67.5
229.027	98.5
229.262	123.5
229.496	133.5
229.73	176.5
229.964	177.5
230.199	124.5
230.433	89.5
230.667	103.5
230.901	109.5
231.136	116.5
231.37	116.5
231.604	113.5
231.838	100.5
232.072	113.5
232.306	113.5
232.541	113.5
232.775	107.5
233.009	116.5
233.243	91.5
233.477	112.5
233.711	112.5
233.945	115.5
234.179	102.5
234.413	109.5
234.647	113.5
234.881	107.5
235.115	107.5
235.349	119.5
235.583	121.5
235.817	117.5
236.051	127.5
236.285	128.5
236.519	139.5
236.753	157.5
236.987	184.5
237.221	230.5
237.455	226.5
237.689	157.5
237.922	136.5
238.156	133.5
238.39	121.5
238.624	107.5
238.858	129.5
239.091	119.5
239.325	113.5
239.559	129.5
239.793	137.5
240.027	153.5
240.26	165.5
240.494	174.5
240.728	162.5
240.961	150.5
241.195	143.5
241.429	125.5
241.662	124.5
241.896	133.5
242.13	130.5
242.363	129.5
242.597	140.5
242.83	140.5
243.064	132.5
243.298	127.5
243.531	127.5
243.765	124.5
243.998	141.5
244.232	136.5
244.465	132.5
244.699	145.5
244.932	135.5
245.166	128.5
245.399	137.5
245.633	143.5
245.866	140.5
246.099	135.5
246.333	152.5
246.566	152.5
246.8	145.5
247.033	156.5
247.266	164.5
247.5	155.5
247.733	156.5
247.966	156.5
248.2	168.5
248.433	183.5
248.666	193.5
248.899	195.5
249.133	203.5
249.366	216.5
249.599	195.5
249.832	181.5
250.066	182.5
250.299	151.5
250.532	181.5
250.765	219.5
250.998	208.5
251.231	211.5
251.465	174.5
251.698	168.5
251.931	163.5
252.164	174.5
252.397	169.5
252.63	205.5
252.863	199.5
253.096	201.5
253.329	202.5
253.562	209.5
253.795	183.5
254.028	203.5
254.261	213.5
254.494	232.5
254.727	284.5
254.96	244.5
255.193	221.5
255.426	196.5
255.659	197.5
255.892	178.5
256.124	179.5
256.357	191.5
256.59	197.5
256.823	182.5
257.056	191.5
257.289	183.5
257.521	183.5
257.754	198.5
257.987	201.5
258.22	205.5
258.452	199.5
258.685	211.5
258.918	192.5
259.151	216.5
259.383	205.5
259.616	211.5
259.849	232.5
260.081	248.5
260.314	248.5
260.547	231.5
260.779	220.5
261.012	230.5
261.244	217.5
261.477	227.5
261.71	222.5
261.942	251.5
262.175	250.5
262.407	235.5
262.64	205.5
262.872	212.5
263.105	195.5
263.337	212.5
263.57	211.5
263.802	216.5
264.035	216.5
264.267	192.5
264.499	220.5
264.732	224.5
264.964	212.5
265.197	198.5
265.429	216.5
265.661	211.5
265.894	212.5
266.126	215.5
266.358	210.5
266.591	213.5
266.823	246.5
267.055	236.5
267.287	230.5
267.52	232.5
267.752	243.5
267.984	231.5
268.216	244.5
268.448	243.5
268.681	233.5
268.913	256.5
269.145	289.5
269.377	276.5
269.609	264.5
269.841	272.5
270.073	293.5
270.306	337.5
270.538	306.5
270.77	289.5
271.002	303.5
271.234	274.5
271.466	325.5
271.698	313.5
271.93	325.5
272.162	304.5
272.394	295.5
272.626	294.5
272.858	273.5
273.09	267.5
273.322	259.5
273.553	254.5
273.785	273.5
274.017	264.5
274.249	250.5
274.481	249.5
274.713	281.5
274.945	276.5
275.176	260.5
275.408	292.5
275.64	264.5
275.872	273.5
276.104	276.5
276.335	275.5
276.567	304.5
276.799	333.5
277.031	341.5
277.262	345.5
277.494	313.5
277.726	288.5
277.957	277.5
278.189	276.5
278.421	264.5
278.652	267.5
278.884	260.5
279.115	264.5
279.347	271.5
279.579	279.5
279.81	273.5
280.042	263.5
280.273	270.5
280.505	287.5
280.736	280.5
280.968	265.5
281.199	290.5
281.431	258.5
281.662	279.5
281.894	292.5
282.125	321.5
282.356	340.5
282.588	355.5
282.819	326.5
283.051	300.5
283.282	299.5
283.513	291.5
283.745	313.5
283.976	295.5
284.207	295.5
284.439	306.5
284.67	310.5
284.901	291.5
285.132	304.5
285.364	308.5
285.595	293.5
285.826	306.5
286.057	311.5
286.288	309.5
286.52	323.5
286.751	303.5
286.982	299.5
287.213	320.5
287.444	327.5
287.675	336.5
287.906	356.5
288.138	344.5
288.369	336.5
288.6	337.5
288.831	326.5
289.062	319.5
289.293	328.5
289.524	318.5
289.755	327.5
289.986	314.5
290.217	333.5
290.448	308.5
290.679	335.5
290.91	318.5
291.141	325.5
291.371	325.5
291.602	323.5
291.833	312.5
292.064	317.5
292.295	334.5
292.526	317.5
292.757	324.5
292.987	336.5
293.218	315.5
293.449	320.5
293.68	313.5
293.91	332.5
294.141	328.5
294.372	326.5
294.603	339.5
294.833	341.5
295.064	333.5
295.295	331.5
295.525	332.5
295.756	359.5
295.987	404.5
296.217	433.5
296.448	371.5
296.679	355.5
296.909	358.5
297.14	361.5
297.37	362.5
297.601	345.5
297.831	338.5
298.062	353.5
298.292	363.5
298.523	349.5
298.753	378.5
298.984	373.5
299.214	352.5
299.445	378.5
299.675	372.5
299.905	367.5
300.136	368.5
300.366	383.5
300.597	386.5
300.827	397.5
301.057	381.5
301.288	406.5
301.518	377.5
301.748	383.5
301.979	427.5
302.209	405.5
302.439	397.5
302.669	392.5
302.9	374.5
303.13	375.5
303.36	407.5
303.59	388.5
303.82	396.5
304.051	392.5
304.281	396.5
304.511	397.5
304.741	403.5
304.971	372.5
305.201	400.5
305.431	388.5
305.661	392.5
305.891	388.5
306.121	408.5
306.352	406.5
306.582	420.5
306.812	380.5
307.042	404.5
307.272	397.5
307.502	402.5
307.731	395.5
307.961	378.5
308.191	399.5
308.421	414.5
308.651	411.5
308.881	414.5
309.111	433.5
309.341	417.5
309.571	438.5
309.8	446.5
310.03	468.5
310.26	502.5
310.49	482.5
310.72	520.5
310.949	519.5
311.179	470.5
311.409	435.5
311.639	477.5
311.868	462.5
312.098	497.5
312.328	500.5
312.557	535.5
312.787	541.5
313.017	517.5
313.246	475.5
313.476	475.5
313.706	480.5
313.935	502.5
314.165	523.5
314.394	516.5
314.624	507.5
314.853	495.5
315.083	469.5
315.312	459.5
315.542	470.5
315.771	459.5
316.001	465.5
316.23	437.5
316.46	457.5
316.689	484.5
316.919	496.5
317.148	489.5
317.377	493.5
317.607	486.5
317.836	483.5
318.065	465.5
318.295	455.5
318.524	446.5
318.753	462.5
318.983	459.5
319.212	475.5
319.441	489.5
319.67	475.5
319.9	465.5
320.129	446.5
320.358	461.5
320.587	509.5
320.816	504.5
321.046	521.5
321.275	521.5
321.504	509.5
321.733	494.5
321.962	535.5
322.191	576.5
322.42	561.5
322.649	607.5
322.878	644.5
323.108	653.5
323.337	677.5
323.566	757.5
323.795	866.5
324.024	1107.5
324.253	1925.5
324.482	3240.5
324.71	4801.5
324.939	4137.5
325.168	1855.5
325.397	907.5
325.626	707.5
325.855	656.5
326.084	660.5
326.313	713.5
326.542	799.5
326.77	1085.5
326.999	1779.5
327.228	2752.5
327.457	3511.5
327.686	2296.5
327.914	1093.5
328.143	884.5
328.372	799.5
328.6	811.5
328.829	817.5
329.058	863.5
329.287	797.5
329.515	688.5
329.744	611.5
329.972	636.5
330.201	685.5
330.43	784.5
330.658	921.5
330.887	943.5
331.115	765.5
331.344	669.5
331.572	694.5
331.801	671.5
332.03	655.5
332.258	645.5
332.486	603.5
332.715	626.5
332.943	657.5
333.172	643.5
333.4	656.5
333.629	685.5
333.857	666.5
334.085	662.5
334.314	656.5
334.542	630.5
334.771	660.5
334.999	636.5
335.227	632.5
335.455	626.5
335.684	609.5
335.912	595.5
336.14	598.5
336.369	630.5
336.597	647.5
336.825	628.5
337.053	600.5
337.281	593.5
337.51	624.5
337.738	600.5
337.966	624.5
338.194	636.5
338.422	622.5
338.65	594.5
338.878	581.5
339.106	569.5
339.334	563.5
339.562	558.5
339.79	585.5
340.018	571.5
340.246	576.5
340.474	578.5
340.702	563.5
340.93	586.5
341.158	599.5
341.386	597.5
341.614	615.5
341.842	575.5
342.07	569.5
342.298	591.5
342.526	570.5
342.754	544.5
342.981	556.5
343.209	571.5
343.437	593.5
343.665	633.5
343.893	616.5
344.12	604.5
344.348	620.5
344.576	601.5
344.804	621.5
345.031	630.5
345.259	643.5
345.487	595.5
345.714	581.5
345.942	548.5
346.17	555.5
346.397	595.5
346.625	552.5
346.853	557.5
347.08	575.5
347.308	605.5
347.535	594.5
347.763	580.5
347.99	604.5
348.218	606.5
348.445	642.5
348.673	581.5
348.9	559.5
349.128	531.5
349.355	559.5
349.583	527.5
349.81	531.5
350.037	544.5
350.265	541.5
350.492	542.5
350.72	541.5
350.947	569.5
351.174	620.5
351.402	604.5
351.629	585.5
351.856	609.5
352.083	609.5
352.311	629.5
352.538	638.5
352.765	609.5
352.992	608.5
353.22	581.5
353.447	592.5
353.674	538.5
353.901	559.5
354.128	518.5
354.355	527.5
354.583	546.5
354.81	534.5
355.037	524.5
355.264	517.5
355.491	513.5
355.718	537.5
355.945	515.5
356.172	503.5
356.399	512.5
356.626	526.5
356.853	540.5
357.08	515.5
357.307	531.5
357.534	565.5
357.761	542.5
357.988	543.5
358.215	555.5
358.441	551.5
358.668	525.5
358.895	531.5
359.122	539.5
359.349	581.5
359.576	630.5
359.802	708.5
360.029	768.5
360.256	697.5
360.483	643.5
360.709	589.5
360.936	591.5
361.163	607.5
361.39	601.5
361.616	613.5
361.843	611.5
362.07	625.5
362.296	605.5
362.523	599.5
362.749	569.5
362.976	572.5
363.203	553.5
363.429	576.5
363.656	580.5
363.882	567.5
364.109	559.5
364.335	547.5
364.562	563.5
364.788	553.5
365.015	567.5
365.241	545.5
365.468	575.5
365.694	573.5
365.92	574.5
366.147	566.5
366.373	552.5
366.599	541.5
366.826	541.5
367.052	546.5
367.278	551.5
367.505	561.5
367.731	579.5
367.957	561.5
368.184	575.5
368.41	617.5
368.636	588.5
368.862	584.5
369.089	597.5
369.315	551.5
369.541	539.5
369.767	583.5
369.993	575.5
370.219	573.5
370.445	565.5
370.672	562.5
370.898	542.5
371.124	558.5
371.35	570.5
371.576	577.5
371.802	569.5
372.028	558.5
372.254	552.5
372.48	547.5
372.706	564.5
372.932	578.5
373.158	584.5
373.384	596.5
373.61	562.5
373.835	577.5
374.061	598.5
374.287	598.5
374.513	612.5
374.739	597.5
374.965	609.5
375.191	589.5
375.416	601.5
375.642	592.5
375.868	574.5
376.094	561.5
376.319	578.5
376.545	563.5
376.771	561.5
376.997	565.5
377.222	562.5
377.448	584.5
377.674	544.5
377.899	547.5
378.125	582.5
378.35	572.5
378.576	578.5
378.802	567.5
379.027	567.5
379.253	573.5
379.478	561.5
379.704	583.5
379.929	593.5
380.155	570.5
380.38	570.5
380.606	587.5
380.831	590.5
381.057	579.5
381.282	603.5
381.507	590.5
381.733	573.5
381.958	603.5
382.184	612.5
382.409	629.5
382.634	614.5
382.86	616.5
383.085	619.5
383.31	610.5
383.535	606.5
383.761	649.5
383.986	658.5
384.211	642.5
384.436	625.5
384.662	644.5
384.887	643.5
385.112	645.5
385.337	657.5
385.562	682.5
385.787	667.5
386.013	694.5
386.238	713.5
386.463	672.5
386.688	671.5
386.913	653.5
387.138	639.5
387.363	676.5
387.588	673.5
387.813	650.5
388.038	675.5
388.263	658.5
388.488	648.5
388.713	670.5
388.938	639.5
389.163	684.5
389.387	677.5
389.612	659.5
389.837	659.5
390.062	664.5
390.287	673.5
390.512	659.5
390.736	659.5
390.961	687.5
391.186	669.5
391.411	715.5
391.636	727.5
391.86	736.5
392.085	711.5
392.31	721.5
392.534	701.5
392.759	709.5
392.984	692.5
393.208	692.5
393.433	692.5
393.658	674.5
393.882	687.5
394.107	677.5
394.331	714.5
394.556	704.5
394.78	688.5
395.005	702.5
395.229	686.5
395.454	734.5
395.678	744.5
395.903	736.5
396.127	762.5
396.352	742.5
396.576	707.5
396.801	693.5
397.025	722.5
397.249	733.5
397.474	757.5
397.698	755.5
397.922	755.5
398.147	786.5
398.371	797.5
398.595	809.5
398.82	856.5
399.044	901.5
399.268	984.5
399.492	1095.5
399.717	1086.5
399.941	1065.5
400.165	1029.5
400.389	942.5
400.613	882.5
400.837	837.5
401.062	813.5
401.286	816.5
401.51	841.5
401.734	817.5
401.958	870.5
402.182	877.5
402.406	914.5
402.63	901.5
402.854	899.5
403.078	891.5
403.302	893.5
403.526	932.5
403.75	911.5
403.974	939.5
404.198	916.5
404.422	887.5
404.645	908.5
404.869	909.5
405.093	918.5
405.317	951.5
405.541	953.5
405.765	938.5
405.988	959.5
406.212	1015.5
406.436	1059.5
406.66	1018.5
406.883	1016.5
407.107	1061.5
407.331	1101.5
407.555	1155.5
407.778	1089.5
408.002	987.5
408.226	931.5
408.449	955.5
408.673	979.5
408.896	992.5
409.12	976.5
409.344	918.5
409.567	881.5
409.791	889.5
410.014	869.5
410.238	866.5
410.461	862.5
410.685	879.5
410.908	901.5
411.132	927.5
411.355	901.5
411.578	845.5
411.802	857.5
412.025	825.5
412.249	847.5
412.472	843.5
412.695	811.5
412.919	798.5
413.142	814.5
413.365	814.5
413.589	785.5
413.812	785.5
414.035	781.5
414.258	806.5
414.482	801.5
414.705	805.5
414.928	801.5
415.151	775.5
415.374	792.5
415.597	825.5
415.821	791.5
416.044	774.5
416.267	765.5
416.49	790.5
416.713	760.5
416.936	801.5
417.159	774.5
417.382	786.5
417.605	819.5
417.828	827.5
418.051	826.5
418.274	837.5
418.497	791.5
418.72	807.5
418.943	804.5
419.166	847.5
419.389	857.5
419.611	831.5
419.834	824.5
420.057	815.5
420.28	796.5
420.503	807.5
420.726	815.5
420.948	828.5
421.171	909.5
421.394	873.5
421.617	822.5
421.839	831.5
422.062	836.5
422.285	895.5
422.507	959.5
422.73	940.5
422.953	911.5
423.175	867.5
423.398	858.5
423.621	862.5
423.843	862.5
424.066	881.5
424.288	887.5
424.511	926.5
424.733	989.5
424.956	1032.5
425.178	990.5
425.401	997.5
425.623	942.5
425.846	835.5
426.068	826.5
426.291	834.5
426.513	814.5
426.735	888.5
426.958	966.5
427.18	1077.5
427.402	1252.5
427.625	1301.5
427.847	1000.5
428.069	843.5
428.292	806.5
428.514	749.5
428.736	769.5
428.958	753.5
429.181	738.5
429.403	768.5
429.625	792.5
429.847	823.5
430.069	872.5
430.292	808.5
430.514	769.5
430.736	757.5
430.958	747.5
431.18	725.5
431.402	735.5
431.624	726.5
431.846	734.5
432.068	724.5
432.29	754.5
432.512	733.5
432.734	768.5
432.956	745.5
433.178	771.5
433.4	754.5
433.622	744.5
433.844	768.5
434.066	764.5
434.287	742.5
434.509	763.5
434.731	805.5
434.953	804.5
435.175	820.5
435.397	826.5
435.618	831.5
435.84	967.5
436.062	1022.5
436.284	971.5
436.505	840.5
436.727	819.5
436.949	787.5
437.17	764.5
437.392	761.5
437.614	811.5
437.835	910.5
438.057	1027.5
438.278	1110.5
438.5	1052.5
438.721	1117.5
438.943	971.5
439.165	823.5
439.386	834.5
439.608	847.5
439.829	903.5
440.05	968.5
440.272	987.5
440.493	859.5
440.715	805.5
440.936	819.5
441.158	800.5
441.379	819.5
441.6	850.5
441.822	906.5
442.043	972.5
442.264	1048.5
442.486	965.5
442.707	899.5
442.928	893.5
443.149	969.5
443.371	993.5
443.592	1064.5
443.813	1163.5
444.034	1065.5
444.255	953.5
444.476	893.5
444.698	943.5
444.919	949.5
445.14	946.5
445.361	971.5
445.582	1037.5
445.803	1197.5
446.024	1227.5
446.245	1115.5
446.466	969.5
446.687	826.5
446.908	775.5
447.129	749.5
447.35	779.5
447.571	735.5
447.792	727.5
448.013	769.5
448.234	823.5
448.455	945.5
448.675	1052.5
448.896	1054.5
449.117	889.5
449.338	994.5
449.559	1129.5
449.779	1042.5
450	839.5
450.221	768.5
450.442	739.5
450.662	771.5
450.883	809.5
451.104	808.5
451.324	764.5
451.545	723.5
451.766	697.5
451.986	661.5
452.207	680.5
452.428	667.5
452.648	669.5
452.869	697.5
453.089	731.5
453.31	728.5
453.53	681.5
453.751	686.5
453.971	733.5
454.192	728.5
454.412	684.5
454.633	641.5
454.853	651.5
455.073	655.5
455.294	727.5
455.514	765.5
455.734	701.5
455.955	639.5
456.175	620.5
456.395	619.5
456.616	599.5
456.836	605.5
457.056	621.5
457.276	609.5
457.497	639.5
457.717	633.5
457.937	635.5
458.157	643.5
458.377	698.5
458.598	787.5
458.818	974.5
459.038	1003.5
459.258	884.5
459.478	766.5
459.698	737.5
459.918	756.5
460.138	764.5
460.358	792.5
460.578	788.5
460.798	804.5
461.018	790.5
461.238	805.5
461.458	775.5
461.678	775.5
461.898	779.5
462.118	807.5
462.338	817.5
462.558	847.5
462.777	859.5
462.997	944.5
463.217	959.5
463.437	912.5
463.657	865.5
463.876	865.5
464.096	906.5
464.316	903.5
464.536	892.5
464.755	885.5
464.975	959.5
465.195	1162.5
465.414	1095.5
465.634	848.5
465.854	771.5
466.073	756.5
466.293	719.5
466.512	683.5
466.732	683.5
466.951	694.5
467.171	702.5
467.391	740.5
467.61	780.5
467.829	743.5
468.049	699.5
468.268	683.5
468.488	656.5
468.707	668.5
468.927	652.5
469.146	665.5
469.365	669.5
469.585	676.5
469.804	738.5
470.023	773.5
470.243	731.5
470.462	786.5
470.681	793.5
470.901	736.5
471.12	702.5
471.339	713.5
471.558	703.5
471.777	685.5
471.997	657.5
472.216	657.5
472.435	656.5
472.654	662.5
472.873	650.5
473.092	655.5
473.311	654.5
473.53	658.5
473.749	674.5
473.968	819.5
474.187	955.5
474.406	781.5
474.625	695.5
474.844	662.5
475.063	669.5
475.282	672.5
475.501	672.5
475.72	664.5
475.939	665.5
476.158	658.5
476.377	696.5
476.596	697.5
476.814	721.5
477.033	715.5
477.252	721.5
477.471	729.5
477.69	729.5
477.908	776.5
478.127	782.5
478.346	788.5
478.564	787.5
478.783	790.5
479.002	808.5
479.22	859.5
479.439	853.5
479.658	887.5
479.876	875.5
480.095	889.5
480.313	925.5
480.532	868.5
480.751	841.5
480.969	799.5
481.188	816.5
481.406	764.5
481.624	776.5
481.843	755.5
482.061	763.5
482.28	794.5
482.498	749.5
482.717	728.5
482.935	765.5
483.153	760.5
483.372	774.5
483.59	773.5
483.808	772.5
484.027	748.5
484.245	783.5
484.463	773.5
484.681	792.5
484.9	791.5
485.118	819.5
485.336	802.5
485.554	775.5
485.772	819.5
485.99	815.5
486.209	809.5
486.427	840.5
486.645	863.5
486.863	871.5
487.081	827.5
487.299	836.5
487.517	839.5
487.735	811.5
487.953	825.5
488.171	816.5
488.389	834.5
488.607	833.5
488.825	806.5
489.043	814.5
489.261	821.5
489.479	839.5
489.696	851.5
489.914	849.5
490.132	842.5
490.35	868.5
490.568	862.5
490.786	914.5
491.003	932.5
491.221	948.5
491.439	942.5
491.657	945.5
491.874	961.5
492.092	965.5
492.31	956.5
492.527	953.5
492.745	931.5
492.963	955.5
493.18	977.5
493.398	1004.5
493.615	1003.5
493.833	1017.5
494.05	968.5
494.268	967.5
494.485	1000.5
494.703	956.5
494.92	988.5
495.138	947.5
495.355	995.5
495.573	988.5
495.79	960.5
496.008	982.5
496.225	959.5
496.442	962.5
496.66	962.5
496.877	962.5
497.094	970.5
497.312	1020.5
497.529	1021.5
497.746	1035.5
497.963	1084.5
498.181	1127.5
498.398	1127.5
498.615	1225.5
498.832	1222.5
499.049	1300.5
499.267	1368.5
499.484	1448.5
499.701	1529.5
499.918	1683.5
500.135	1822.5
500.352	1941.5
500.569	1883.5
500.786	1871.5
501.003	1747.5
501.22	1650.5
501.437	1541.5
501.654	1471.5
501.871	1412.5
502.088	1295.5
502.305	1259.5
502.522	1199.5
502.739	1108.5
502.956	1071.5
503.172	1043.5
503.389	1051.5
503.606	1087.5
503.823	1048.5
504.04	1031.5
504.256	1048.5
504.473	1071.5
504.69	1032.5
504.907	1008.5
505.123	956.5
505.34	937.5
505.557	942.5
505.773	915.5
505.99	902.5
506.207	927.5
506.423	888.5
506.64	895.5
506.856	883.5
507.073	883.5
507.289	844.5
507.506	852.5
507.722	948.5
507.939	936.5
508.155	859.5
508.372	871.5
508.588	840.5
508.805	854.5
509.021	862.5
509.238	869.5
509.454	857.5
509.67	847.5
509.887	832.5
510.103	839.5
510.319	976.5
510.536	1661.5
510.752	2558.5
510.968	1152.5
511.184	824.5
511.401	833.5
511.617	774.5
511.833	777.5
512.049	768.5
512.265	754.5
512.481	766.5
512.698	761.5
512.914	783.5
513.13	764.5
513.346	766.5
513.562	788.5
513.778	805.5
513.994	821.5
514.21	859.5
514.426	957.5
514.642	1055.5
514.858	1054.5
515.074	1311.5
515.29	2108.5
515.506	2982.5
515.721	1557.5
515.937	1059.5
516.153	942.5
516.369	943.5
516.585	892.5
516.801	875.5
517.016	900.5
517.232	918.5
517.448	926.5
517.664	981.5
517.879	948.5
518.095	964.5
518.311	943.5
518.527	903.5
518.742	883.5
518.958	876.5
519.173	836.5
