Data from TestCu_HRD10591_00068.txt Node
Date: Thu Oct 05 14:05:48 EDT 2023
User: Yrep
Spectrometer: HR+D1059
Trigger mode: 1
Integration Time (sec): 1.000000E-1
Scans to average: 1
Electric dark correction enabled: true
Nonlinearity correction enabled: false
Boxcar width: 0
XAxis mode: Wavelengths
Number of Pixels in Spectrum: 2048
>>>>>Begin Spectral Data<<<<<
223.165	-19.69
223.4	-19.69
223.635	-19.69
223.869	-4.69
224.104	-26.69
224.338	-12.69
224.573	-17.69
224.808	-7.69
225.042	-12.69
225.277	-0.69
225.511	-15.69
225.746	3.31
225.98	4.31
226.215	13.31
226.449	14.31
226.683	26.31
226.918	23.31
227.152	33.31
227.387	29.31
227.621	31.31
227.856	37.31
228.09	48.31
228.324	53.31
228.559	62.31
228.793	72.31
229.027	109.31
229.262	135.31
229.496	139.31
229.73	164.31
229.964	163.31
230.199	123.31
230.433	123.31
230.667	125.31
230.901	121.31
231.136	118.31
231.37	109.31
231.604	101.31
231.838	94.31
232.072	105.31
232.306	101.31
232.541	94.31
232.775	107.31
233.009	112.31
233.243	96.31
233.477	124.31
233.711	112.31
233.945	110.31
234.179	125.31
234.413	120.31
234.647	103.31
234.881	116.31
235.115	129.31
235.349	119.31
235.583	128.31
235.817	129.31
236.051	131.31
236.285	119.31
236.519	133.31
236.753	130.31
236.987	185.31
237.221	220.31
237.455	241.31
237.689	148.31
237.922	132.31
238.156	135.31
238.39	118.31
238.624	127.31
238.858	128.31
239.091	117.31
239.325	124.31
239.559	134.31
239.793	132.31
240.027	149.31
240.26	168.31
240.494	156.31
240.728	144.31
240.961	153.31
241.195	137.31
241.429	137.31
241.662	133.31
241.896	123.31
242.13	150.31
242.363	137.31
242.597	135.31
242.83	149.31
243.064	140.31
243.298	131.31
243.531	161.31
243.765	134.31
243.998	135.31
244.232	148.31
244.465	134.31
244.699	144.31
244.932	142.31
245.166	143.31
245.399	134.31
245.633	149.31
245.866	136.31
246.099	145.31
246.333	148.31
246.566	162.31
246.8	148.31
247.033	140.31
247.266	164.31
247.5	163.31
247.733	181.31
247.966	149.31
248.2	176.31
248.433	170.31
248.666	180.31
248.899	196.31
249.133	217.31
249.366	216.31
249.599	197.31
249.832	184.31
250.066	170.31
250.299	190.31
250.532	197.31
250.765	199.31
250.998	212.31
251.231	204.31
251.465	194.31
251.698	178.31
251.931	191.31
252.164	193.31
252.397	188.31
252.63	191.31
252.863	213.31
253.096	214.31
253.329	215.31
253.562	194.31
253.795	198.31
254.028	200.31
254.261	226.31
254.494	245.31
254.727	271.31
254.96	271.31
255.193	228.31
255.426	202.31
255.659	198.31
255.892	187.31
256.124	199.31
256.357	210.31
256.59	193.31
256.823	198.31
257.056	180.31
257.289	205.31
257.521	201.31
257.754	207.31
257.987	191.31
258.22	204.31
258.452	182.31
258.685	199.31
258.918	205.31
259.151	213.31
259.383	205.31
259.616	218.31
259.849	230.31
260.081	248.31
260.314	258.31
260.547	247.31
260.779	217.31
261.012	204.31
261.244	211.31
261.477	239.31
261.71	247.31
261.942	264.31
262.175	267.31
262.407	241.31
262.64	209.31
262.872	202.31
263.105	204.31
263.337	218.31
263.57	216.31
263.802	213.31
264.035	225.31
264.267	203.31
264.499	208.31
264.732	230.31
264.964	217.31
265.197	221.31
265.429	228.31
265.661	212.31
265.894	210.31
266.126	222.31
266.358	236.31
266.591	219.31
266.823	242.31
267.055	238.31
267.287	229.31
267.52	226.31
267.752	224.31
267.984	217.31
268.216	236.31
268.448	240.31
268.681	253.31
268.913	275.31
269.145	287.31
269.377	280.31
269.609	275.31
269.841	274.31
270.073	306.31
270.306	324.31
270.538	345.31
270.77	291.31
271.002	298.31
271.234	313.31
271.466	311.31
271.698	312.31
271.93	315.31
272.162	308.31
272.394	298.31
272.626	279.31
272.858	263.31
273.09	281.31
273.322	276.31
273.553	258.31
273.785	274.31
274.017	254.31
274.249	280.31
274.481	274.31
274.713	294.31
274.945	279.31
275.176	280.31
275.408	290.31
275.64	286.31
275.872	293.31
276.104	272.31
276.335	306.31
276.567	318.31
276.799	355.31
277.031	372.31
277.262	361.31
277.494	313.31
277.726	306.31
277.957	278.31
278.189	282.31
278.421	285.31
278.652	254.31
278.884	282.31
279.115	284.31
279.347	273.31
279.579	282.31
279.81	281.31
280.042	280.31
280.273	278.31
280.505	297.31
280.736	290.31
280.968	297.31
281.199	296.31
281.431	292.31
281.662	279.31
281.894	298.31
282.125	326.31
282.356	357.31
282.588	413.31
282.819	340.31
283.051	291.31
283.282	297.31
283.513	303.31
283.745	298.31
283.976	317.31
284.207	314.31
284.439	306.31
284.67	315.31
284.901	292.31
285.132	306.31
285.364	302.31
285.595	305.31
285.826	298.31
286.057	322.31
286.288	299.31
286.52	312.31
286.751	315.31
286.982	339.31
287.213	322.31
287.444	341.31
287.675	352.31
287.906	352.31
288.138	361.31
288.369	339.31
288.6	329.31
288.831	316.31
289.062	344.31
289.293	325.31
289.524	325.31
289.755	322.31
289.986	318.31
290.217	321.31
290.448	334.31
290.679	326.31
290.91	336.31
291.141	329.31
291.371	329.31
291.602	324.31
291.833	328.31
292.064	349.31
292.295	356.31
292.526	342.31
292.757	346.31
292.987	330.31
293.218	337.31
293.449	365.31
293.68	325.31
293.91	351.31
294.141	342.31
294.372	346.31
294.603	366.31
294.833	361.31
295.064	344.31
295.295	342.31
295.525	364.31
295.756	395.31
295.987	423.31
296.217	434.31
296.448	395.31
296.679	358.31
296.909	343.31
297.14	361.31
297.37	346.31
297.601	361.31
297.831	368.31
298.062	363.31
298.292	377.31
298.523	389.31
298.753	398.31
298.984	374.31
299.214	389.31
299.445	376.31
299.675	379.31
299.905	372.31
300.136	377.31
300.366	370.31
300.597	382.31
300.827	421.31
301.057	421.31
301.288	402.31
301.518	405.31
301.748	400.31
301.979	433.31
302.209	417.31
302.439	416.31
302.669	403.31
302.9	425.31
303.13	417.31
303.36	437.31
303.59	412.31
303.82	417.31
304.051	428.31
304.281	412.31
304.511	392.31
304.741	401.31
304.971	398.31
305.201	408.31
305.431	391.31
305.661	401.31
305.891	384.31
306.121	413.31
306.352	423.31
306.582	403.31
306.812	412.31
307.042	423.31
307.272	430.31
307.502	397.31
307.731	402.31
307.961	415.31
308.191	404.31
308.421	400.31
308.651	415.31
308.881	427.31
309.111	432.31
309.341	440.31
309.571	453.31
309.8	472.31
310.03	489.31
310.26	480.31
310.49	508.31
310.72	521.31
310.949	551.31
311.179	502.31
311.409	467.31
311.639	474.31
311.868	480.31
312.098	500.31
312.328	512.31
312.557	562.31
312.787	556.31
313.017	516.31
313.246	478.31
313.476	469.31
313.706	494.31
313.935	534.31
314.165	551.31
314.394	540.31
314.624	502.31
314.853	498.31
315.083	505.31
315.312	477.31
315.542	461.31
315.771	470.31
316.001	445.31
316.23	462.31
316.46	480.31
316.689	486.31
316.919	491.31
317.148	510.31
317.377	498.31
317.607	505.31
317.836	484.31
318.065	482.31
318.295	486.31
318.524	476.31
318.753	466.31
318.983	486.31
319.212	485.31
319.441	513.31
319.67	497.31
319.9	482.31
320.129	478.31
320.358	485.31
320.587	497.31
320.816	505.31
321.046	525.31
321.275	520.31
321.504	522.31
321.733	538.31
321.962	536.31
322.191	589.31
322.42	596.31
322.649	645.31
322.878	655.31
323.108	694.31
323.337	722.31
323.566	787.31
323.795	889.31
324.024	1210.31
324.253	2076.31
324.482	3548.31
324.71	5279.31
324.939	4719.31
325.168	2041.31
325.397	1005.31
325.626	770.31
325.855	684.31
326.084	707.31
326.313	745.31
326.542	854.31
326.77	1176.31
326.999	1927.31
327.228	3047.31
327.457	3861.31
327.686	2559.31
327.914	1210.31
328.143	940.31
328.372	856.31
328.6	845.31
328.829	855.31
329.058	900.31
329.287	816.31
329.515	702.31
329.744	638.31
329.972	654.31
330.201	705.31
330.43	800.31
330.658	960.31
330.887	944.31
331.115	801.31
331.344	690.31
331.572	699.31
331.801	708.31
332.03	684.31
332.258	650.31
332.486	651.31
332.715	643.31
332.943	647.31
333.172	664.31
333.4	660.31
333.629	690.31
333.857	742.31
334.085	666.31
334.314	661.31
334.542	661.31
334.771	671.31
334.999	647.31
335.227	645.31
335.455	640.31
335.684	637.31
335.912	615.31
336.14	641.31
336.369	637.31
336.597	645.31
336.825	640.31
337.053	608.31
337.281	616.31
337.51	621.31
337.738	629.31
337.966	622.31
338.194	651.31
338.422	626.31
338.65	604.31
338.878	584.31
339.106	585.31
339.334	617.31
339.562	592.31
339.79	582.31
340.018	614.31
340.246	614.31
340.474	612.31
340.702	608.31
340.93	601.31
341.158	590.31
341.386	599.31
341.614	588.31
341.842	610.31
342.07	601.31
342.298	608.31
342.526	587.31
342.754	578.31
342.981	566.31
343.209	578.31
343.437	601.31
343.665	632.31
343.893	636.31
344.12	637.31
344.348	635.31
344.576	634.31
344.804	656.31
345.031	660.31
345.259	661.31
345.487	620.31
345.714	590.31
345.942	583.31
346.17	571.31
346.397	576.31
346.625	593.31
346.853	564.31
347.08	598.31
347.308	593.31
347.535	633.31
347.763	618.31
347.99	646.31
348.218	648.31
348.445	643.31
348.673	599.31
348.9	562.31
349.128	569.31
349.355	550.31
349.583	548.31
349.81	547.31
350.037	553.31
350.265	550.31
350.492	551.31
350.72	567.31
350.947	578.31
351.174	644.31
351.402	624.31
351.629	610.31
351.856	600.31
352.083	650.31
352.311	633.31
352.538	657.31
352.765	631.31
352.992	605.31
353.22	611.31
353.447	593.31
353.674	564.31
353.901	532.31
354.128	552.31
354.355	541.31
354.583	543.31
354.81	551.31
355.037	556.31
355.264	549.31
355.491	548.31
355.718	536.31
355.945	536.31
356.172	534.31
356.399	532.31
356.626	536.31
356.853	557.31
357.08	552.31
357.307	525.31
357.534	514.31
357.761	505.31
357.988	556.31
358.215	543.31
358.441	548.31
358.668	558.31
358.895	557.31
359.122	579.31
359.349	592.31
359.576	672.31
359.802	757.31
360.029	794.31
360.256	732.31
360.483	652.31
360.709	597.31
360.936	594.31
361.163	604.31
361.39	650.31
361.616	616.31
361.843	620.31
362.07	633.31
362.296	631.31
362.523	601.31
362.749	592.31
362.976	569.31
363.203	596.31
363.429	590.31
363.656	588.31
363.882	584.31
364.109	583.31
364.335	568.31
364.562	589.31
364.788	566.31
365.015	584.31
365.241	594.31
365.468	613.31
365.694	606.31
365.92	588.31
366.147	594.31
366.373	562.31
366.599	568.31
366.826	578.31
367.052	562.31
367.278	590.31
367.505	570.31
367.731	564.31
367.957	569.31
368.184	604.31
368.41	612.31
368.636	601.31
368.862	608.31
369.089	598.31
369.315	594.31
369.541	556.31
369.767	578.31
369.993	615.31
370.219	589.31
370.445	590.31
370.672	570.31
370.898	590.31
371.124	591.31
371.35	576.31
371.576	585.31
371.802	570.31
372.028	582.31
372.254	569.31
372.48	588.31
372.706	603.31
372.932	596.31
373.158	576.31
373.384	596.31
373.61	615.31
373.835	600.31
374.061	616.31
374.287	627.31
374.513	634.31
374.739	643.31
374.965	632.31
375.191	599.31
375.416	618.31
375.642	594.31
375.868	584.31
376.094	613.31
376.319	594.31
376.545	579.31
376.771	584.31
376.997	610.31
377.222	586.31
377.448	576.31
377.674	603.31
377.899	582.31
378.125	576.31
378.35	566.31
378.576	567.31
378.802	578.31
379.027	588.31
379.253	593.31
379.478	576.31
379.704	578.31
379.929	585.31
380.155	584.31
380.38	576.31
380.606	600.31
380.831	597.31
381.057	580.31
381.282	564.31
381.507	579.31
381.733	586.31
381.958	591.31
382.184	601.31
382.409	622.31
382.634	628.31
382.86	614.31
383.085	634.31
383.31	640.31
383.535	617.31
383.761	638.31
383.986	658.31
384.211	650.31
384.436	658.31
384.662	649.31
384.887	680.31
385.112	658.31
385.337	682.31
385.562	674.31
385.787	694.31
386.013	725.31
386.238	722.31
386.463	689.31
386.688	692.31
386.913	658.31
387.138	675.31
387.363	652.31
387.588	662.31
387.813	662.31
388.038	689.31
388.263	688.31
388.488	670.31
388.713	660.31
388.938	666.31
389.163	661.31
389.387	677.31
389.612	654.31
389.837	684.31
390.062	684.31
390.287	656.31
390.512	680.31
390.736	688.31
390.961	689.31
391.186	714.31
391.411	718.31
391.636	728.31
391.86	769.31
392.085	727.31
392.31	736.31
392.534	732.31
392.759	716.31
392.984	688.31
393.208	686.31
393.433	684.31
393.658	669.31
393.882	686.31
394.107	709.31
394.331	721.31
394.556	705.31
394.78	702.31
395.005	716.31
395.229	723.31
395.454	724.31
395.678	755.31
395.903	748.31
396.127	728.31
396.352	718.31
396.576	744.31
396.801	713.31
397.025	728.31
397.249	761.31
397.474	738.31
397.698	761.31
397.922	786.31
398.147	791.31
398.371	820.31
398.595	816.31
398.82	840.31
399.044	947.31
399.268	992.31
399.492	1098.31
399.717	1126.31
399.941	1092.31
400.165	1047.31
400.389	977.31
400.613	894.31
400.837	872.31
401.062	858.31
401.286	850.31
401.51	862.31
401.734	838.31
401.958	889.31
402.182	898.31
402.406	960.31
402.63	931.31
402.854	936.31
403.078	911.31
403.302	935.31
403.526	934.31
403.75	930.31
403.974	937.31
404.198	926.31
404.422	940.31
404.645	940.31
404.869	932.31
405.093	934.31
405.317	979.31
405.541	919.31
405.765	930.31
405.988	966.31
406.212	1056.31
406.436	1116.31
406.66	1078.31
406.883	1031.31
407.107	1080.31
407.331	1164.31
407.555	1168.31
407.778	1060.31
408.002	1010.31
408.226	960.31
408.449	985.31
408.673	957.31
408.896	979.31
409.12	983.31
409.344	955.31
409.567	885.31
409.791	872.31
410.014	878.31
410.238	882.31
410.461	864.31
410.685	897.31
410.908	901.31
411.132	929.31
411.355	910.31
411.578	874.31
411.802	826.31
412.025	855.31
412.249	865.31
412.472	851.31
412.695	814.31
412.919	806.31
413.142	804.31
413.365	817.31
413.589	800.31
413.812	810.31
414.035	813.31
414.258	795.31
414.482	780.31
414.705	792.31
414.928	814.31
415.151	798.31
415.374	804.31
415.597	805.31
415.821	784.31
416.044	785.31
416.267	822.31
416.49	804.31
416.713	784.31
416.936	795.31
417.159	804.31
417.382	788.31
417.605	812.31
417.828	834.31
418.051	856.31
418.274	825.31
418.497	805.31
418.72	843.31
418.943	809.31
419.166	853.31
419.389	862.31
419.611	834.31
419.834	832.31
420.057	848.31
420.28	851.31
420.503	816.31
420.726	832.31
420.948	857.31
421.171	884.31
421.394	886.31
421.617	835.31
421.839	814.31
422.062	860.31
422.285	889.31
422.507	951.31
422.73	985.31
422.953	912.31
423.175	863.31
423.398	866.31
423.621	886.31
423.843	911.31
424.066	889.31
424.288	921.31
424.511	963.31
424.733	972.31
424.956	1058.31
425.178	1027.31
425.401	968.31
425.623	968.31
425.846	876.31
426.068	850.31
426.291	818.31
426.513	835.31
426.735	876.31
426.958	957.31
427.18	1087.31
427.402	1293.31
427.625	1333.31
427.847	1056.31
428.069	816.31
428.292	770.31
428.514	776.31
428.736	752.31
428.958	791.31
429.181	748.31
429.403	759.31
429.625	798.31
429.847	840.31
430.069	900.31
430.292	842.31
430.514	747.31
430.736	775.31
430.958	752.31
431.18	738.31
431.402	709.31
431.624	748.31
431.846	738.31
432.068	720.31
432.29	721.31
432.512	754.31
432.734	768.31
432.956	771.31
433.178	779.31
433.4	745.31
433.622	753.31
433.844	777.31
434.066	766.31
434.287	764.31
434.509	779.31
434.731	817.31
434.953	831.31
435.175	818.31
435.397	841.31
435.618	866.31
435.84	970.31
436.062	1054.31
436.284	994.31
436.505	856.31
436.727	820.31
436.949	776.31
437.17	799.31
437.392	767.31
437.614	815.31
437.835	956.31
438.057	1093.31
438.278	1087.31
438.5	1092.31
438.721	1126.31
438.943	962.31
439.165	829.31
439.386	826.31
439.608	857.31
439.829	949.31
440.05	1025.31
440.272	1012.31
440.493	875.31
440.715	802.31
440.936	797.31
441.158	835.31
441.379	848.31
441.6	912.31
441.822	924.31
442.043	1008.31
442.264	1071.31
442.486	988.31
442.707	900.31
442.928	938.31
443.149	972.31
443.371	1065.31
443.592	1097.31
443.813	1143.31
444.034	1076.31
444.255	957.31
444.476	944.31
444.698	944.31
444.919	956.31
445.14	984.31
445.361	1001.31
445.582	1081.31
445.803	1216.31
446.024	1241.31
446.245	1156.31
446.466	983.31
446.687	850.31
446.908	835.31
447.129	774.31
447.35	765.31
447.571	761.31
447.792	748.31
448.013	788.31
448.234	841.31
448.455	963.31
448.675	1082.31
448.896	1077.31
449.117	912.31
449.338	1000.31
449.559	1136.31
449.779	1068.31
450	837.31
450.221	773.31
450.442	767.31
450.662	782.31
450.883	841.31
451.104	851.31
451.324	770.31
451.545	725.31
451.766	724.31
451.986	702.31
452.207	708.31
452.428	704.31
452.648	720.31
452.869	732.31
453.089	732.31
453.31	739.31
453.53	702.31
453.751	704.31
453.971	771.31
454.192	789.31
454.412	721.31
454.633	663.31
454.853	688.31
455.073	698.31
455.294	747.31
455.514	786.31
455.734	736.31
455.955	645.31
456.175	608.31
456.395	618.31
456.616	601.31
456.836	622.31
457.056	620.31
457.276	608.31
457.497	643.31
457.717	622.31
457.937	644.31
458.157	675.31
458.377	733.31
458.598	838.31
458.818	1060.31
459.038	1058.31
459.258	903.31
459.478	781.31
459.698	768.31
459.918	793.31
460.138	775.31
460.358	785.31
460.578	804.31
460.798	855.31
461.018	794.31
461.238	802.31
461.458	788.31
461.678	777.31
461.898	782.31
462.118	813.31
462.338	869.31
462.558	873.31
462.777	906.31
462.997	966.31
463.217	961.31
463.437	958.31
463.657	901.31
463.876	864.31
464.096	889.31
464.316	903.31
464.536	929.31
464.755	904.31
464.975	1001.31
465.195	1219.31
465.414	1103.31
465.634	860.31
465.854	780.31
466.073	753.31
466.293	742.31
466.512	716.31
466.732	693.31
466.951	699.31
467.171	722.31
467.391	742.31
467.61	795.31
467.829	743.31
468.049	720.31
468.268	702.31
468.488	680.31
468.707	672.31
468.927	675.31
469.146	689.31
469.365	711.31
469.585	717.31
469.804	765.31
470.023	780.31
470.243	768.31
470.462	784.31
470.681	826.31
470.901	758.31
471.12	717.31
471.339	732.31
471.558	722.31
471.777	709.31
471.997	682.31
472.216	688.31
472.435	671.31
472.654	660.31
472.873	661.31
473.092	668.31
473.311	672.31
473.53	668.31
473.749	719.31
473.968	842.31
474.187	915.31
474.406	804.31
474.625	715.31
474.844	680.31
475.063	680.31
475.282	687.31
475.501	706.31
475.72	690.31
475.939	704.31
476.158	696.31
476.377	734.31
476.596	697.31
476.814	738.31
477.033	746.31
477.252	738.31
477.471	753.31
477.69	751.31
477.908	772.31
478.127	797.31
478.346	796.31
478.564	768.31
478.783	834.31
479.002	862.31
479.22	834.31
479.439	878.31
479.658	908.31
479.876	900.31
480.095	914.31
480.313	932.31
480.532	884.31
480.751	872.31
480.969	842.31
481.188	857.31
481.406	793.31
481.624	820.31
481.843	791.31
482.061	805.31
482.28	750.31
482.498	760.31
482.717	782.31
482.935	811.31
483.153	755.31
483.372	774.31
483.59	799.31
483.808	813.31
484.027	785.31
484.245	806.31
484.463	806.31
484.681	824.31
484.9	826.31
485.118	839.31
485.336	830.31
485.554	823.31
485.772	828.31
485.99	832.31
486.209	844.31
486.427	870.31
486.645	912.31
486.863	924.31
487.081	876.31
487.299	856.31
487.517	849.31
487.735	825.31
487.953	866.31
488.171	872.31
488.389	890.31
488.607	852.31
488.825	816.31
489.043	856.31
489.261	837.31
489.479	848.31
489.696	871.31
489.914	873.31
490.132	876.31
490.35	857.31
490.568	907.31
490.786	928.31
491.003	971.31
491.221	969.31
491.439	961.31
491.657	986.31
491.874	968.31
492.092	969.31
492.31	999.31
492.527	967.31
492.745	978.31
492.963	1018.31
493.18	995.31
493.398	1000.31
493.615	1018.31
493.833	1023.31
494.05	993.31
494.268	993.31
494.485	976.31
494.703	995.31
494.92	992.31
495.138	991.31
495.355	973.31
495.573	1008.31
495.79	996.31
496.008	1010.31
496.225	978.31
496.442	983.31
496.66	1036.31
496.877	1002.31
497.094	1014.31
497.312	989.31
497.529	1048.31
497.746	1086.31
497.963	1091.31
498.181	1134.31
498.398	1156.31
498.615	1185.31
498.832	1264.31
499.049	1294.31
499.267	1368.31
499.484	1458.31
499.701	1529.31
499.918	1708.31
500.135	1812.31
500.352	1893.31
500.569	1964.31
500.786	1900.31
501.003	1830.31
501.22	1699.31
501.437	1551.31
