Data from TestCu_HRD10591_00098.txt Node
Date: Thu Oct 05 14:06:18 EDT 2023
User: Yrep
Spectrometer: HR+D1059
Trigger mode: 1
Integration Time (sec): 1.000000E-1
Scans to average: 1
Electric dark correction enabled: true
Nonlinearity correction enabled: false
Boxcar width: 0
XAxis mode: Wavelengths
Number of Pixels in Spectrum: 2048
>>>>>Begin Spectral Data<<<<<
223.165	-21.75
223.4	-21.75
223.635	-21.75
223.869	-8.75
224.104	-25.75
224.338	-22.75
224.573	-15.75
224.808	-17.75
225.042	-9.75
225.277	-6.75
225.511	-2.75
225.746	2.25
225.98	8.25
226.215	18.25
226.449	22.25
226.683	42.25
226.918	21.25
227.152	17.25
227.387	28.25
227.621	44.25
227.856	42.25
228.09	41.25
228.324	41.25
228.559	55.25
228.793	66.25
229.027	115.25
229.262	125.25
229.496	141.25
229.73	147.25
229.964	170.25
230.199	126.25
230.433	114.25
230.667	115.25
230.901	112.25
231.136	109.25
231.37	115.25
231.604	116.25
231.838	110.25
232.072	106.25
232.306	112.25
232.541	115.25
232.775	111.25
233.009	110.25
233.243	113.25
233.477	115.25
233.711	119.25
233.945	103.25
234.179	115.25
234.413	105.25
234.647	126.25
234.881	133.25
235.115	121.25
235.349	121.25
235.583	112.25
235.817	116.25
236.051	129.25
236.285	138.25
236.519	131.25
236.753	134.25
236.987	183.25
237.221	236.25
237.455	246.25
237.689	145.25
237.922	134.25
238.156	126.25
238.39	116.25
238.624	124.25
238.858	127.25
239.091	127.25
239.325	138.25
239.559	143.25
239.793	130.25
240.027	139.25
240.26	144.25
240.494	152.25
240.728	138.25
240.961	145.25
241.195	137.25
241.429	135.25
241.662	130.25
241.896	135.25
242.13	142.25
242.363	133.25
242.597	133.25
242.83	130.25
243.064	130.25
243.298	148.25
243.531	133.25
243.765	141.25
243.998	117.25
244.232	135.25
244.465	144.25
244.699	143.25
244.932	140.25
245.166	145.25
245.399	142.25
245.633	136.25
245.866	145.25
246.099	142.25
246.333	151.25
246.566	143.25
246.8	141.25
247.033	156.25
247.266	160.25
247.5	175.25
247.733	160.25
247.966	163.25
248.2	174.25
248.433	163.25
248.666	184.25
248.899	199.25
249.133	208.25
249.366	215.25
249.599	198.25
249.832	169.25
250.066	172.25
250.299	183.25
250.532	193.25
250.765	196.25
250.998	221.25
251.231	195.25
251.465	181.25
251.698	186.25
251.931	185.25
252.164	179.25
252.397	176.25
252.63	187.25
252.863	191.25
253.096	235.25
253.329	218.25
253.562	201.25
253.795	198.25
254.028	205.25
254.261	217.25
254.494	245.25
254.727	274.25
254.96	276.25
255.193	220.25
255.426	189.25
255.659	208.25
255.892	197.25
256.124	186.25
256.357	197.25
256.59	196.25
256.823	188.25
257.056	212.25
257.289	193.25
257.521	206.25
257.754	194.25
257.987	192.25
258.22	190.25
258.452	185.25
258.685	192.25
258.918	194.25
259.151	206.25
259.383	224.25
259.616	208.25
259.849	224.25
260.081	252.25
260.314	260.25
260.547	233.25
260.779	210.25
261.012	205.25
261.244	213.25
261.477	207.25
261.71	233.25
261.942	258.25
262.175	265.25
262.407	229.25
262.64	185.25
262.872	225.25
263.105	204.25
263.337	196.25
263.57	212.25
263.802	236.25
264.035	223.25
264.267	228.25
264.499	204.25
264.732	216.25
264.964	203.25
265.197	203.25
265.429	209.25
265.661	193.25
265.894	214.25
266.126	220.25
266.358	223.25
266.591	205.25
266.823	222.25
267.055	217.25
267.287	228.25
267.52	216.25
267.752	237.25
267.984	219.25
268.216	231.25
268.448	227.25
268.681	276.25
268.913	253.25
269.145	268.25
269.377	280.25
269.609	280.25
269.841	272.25
270.073	298.25
270.306	321.25
270.538	306.25
270.77	281.25
271.002	279.25
271.234	293.25
271.466	304.25
271.698	313.25
271.93	320.25
272.162	314.25
272.394	309.25
272.626	268.25
272.858	265.25
273.09	260.25
273.322	260.25
273.553	245.25
273.785	269.25
274.017	257.25
274.249	265.25
274.481	269.25
274.713	272.25
274.945	272.25
275.176	277.25
275.408	270.25
275.64	264.25
275.872	262.25
276.104	263.25
276.335	298.25
276.567	317.25
276.799	353.25
277.031	349.25
277.262	337.25
277.494	306.25
277.726	287.25
277.957	284.25
278.189	284.25
278.421	272.25
278.652	273.25
278.884	262.25
279.115	274.25
279.347	287.25
279.579	273.25
279.81	268.25
280.042	281.25
280.273	287.25
280.505	281.25
280.736	302.25
280.968	280.25
281.199	274.25
281.431	287.25
281.662	288.25
281.894	292.25
282.125	320.25
282.356	343.25
282.588	369.25
282.819	322.25
283.051	300.25
283.282	308.25
283.513	301.25
283.745	316.25
283.976	305.25
284.207	316.25
284.439	300.25
284.67	303.25
284.901	294.25
285.132	294.25
285.364	293.25
285.595	308.25
285.826	311.25
286.057	307.25
286.288	314.25
286.52	306.25
286.751	296.25
286.982	306.25
287.213	315.25
287.444	305.25
287.675	343.25
287.906	350.25
288.138	338.25
288.369	336.25
288.6	337.25
288.831	328.25
289.062	337.25
289.293	322.25
289.524	320.25
289.755	321.25
289.986	313.25
290.217	322.25
290.448	305.25
290.679	317.25
290.91	327.25
291.141	320.25
291.371	329.25
291.602	312.25
291.833	328.25
292.064	311.25
292.295	327.25
292.526	334.25
292.757	349.25
292.987	323.25
293.218	326.25
293.449	332.25
293.68	334.25
293.91	320.25
294.141	340.25
294.372	312.25
294.603	333.25
294.833	340.25
295.064	320.25
295.295	332.25
295.525	356.25
295.756	374.25
295.987	401.25
296.217	417.25
296.448	376.25
296.679	358.25
296.909	352.25
297.14	350.25
297.37	367.25
297.601	369.25
297.831	349.25
298.062	372.25
298.292	364.25
298.523	371.25
298.753	372.25
298.984	358.25
299.214	387.25
299.445	375.25
299.675	383.25
299.905	381.25
300.136	364.25
300.366	361.25
300.597	377.25
300.827	406.25
301.057	402.25
301.288	412.25
301.518	392.25
301.748	400.25
301.979	404.25
302.209	403.25
302.439	409.25
302.669	410.25
302.9	393.25
303.13	402.25
303.36	399.25
303.59	412.25
303.82	418.25
304.051	385.25
304.281	400.25
304.511	401.25
304.741	397.25
304.971	390.25
305.201	389.25
305.431	393.25
305.661	415.25
305.891	405.25
306.121	410.25
306.352	422.25
306.582	438.25
306.812	401.25
307.042	392.25
307.272	371.25
307.502	409.25
307.731	382.25
307.961	392.25
308.191	414.25
308.421	386.25
308.651	408.25
308.881	410.25
309.111	412.25
309.341	416.25
309.571	423.25
309.8	450.25
310.03	482.25
310.26	492.25
310.49	471.25
310.72	504.25
310.949	501.25
311.179	489.25
311.409	472.25
311.639	487.25
311.868	458.25
312.098	473.25
312.328	527.25
312.557	541.25
312.787	540.25
313.017	499.25
313.246	463.25
313.476	455.25
313.706	503.25
313.935	517.25
314.165	526.25
314.394	529.25
314.624	510.25
314.853	495.25
315.083	458.25
315.312	447.25
315.542	466.25
315.771	465.25
316.001	461.25
316.23	458.25
316.46	454.25
316.689	481.25
316.919	486.25
317.148	494.25
317.377	483.25
317.607	496.25
317.836	458.25
318.065	433.25
318.295	456.25
318.524	461.25
318.753	452.25
318.983	472.25
319.212	465.25
319.441	483.25
319.67	498.25
319.9	471.25
320.129	488.25
320.358	477.25
320.587	480.25
320.816	505.25
321.046	495.25
321.275	500.25
321.504	505.25
321.733	519.25
321.962	525.25
322.191	543.25
322.42	567.25
322.649	610.25
322.878	608.25
323.108	652.25
323.337	712.25
323.566	749.25
323.795	869.25
324.024	1129.25
324.253	1955.25
324.482	3307.25
324.71	4956.25
324.939	4303.25
325.168	1874.25
325.397	914.25
325.626	703.25
325.855	684.25
326.084	660.25
326.313	723.25
326.542	792.25
326.77	1065.25
326.999	1810.25
327.228	2880.25
327.457	3652.25
327.686	2374.25
327.914	1108.25
328.143	900.25
328.372	812.25
328.6	803.25
328.829	798.25
329.058	860.25
329.287	777.25
329.515	672.25
329.744	620.25
329.972	632.25
330.201	698.25
330.43	782.25
330.658	904.25
330.887	920.25
331.115	757.25
331.344	684.25
331.572	645.25
331.801	662.25
332.03	643.25
332.258	626.25
332.486	606.25
332.715	622.25
332.943	659.25
333.172	632.25
333.4	650.25
333.629	668.25
333.857	684.25
334.085	646.25
334.314	624.25
334.542	611.25
334.771	647.25
334.999	636.25
335.227	622.25
335.455	607.25
335.684	628.25
335.912	604.25
336.14	616.25
336.369	614.25
336.597	639.25
336.825	597.25
337.053	586.25
337.281	600.25
337.51	567.25
337.738	632.25
337.966	606.25
338.194	599.25
338.422	610.25
338.65	578.25
338.878	577.25
339.106	551.25
339.334	584.25
339.562	568.25
339.79	571.25
340.018	585.25
340.246	585.25
340.474	606.25
340.702	584.25
340.93	570.25
341.158	580.25
341.386	593.25
341.614	583.25
341.842	572.25
342.07	573.25
342.298	584.25
342.526	565.25
342.754	518.25
342.981	560.25
343.209	590.25
343.437	586.25
343.665	607.25
343.893	601.25
344.12	614.25
344.348	596.25
344.576	616.25
344.804	648.25
345.031	641.25
345.259	639.25
345.487	593.25
345.714	603.25
345.942	562.25
346.17	578.25
346.397	548.25
346.625	564.25
346.853	559.25
347.08	592.25
347.308	590.25
347.535	610.25
347.763	582.25
347.99	591.25
348.218	614.25
348.445	636.25
348.673	575.25
348.9	555.25
349.128	523.25
349.355	526.25
349.583	559.25
349.81	542.25
350.037	554.25
350.265	532.25
350.492	550.25
350.72	567.25
350.947	575.25
351.174	626.25
351.402	609.25
351.629	576.25
351.856	616.25
352.083	631.25
352.311	622.25
352.538	617.25
352.765	604.25
352.992	591.25
353.22	593.25
353.447	594.25
353.674	527.25
353.901	519.25
354.128	534.25
354.355	527.25
354.583	528.25
354.81	516.25
355.037	526.25
355.264	507.25
355.491	532.25
355.718	507.25
355.945	516.25
356.172	522.25
356.399	521.25
356.626	526.25
356.853	532.25
357.08	527.25
357.307	535.25
357.534	516.25
357.761	521.25
357.988	516.25
358.215	517.25
358.441	522.25
358.668	535.25
358.895	549.25
359.122	549.25
359.349	573.25
359.576	625.25
359.802	700.25
360.029	762.25
360.256	694.25
360.483	601.25
360.709	568.25
360.936	590.25
361.163	604.25
361.39	608.25
361.616	584.25
361.843	592.25
362.07	574.25
362.296	599.25
362.523	595.25
362.749	601.25
362.976	573.25
363.203	541.25
363.429	545.25
363.656	568.25
363.882	534.25
364.109	563.25
364.335	549.25
364.562	548.25
364.788	544.25
365.015	582.25
365.241	548.25
365.468	600.25
365.694	610.25
365.92	572.25
366.147	562.25
366.373	590.25
366.599	567.25
366.826	545.25
367.052	542.25
367.278	542.25
367.505	569.25
367.731	574.25
367.957	561.25
368.184	566.25
368.41	601.25
368.636	610.25
368.862	606.25
369.089	570.25
369.315	572.25
369.541	548.25
369.767	567.25
369.993	555.25
370.219	543.25
370.445	562.25
370.672	554.25
370.898	573.25
371.124	570.25
371.35	566.25
371.576	569.25
371.802	546.25
372.028	564.25
372.254	568.25
372.48	561.25
372.706	575.25
372.932	571.25
373.158	588.25
373.384	564.25
373.61	557.25
373.835	607.25
374.061	609.25
374.287	617.25
374.513	598.25
374.739	604.25
374.965	591.25
375.191	576.25
375.416	579.25
375.642	584.25
375.868	589.25
376.094	605.25
376.319	576.25
376.545	569.25
376.771	578.25
376.997	567.25
377.222	579.25
377.448	562.25
377.674	580.25
377.899	558.25
378.125	559.25
378.35	578.25
378.576	552.25
378.802	567.25
379.027	565.25
379.253	566.25
379.478	581.25
379.704	570.25
379.929	564.25
380.155	581.25
380.38	595.25
380.606	570.25
380.831	568.25
381.057	557.25
381.282	596.25
381.507	578.25
381.733	581.25
381.958	605.25
382.184	599.25
382.409	591.25
382.634	618.25
382.86	620.25
383.085	621.25
383.31	614.25
383.535	626.25
383.761	619.25
383.986	633.25
384.211	659.25
384.436	635.25
384.662	662.25
384.887	639.25
385.112	648.25
385.337	670.25
385.562	651.25
385.787	665.25
386.013	715.25
386.238	705.25
386.463	684.25
386.688	681.25
386.913	681.25
387.138	676.25
387.363	646.25
387.588	660.25
387.813	637.25
388.038	665.25
388.263	671.25
388.488	670.25
388.713	677.25
388.938	662.25
389.163	653.25
389.387	683.25
389.612	657.25
389.837	653.25
390.062	638.25
390.287	642.25
390.512	648.25
390.736	664.25
390.961	697.25
391.186	670.25
391.411	714.25
391.636	728.25
391.86	714.25
392.085	755.25
392.31	712.25
392.534	685.25
392.759	673.25
392.984	677.25
393.208	706.25
393.433	672.25
393.658	666.25
393.882	677.25
394.107	693.25
394.331	673.25
394.556	684.25
394.78	698.25
395.005	683.25
395.229	714.25
395.454	701.25
395.678	728.25
395.903	720.25
396.127	729.25
396.352	727.25
396.576	690.25
396.801	704.25
397.025	710.25
397.249	735.25
397.474	745.25
397.698	761.25
397.922	760.25
398.147	779.25
398.371	792.25
398.595	811.25
398.82	887.25
399.044	912.25
399.268	989.25
399.492	1069.25
399.717	1097.25
399.941	1053.25
400.165	1025.25
400.389	924.25
400.613	889.25
400.837	834.25
401.062	827.25
401.286	832.25
401.51	798.25
401.734	826.25
401.958	853.25
402.182	889.25
402.406	921.25
402.63	898.25
402.854	887.25
403.078	887.25
403.302	891.25
403.526	881.25
403.75	914.25
403.974	946.25
404.198	901.25
404.422	932.25
404.645	931.25
404.869	872.25
405.093	945.25
405.317	933.25
405.541	938.25
405.765	919.25
405.988	958.25
406.212	1012.25
406.436	1065.25
406.66	1015.25
406.883	1018.25
407.107	1091.25
407.331	1098.25
407.555	1141.25
407.778	1070.25
408.002	979.25
408.226	952.25
408.449	964.25
408.673	982.25
408.896	967.25
409.12	956.25
409.344	905.25
409.567	858.25
409.791	890.25
410.014	860.25
410.238	855.25
410.461	889.25
410.685	887.25
410.908	878.25
411.132	916.25
411.355	902.25
411.578	862.25
411.802	845.25
412.025	842.25
412.249	838.25
412.472	847.25
412.695	812.25
412.919	790.25
413.142	800.25
413.365	792.25
413.589	814.25
413.812	789.25
414.035	777.25
414.258	773.25
414.482	789.25
414.705	787.25
414.928	806.25
415.151	791.25
415.374	814.25
415.597	775.25
415.821	796.25
416.044	757.25
416.267	809.25
416.49	799.25
416.713	793.25
416.936	797.25
417.159	810.25
417.382	803.25
417.605	796.25
417.828	830.25
418.051	847.25
418.274	836.25
418.497	794.25
418.72	783.25
418.943	789.25
419.166	810.25
419.389	870.25
419.611	840.25
419.834	820.25
420.057	806.25
420.28	802.25
420.503	821.25
420.726	792.25
420.948	849.25
421.171	876.25
421.394	844.25
421.617	833.25
421.839	830.25
422.062	840.25
422.285	883.25
422.507	940.25
422.73	985.25
422.953	868.25
423.175	843.25
423.398	867.25
423.621	868.25
423.843	887.25
424.066	897.25
424.288	872.25
424.511	927.25
424.733	1011.25
424.956	1040.25
425.178	999.25
425.401	968.25
425.623	929.25
425.846	850.25
426.068	847.25
426.291	823.25
426.513	831.25
426.735	838.25
426.958	940.25
427.18	1078.25
427.402	1260.25
427.625	1263.25
427.847	994.25
428.069	832.25
428.292	776.25
428.514	738.25
428.736	755.25
428.958	723.25
429.181	736.25
429.403	769.25
429.625	798.25
429.847	820.25
430.069	893.25
430.292	800.25
430.514	744.25
430.736	771.25
430.958	733.25
431.18	695.25
431.402	720.25
431.624	729.25
431.846	733.25
432.068	737.25
432.29	730.25
432.512	740.25
432.734	735.25
432.956	746.25
433.178	777.25
433.4	755.25
433.622	762.25
433.844	748.25
434.066	757.25
434.287	756.25
434.509	758.25
434.731	792.25
434.953	821.25
435.175	826.25
435.397	835.25
435.618	834.25
435.84	950.25
436.062	1029.25
436.284	989.25
436.505	833.25
436.727	813.25
436.949	761.25
437.17	733.25
437.392	772.25
437.614	805.25
437.835	952.25
438.057	1027.25
438.278	1081.25
438.5	1088.25
438.721	1092.25
438.943	909.25
439.165	830.25
439.386	809.25
439.608	840.25
439.829	889.25
440.05	948.25
440.272	958.25
440.493	842.25
440.715	812.25
440.936	775.25
441.158	793.25
441.379	826.25
441.6	857.25
441.822	899.25
442.043	991.25
442.264	1038.25
442.486	974.25
442.707	876.25
442.928	877.25
443.149	960.25
443.371	976.25
443.592	1048.25
443.813	1109.25
444.034	1085.25
444.255	950.25
444.476	914.25
444.698	902.25
444.919	904.25
445.14	955.25
445.361	958.25
445.582	1071.25
445.803	1159.25
446.024	1254.25
446.245	1128.25
446.466	951.25
446.687	804.25
446.908	762.25
447.129	748.25
447.35	740.25
447.571	745.25
447.792	760.25
448.013	775.25
448.234	807.25
448.455	929.25
448.675	1047.25
448.896	1054.25
449.117	878.25
449.338	1011.25
449.559	1110.25
449.779	1069.25
450	816.25
450.221	762.25
450.442	738.25
450.662	744.25
450.883	835.25
451.104	804.25
451.324	759.25
451.545	703.25
451.766	690.25
451.986	674.25
452.207	670.25
452.428	659.25
452.648	664.25
452.869	722.25
453.089	711.25
453.31	741.25
453.53	660.25
453.751	673.25
453.971	713.25
454.192	751.25
454.412	688.25
454.633	658.25
454.853	635.25
455.073	673.25
455.294	744.25
455.514	782.25
455.734	692.25
455.955	616.25
456.175	626.25
456.395	624.25
456.616	605.25
456.836	630.25
457.056	600.25
457.276	646.25
457.497	636.25
457.717	620.25
457.937	660.25
458.157	648.25
458.377	655.25
458.598	805.25
458.818	1004.25
459.038	992.25
459.258	883.25
459.478	770.25
459.698	756.25
459.918	745.25
460.138	782.25
460.358	770.25
460.578	770.25
460.798	812.25
461.018	809.25
461.238	761.25
461.458	777.25
461.678	769.25
461.898	785.25
462.118	788.25
462.338	840.25
462.558	870.25
462.777	888.25
462.997	943.25
463.217	963.25
463.437	954.25
463.657	878.25
463.876	897.25
464.096	887.25
464.316	910.25
464.536	908.25
464.755	904.25
464.975	965.25
465.195	1160.25
465.414	1060.25
465.634	832.25
465.854	752.25
466.073	730.25
466.293	720.25
466.512	697.25
466.732	708.25
466.951	722.25
467.171	711.25
467.391	732.25
467.61	777.25
467.829	736.25
468.049	692.25
468.268	661.25
468.488	663.25
468.707	674.25
468.927	688.25
469.146	631.25
469.365	659.25
469.585	693.25
469.804	748.25
470.023	740.25
470.243	728.25
470.462	788.25
470.681	796.25
470.901	762.25
471.12	713.25
471.339	708.25
471.558	698.25
471.777	675.25
471.997	685.25
472.216	644.25
472.435	648.25
472.654	633.25
472.873	663.25
473.092	652.25
473.311	639.25
473.53	665.25
473.749	711.25
473.968	818.25
474.187	930.25
474.406	782.25
474.625	656.25
474.844	638.25
475.063	669.25
475.282	650.25
475.501	650.25
475.72	688.25
475.939	692.25
476.158	696.25
476.377	710.25
476.596	676.25
476.814	748.25
477.033	738.25
477.252	716.25
477.471	713.25
477.69	790.25
477.908	769.25
478.127	741.25
478.346	751.25
478.564	771.25
478.783	803.25
479.002	789.25
479.22	867.25
479.439	885.25
479.658	888.25
479.876	866.25
480.095	885.25
480.313	893.25
480.532	874.25
480.751	853.25
480.969	858.25
481.188	820.25
481.406	799.25
481.624	773.25
481.843	765.25
482.061	746.25
482.28	755.25
482.498	763.25
482.717	756.25
482.935	752.25
483.153	768.25
483.372	784.25
483.59	760.25
483.808	775.25
484.027	766.25
484.245	790.25
484.463	782.25
484.681	809.25
484.9	787.25
485.118	816.25
485.336	781.25
485.554	802.25
485.772	812.25
485.99	831.25
486.209	792.25
486.427	836.25
486.645	868.25
486.863	865.25
487.081	854.25
487.299	808.25
487.517	811.25
487.735	821.25
487.953	808.25
488.171	816.25
488.389	832.25
488.607	836.25
488.825	793.25
489.043	814.25
489.261	836.25
489.479	805.25
489.696	833.25
489.914	827.25
490.132	854.25
490.35	882.25
490.568	882.25
490.786	892.25
491.003	929.25
491.221	967.25
491.439	966.25
491.657	959.25
491.874	948.25
492.092	981.25
492.31	978.25
492.527	949.25
492.745	984.25
492.963	947.25
493.18	980.25
493.398	985.25
493.615	988.25
493.833	990.25
494.05	973.25
494.268	961.25
494.485	959.25
494.703	958.25
494.92	973.25
495.138	942.25
495.355	976.25
495.573	980.25
495.79	979.25
496.008	968.25
496.225	965.25
496.442	982.25
496.66	953.25
496.877	979.25
497.094	988.25
497.312	1006.25
497.529	989.25
497.746	1025.25
497.963	1059.25
498.181	1101.25
498.398	1137.25
498.615	1182.25
498.832	1231.25
499.049	1292.25
499.267	1326.25
499.484	1428.25
499.701	1560.25
499.918	1623.25
500.135	1789.25
500.352	1862.25
500.569	1896.25
500.786	1845.25
501.003	1744.25
501.22	1650.25
501.437	1564.25
501.654	1476.25
