Data from TestCu_HRD10591_00096.txt Node
Date: Thu Oct 05 14:06:16 EDT 2023
User: Yrep
Spectrometer: HR+D1059
Trigger mode: 1
Integration Time (sec): 1.000000E-1
Scans to average: 1
Electric dark correction enabled: true
Nonlinearity correction enabled: false
Boxcar width: 0
XAxis mode: Wavelengths
Number of Pixels in Spectrum: 2048
>>>>>Begin Spectral Data<<<<<
223.165	-16.38
223.4	-16.38
223.635	-16.38
223.869	-17.38
224.104	-15.38
224.338	-14.38
224.573	-24.38
224.808	-6.38
225.042	-9.38
225.277	-15.38
225.511	-0.38
225.746	14.62
225.98	-1.38
226.215	22.62
226.449	10.62
226.683	18.62
226.918	19.62
227.152	34.62
227.387	40.62
227.621	40.62
227.856	40.62
228.09	49.62
228.324	45.62
228.559	54.62
228.793	53.62
229.027	97.62
229.262	119.62
229.496	133.62
229.73	177.62
229.964	171.62
230.199	127.62
230.433	111.62
230.667	116.62
230.901	116.62
231.136	103.62
231.37	126.62
231.604	118.62
231.838	116.62
232.072	118.62
232.306	124.62
232.541	100.62
232.775	102.62
233.009	119.62
233.243	112.62
233.477	120.62
233.711	113.62
233.945	101.62
234.179	109.62
234.413	122.62
234.647	118.62
234.881	102.62
235.115	110.62
235.349	112.62
235.583	131.62
235.817	125.62
236.051	137.62
236.285	135.62
236.519	138.62
236.753	164.62
236.987	178.62
237.221	218.62
237.455	216.62
237.689	150.62
237.922	135.62
238.156	116.62
238.39	121.62
238.624	131.62
238.858	113.62
239.091	132.62
239.325	117.62
239.559	126.62
239.793	130.62
240.027	149.62
240.26	167.62
240.494	163.62
240.728	152.62
240.961	139.62
241.195	127.62
241.429	139.62
241.662	125.62
241.896	118.62
242.13	131.62
242.363	143.62
242.597	127.62
242.83	133.62
243.064	126.62
243.298	134.62
243.531	121.62
243.765	120.62
243.998	135.62
244.232	132.62
244.465	145.62
244.699	145.62
244.932	152.62
245.166	147.62
245.399	139.62
245.633	121.62
245.866	163.62
246.099	132.62
246.333	145.62
246.566	167.62
246.8	164.62
247.033	135.62
247.266	168.62
247.5	148.62
247.733	160.62
247.966	175.62
248.2	169.62
248.433	147.62
248.666	185.62
248.899	195.62
249.133	215.62
249.366	222.62
249.599	186.62
249.832	169.62
250.066	175.62
250.299	189.62
250.532	183.62
250.765	213.62
250.998	205.62
251.231	207.62
251.465	184.62
251.698	171.62
251.931	172.62
252.164	180.62
252.397	169.62
252.63	210.62
252.863	214.62
253.096	225.62
253.329	214.62
253.562	196.62
253.795	193.62
254.028	192.62
254.261	215.62
254.494	245.62
254.727	262.62
254.96	245.62
255.193	231.62
255.426	202.62
255.659	195.62
255.892	195.62
256.124	208.62
256.357	201.62
256.59	197.62
256.823	192.62
257.056	205.62
257.289	199.62
257.521	181.62
257.754	196.62
257.987	211.62
258.22	208.62
258.452	184.62
258.685	189.62
258.918	210.62
259.151	219.62
259.383	213.62
259.616	201.62
259.849	219.62
260.081	241.62
260.314	239.62
260.547	222.62
260.779	215.62
261.012	214.62
261.244	198.62
261.477	222.62
261.71	227.62
261.942	247.62
262.175	260.62
262.407	227.62
262.64	200.62
262.872	208.62
263.105	216.62
263.337	228.62
263.57	214.62
263.802	226.62
264.035	219.62
264.267	216.62
264.499	227.62
264.732	215.62
264.964	213.62
265.197	213.62
265.429	231.62
265.661	224.62
265.894	204.62
266.126	232.62
266.358	228.62
266.591	227.62
266.823	240.62
267.055	222.62
267.287	232.62
267.52	225.62
267.752	216.62
267.984	227.62
268.216	228.62
268.448	225.62
268.681	227.62
268.913	263.62
269.145	294.62
269.377	295.62
269.609	258.62
269.841	267.62
270.073	306.62
270.306	323.62
270.538	343.62
270.77	272.62
271.002	277.62
271.234	283.62
271.466	293.62
271.698	323.62
271.93	312.62
272.162	292.62
272.394	306.62
272.626	263.62
272.858	261.62
273.09	249.62
273.322	256.62
273.553	265.62
273.785	264.62
274.017	255.62
274.249	280.62
274.481	278.62
274.713	265.62
274.945	267.62
275.176	272.62
275.408	278.62
275.64	279.62
275.872	288.62
276.104	285.62
276.335	289.62
276.567	326.62
276.799	355.62
277.031	371.62
277.262	353.62
277.494	306.62
277.726	297.62
277.957	286.62
278.189	279.62
278.421	274.62
278.652	290.62
278.884	285.62
279.115	263.62
279.347	268.62
279.579	286.62
279.81	293.62
280.042	280.62
280.273	280.62
280.505	271.62
280.736	288.62
280.968	279.62
281.199	271.62
281.431	271.62
281.662	310.62
281.894	290.62
282.125	312.62
282.356	350.62
282.588	365.62
282.819	338.62
283.051	285.62
283.282	287.62
283.513	321.62
283.745	314.62
283.976	317.62
284.207	313.62
284.439	306.62
284.67	277.62
284.901	305.62
285.132	307.62
285.364	297.62
285.595	311.62
285.826	290.62
286.057	301.62
286.288	294.62
286.52	296.62
286.751	296.62
286.982	336.62
287.213	312.62
287.444	321.62
287.675	334.62
287.906	338.62
288.138	324.62
288.369	349.62
288.6	339.62
288.831	313.62
289.062	323.62
289.293	333.62
289.524	330.62
289.755	341.62
289.986	331.62
290.217	317.62
290.448	317.62
290.679	318.62
290.91	326.62
291.141	326.62
291.371	305.62
291.602	327.62
291.833	319.62
292.064	329.62
292.295	326.62
292.526	323.62
292.757	329.62
292.987	316.62
293.218	314.62
293.449	324.62
293.68	338.62
293.91	316.62
294.141	349.62
294.372	341.62
294.603	335.62
294.833	347.62
295.064	336.62
295.295	363.62
295.525	366.62
295.756	360.62
295.987	395.62
296.217	431.62
296.448	384.62
296.679	343.62
296.909	344.62
297.14	352.62
297.37	356.62
297.601	366.62
297.831	351.62
298.062	365.62
298.292	364.62
298.523	372.62
298.753	356.62
298.984	377.62
299.214	363.62
299.445	370.62
299.675	382.62
299.905	380.62
300.136	364.62
300.366	388.62
300.597	407.62
300.827	397.62
301.057	420.62
301.288	399.62
301.518	395.62
301.748	389.62
301.979	436.62
302.209	428.62
302.439	420.62
302.669	388.62
302.9	406.62
303.13	390.62
303.36	412.62
303.59	413.62
303.82	400.62
304.051	389.62
304.281	401.62
304.511	398.62
304.741	413.62
304.971	403.62
305.201	403.62
305.431	401.62
305.661	396.62
305.891	394.62
306.121	397.62
306.352	406.62
306.582	435.62
306.812	383.62
307.042	385.62
307.272	397.62
307.502	383.62
307.731	411.62
307.961	398.62
308.191	416.62
308.421	399.62
308.651	407.62
308.881	422.62
309.111	427.62
309.341	440.62
309.571	443.62
309.8	454.62
310.03	466.62
310.26	477.62
310.49	488.62
310.72	518.62
310.949	539.62
311.179	485.62
311.409	462.62
311.639	471.62
311.868	492.62
312.098	476.62
312.328	528.62
312.557	544.62
312.787	530.62
313.017	521.62
313.246	470.62
313.476	475.62
313.706	479.62
313.935	499.62
314.165	546.62
314.394	529.62
314.624	509.62
314.853	501.62
315.083	500.62
315.312	467.62
315.542	465.62
315.771	470.62
316.001	461.62
316.23	457.62
316.46	462.62
316.689	471.62
316.919	489.62
317.148	490.62
317.377	482.62
317.607	492.62
317.836	460.62
318.065	471.62
318.295	459.62
318.524	470.62
318.753	478.62
318.983	493.62
319.212	460.62
319.441	508.62
319.67	501.62
319.9	483.62
320.129	467.62
320.358	476.62
320.587	502.62
320.816	524.62
321.046	523.62
321.275	499.62
321.504	521.62
321.733	517.62
321.962	516.62
322.191	555.62
322.42	598.62
322.649	610.62
322.878	625.62
323.108	680.62
323.337	726.62
323.566	752.62
323.795	861.62
324.024	1158.62
324.253	2025.62
324.482	3459.62
324.71	5149.62
324.939	4557.62
325.168	2049.62
325.397	976.62
325.626	728.62
325.855	680.62
326.084	681.62
326.313	703.62
326.542	808.62
326.77	1110.62
326.999	1887.62
327.228	3014.62
327.457	3746.62
327.686	2478.62
327.914	1167.62
328.143	920.62
328.372	828.62
328.6	798.62
328.829	831.62
329.058	881.62
329.287	821.62
329.515	703.62
329.744	629.62
329.972	628.62
330.201	695.62
330.43	800.62
330.658	958.62
330.887	939.62
331.115	828.62
331.344	689.62
331.572	690.62
331.801	697.62
332.03	669.62
332.258	636.62
332.486	607.62
332.715	648.62
332.943	647.62
333.172	643.62
333.4	672.62
333.629	714.62
333.857	676.62
334.085	652.62
334.314	643.62
334.542	643.62
334.771	655.62
334.999	654.62
335.227	660.62
335.455	628.62
335.684	622.62
335.912	611.62
336.14	611.62
336.369	637.62
336.597	662.62
336.825	623.62
337.053	601.62
337.281	622.62
337.51	609.62
337.738	590.62
337.966	605.62
338.194	620.62
338.422	607.62
338.65	589.62
338.878	585.62
339.106	584.62
339.334	579.62
339.562	582.62
339.79	583.62
340.018	591.62
340.246	606.62
340.474	603.62
340.702	580.62
340.93	586.62
341.158	622.62
341.386	607.62
341.614	597.62
341.842	577.62
342.07	575.62
342.298	554.62
342.526	574.62
342.754	558.62
342.981	557.62
343.209	568.62
343.437	601.62
343.665	628.62
343.893	630.62
344.12	638.62
344.348	625.62
344.576	611.62
344.804	640.62
345.031	652.62
345.259	657.62
345.487	627.62
345.714	576.62
345.942	580.62
346.17	560.62
346.397	568.62
346.625	607.62
346.853	582.62
347.08	575.62
347.308	615.62
347.535	617.62
347.763	605.62
347.99	615.62
348.218	629.62
348.445	614.62
348.673	593.62
348.9	563.62
349.128	555.62
349.355	556.62
349.583	566.62
349.81	570.62
350.037	552.62
350.265	531.62
350.492	553.62
350.72	557.62
350.947	595.62
351.174	604.62
351.402	627.62
351.629	570.62
351.856	579.62
352.083	635.62
352.311	636.62
352.538	629.62
352.765	607.62
352.992	584.62
353.22	588.62
353.447	591.62
353.674	572.62
353.901	567.62
354.128	529.62
354.355	523.62
354.583	520.62
354.81	543.62
355.037	541.62
355.264	525.62
355.491	523.62
355.718	534.62
355.945	523.62
356.172	529.62
356.399	524.62
356.626	533.62
356.853	507.62
357.08	533.62
357.307	539.62
357.534	547.62
357.761	535.62
357.988	534.62
358.215	536.62
358.441	529.62
358.668	535.62
358.895	544.62
359.122	577.62
359.349	587.62
359.576	643.62
359.802	735.62
360.029	742.62
360.256	725.62
360.483	636.62
360.709	574.62
360.936	575.62
361.163	622.62
361.39	611.62
361.616	601.62
361.843	584.62
362.07	608.62
362.296	625.62
362.523	587.62
362.749	614.62
362.976	572.62
363.203	573.62
363.429	568.62
363.656	556.62
363.882	542.62
364.109	565.62
364.335	561.62
364.562	564.62
364.788	557.62
365.015	581.62
365.241	574.62
365.468	593.62
365.694	582.62
365.92	578.62
366.147	570.62
366.373	559.62
366.599	552.62
366.826	579.62
367.052	557.62
367.278	552.62
367.505	573.62
367.731	573.62
367.957	573.62
368.184	578.62
368.41	605.62
368.636	629.62
368.862	593.62
369.089	564.62
369.315	573.62
369.541	580.62
369.767	582.62
369.993	560.62
370.219	556.62
370.445	559.62
370.672	567.62
370.898	576.62
371.124	562.62
371.35	594.62
371.576	551.62
371.802	565.62
372.028	572.62
372.254	578.62
372.48	573.62
372.706	588.62
372.932	599.62
373.158	585.62
373.384	604.62
373.61	582.62
373.835	582.62
374.061	568.62
374.287	585.62
374.513	610.62
374.739	615.62
374.965	598.62
375.191	604.62
375.416	613.62
375.642	593.62
375.868	584.62
376.094	589.62
376.319	574.62
376.545	589.62
376.771	593.62
376.997	570.62
377.222	584.62
377.448	575.62
377.674	562.62
377.899	563.62
378.125	579.62
378.35	559.62
378.576	561.62
378.802	564.62
379.027	590.62
379.253	574.62
379.478	590.62
379.704	572.62
379.929	596.62
380.155	563.62
380.38	599.62
380.606	565.62
380.831	589.62
381.057	600.62
381.282	586.62
381.507	617.62
381.733	616.62
381.958	589.62
382.184	588.62
382.409	617.62
382.634	650.62
382.86	605.62
383.085	620.62
383.31	622.62
383.535	611.62
383.761	634.62
383.986	634.62
384.211	646.62
384.436	648.62
384.662	648.62
384.887	639.62
385.112	631.62
385.337	671.62
385.562	660.62
385.787	685.62
386.013	703.62
386.238	692.62
386.463	665.62
386.688	686.62
386.913	641.62
387.138	663.62
387.363	672.62
387.588	693.62
387.813	665.62
388.038	648.62
388.263	667.62
388.488	668.62
388.713	653.62
388.938	671.62
389.163	655.62
389.387	652.62
389.612	644.62
389.837	651.62
390.062	656.62
390.287	663.62
390.512	635.62
390.736	670.62
390.961	672.62
391.186	711.62
391.411	686.62
391.636	720.62
391.86	717.62
392.085	726.62
392.31	697.62
392.534	720.62
392.759	699.62
392.984	662.62
393.208	697.62
393.433	680.62
393.658	680.62
393.882	708.62
394.107	685.62
394.331	711.62
394.556	675.62
394.78	696.62
395.005	737.62
395.229	711.62
395.454	769.62
395.678	722.62
395.903	760.62
396.127	735.62
396.352	723.62
396.576	708.62
396.801	724.62
397.025	714.62
397.249	732.62
397.474	753.62
397.698	749.62
397.922	769.62
398.147	779.62
398.371	772.62
398.595	800.62
398.82	845.62
399.044	915.62
399.268	1004.62
399.492	1078.62
399.717	1115.62
399.941	1063.62
400.165	1008.62
400.389	963.62
400.613	911.62
400.837	884.62
401.062	819.62
401.286	821.62
401.51	843.62
401.734	828.62
401.958	831.62
402.182	906.62
402.406	982.62
402.63	903.62
402.854	892.62
403.078	882.62
403.302	903.62
403.526	910.62
403.75	899.62
403.974	906.62
404.198	900.62
404.422	941.62
404.645	915.62
404.869	944.62
405.093	950.62
405.317	942.62
405.541	918.62
405.765	900.62
405.988	971.62
406.212	1054.62
406.436	1123.62
406.66	1048.62
406.883	1035.62
407.107	1053.62
407.331	1127.62
407.555	1157.62
407.778	1061.62
408.002	989.62
408.226	965.62
408.449	973.62
408.673	980.62
408.896	982.62
409.12	996.62
409.344	917.62
409.567	853.62
409.791	864.62
410.014	847.62
410.238	847.62
410.461	904.62
410.685	898.62
410.908	885.62
411.132	953.62
411.355	907.62
411.578	883.62
411.802	864.62
412.025	822.62
412.249	834.62
412.472	850.62
412.695	824.62
412.919	807.62
413.142	803.62
413.365	798.62
413.589	779.62
413.812	777.62
414.035	787.62
414.258	796.62
414.482	822.62
414.705	809.62
414.928	798.62
415.151	776.62
415.374	788.62
415.597	790.62
415.821	778.62
416.044	782.62
416.267	782.62
416.49	767.62
416.713	776.62
416.936	791.62
417.159	779.62
417.382	804.62
417.605	795.62
417.828	812.62
418.051	834.62
418.274	802.62
418.497	811.62
418.72	804.62
418.943	801.62
419.166	844.62
419.389	861.62
419.611	849.62
419.834	831.62
420.057	812.62
420.28	802.62
420.503	780.62
420.726	819.62
420.948	865.62
421.171	893.62
421.394	845.62
421.617	804.62
421.839	808.62
422.062	829.62
422.285	899.62
422.507	960.62
422.73	983.62
422.953	918.62
423.175	851.62
423.398	860.62
423.621	868.62
423.843	886.62
424.066	866.62
424.288	918.62
424.511	969.62
424.733	961.62
424.956	1051.62
425.178	1001.62
425.401	983.62
425.623	970.62
425.846	852.62
426.068	848.62
426.291	830.62
426.513	835.62
426.735	883.62
426.958	958.62
427.18	1102.62
427.402	1278.62
427.625	1331.62
427.847	1016.62
428.069	865.62
428.292	803.62
428.514	761.62
428.736	768.62
428.958	740.62
429.181	762.62
429.403	777.62
429.625	795.62
429.847	823.62
430.069	889.62
430.292	782.62
430.514	747.62
430.736	731.62
430.958	729.62
431.18	722.62
431.402	705.62
431.624	731.62
431.846	703.62
432.068	741.62
432.29	731.62
432.512	755.62
432.734	738.62
432.956	748.62
433.178	785.62
433.4	769.62
433.622	742.62
433.844	736.62
434.066	719.62
434.287	730.62
434.509	776.62
434.731	803.62
434.953	811.62
435.175	833.62
435.397	842.62
435.618	875.62
435.84	950.62
436.062	1045.62
436.284	989.62
436.505	835.62
436.727	804.62
436.949	749.62
437.17	756.62
437.392	773.62
437.614	824.62
437.835	937.62
438.057	1071.62
438.278	1113.62
438.5	1093.62
438.721	1120.62
438.943	971.62
439.165	805.62
439.386	825.62
439.608	834.62
439.829	880.62
440.05	948.62
440.272	992.62
440.493	867.62
440.715	776.62
440.936	798.62
441.158	807.62
441.379	796.62
441.6	865.62
441.822	932.62
442.043	987.62
442.264	1088.62
442.486	967.62
442.707	879.62
442.928	914.62
443.149	976.62
443.371	1031.62
443.592	1093.62
443.813	1160.62
444.034	1062.62
444.255	917.62
444.476	899.62
444.698	929.62
444.919	938.62
445.14	967.62
445.361	992.62
445.582	1068.62
445.803	1197.62
446.024	1242.62
446.245	1156.62
446.466	979.62
446.687	843.62
446.908	812.62
447.129	775.62
447.35	750.62
447.571	747.62
447.792	751.62
448.013	767.62
448.234	825.62
448.455	953.62
448.675	1086.62
448.896	1054.62
449.117	930.62
449.338	1021.62
449.559	1105.62
449.779	1078.62
450	833.62
450.221	752.62
450.442	764.62
450.662	768.62
450.883	824.62
451.104	827.62
451.324	765.62
451.545	709.62
451.766	689.62
451.986	676.62
452.207	664.62
452.428	665.62
452.648	686.62
452.869	721.62
453.089	724.62
453.31	729.62
453.53	697.62
453.751	695.62
453.971	751.62
454.192	764.62
454.412	671.62
454.633	667.62
454.853	640.62
455.073	676.62
455.294	731.62
455.514	800.62
455.734	698.62
455.955	632.62
456.175	609.62
456.395	625.62
456.616	627.62
456.836	631.62
457.056	627.62
457.276	604.62
457.497	628.62
457.717	613.62
457.937	628.62
458.157	660.62
458.377	690.62
458.598	812.62
458.818	1040.62
459.038	1058.62
459.258	897.62
459.478	773.62
459.698	743.62
459.918	765.62
460.138	756.62
460.358	781.62
460.578	775.62
460.798	817.62
461.018	807.62
461.238	783.62
461.458	797.62
461.678	798.62
461.898	768.62
462.118	790.62
462.338	850.62
462.558	837.62
462.777	877.62
462.997	946.62
463.217	959.62
463.437	897.62
463.657	893.62
463.876	871.62
464.096	923.62
464.316	914.62
464.536	915.62
464.755	917.62
464.975	964.62
465.195	1180.62
465.414	1126.62
465.634	853.62
465.854	790.62
466.073	750.62
466.293	715.62
466.512	705.62
466.732	704.62
466.951	686.62
467.171	697.62
467.391	740.62
467.61	763.62
467.829	725.62
468.049	707.62
468.268	676.62
468.488	653.62
468.707	669.62
468.927	675.62
469.146	642.62
469.365	644.62
469.585	684.62
469.804	751.62
470.023	747.62
470.243	745.62
470.462	784.62
470.681	805.62
470.901	741.62
471.12	713.62
471.339	694.62
471.558	704.62
471.777	688.62
471.997	661.62
472.216	663.62
472.435	646.62
472.654	638.62
472.873	655.62
473.092	653.62
473.311	666.62
473.53	659.62
473.749	699.62
473.968	805.62
474.187	943.62
474.406	803.62
474.625	699.62
474.844	677.62
475.063	665.62
475.282	674.62
475.501	656.62
475.72	689.62
475.939	695.62
476.158	694.62
476.377	703.62
476.596	687.62
476.814	741.62
477.033	735.62
477.252	737.62
477.471	751.62
477.69	766.62
477.908	745.62
478.127	743.62
478.346	768.62
478.564	781.62
478.783	802.62
479.002	815.62
479.22	850.62
479.439	890.62
479.658	883.62
479.876	889.62
480.095	891.62
480.313	915.62
480.532	880.62
480.751	873.62
480.969	872.62
481.188	816.62
481.406	786.62
481.624	792.62
481.843	768.62
482.061	751.62
482.28	780.62
482.498	760.62
482.717	761.62
482.935	782.62
483.153	772.62
483.372	777.62
483.59	781.62
483.808	782.62
484.027	765.62
484.245	781.62
484.463	776.62
484.681	823.62
484.9	806.62
485.118	801.62
485.336	791.62
485.554	815.62
485.772	808.62
485.99	836.62
486.209	800.62
486.427	809.62
486.645	871.62
486.863	941.62
487.081	848.62
487.299	856.62
487.517	845.62
487.735	814.62
487.953	867.62
488.171	822.62
488.389	821.62
488.607	836.62
488.825	824.62
489.043	809.62
489.261	826.62
489.479	841.62
489.696	817.62
489.914	846.62
490.132	855.62
490.35	864.62
490.568	884.62
490.786	894.62
491.003	928.62
491.221	944.62
491.439	961.62
491.657	932.62
491.874	959.62
492.092	993.62
492.31	969.62
492.527	965.62
492.745	959.62
492.963	947.62
493.18	994.62
493.398	997.62
493.615	996.62
493.833	989.62
494.05	987.62
494.268	960.62
494.485	972.62
494.703	981.62
494.92	990.62
495.138	963.62
495.355	963.62
495.573	998.62
495.79	989.62
496.008	999.62
496.225	974.62
496.442	1011.62
496.66	949.62
496.877	988.62
497.094	990.62
497.312	1057.62
497.529	1030.62
497.746	1060.62
497.963	1067.62
498.181	1134.62
498.398	1145.62
498.615	1171.62
498.832	1222.62
499.049	1275.62
499.267	1345.62
499.484	1437.62
499.701	1526.62
499.918	1624.62
500.135	1797.62
500.352	1910.62
500.569	1937.62
500.786	1864.62
501.003	1768.62
501.22	1645.62
501.437	1555.62
501.654	1524.62
