Data from TestCu_HRD10591_00102.txt Node
Date: Thu Oct 05 14:06:22 EDT 2023
User: Yrep
Spectrometer: HR+D1059
Trigger mode: 1
Integration Time (sec): 1.000000E-1
Scans to average: 1
Electric dark correction enabled: true
Nonlinearity correction enabled: false
Boxcar width: 0
XAxis mode: Wavelengths
Number of Pixels in Spectrum: 2048
>>>>>Begin Spectral Data<<<<<
223.165	-24.62
223.4	-24.62
223.635	-24.62
223.869	-13.62
224.104	-27.62
224.338	-19.62
224.573	-9.62
224.808	-18.62
225.042	-2.62
225.277	-3.62
225.511	-3.62
225.746	6.38
225.98	18.38
226.215	13.38
226.449	19.38
226.683	17.38
226.918	15.38
227.152	33.38
227.387	47.38
227.621	37.38
227.856	55.38
228.09	56.38
228.324	57.38
228.559	68.38
228.793	71.38
229.027	115.38
229.262	128.38
229.496	135.38
229.73	164.38
229.964	166.38
230.199	116.38
230.433	119.38
230.667	110.38
230.901	115.38
231.136	109.38
231.37	113.38
231.604	129.38
231.838	134.38
232.072	118.38
232.306	130.38
232.541	115.38
232.775	118.38
233.009	113.38
233.243	106.38
233.477	124.38
233.711	113.38
233.945	119.38
234.179	140.38
234.413	140.38
234.647	123.38
234.881	119.38
235.115	128.38
235.349	132.38
235.583	128.38
235.817	135.38
236.051	125.38
236.285	128.38
236.519	133.38
236.753	152.38
236.987	189.38
237.221	220.38
237.455	226.38
237.689	155.38
237.922	149.38
238.156	133.38
238.39	131.38
238.624	127.38
238.858	130.38
239.091	113.38
239.325	128.38
239.559	120.38
239.793	137.38
240.027	141.38
240.26	183.38
240.494	172.38
240.728	170.38
240.961	154.38
241.195	135.38
241.429	139.38
241.662	132.38
241.896	123.38
242.13	135.38
242.363	146.38
242.597	139.38
242.83	145.38
243.064	130.38
243.298	141.38
243.531	134.38
243.765	138.38
243.998	143.38
244.232	143.38
244.465	139.38
244.699	146.38
244.932	140.38
245.166	149.38
245.399	145.38
245.633	154.38
245.866	143.38
246.099	150.38
246.333	151.38
246.566	154.38
246.8	162.38
247.033	136.38
247.266	177.38
247.5	157.38
247.733	164.38
247.966	143.38
248.2	175.38
248.433	186.38
248.666	189.38
248.899	181.38
249.133	206.38
249.366	210.38
249.599	202.38
249.832	177.38
250.066	170.38
250.299	203.38
250.532	181.38
250.765	196.38
250.998	203.38
251.231	205.38
251.465	187.38
251.698	176.38
251.931	190.38
252.164	184.38
252.397	186.38
252.63	204.38
252.863	213.38
253.096	224.38
253.329	221.38
253.562	191.38
253.795	198.38
254.028	224.38
254.261	227.38
254.494	243.38
254.727	286.38
254.96	248.38
255.193	220.38
255.426	209.38
255.659	212.38
255.892	205.38
256.124	181.38
256.357	189.38
256.59	207.38
256.823	188.38
257.056	190.38
257.289	195.38
257.521	200.38
257.754	203.38
257.987	194.38
258.22	202.38
258.452	192.38
258.685	197.38
258.918	212.38
259.151	216.38
259.383	221.38
259.616	216.38
259.849	249.38
260.081	252.38
260.314	241.38
260.547	216.38
260.779	220.38
261.012	230.38
261.244	223.38
261.477	214.38
261.71	239.38
261.942	238.38
262.175	256.38
262.407	225.38
262.64	213.38
262.872	207.38
263.105	211.38
263.337	195.38
263.57	221.38
263.802	207.38
264.035	207.38
264.267	227.38
264.499	217.38
264.732	212.38
264.964	210.38
265.197	205.38
265.429	225.38
265.661	219.38
265.894	216.38
266.126	218.38
266.358	214.38
266.591	239.38
266.823	223.38
267.055	231.38
267.287	230.38
267.52	230.38
267.752	238.38
267.984	225.38
268.216	235.38
268.448	252.38
268.681	261.38
268.913	248.38
269.145	297.38
269.377	284.38
269.609	257.38
269.841	244.38
270.073	291.38
270.306	316.38
270.538	325.38
270.77	280.38
271.002	280.38
271.234	293.38
271.466	307.38
271.698	309.38
271.93	322.38
272.162	322.38
272.394	300.38
272.626	288.38
272.858	264.38
273.09	243.38
273.322	260.38
273.553	253.38
273.785	253.38
274.017	263.38
274.249	283.38
274.481	284.38
274.713	275.38
274.945	250.38
275.176	267.38
275.408	280.38
275.64	276.38
275.872	280.38
276.104	284.38
276.335	296.38
276.567	311.38
276.799	345.38
277.031	370.38
277.262	344.38
277.494	323.38
277.726	303.38
277.957	273.38
278.189	291.38
278.421	271.38
278.652	269.38
278.884	280.38
279.115	291.38
279.347	281.38
279.579	277.38
279.81	291.38
280.042	261.38
280.273	271.38
280.505	275.38
280.736	278.38
280.968	268.38
281.199	284.38
281.431	267.38
281.662	287.38
281.894	307.38
282.125	301.38
282.356	340.38
282.588	404.38
282.819	344.38
283.051	307.38
283.282	291.38
283.513	313.38
283.745	311.38
283.976	317.38
284.207	301.38
284.439	326.38
284.67	309.38
284.901	311.38
285.132	300.38
285.364	291.38
285.595	308.38
285.826	295.38
286.057	325.38
286.288	303.38
286.52	313.38
286.751	308.38
286.982	287.38
287.213	319.38
287.444	326.38
287.675	339.38
287.906	357.38
288.138	358.38
288.369	346.38
288.6	345.38
288.831	316.38
289.062	331.38
289.293	324.38
289.524	336.38
289.755	318.38
289.986	322.38
290.217	337.38
290.448	301.38
290.679	321.38
290.91	323.38
291.141	337.38
291.371	317.38
291.602	327.38
291.833	336.38
292.064	340.38
292.295	355.38
292.526	321.38
292.757	319.38
292.987	322.38
293.218	327.38
293.449	325.38
293.68	335.38
293.91	331.38
294.141	340.38
294.372	350.38
294.603	345.38
294.833	343.38
295.064	340.38
295.295	323.38
295.525	340.38
295.756	363.38
295.987	392.38
296.217	407.38
296.448	385.38
296.679	368.38
296.909	323.38
297.14	325.38
297.37	375.38
297.601	396.38
297.831	370.38
298.062	377.38
298.292	369.38
298.523	385.38
298.753	365.38
298.984	366.38
299.214	376.38
299.445	395.38
299.675	357.38
299.905	383.38
300.136	376.38
300.366	381.38
300.597	371.38
300.827	391.38
301.057	419.38
301.288	417.38
301.518	400.38
301.748	388.38
301.979	419.38
302.209	419.38
302.439	402.38
302.669	402.38
302.9	409.38
303.13	393.38
303.36	396.38
303.59	403.38
303.82	423.38
304.051	407.38
304.281	401.38
304.511	361.38
304.741	395.38
304.971	380.38
305.201	395.38
305.431	392.38
305.661	385.38
305.891	397.38
306.121	402.38
306.352	393.38
306.582	399.38
306.812	408.38
307.042	387.38
307.272	371.38
307.502	400.38
307.731	403.38
307.961	376.38
308.191	396.38
308.421	412.38
308.651	428.38
308.881	417.38
309.111	418.38
309.341	435.38
309.571	455.38
309.8	466.38
310.03	474.38
310.26	477.38
310.49	494.38
310.72	507.38
310.949	508.38
311.179	491.38
311.409	467.38
311.639	469.38
311.868	472.38
312.098	509.38
312.328	513.38
312.557	537.38
312.787	517.38
313.017	501.38
313.246	476.38
313.476	469.38
313.706	486.38
313.935	503.38
314.165	521.38
314.394	527.38
314.624	503.38
314.853	472.38
315.083	486.38
315.312	472.38
315.542	470.38
315.771	480.38
316.001	461.38
316.23	462.38
316.46	468.38
316.689	491.38
316.919	489.38
317.148	507.38
317.377	480.38
317.607	479.38
317.836	487.38
318.065	469.38
318.295	458.38
318.524	470.38
318.753	486.38
318.983	452.38
319.212	478.38
319.441	512.38
319.67	504.38
319.9	465.38
320.129	474.38
320.358	466.38
320.587	475.38
320.816	501.38
321.046	507.38
321.275	499.38
321.504	508.38
321.733	513.38
321.962	553.38
322.191	564.38
322.42	579.38
322.649	638.38
322.878	654.38
323.108	678.38
323.337	711.38
323.566	784.38
323.795	865.38
324.024	1216.38
324.253	2050.38
324.482	3457.38
324.71	5259.38
324.939	4616.38
325.168	1989.38
325.397	959.38
325.626	725.38
325.855	698.38
326.084	673.38
326.313	711.38
326.542	789.38
326.77	1159.38
326.999	1925.38
327.228	3045.38
327.457	3842.38
327.686	2515.38
327.914	1180.38
328.143	917.38
328.372	852.38
328.6	793.38
328.829	817.38
329.058	863.38
329.287	799.38
329.515	698.38
329.744	642.38
329.972	652.38
330.201	681.38
330.43	799.38
330.658	920.38
330.887	952.38
331.115	765.38
331.344	678.38
331.572	684.38
331.801	699.38
332.03	660.38
332.258	615.38
332.486	617.38
332.715	603.38
332.943	673.38
333.172	650.38
333.4	687.38
333.629	660.38
333.857	673.38
334.085	658.38
334.314	663.38
334.542	644.38
334.771	654.38
334.999	662.38
335.227	643.38
335.455	621.38
335.684	615.38
335.912	628.38
336.14	614.38
336.369	656.38
336.597	655.38
336.825	634.38
337.053	611.38
337.281	584.38
337.51	592.38
337.738	599.38
337.966	611.38
338.194	630.38
338.422	603.38
338.65	585.38
338.878	592.38
339.106	568.38
339.334	577.38
339.562	587.38
339.79	579.38
340.018	593.38
340.246	595.38
340.474	589.38
340.702	586.38
340.93	575.38
341.158	561.38
341.386	623.38
341.614	605.38
341.842	572.38
342.07	564.38
342.298	563.38
342.526	579.38
342.754	580.38
342.981	566.38
343.209	557.38
343.437	599.38
343.665	646.38
343.893	631.38
344.12	628.38
344.348	626.38
344.576	598.38
344.804	637.38
345.031	638.38
345.259	634.38
345.487	619.38
345.714	584.38
345.942	596.38
346.17	549.38
346.397	581.38
346.625	573.38
346.853	583.38
347.08	568.38
347.308	599.38
347.535	614.38
347.763	619.38
347.99	590.38
348.218	623.38
348.445	620.38
348.673	597.38
348.9	574.38
349.128	552.38
349.355	556.38
349.583	560.38
349.81	566.38
350.037	568.38
350.265	554.38
350.492	522.38
350.72	550.38
350.947	577.38
351.174	613.38
351.402	593.38
351.629	583.38
351.856	598.38
352.083	655.38
352.311	627.38
352.538	645.38
352.765	622.38
352.992	597.38
353.22	565.38
353.447	551.38
353.674	538.38
353.901	533.38
354.128	544.38
354.355	524.38
354.583	558.38
354.81	518.38
355.037	517.38
355.264	507.38
355.491	529.38
355.718	516.38
355.945	511.38
356.172	535.38
356.399	524.38
356.626	516.38
356.853	506.38
357.08	519.38
357.307	540.38
357.534	541.38
357.761	525.38
357.988	531.38
358.215	536.38
358.441	527.38
358.668	550.38
358.895	529.38
359.122	536.38
359.349	595.38
359.576	627.38
359.802	732.38
360.029	761.38
360.256	709.38
360.483	615.38
360.709	585.38
360.936	587.38
361.163	604.38
361.39	612.38
361.616	607.38
361.843	619.38
362.07	621.38
362.296	598.38
362.523	593.38
362.749	592.38
362.976	564.38
363.203	567.38
363.429	563.38
363.656	590.38
363.882	543.38
364.109	537.38
364.335	570.38
364.562	567.38
364.788	561.38
365.015	563.38
365.241	575.38
365.468	579.38
365.694	579.38
365.92	570.38
366.147	578.38
366.373	548.38
366.599	565.38
366.826	554.38
367.052	549.38
367.278	558.38
367.505	561.38
367.731	571.38
367.957	566.38
368.184	586.38
368.41	602.38
368.636	587.38
368.862	588.38
369.089	609.38
369.315	579.38
369.541	576.38
369.767	563.38
369.993	572.38
370.219	581.38
370.445	557.38
370.672	579.38
370.898	572.38
371.124	567.38
371.35	562.38
371.576	593.38
371.802	581.38
372.028	579.38
372.254	597.38
372.48	596.38
372.706	587.38
372.932	577.38
373.158	596.38
373.384	615.38
373.61	600.38
373.835	597.38
374.061	606.38
374.287	615.38
374.513	623.38
374.739	605.38
374.965	602.38
375.191	599.38
375.416	595.38
375.642	598.38
375.868	609.38
376.094	588.38
376.319	571.38
376.545	577.38
376.771	554.38
376.997	577.38
377.222	583.38
377.448	585.38
377.674	571.38
377.899	581.38
378.125	549.38
378.35	579.38
378.576	574.38
378.802	563.38
379.027	561.38
379.253	578.38
379.478	581.38
379.704	588.38
379.929	572.38
380.155	555.38
380.38	617.38
380.606	585.38
380.831	585.38
381.057	582.38
381.282	580.38
381.507	568.38
381.733	575.38
381.958	588.38
382.184	601.38
382.409	601.38
382.634	602.38
382.86	601.38
383.085	605.38
383.31	608.38
383.535	609.38
383.761	632.38
383.986	647.38
384.211	631.38
384.436	623.38
384.662	652.38
384.887	658.38
385.112	660.38
385.337	651.38
385.562	662.38
385.787	678.38
386.013	681.38
386.238	698.38
386.463	681.38
386.688	687.38
386.913	671.38
387.138	647.38
387.363	667.38
387.588	653.38
387.813	655.38
388.038	638.38
388.263	651.38
388.488	669.38
388.713	671.38
388.938	689.38
389.163	669.38
389.387	639.38
389.612	641.38
389.837	659.38
390.062	653.38
390.287	649.38
390.512	652.38
390.736	667.38
390.961	699.38
391.186	679.38
391.411	709.38
391.636	731.38
391.86	751.38
392.085	746.38
392.31	707.38
392.534	723.38
392.759	691.38
392.984	710.38
393.208	691.38
393.433	700.38
393.658	691.38
393.882	691.38
394.107	707.38
394.331	701.38
394.556	685.38
394.78	710.38
395.005	703.38
395.229	733.38
395.454	735.38
395.678	741.38
395.903	728.38
396.127	739.38
396.352	718.38
396.576	713.38
396.801	725.38
397.025	713.38
397.249	716.38
397.474	739.38
397.698	756.38
397.922	765.38
398.147	788.38
398.371	785.38
398.595	808.38
398.82	827.38
399.044	886.38
399.268	977.38
399.492	1086.38
399.717	1071.38
399.941	1050.38
400.165	1018.38
400.389	953.38
400.613	901.38
400.837	844.38
401.062	850.38
401.286	838.38
401.51	820.38
401.734	850.38
401.958	860.38
402.182	921.38
402.406	912.38
402.63	891.38
402.854	864.38
403.078	876.38
403.302	916.38
403.526	910.38
403.75	920.38
403.974	902.38
404.198	907.38
404.422	937.38
404.645	897.38
404.869	895.38
405.093	907.38
405.317	965.38
405.541	930.38
405.765	909.38
405.988	949.38
406.212	1051.38
406.436	1069.38
406.66	1063.38
406.883	1022.38
407.107	1087.38
407.331	1088.38
407.555	1133.38
407.778	1107.38
408.002	1051.38
408.226	960.38
408.449	959.38
408.673	966.38
408.896	933.38
409.12	980.38
409.344	885.38
409.567	896.38
409.791	893.38
410.014	882.38
410.238	830.38
410.461	850.38
410.685	858.38
410.908	901.38
411.132	940.38
411.355	924.38
411.578	862.38
411.802	829.38
412.025	830.38
412.249	839.38
412.472	861.38
412.695	815.38
412.919	803.38
413.142	809.38
413.365	785.38
413.589	770.38
413.812	799.38
414.035	796.38
414.258	788.38
414.482	809.38
414.705	780.38
414.928	792.38
415.151	788.38
415.374	758.38
415.597	786.38
415.821	775.38
416.044	758.38
416.267	765.38
416.49	769.38
416.713	759.38
416.936	772.38
417.159	790.38
417.382	783.38
417.605	802.38
417.828	845.38
418.051	869.38
418.274	832.38
418.497	801.38
418.72	817.38
418.943	809.38
419.166	815.38
419.389	855.38
419.611	839.38
419.834	840.38
420.057	833.38
420.28	807.38
420.503	783.38
420.726	839.38
420.948	850.38
421.171	881.38
421.394	844.38
421.617	810.38
421.839	800.38
422.062	840.38
422.285	904.38
422.507	960.38
422.73	982.38
422.953	881.38
423.175	837.38
423.398	865.38
423.621	852.38
423.843	890.38
424.066	879.38
424.288	854.38
424.511	933.38
424.733	995.38
424.956	1041.38
425.178	998.38
425.401	967.38
425.623	945.38
425.846	834.38
426.068	853.38
426.291	815.38
426.513	829.38
426.735	858.38
426.958	946.38
427.18	1081.38
427.402	1287.38
427.625	1309.38
427.847	1036.38
428.069	847.38
428.292	808.38
428.514	763.38
428.736	767.38
428.958	754.38
429.181	747.38
429.403	757.38
429.625	781.38
429.847	822.38
430.069	851.38
430.292	810.38
430.514	730.38
430.736	739.38
430.958	762.38
431.18	711.38
431.402	721.38
431.624	720.38
431.846	700.38
432.068	710.38
432.29	752.38
432.512	750.38
432.734	753.38
432.956	774.38
433.178	777.38
433.4	745.38
433.622	737.38
433.844	724.38
434.066	737.38
434.287	748.38
434.509	763.38
434.731	774.38
434.953	813.38
435.175	802.38
435.397	830.38
435.618	897.38
435.84	947.38
436.062	1027.38
436.284	1003.38
436.505	832.38
436.727	815.38
436.949	772.38
437.17	739.38
437.392	749.38
437.614	811.38
437.835	957.38
438.057	1048.38
438.278	1107.38
438.5	1093.38
438.721	1103.38
438.943	968.38
439.165	820.38
439.386	817.38
439.608	825.38
439.829	908.38
440.05	972.38
440.272	997.38
440.493	850.38
440.715	828.38
440.936	782.38
441.158	787.38
441.379	832.38
441.6	858.38
441.822	917.38
442.043	980.38
442.264	1047.38
442.486	971.38
442.707	887.38
442.928	912.38
443.149	961.38
443.371	996.38
443.592	1092.38
443.813	1115.38
444.034	1070.38
444.255	924.38
444.476	893.38
444.698	960.38
444.919	944.38
445.14	959.38
445.361	998.38
445.582	1068.38
445.803	1204.38
446.024	1276.38
446.245	1163.38
446.466	962.38
446.687	803.38
446.908	799.38
447.129	749.38
447.35	739.38
447.571	773.38
447.792	742.38
448.013	759.38
448.234	821.38
448.455	941.38
448.675	1069.38
448.896	1043.38
449.117	888.38
449.338	1020.38
449.559	1139.38
449.779	1071.38
450	825.38
450.221	745.38
450.442	752.38
450.662	781.38
450.883	844.38
451.104	836.38
451.324	743.38
451.545	727.38
451.766	687.38
451.986	668.38
452.207	649.38
452.428	675.38
452.648	697.38
452.869	729.38
453.089	735.38
453.31	725.38
453.53	691.38
453.751	715.38
453.971	759.38
454.192	759.38
454.412	671.38
454.633	647.38
454.853	643.38
455.073	653.38
455.294	732.38
455.514	800.38
455.734	699.38
455.955	636.38
456.175	634.38
456.395	598.38
456.616	629.38
456.836	632.38
457.056	607.38
457.276	595.38
457.497	624.38
457.717	621.38
457.937	629.38
458.157	645.38
458.377	685.38
458.598	782.38
458.818	1021.38
459.038	1056.38
459.258	903.38
459.478	755.38
459.698	763.38
459.918	739.38
460.138	781.38
460.358	763.38
460.578	758.38
460.798	795.38
461.018	797.38
461.238	794.38
461.458	759.38
461.678	787.38
461.898	775.38
462.118	789.38
462.338	831.38
462.558	848.38
462.777	899.38
462.997	957.38
463.217	946.38
463.437	928.38
463.657	851.38
463.876	881.38
464.096	912.38
464.316	888.38
464.536	902.38
464.755	908.38
464.975	958.38
465.195	1186.38
465.414	1123.38
465.634	844.38
465.854	743.38
466.073	741.38
466.293	741.38
466.512	714.38
466.732	691.38
466.951	707.38
467.171	711.38
467.391	734.38
467.61	756.38
467.829	752.38
468.049	701.38
468.268	663.38
468.488	665.38
468.707	674.38
468.927	650.38
469.146	664.38
469.365	664.38
469.585	699.38
469.804	722.38
470.023	752.38
470.243	767.38
470.462	782.38
470.681	800.38
470.901	745.38
471.12	714.38
471.339	699.38
471.558	689.38
471.777	661.38
471.997	660.38
472.216	658.38
472.435	630.38
472.654	650.38
472.873	679.38
473.092	632.38
473.311	668.38
473.53	672.38
473.749	707.38
473.968	811.38
474.187	905.38
474.406	786.38
474.625	685.38
474.844	685.38
475.063	649.38
475.282	673.38
475.501	666.38
475.72	693.38
475.939	656.38
476.158	694.38
476.377	683.38
476.596	679.38
476.814	733.38
477.033	735.38
477.252	739.38
477.471	728.38
477.69	762.38
477.908	726.38
478.127	760.38
478.346	773.38
478.564	793.38
478.783	815.38
479.002	821.38
479.22	817.38
479.439	874.38
479.658	865.38
479.876	869.38
480.095	871.38
480.313	883.38
480.532	869.38
480.751	854.38
480.969	841.38
481.188	807.38
481.406	807.38
481.624	774.38
481.843	780.38
482.061	755.38
482.28	752.38
482.498	762.38
482.717	761.38
482.935	767.38
483.153	782.38
483.372	779.38
483.59	776.38
483.808	763.38
484.027	781.38
484.245	786.38
484.463	785.38
484.681	808.38
484.9	785.38
485.118	806.38
485.336	821.38
485.554	799.38
485.772	791.38
485.99	805.38
486.209	827.38
486.427	823.38
486.645	864.38
486.863	911.38
487.081	869.38
487.299	842.38
487.517	823.38
487.735	809.38
487.953	815.38
488.171	835.38
488.389	826.38
488.607	831.38
488.825	815.38
489.043	808.38
489.261	802.38
489.479	826.38
489.696	822.38
489.914	849.38
490.132	863.38
490.35	847.38
490.568	867.38
490.786	893.38
491.003	932.38
491.221	960.38
491.439	956.38
491.657	928.38
491.874	939.38
492.092	958.38
492.31	968.38
492.527	962.38
492.745	952.38
492.963	960.38
493.18	1000.38
493.398	987.38
493.615	975.38
493.833	992.38
494.05	957.38
494.268	991.38
494.485	944.38
494.703	956.38
494.92	967.38
495.138	939.38
495.355	973.38
495.573	972.38
495.79	967.38
496.008	985.38
496.225	973.38
496.442	949.38
496.66	999.38
496.877	949.38
497.094	1020.38
497.312	1008.38
497.529	997.38
497.746	1019.38
497.963	1071.38
498.181	1098.38
498.398	1133.38
498.615	1189.38
498.832	1242.38
499.049	1284.38
499.267	1363.38
499.484	1439.38
499.701	1480.38
499.918	1636.38
500.135	1796.38
500.352	1890.38
500.569	1921.38
500.786	1836.38
501.003	1700.38
501.22	1622.38
501.437	1540.38
501.654	1452.38
