Data from TestCu_HRD10591_00038.txt Node
Date: Thu Oct 05 14:05:18 EDT 2023
User: Yrep
Spectrometer: HR+D1059
Trigger mode: 1
Integration Time (sec): 1.000000E-1
Scans to average: 1
Electric dark correction enabled: true
Nonlinearity correction enabled: false
Boxcar width: 0
XAxis mode: Wavelengths
Number of Pixels in Spectrum: 2048
>>>>>Begin Spectral Data<<<<<
223.165	-11.19
223.4	-11.19
223.635	-11.19
223.869	-21.19
224.104	-23.19
224.338	-11.19
224.573	-17.19
224.808	-9.19
225.042	-24.19
225.277	-0.19
225.511	-11.19
225.746	-9.19
225.98	14.81
226.215	19.81
226.449	5.81
226.683	30.81
226.918	23.81
227.152	42.81
227.387	32.81
227.621	39.81
227.856	47.81
228.09	46.81
228.324	48.81
228.559	46.81
228.793	56.81
229.027	89.81
229.262	118.81
229.496	143.81
229.73	150.81
229.964	160.81
230.199	133.81
230.433	107.81
230.667	101.81
230.901	115.81
231.136	110.81
231.37	108.81
231.604	94.81
231.838	106.81
232.072	107.81
232.306	109.81
232.541	118.81
232.775	127.81
233.009	121.81
233.243	112.81
233.477	98.81
233.711	115.81
233.945	112.81
234.179	120.81
234.413	117.81
234.647	127.81
234.881	123.81
235.115	120.81
235.349	118.81
235.583	121.81
235.817	124.81
236.051	124.81
236.285	117.81
236.519	117.81
236.753	145.81
236.987	165.81
237.221	212.81
237.455	210.81
237.689	142.81
237.922	124.81
238.156	133.81
238.39	113.81
238.624	117.81
238.858	114.81
239.091	122.81
239.325	117.81
239.559	124.81
239.793	116.81
240.027	129.81
240.26	179.81
240.494	167.81
240.728	151.81
240.961	138.81
241.195	125.81
241.429	131.81
241.662	114.81
241.896	135.81
242.13	127.81
242.363	114.81
242.597	130.81
242.83	147.81
243.064	133.81
243.298	131.81
243.531	133.81
243.765	138.81
243.998	131.81
244.232	140.81
244.465	132.81
244.699	137.81
244.932	144.81
245.166	149.81
245.399	129.81
245.633	139.81
245.866	135.81
246.099	145.81
246.333	138.81
246.566	153.81
246.8	154.81
247.033	154.81
247.266	155.81
247.5	160.81
247.733	163.81
247.966	165.81
248.2	163.81
248.433	169.81
248.666	167.81
248.899	199.81
249.133	186.81
249.366	197.81
249.599	187.81
249.832	175.81
250.066	172.81
250.299	166.81
250.532	181.81
250.765	202.81
250.998	214.81
251.231	183.81
251.465	173.81
251.698	180.81
251.931	170.81
252.164	173.81
252.397	161.81
252.63	185.81
252.863	210.81
253.096	220.81
253.329	226.81
253.562	206.81
253.795	200.81
254.028	189.81
254.261	210.81
254.494	228.81
254.727	269.81
254.96	243.81
255.193	198.81
255.426	193.81
255.659	192.81
255.892	180.81
256.124	176.81
256.357	178.81
256.59	195.81
256.823	190.81
257.056	187.81
257.289	200.81
257.521	193.81
257.754	197.81
257.987	193.81
258.22	188.81
258.452	195.81
258.685	206.81
258.918	202.81
259.151	200.81
259.383	233.81
259.616	214.81
259.849	216.81
260.081	243.81
260.314	259.81
260.547	216.81
260.779	207.81
261.012	219.81
261.244	206.81
261.477	228.81
261.71	229.81
261.942	227.81
262.175	247.81
262.407	209.81
262.64	209.81
262.872	196.81
263.105	208.81
263.337	198.81
263.57	202.81
263.802	205.81
264.035	216.81
264.267	210.81
264.499	194.81
264.732	221.81
264.964	200.81
265.197	198.81
265.429	209.81
265.661	204.81
265.894	197.81
266.126	210.81
266.358	211.81
266.591	224.81
266.823	222.81
267.055	216.81
267.287	220.81
267.52	229.81
267.752	239.81
267.984	223.81
268.216	213.81
268.448	241.81
268.681	250.81
268.913	246.81
269.145	271.81
269.377	270.81
269.609	259.81
269.841	280.81
270.073	293.81
270.306	315.81
270.538	298.81
270.77	287.81
271.002	286.81
271.234	287.81
271.466	315.81
271.698	306.81
271.93	319.81
272.162	325.81
272.394	283.81
272.626	269.81
272.858	247.81
273.09	266.81
273.322	258.81
273.553	259.81
273.785	279.81
274.017	253.81
274.249	254.81
274.481	273.81
274.713	276.81
274.945	265.81
275.176	257.81
275.408	257.81
275.64	270.81
275.872	270.81
276.104	269.81
276.335	282.81
276.567	305.81
276.799	346.81
277.031	357.81
277.262	319.81
277.494	301.81
277.726	284.81
277.957	279.81
278.189	272.81
278.421	282.81
278.652	259.81
278.884	245.81
279.115	254.81
279.347	272.81
279.579	263.81
279.81	270.81
280.042	260.81
280.273	274.81
280.505	276.81
280.736	275.81
280.968	267.81
281.199	283.81
281.431	282.81
281.662	293.81
281.894	294.81
282.125	303.81
282.356	343.81
282.588	357.81
282.819	316.81
283.051	287.81
283.282	260.81
283.513	310.81
283.745	305.81
283.976	294.81
284.207	309.81
284.439	298.81
284.67	304.81
284.901	311.81
285.132	306.81
285.364	308.81
285.595	310.81
285.826	296.81
286.057	298.81
286.288	312.81
286.52	302.81
286.751	291.81
286.982	306.81
287.213	328.81
287.444	314.81
287.675	337.81
287.906	351.81
288.138	348.81
288.369	328.81
288.6	317.81
288.831	315.81
289.062	312.81
289.293	331.81
289.524	306.81
289.755	322.81
289.986	336.81
290.217	328.81
290.448	325.81
290.679	322.81
290.91	312.81
291.141	320.81
291.371	320.81
291.602	316.81
291.833	316.81
292.064	333.81
292.295	306.81
292.526	335.81
292.757	329.81
292.987	338.81
293.218	327.81
293.449	326.81
293.68	332.81
293.91	325.81
294.141	339.81
294.372	317.81
294.603	321.81
294.833	327.81
295.064	336.81
295.295	337.81
295.525	333.81
295.756	381.81
295.987	374.81
296.217	408.81
296.448	397.81
296.679	361.81
296.909	337.81
297.14	352.81
297.37	350.81
297.601	366.81
297.831	370.81
298.062	350.81
298.292	357.81
298.523	363.81
298.753	356.81
298.984	356.81
299.214	364.81
299.445	358.81
299.675	373.81
299.905	379.81
300.136	360.81
300.366	379.81
300.597	350.81
300.827	377.81
301.057	401.81
301.288	408.81
301.518	402.81
301.748	404.81
301.979	417.81
302.209	395.81
302.439	391.81
302.669	388.81
302.9	387.81
303.13	398.81
303.36	395.81
303.59	399.81
303.82	385.81
304.051	390.81
304.281	380.81
304.511	394.81
304.741	371.81
304.971	389.81
305.201	386.81
305.431	380.81
305.661	357.81
305.891	402.81
306.121	382.81
306.352	397.81
306.582	399.81
306.812	378.81
307.042	398.81
307.272	389.81
307.502	386.81
307.731	404.81
307.961	387.81
308.191	376.81
308.421	408.81
308.651	415.81
308.881	396.81
309.111	414.81
309.341	422.81
309.571	446.81
309.8	438.81
310.03	466.81
310.26	468.81
310.49	466.81
310.72	470.81
310.949	522.81
311.179	475.81
311.409	446.81
311.639	461.81
311.868	457.81
312.098	464.81
312.328	511.81
312.557	532.81
312.787	534.81
313.017	500.81
313.246	460.81
313.476	453.81
313.706	472.81
313.935	484.81
314.165	520.81
314.394	526.81
314.624	494.81
314.853	483.81
315.083	475.81
315.312	439.81
315.542	452.81
315.771	467.81
316.001	448.81
316.23	454.81
316.46	455.81
316.689	462.81
316.919	492.81
317.148	507.81
317.377	511.81
317.607	492.81
317.836	464.81
318.065	472.81
318.295	440.81
318.524	478.81
318.753	480.81
318.983	476.81
319.212	471.81
319.441	493.81
319.67	482.81
319.9	446.81
320.129	454.81
320.358	467.81
320.587	472.81
320.816	502.81
321.046	510.81
321.275	509.81
321.504	495.81
321.733	523.81
321.962	528.81
322.191	544.81
322.42	550.81
322.649	597.81
322.878	604.81
323.108	643.81
323.337	675.81
323.566	742.81
323.795	780.81
324.024	1078.81
324.253	1882.81
324.482	3178.81
324.71	4716.81
324.939	4127.81
325.168	1829.81
325.397	903.81
325.626	710.81
325.855	642.81
326.084	680.81
326.313	701.81
326.542	808.81
326.77	1054.81
326.999	1706.81
327.228	2716.81
327.457	3430.81
327.686	2314.81
327.914	1074.81
328.143	843.81
328.372	768.81
328.6	740.81
328.829	765.81
329.058	832.81
329.287	756.81
329.515	649.81
329.744	624.81
329.972	614.81
330.201	651.81
330.43	771.81
330.658	911.81
330.887	902.81
331.115	744.81
331.344	661.81
331.572	672.81
331.801	666.81
332.03	636.81
332.258	618.81
332.486	624.81
332.715	615.81
332.943	636.81
333.172	622.81
333.4	649.81
333.629	674.81
333.857	666.81
334.085	646.81
334.314	646.81
334.542	638.81
334.771	655.81
334.999	648.81
335.227	637.81
335.455	597.81
335.684	623.81
335.912	594.81
336.14	610.81
336.369	621.81
336.597	612.81
336.825	614.81
337.053	581.81
337.281	585.81
337.51	608.81
337.738	618.81
337.966	593.81
338.194	632.81
338.422	588.81
338.65	574.81
338.878	569.81
339.106	580.81
339.334	568.81
339.562	555.81
339.79	574.81
340.018	612.81
340.246	584.81
340.474	578.81
340.702	570.81
340.93	581.81
341.158	589.81
341.386	590.81
341.614	577.81
341.842	567.81
342.07	564.81
342.298	549.81
342.526	548.81
342.754	537.81
342.981	553.81
343.209	545.81
343.437	568.81
343.665	612.81
343.893	633.81
344.12	629.81
344.348	589.81
344.576	608.81
344.804	614.81
345.031	629.81
345.259	631.81
345.487	598.81
345.714	579.81
345.942	595.81
346.17	569.81
346.397	539.81
346.625	575.81
346.853	560.81
347.08	544.81
347.308	582.81
347.535	574.81
347.763	594.81
347.99	590.81
348.218	614.81
348.445	588.81
348.673	564.81
348.9	567.81
349.128	555.81
349.355	549.81
349.583	541.81
349.81	530.81
350.037	535.81
350.265	529.81
350.492	527.81
350.72	557.81
350.947	572.81
351.174	588.81
351.402	599.81
351.629	586.81
351.856	568.81
352.083	627.81
352.311	619.81
352.538	611.81
352.765	594.81
352.992	585.81
353.22	575.81
353.447	540.81
353.674	518.81
353.901	529.81
354.128	548.81
354.355	527.81
354.583	513.81
354.81	508.81
355.037	502.81
355.264	497.81
355.491	501.81
355.718	492.81
355.945	516.81
356.172	525.81
356.399	513.81
356.626	534.81
356.853	543.81
357.08	504.81
357.307	534.81
357.534	524.81
357.761	526.81
357.988	520.81
358.215	522.81
358.441	526.81
358.668	530.81
358.895	530.81
359.122	555.81
359.349	570.81
359.576	632.81
359.802	722.81
360.029	751.81
360.256	667.81
360.483	595.81
360.709	566.81
360.936	597.81
361.163	574.81
361.39	582.81
361.616	592.81
361.843	585.81
362.07	606.81
362.296	588.81
362.523	598.81
362.749	583.81
362.976	560.81
363.203	554.81
363.429	534.81
363.656	570.81
363.882	546.81
364.109	553.81
364.335	564.81
364.562	561.81
364.788	538.81
365.015	558.81
365.241	572.81
365.468	597.81
365.694	572.81
365.92	578.81
366.147	555.81
366.373	558.81
366.599	556.81
366.826	552.81
367.052	534.81
367.278	540.81
367.505	542.81
367.731	577.81
367.957	570.81
368.184	569.81
368.41	612.81
368.636	596.81
368.862	598.81
369.089	567.81
369.315	544.81
369.541	555.81
369.767	575.81
369.993	561.81
370.219	602.81
370.445	568.81
370.672	574.81
370.898	527.81
371.124	581.81
371.35	552.81
371.576	562.81
371.802	557.81
372.028	554.81
372.254	567.81
372.48	573.81
372.706	577.81
372.932	591.81
373.158	585.81
373.384	576.81
373.61	577.81
373.835	592.81
374.061	591.81
374.287	612.81
374.513	598.81
374.739	607.81
374.965	614.81
375.191	595.81
375.416	623.81
375.642	584.81
375.868	592.81
376.094	593.81
376.319	590.81
376.545	575.81
376.771	564.81
376.997	578.81
377.222	567.81
377.448	563.81
377.674	574.81
377.899	566.81
378.125	569.81
378.35	574.81
378.576	546.81
378.802	533.81
379.027	562.81
379.253	565.81
379.478	564.81
379.704	572.81
379.929	579.81
380.155	578.81
380.38	568.81
380.606	568.81
380.831	562.81
381.057	567.81
381.282	576.81
381.507	606.81
381.733	572.81
381.958	588.81
382.184	592.81
382.409	586.81
382.634	613.81
382.86	594.81
383.085	596.81
383.31	609.81
383.535	619.81
383.761	623.81
383.986	618.81
384.211	618.81
384.436	622.81
384.662	658.81
384.887	650.81
385.112	632.81
385.337	646.81
385.562	652.81
385.787	691.81
386.013	690.81
386.238	682.81
386.463	673.81
386.688	667.81
386.913	640.81
387.138	659.81
387.363	669.81
387.588	638.81
387.813	640.81
388.038	633.81
388.263	648.81
388.488	645.81
388.713	655.81
388.938	643.81
389.163	662.81
389.387	652.81
389.612	641.81
389.837	653.81
390.062	660.81
390.287	657.81
390.512	656.81
390.736	667.81
390.961	696.81
391.186	677.81
391.411	699.81
391.636	718.81
391.86	712.81
392.085	715.81
392.31	727.81
392.534	715.81
392.759	685.81
392.984	668.81
393.208	696.81
393.433	679.81
393.658	699.81
393.882	695.81
394.107	700.81
394.331	710.81
394.556	704.81
394.78	720.81
395.005	693.81
395.229	708.81
395.454	727.81
395.678	734.81
395.903	740.81
396.127	749.81
396.352	730.81
396.576	709.81
396.801	714.81
397.025	732.81
397.249	740.81
397.474	779.81
397.698	741.81
397.922	736.81
398.147	778.81
398.371	797.81
398.595	839.81
398.82	834.81
399.044	915.81
399.268	979.81
399.492	1103.81
399.717	1100.81
399.941	1055.81
400.165	1007.81
400.389	976.81
400.613	844.81
400.837	818.81
401.062	820.81
401.286	824.81
401.51	828.81
401.734	824.81
401.958	862.81
402.182	907.81
402.406	900.81
402.63	895.81
402.854	897.81
403.078	870.81
403.302	895.81
403.526	907.81
403.75	916.81
403.974	913.81
404.198	903.81
404.422	889.81
404.645	882.81
404.869	888.81
405.093	920.81
405.317	911.81
405.541	946.81
405.765	910.81
405.988	930.81
406.212	1052.81
406.436	1073.81
406.66	1026.81
406.883	1004.81
407.107	1030.81
407.331	1094.81
407.555	1136.81
407.778	1061.81
408.002	1008.81
408.226	940.81
408.449	949.81
408.673	923.81
408.896	939.81
409.12	950.81
409.344	881.81
409.567	894.81
409.791	851.81
410.014	862.81
410.238	892.81
410.461	885.81
410.685	882.81
410.908	884.81
411.132	898.81
411.355	919.81
411.578	860.81
411.802	828.81
412.025	838.81
412.249	818.81
412.472	830.81
412.695	809.81
412.919	791.81
413.142	788.81
413.365	794.81
413.589	806.81
413.812	761.81
414.035	771.81
414.258	812.81
414.482	812.81
414.705	808.81
414.928	787.81
415.151	769.81
415.374	804.81
415.597	786.81
415.821	782.81
416.044	778.81
416.267	782.81
416.49	788.81
416.713	782.81
416.936	765.81
417.159	765.81
417.382	782.81
417.605	792.81
417.828	814.81
418.051	834.81
418.274	795.81
418.497	812.81
418.72	828.81
418.943	801.81
419.166	837.81
419.389	849.81
419.611	828.81
419.834	823.81
420.057	798.81
420.28	777.81
420.503	795.81
420.726	838.81
420.948	836.81
421.171	862.81
421.394	854.81
421.617	806.81
421.839	833.81
422.062	855.81
422.285	871.81
422.507	942.81
422.73	954.81
422.953	900.81
423.175	845.81
423.398	859.81
423.621	863.81
423.843	885.81
424.066	854.81
424.288	872.81
424.511	901.81
424.733	960.81
424.956	1036.81
425.178	1000.81
425.401	982.81
425.623	932.81
425.846	860.81
426.068	835.81
426.291	808.81
426.513	805.81
426.735	843.81
426.958	942.81
427.18	1073.81
427.402	1232.81
427.625	1261.81
427.847	1016.81
428.069	814.81
428.292	794.81
428.514	781.81
428.736	760.81
428.958	736.81
429.181	749.81
429.403	728.81
429.625	770.81
429.847	814.81
430.069	872.81
430.292	771.81
430.514	730.81
430.736	736.81
430.958	724.81
431.18	711.81
431.402	717.81
431.624	724.81
431.846	734.81
432.068	713.81
432.29	711.81
432.512	716.81
432.734	756.81
432.956	739.81
433.178	747.81
433.4	740.81
433.622	739.81
433.844	718.81
434.066	742.81
434.287	752.81
434.509	768.81
434.731	807.81
434.953	790.81
435.175	808.81
435.397	835.81
435.618	860.81
435.84	922.81
436.062	1004.81
436.284	982.81
436.505	826.81
436.727	822.81
436.949	778.81
437.17	730.81
437.392	746.81
437.614	796.81
437.835	930.81
438.057	1012.81
438.278	1054.81
438.5	1045.81
438.721	1078.81
438.943	921.81
439.165	820.81
439.386	830.81
439.608	823.81
439.829	866.81
440.05	948.81
440.272	953.81
440.493	836.81
440.715	802.81
440.936	782.81
441.158	782.81
441.379	797.81
441.6	848.81
441.822	896.81
442.043	970.81
442.264	1020.81
442.486	949.81
442.707	886.81
442.928	893.81
443.149	919.81
443.371	990.81
443.592	1041.81
443.813	1146.81
444.034	1018.81
444.255	948.81
444.476	884.81
444.698	911.81
444.919	892.81
445.14	976.81
445.361	963.81
445.582	1033.81
445.803	1145.81
446.024	1193.81
446.245	1121.81
446.466	951.81
446.687	842.81
446.908	798.81
447.129	746.81
447.35	766.81
447.571	742.81
447.792	753.81
448.013	769.81
448.234	828.81
448.455	922.81
448.675	1048.81
448.896	999.81
449.117	917.81
449.338	983.81
449.559	1067.81
449.779	1033.81
450	838.81
450.221	756.81
450.442	704.81
450.662	760.81
450.883	782.81
451.104	809.81
451.324	738.81
451.545	694.81
451.766	684.81
451.986	686.81
452.207	658.81
452.428	659.81
452.648	668.81
452.869	694.81
453.089	720.81
453.31	727.81
453.53	690.81
453.751	701.81
453.971	730.81
454.192	758.81
454.412	684.81
454.633	658.81
454.853	649.81
455.073	667.81
455.294	714.81
455.514	760.81
455.734	695.81
455.955	623.81
456.175	610.81
456.395	610.81
456.616	591.81
456.836	591.81
457.056	612.81
457.276	609.81
457.497	629.81
457.717	621.81
457.937	624.81
458.157	658.81
458.377	671.81
458.598	830.81
458.818	977.81
459.038	975.81
459.258	866.81
459.478	744.81
459.698	748.81
459.918	749.81
460.138	763.81
460.358	768.81
460.578	796.81
460.798	771.81
461.018	785.81
461.238	791.81
461.458	802.81
461.678	772.81
461.898	790.81
462.118	822.81
462.338	820.81
462.558	835.81
462.777	873.81
462.997	928.81
463.217	949.81
463.437	910.81
463.657	869.81
463.876	891.81
464.096	901.81
464.316	894.81
464.536	912.81
464.755	880.81
464.975	948.81
465.195	1137.81
465.414	1058.81
465.634	840.81
465.854	773.81
466.073	736.81
466.293	691.81
466.512	703.81
466.732	698.81
466.951	675.81
467.171	704.81
467.391	726.81
467.61	751.81
467.829	719.81
468.049	705.81
468.268	673.81
468.488	659.81
468.707	664.81
468.927	661.81
469.146	667.81
469.365	666.81
469.585	680.81
469.804	735.81
470.023	750.81
470.243	738.81
470.462	767.81
470.681	807.81
470.901	741.81
471.12	738.81
471.339	702.81
471.558	704.81
471.777	653.81
471.997	672.81
472.216	666.81
472.435	654.81
472.654	657.81
472.873	631.81
473.092	645.81
473.311	647.81
473.53	667.81
473.749	696.81
473.968	808.81
474.187	892.81
474.406	794.81
474.625	700.81
474.844	660.81
475.063	655.81
475.282	682.81
475.501	647.81
475.72	678.81
475.939	684.81
476.158	687.81
476.377	677.81
476.596	716.81
476.814	725.81
477.033	721.81
477.252	708.81
477.471	726.81
477.69	749.81
477.908	762.81
478.127	745.81
478.346	773.81
478.564	810.81
478.783	800.81
479.002	827.81
479.22	830.81
479.439	842.81
479.658	863.81
479.876	860.81
480.095	901.81
480.313	882.81
480.532	875.81
480.751	844.81
480.969	809.81
481.188	824.81
481.406	798.81
481.624	758.81
481.843	775.81
482.061	750.81
482.28	761.81
482.498	750.81
482.717	719.81
482.935	766.81
483.153	767.81
483.372	771.81
483.59	778.81
483.808	761.81
484.027	747.81
484.245	772.81
484.463	810.81
484.681	798.81
484.9	801.81
485.118	812.81
485.336	814.81
485.554	812.81
485.772	813.81
485.99	825.81
486.209	818.81
486.427	844.81
486.645	875.81
486.863	882.81
487.081	877.81
487.299	839.81
487.517	800.81
487.735	800.81
487.953	811.81
488.171	816.81
488.389	843.81
488.607	842.81
488.825	799.81
489.043	799.81
489.261	834.81
489.479	819.81
489.696	828.81
489.914	854.81
490.132	828.81
490.35	845.81
490.568	874.81
490.786	864.81
491.003	908.81
491.221	917.81
491.439	959.81
491.657	924.81
491.874	940.81
492.092	962.81
492.31	943.81
492.527	970.81
492.745	987.81
492.963	950.81
493.18	967.81
493.398	985.81
493.615	957.81
493.833	948.81
494.05	955.81
494.268	940.81
494.485	975.81
494.703	972.81
494.92	944.81
495.138	964.81
495.355	1002.81
495.573	948.81
495.79	969.81
496.008	957.81
496.225	967.81
496.442	941.81
496.66	980.81
496.877	974.81
497.094	975.81
497.312	995.81
497.529	996.81
497.746	1056.81
497.963	1037.81
498.181	1141.81
498.398	1110.81
498.615	1173.81
498.832	1220.81
499.049	1278.81
499.267	1337.81
499.484	1420.81
499.701	1551.81
499.918	1622.81
500.135	1795.81
500.352	1940.81
500.569	1886.81
500.786	1869.81
501.003	1745.81
501.22	1632.81
501.437	1537.81
501.654	1474.81
501.871	1436.81
