Data from TestCu_HRD10591_00099.txt Node
Date: Thu Oct 05 14:06:19 EDT 2023
User: Yrep
Spectrometer: HR+D1059
Trigger mode: 1
Integration Time (sec): 1.000000E-1
Scans to average: 1
Electric dark correction enabled: true
Nonlinearity correction enabled: false
Boxcar width: 0
XAxis mode: Wavelengths
Number of Pixels in Spectrum: 2048
>>>>>Begin Spectral Data<<<<<
223.165	-21.81
223.4	-21.81
223.635	-21.81
223.869	-27.81
224.104	-21.81
224.338	-9.81
224.573	-14.81
224.808	-15.81
225.042	0.19
225.277	-14.81
225.511	-6.81
225.746	-1.81
225.98	15.19
226.215	27.19
226.449	15.19
226.683	23.19
226.918	23.19
227.152	31.19
227.387	32.19
227.621	48.19
227.856	58.19
228.09	44.19
228.324	53.19
228.559	55.19
228.793	80.19
229.027	116.19
229.262	144.19
229.496	159.19
229.73	172.19
229.964	170.19
230.199	120.19
230.433	114.19
230.667	94.19
230.901	105.19
231.136	127.19
231.37	114.19
231.604	107.19
231.838	104.19
232.072	117.19
232.306	137.19
232.541	110.19
232.775	112.19
233.009	115.19
233.243	121.19
233.477	123.19
233.711	127.19
233.945	116.19
234.179	122.19
234.413	112.19
234.647	106.19
234.881	124.19
235.115	129.19
235.349	116.19
235.583	119.19
235.817	130.19
236.051	139.19
236.285	120.19
236.519	146.19
236.753	156.19
236.987	184.19
237.221	228.19
237.455	231.19
237.689	159.19
237.922	128.19
238.156	129.19
238.39	105.19
238.624	118.19
238.858	134.19
239.091	140.19
239.325	125.19
239.559	139.19
239.793	150.19
240.027	140.19
240.26	165.19
240.494	158.19
240.728	152.19
240.961	144.19
241.195	145.19
241.429	122.19
241.662	135.19
241.896	138.19
242.13	140.19
242.363	134.19
242.597	139.19
242.83	141.19
243.064	138.19
243.298	130.19
243.531	144.19
243.765	139.19
243.998	145.19
244.232	144.19
244.465	150.19
244.699	152.19
244.932	136.19
245.166	133.19
245.399	142.19
245.633	135.19
245.866	142.19
246.099	143.19
246.333	128.19
246.566	147.19
246.8	142.19
247.033	156.19
247.266	164.19
247.5	154.19
247.733	185.19
247.966	181.19
248.2	145.19
248.433	171.19
248.666	178.19
248.899	197.19
249.133	194.19
249.366	204.19
249.599	203.19
249.832	174.19
250.066	180.19
250.299	185.19
250.532	186.19
250.765	207.19
250.998	215.19
251.231	216.19
251.465	193.19
251.698	185.19
251.931	200.19
252.164	202.19
252.397	202.19
252.63	188.19
252.863	216.19
253.096	242.19
253.329	231.19
253.562	206.19
253.795	193.19
254.028	218.19
254.261	216.19
254.494	256.19
254.727	273.19
254.96	259.19
255.193	230.19
255.426	215.19
255.659	199.19
255.892	212.19
256.124	189.19
256.357	210.19
256.59	213.19
256.823	186.19
257.056	200.19
257.289	206.19
257.521	203.19
257.754	190.19
257.987	200.19
258.22	201.19
258.452	206.19
258.685	201.19
258.918	194.19
259.151	214.19
259.383	238.19
259.616	242.19
259.849	239.19
260.081	260.19
260.314	281.19
260.547	248.19
260.779	234.19
261.012	208.19
261.244	213.19
261.477	233.19
261.71	242.19
261.942	276.19
262.175	279.19
262.407	254.19
262.64	214.19
262.872	240.19
263.105	227.19
263.337	210.19
263.57	210.19
263.802	212.19
264.035	215.19
264.267	217.19
264.499	209.19
264.732	214.19
264.964	222.19
265.197	226.19
265.429	226.19
265.661	209.19
265.894	216.19
266.126	235.19
266.358	218.19
266.591	212.19
266.823	210.19
267.055	235.19
267.287	240.19
267.52	220.19
267.752	219.19
267.984	238.19
268.216	247.19
268.448	257.19
268.681	266.19
268.913	290.19
269.145	312.19
269.377	279.19
269.609	261.19
269.841	281.19
270.073	307.19
270.306	337.19
270.538	336.19
270.77	301.19
271.002	282.19
271.234	308.19
271.466	330.19
271.698	314.19
271.93	308.19
272.162	329.19
272.394	303.19
272.626	296.19
272.858	266.19
273.09	264.19
273.322	268.19
273.553	262.19
273.785	251.19
274.017	258.19
274.249	270.19
274.481	273.19
274.713	276.19
274.945	268.19
275.176	292.19
275.408	278.19
275.64	264.19
275.872	272.19
276.104	264.19
276.335	294.19
276.567	328.19
276.799	361.19
277.031	364.19
277.262	350.19
277.494	321.19
277.726	293.19
277.957	291.19
278.189	301.19
278.421	292.19
278.652	288.19
278.884	299.19
279.115	284.19
279.347	286.19
279.579	271.19
279.81	283.19
280.042	291.19
280.273	306.19
280.505	284.19
280.736	275.19
280.968	287.19
281.199	296.19
281.431	285.19
281.662	288.19
281.894	302.19
282.125	314.19
282.356	346.19
282.588	385.19
282.819	334.19
283.051	294.19
283.282	318.19
283.513	302.19
283.745	302.19
283.976	319.19
284.207	302.19
284.439	303.19
284.67	330.19
284.901	316.19
285.132	300.19
285.364	306.19
285.595	304.19
285.826	307.19
286.057	328.19
286.288	297.19
286.52	317.19
286.751	327.19
286.982	348.19
287.213	311.19
287.444	325.19
287.675	333.19
287.906	350.19
288.138	344.19
288.369	338.19
288.6	336.19
288.831	343.19
289.062	333.19
289.293	328.19
289.524	337.19
289.755	334.19
289.986	322.19
290.217	328.19
290.448	329.19
290.679	333.19
290.91	330.19
291.141	334.19
291.371	310.19
291.602	338.19
291.833	341.19
292.064	333.19
292.295	332.19
292.526	352.19
292.757	344.19
292.987	344.19
293.218	334.19
293.449	347.19
293.68	350.19
293.91	345.19
294.141	339.19
294.372	336.19
294.603	339.19
294.833	371.19
295.064	346.19
295.295	372.19
295.525	364.19
295.756	378.19
295.987	409.19
296.217	445.19
296.448	404.19
296.679	362.19
296.909	365.19
297.14	358.19
297.37	352.19
297.601	366.19
297.831	361.19
298.062	381.19
298.292	374.19
298.523	385.19
298.753	374.19
298.984	371.19
299.214	385.19
299.445	379.19
299.675	405.19
299.905	384.19
300.136	387.19
300.366	381.19
300.597	401.19
300.827	415.19
301.057	446.19
301.288	421.19
301.518	433.19
301.748	400.19
301.979	425.19
302.209	420.19
302.439	431.19
302.669	399.19
302.9	395.19
303.13	394.19
303.36	416.19
303.59	422.19
303.82	432.19
304.051	412.19
304.281	423.19
304.511	400.19
304.741	401.19
304.971	385.19
305.201	387.19
305.431	425.19
305.661	421.19
305.891	407.19
306.121	416.19
306.352	432.19
306.582	420.19
306.812	421.19
307.042	389.19
307.272	407.19
307.502	390.19
307.731	407.19
307.961	403.19
308.191	425.19
308.421	406.19
308.651	406.19
308.881	429.19
309.111	418.19
309.341	443.19
309.571	460.19
309.8	497.19
310.03	497.19
310.26	489.19
310.49	499.19
310.72	521.19
310.949	546.19
311.179	498.19
311.409	486.19
311.639	486.19
311.868	492.19
312.098	494.19
312.328	522.19
312.557	560.19
312.787	570.19
313.017	536.19
313.246	494.19
313.476	472.19
313.706	491.19
313.935	516.19
314.165	552.19
314.394	554.19
314.624	521.19
314.853	522.19
315.083	506.19
315.312	474.19
315.542	475.19
315.771	482.19
316.001	473.19
316.23	468.19
316.46	485.19
316.689	501.19
316.919	509.19
317.148	503.19
317.377	527.19
317.607	514.19
317.836	503.19
318.065	469.19
318.295	473.19
318.524	465.19
318.753	456.19
318.983	487.19
319.212	509.19
319.441	515.19
319.67	516.19
319.9	486.19
320.129	487.19
320.358	496.19
320.587	504.19
320.816	523.19
321.046	512.19
321.275	507.19
321.504	512.19
321.733	542.19
321.962	552.19
322.191	583.19
322.42	603.19
322.649	618.19
322.878	650.19
323.108	701.19
323.337	747.19
323.566	808.19
323.795	912.19
324.024	1228.19
324.253	2117.19
324.482	3647.19
324.71	5424.19
324.939	4766.19
325.168	2087.19
325.397	998.19
325.626	777.19
325.855	712.19
326.084	715.19
326.313	750.19
326.542	844.19
326.77	1172.19
326.999	1928.19
327.228	3166.19
327.457	3962.19
327.686	2580.19
327.914	1224.19
328.143	950.19
328.372	882.19
328.6	845.19
328.829	857.19
329.058	945.19
329.287	842.19
329.515	696.19
329.744	637.19
329.972	678.19
330.201	716.19
330.43	843.19
330.658	988.19
330.887	1009.19
331.115	814.19
331.344	704.19
331.572	701.19
331.801	735.19
332.03	698.19
332.258	671.19
332.486	654.19
332.715	621.19
332.943	639.19
333.172	682.19
333.4	648.19
333.629	700.19
333.857	678.19
334.085	663.19
334.314	681.19
334.542	678.19
334.771	671.19
334.999	667.19
335.227	649.19
335.455	657.19
335.684	633.19
335.912	650.19
336.14	620.19
336.369	660.19
336.597	654.19
336.825	654.19
337.053	617.19
337.281	612.19
337.51	606.19
337.738	633.19
337.966	611.19
338.194	639.19
338.422	601.19
338.65	595.19
338.878	610.19
339.106	586.19
339.334	608.19
339.562	601.19
339.79	594.19
340.018	602.19
340.246	602.19
340.474	611.19
340.702	576.19
340.93	582.19
341.158	587.19
341.386	606.19
341.614	606.19
341.842	591.19
342.07	576.19
342.298	614.19
342.526	562.19
342.754	572.19
342.981	576.19
343.209	590.19
343.437	627.19
343.665	645.19
343.893	638.19
344.12	641.19
344.348	649.19
344.576	628.19
344.804	638.19
345.031	655.19
345.259	640.19
345.487	631.19
345.714	616.19
345.942	585.19
346.17	579.19
346.397	606.19
346.625	585.19
346.853	582.19
347.08	599.19
347.308	595.19
347.535	632.19
347.763	619.19
347.99	609.19
348.218	643.19
348.445	642.19
348.673	612.19
348.9	593.19
349.128	550.19
349.355	552.19
349.583	552.19
349.81	565.19
350.037	554.19
350.265	576.19
350.492	533.19
350.72	586.19
350.947	586.19
351.174	626.19
351.402	646.19
351.629	594.19
351.856	628.19
352.083	673.19
352.311	678.19
352.538	677.19
352.765	630.19
352.992	620.19
353.22	588.19
353.447	584.19
353.674	558.19
353.901	523.19
354.128	560.19
354.355	534.19
354.583	550.19
354.81	556.19
355.037	539.19
355.264	553.19
355.491	530.19
355.718	540.19
355.945	521.19
356.172	529.19
356.399	530.19
356.626	533.19
356.853	545.19
357.08	544.19
357.307	542.19
357.534	539.19
357.761	518.19
357.988	546.19
358.215	547.19
358.441	551.19
358.668	554.19
358.895	568.19
359.122	574.19
359.349	616.19
359.576	690.19
359.802	740.19
360.029	770.19
360.256	715.19
360.483	661.19
360.709	582.19
360.936	598.19
361.163	620.19
361.39	612.19
361.616	611.19
361.843	650.19
362.07	633.19
362.296	641.19
362.523	626.19
362.749	621.19
362.976	592.19
363.203	579.19
363.429	562.19
363.656	584.19
363.882	573.19
364.109	562.19
364.335	590.19
364.562	572.19
364.788	577.19
365.015	551.19
365.241	572.19
365.468	628.19
365.694	623.19
365.92	604.19
366.147	579.19
366.373	571.19
366.599	578.19
366.826	563.19
367.052	556.19
367.278	577.19
367.505	580.19
367.731	581.19
367.957	599.19
368.184	607.19
368.41	602.19
368.636	630.19
368.862	608.19
369.089	567.19
369.315	580.19
369.541	584.19
369.767	600.19
369.993	597.19
370.219	576.19
370.445	562.19
370.672	575.19
370.898	591.19
371.124	585.19
371.35	596.19
371.576	561.19
371.802	586.19
372.028	602.19
372.254	586.19
372.48	595.19
372.706	593.19
372.932	586.19
373.158	581.19
373.384	595.19
373.61	593.19
373.835	607.19
374.061	615.19
374.287	625.19
374.513	599.19
374.739	628.19
374.965	611.19
375.191	623.19
375.416	612.19
375.642	596.19
375.868	594.19
376.094	597.19
376.319	594.19
376.545	582.19
376.771	596.19
376.997	608.19
377.222	573.19
377.448	604.19
377.674	586.19
377.899	575.19
378.125	572.19
378.35	573.19
378.576	566.19
378.802	562.19
379.027	576.19
379.253	590.19
379.478	572.19
379.704	574.19
379.929	584.19
380.155	588.19
380.38	606.19
380.606	580.19
380.831	598.19
381.057	585.19
381.282	608.19
381.507	600.19
381.733	614.19
381.958	594.19
382.184	632.19
382.409	631.19
382.634	626.19
382.86	629.19
383.085	634.19
383.31	614.19
383.535	643.19
383.761	628.19
383.986	639.19
384.211	633.19
384.436	633.19
384.662	664.19
384.887	673.19
385.112	662.19
385.337	660.19
385.562	691.19
385.787	690.19
386.013	716.19
386.238	724.19
386.463	677.19
386.688	667.19
386.913	640.19
387.138	664.19
387.363	671.19
387.588	676.19
387.813	675.19
388.038	673.19
388.263	660.19
388.488	699.19
388.713	664.19
388.938	676.19
389.163	685.19
389.387	678.19
389.612	686.19
389.837	695.19
390.062	664.19
390.287	665.19
390.512	668.19
390.736	694.19
390.961	673.19
391.186	707.19
391.411	724.19
391.636	736.19
391.86	758.19
392.085	750.19
392.31	734.19
392.534	721.19
392.759	714.19
392.984	716.19
393.208	709.19
393.433	687.19
393.658	686.19
393.882	700.19
394.107	717.19
394.331	722.19
394.556	722.19
394.78	729.19
395.005	718.19
395.229	724.19
395.454	731.19
395.678	757.19
395.903	751.19
396.127	763.19
396.352	738.19
396.576	722.19
396.801	712.19
397.025	729.19
397.249	756.19
397.474	760.19
397.698	760.19
397.922	778.19
398.147	792.19
398.371	794.19
398.595	837.19
398.82	828.19
399.044	934.19
399.268	997.19
399.492	1111.19
399.717	1090.19
399.941	1093.19
400.165	1059.19
400.389	988.19
400.613	901.19
400.837	871.19
401.062	851.19
401.286	853.19
401.51	831.19
401.734	847.19
401.958	865.19
402.182	919.19
402.406	988.19
402.63	917.19
402.854	892.19
403.078	903.19
403.302	898.19
403.526	902.19
403.75	910.19
403.974	924.19
404.198	924.19
404.422	953.19
404.645	899.19
404.869	912.19
405.093	941.19
405.317	957.19
405.541	974.19
405.765	979.19
405.988	961.19
406.212	1055.19
406.436	1082.19
406.66	1061.19
406.883	1020.19
407.107	1043.19
407.331	1149.19
407.555	1157.19
407.778	1089.19
408.002	1015.19
408.226	984.19
408.449	986.19
408.673	947.19
408.896	948.19
409.12	985.19
409.344	936.19
409.567	906.19
409.791	872.19
410.014	852.19
410.238	880.19
410.461	884.19
410.685	885.19
410.908	933.19
411.132	957.19
411.355	929.19
411.578	883.19
411.802	843.19
412.025	858.19
412.249	854.19
412.472	827.19
412.695	816.19
412.919	856.19
413.142	830.19
413.365	793.19
413.589	855.19
413.812	802.19
414.035	814.19
414.258	773.19
414.482	796.19
414.705	791.19
414.928	808.19
415.151	818.19
415.374	807.19
415.597	798.19
415.821	813.19
416.044	771.19
416.267	782.19
416.49	769.19
416.713	792.19
416.936	837.19
417.159	798.19
417.382	807.19
417.605	828.19
417.828	865.19
418.051	848.19
418.274	818.19
418.497	814.19
418.72	807.19
418.943	846.19
419.166	831.19
419.389	864.19
419.611	835.19
419.834	836.19
420.057	823.19
420.28	808.19
420.503	797.19
420.726	805.19
420.948	858.19
421.171	903.19
421.394	895.19
421.617	835.19
421.839	824.19
422.062	878.19
422.285	886.19
422.507	959.19
422.73	979.19
422.953	913.19
423.175	857.19
423.398	871.19
423.621	870.19
423.843	879.19
424.066	873.19
424.288	912.19
424.511	981.19
424.733	1026.19
424.956	1047.19
425.178	1022.19
425.401	1031.19
425.623	954.19
425.846	856.19
426.068	871.19
426.291	827.19
426.513	822.19
426.735	883.19
426.958	993.19
427.18	1135.19
427.402	1284.19
427.625	1319.19
427.847	1043.19
428.069	843.19
428.292	794.19
428.514	774.19
428.736	783.19
428.958	768.19
429.181	768.19
429.403	760.19
429.625	798.19
429.847	843.19
430.069	883.19
430.292	822.19
430.514	768.19
430.736	761.19
430.958	757.19
431.18	763.19
431.402	743.19
431.624	768.19
431.846	742.19
432.068	731.19
432.29	719.19
432.512	745.19
432.734	763.19
432.956	784.19
433.178	764.19
433.4	769.19
433.622	764.19
433.844	764.19
434.066	741.19
434.287	736.19
434.509	803.19
434.731	815.19
434.953	827.19
435.175	842.19
435.397	856.19
435.618	891.19
435.84	978.19
436.062	1070.19
436.284	1017.19
436.505	857.19
436.727	836.19
436.949	798.19
437.17	782.19
437.392	783.19
437.614	843.19
437.835	961.19
438.057	1072.19
438.278	1108.19
438.5	1115.19
438.721	1136.19
438.943	952.19
439.165	871.19
439.386	826.19
439.608	858.19
439.829	896.19
440.05	988.19
440.272	1033.19
440.493	879.19
440.715	814.19
440.936	816.19
441.158	845.19
441.379	820.19
441.6	871.19
441.822	954.19
442.043	967.19
442.264	1064.19
442.486	976.19
442.707	906.19
442.928	904.19
443.149	1004.19
443.371	1012.19
443.592	1106.19
443.813	1134.19
444.034	1094.19
444.255	940.19
444.476	904.19
444.698	932.19
444.919	949.19
445.14	997.19
445.361	1014.19
445.582	1070.19
445.803	1231.19
446.024	1285.19
446.245	1206.19
446.466	1001.19
446.687	845.19
446.908	818.19
447.129	784.19
447.35	761.19
447.571	782.19
447.792	770.19
448.013	812.19
448.234	856.19
448.455	969.19
448.675	1075.19
448.896	1113.19
449.117	948.19
449.338	1003.19
449.559	1138.19
449.779	1094.19
450	858.19
450.221	763.19
450.442	753.19
450.662	807.19
450.883	844.19
451.104	827.19
451.324	779.19
451.545	726.19
451.766	725.19
451.986	696.19
452.207	706.19
452.428	675.19
452.648	701.19
452.869	743.19
453.089	754.19
453.31	743.19
453.53	728.19
453.751	730.19
453.971	770.19
454.192	778.19
454.412	707.19
454.633	655.19
454.853	673.19
455.073	678.19
455.294	748.19
455.514	791.19
455.734	711.19
455.955	646.19
456.175	634.19
456.395	611.19
456.616	608.19
456.836	627.19
457.056	641.19
457.276	618.19
457.497	664.19
457.717	633.19
457.937	647.19
458.157	679.19
458.377	726.19
458.598	858.19
458.818	1057.19
459.038	1061.19
459.258	944.19
459.478	822.19
459.698	745.19
459.918	790.19
460.138	809.19
460.358	798.19
460.578	811.19
460.798	815.19
461.018	799.19
461.238	784.19
461.458	800.19
461.678	795.19
461.898	811.19
462.118	822.19
462.338	825.19
462.558	883.19
462.777	916.19
462.997	939.19
463.217	961.19
463.437	951.19
463.657	892.19
463.876	896.19
464.096	905.19
464.316	924.19
464.536	916.19
464.755	944.19
464.975	991.19
465.195	1233.19
465.414	1156.19
465.634	857.19
465.854	790.19
466.073	766.19
466.293	746.19
466.512	694.19
466.732	717.19
466.951	721.19
467.171	734.19
467.391	772.19
467.61	787.19
467.829	752.19
468.049	724.19
468.268	683.19
468.488	674.19
468.707	677.19
468.927	688.19
469.146	686.19
469.365	699.19
469.585	727.19
469.804	757.19
470.023	784.19
470.243	762.19
470.462	808.19
470.681	845.19
470.901	744.19
471.12	725.19
471.339	739.19
471.558	723.19
471.777	681.19
471.997	654.19
472.216	667.19
472.435	638.19
472.654	650.19
472.873	661.19
473.092	672.19
473.311	664.19
473.53	683.19
473.749	721.19
473.968	848.19
474.187	953.19
474.406	818.19
474.625	689.19
474.844	681.19
475.063	696.19
475.282	679.19
475.501	680.19
475.72	701.19
475.939	691.19
476.158	691.19
476.377	716.19
476.596	722.19
476.814	729.19
477.033	749.19
477.252	725.19
477.471	755.19
477.69	787.19
477.908	767.19
478.127	793.19
478.346	800.19
478.564	835.19
478.783	844.19
479.002	825.19
479.22	851.19
479.439	898.19
479.658	891.19
479.876	905.19
480.095	898.19
480.313	926.19
480.532	904.19
480.751	870.19
480.969	872.19
481.188	853.19
481.406	825.19
481.624	803.19
481.843	787.19
482.061	784.19
482.28	773.19
482.498	756.19
482.717	757.19
482.935	767.19
483.153	787.19
483.372	795.19
483.59	783.19
483.808	778.19
484.027	787.19
484.245	784.19
484.463	819.19
484.681	830.19
484.9	809.19
485.118	828.19
485.336	822.19
485.554	808.19
485.772	820.19
485.99	810.19
486.209	868.19
486.427	843.19
486.645	915.19
486.863	940.19
487.081	892.19
487.299	854.19
487.517	827.19
487.735	822.19
487.953	852.19
488.171	859.19
488.389	857.19
488.607	848.19
488.825	809.19
489.043	836.19
489.261	837.19
489.479	863.19
489.696	848.19
489.914	864.19
490.132	825.19
490.35	859.19
490.568	918.19
490.786	937.19
491.003	971.19
491.221	971.19
491.439	988.19
491.657	1015.19
491.874	1005.19
492.092	1010.19
492.31	979.19
492.527	1000.19
492.745	990.19
492.963	986.19
493.18	1016.19
493.398	1034.19
493.615	1037.19
493.833	1013.19
494.05	1007.19
494.268	1014.19
494.485	992.19
494.703	971.19
494.92	992.19
495.138	998.19
495.355	1006.19
495.573	989.19
495.79	1038.19
496.008	1006.19
496.225	1024.19
496.442	990.19
496.66	977.19
496.877	1010.19
497.094	1033.19
497.312	1062.19
497.529	1054.19
497.746	1083.19
497.963	1072.19
498.181	1147.19
498.398	1146.19
498.615	1212.19
498.832	1267.19
499.049	1318.19
499.267	1374.19
499.484	1473.19
499.701	1594.19
499.918	1690.19
500.135	1835.19
500.352	1947.19
500.569	1921.19
500.786	1834.19
501.003	1788.19
501.22	1675.19
501.437	1576.19
