Data from TestCu_HRD10591_00028.txt Node
Date: Thu Oct 05 14:05:09 EDT 2023
User: Yrep
Spectrometer: HR+D1059
Trigger mode: 1
Integration Time (sec): 1.000000E-1
Scans to average: 1
Electric dark correction enabled: true
Nonlinearity correction enabled: false
Boxcar width: 0
XAxis mode: Wavelengths
Number of Pixels in Spectrum: 2048
>>>>>Begin Spectral Data<<<<<
223.165	-14.25
223.4	-14.25
223.635	-14.25
223.869	-28.25
224.104	-16.25
224.338	-17.25
224.573	-14.25
224.808	-6.25
225.042	-11.25
225.277	-5.25
225.511	-3.25
225.746	8.75
225.98	6.75
226.215	0.75
226.449	15.75
226.683	19.75
226.918	33.75
227.152	30.75
227.387	45.75
227.621	36.75
227.856	31.75
228.09	35.75
228.324	53.75
228.559	53.75
228.793	46.75
229.027	93.75
229.262	114.75
229.496	137.75
229.73	159.75
229.964	169.75
230.199	127.75
230.433	92.75
230.667	108.75
230.901	89.75
231.136	99.75
231.37	102.75
231.604	109.75
231.838	108.75
232.072	108.75
232.306	100.75
232.541	113.75
232.775	111.75
233.009	114.75
233.243	116.75
233.477	111.75
233.711	121.75
233.945	102.75
234.179	110.75
234.413	122.75
234.647	109.75
234.881	109.75
235.115	119.75
235.349	125.75
235.583	118.75
235.817	128.75
236.051	121.75
236.285	125.75
236.519	125.75
236.753	142.75
236.987	181.75
237.221	220.75
237.455	230.75
237.689	155.75
237.922	138.75
238.156	131.75
238.39	125.75
238.624	124.75
238.858	115.75
239.091	125.75
239.325	121.75
239.559	119.75
239.793	120.75
240.027	143.75
240.26	154.75
240.494	157.75
240.728	144.75
240.961	154.75
241.195	132.75
241.429	124.75
241.662	130.75
241.896	125.75
242.13	131.75
242.363	131.75
242.597	128.75
242.83	127.75
243.064	133.75
243.298	146.75
243.531	133.75
243.765	131.75
243.998	130.75
244.232	133.75
244.465	133.75
244.699	153.75
244.932	139.75
245.166	127.75
245.399	133.75
245.633	135.75
245.866	133.75
246.099	144.75
246.333	137.75
246.566	141.75
246.8	145.75
247.033	164.75
247.266	160.75
247.5	162.75
247.733	153.75
247.966	157.75
248.2	168.75
248.433	156.75
248.666	176.75
248.899	193.75
249.133	198.75
249.366	193.75
249.599	203.75
249.832	176.75
250.066	168.75
250.299	174.75
250.532	176.75
250.765	216.75
250.998	224.75
251.231	195.75
251.465	177.75
251.698	169.75
251.931	170.75
252.164	180.75
252.397	185.75
252.63	200.75
252.863	196.75
253.096	208.75
253.329	222.75
253.562	204.75
253.795	189.75
254.028	196.75
254.261	225.75
254.494	243.75
254.727	266.75
254.96	258.75
255.193	215.75
255.426	210.75
255.659	192.75
255.892	176.75
256.124	184.75
256.357	186.75
256.59	193.75
256.823	180.75
257.056	183.75
257.289	188.75
257.521	202.75
257.754	194.75
257.987	206.75
258.22	189.75
258.452	184.75
258.685	198.75
258.918	189.75
259.151	204.75
259.383	209.75
259.616	218.75
259.849	232.75
260.081	227.75
260.314	233.75
260.547	248.75
260.779	204.75
261.012	226.75
261.244	216.75
261.477	204.75
261.71	222.75
261.942	259.75
262.175	244.75
262.407	218.75
262.64	214.75
262.872	216.75
263.105	204.75
263.337	218.75
263.57	214.75
263.802	234.75
264.035	204.75
264.267	189.75
264.499	201.75
264.732	227.75
264.964	220.75
265.197	232.75
265.429	209.75
265.661	208.75
265.894	205.75
266.126	232.75
266.358	225.75
266.591	208.75
266.823	225.75
267.055	230.75
267.287	227.75
267.52	218.75
267.752	216.75
267.984	219.75
268.216	244.75
268.448	242.75
268.681	258.75
268.913	288.75
269.145	300.75
269.377	284.75
269.609	259.75
269.841	257.75
270.073	290.75
270.306	320.75
270.538	318.75
270.77	297.75
271.002	290.75
271.234	292.75
271.466	309.75
271.698	314.75
271.93	302.75
272.162	309.75
272.394	286.75
272.626	285.75
272.858	272.75
273.09	251.75
273.322	261.75
273.553	254.75
273.785	269.75
274.017	253.75
274.249	271.75
274.481	274.75
274.713	270.75
274.945	277.75
275.176	294.75
275.408	284.75
275.64	269.75
275.872	284.75
276.104	275.75
276.335	290.75
276.567	314.75
276.799	330.75
277.031	353.75
277.262	327.75
277.494	318.75
277.726	298.75
277.957	275.75
278.189	264.75
278.421	277.75
278.652	289.75
278.884	292.75
279.115	274.75
279.347	278.75
279.579	284.75
279.81	274.75
280.042	272.75
280.273	269.75
280.505	284.75
280.736	284.75
280.968	294.75
281.199	275.75
281.431	282.75
281.662	284.75
281.894	300.75
282.125	304.75
282.356	361.75
282.588	367.75
282.819	321.75
283.051	296.75
283.282	283.75
283.513	316.75
283.745	291.75
283.976	317.75
284.207	297.75
284.439	296.75
284.67	315.75
284.901	298.75
285.132	299.75
285.364	307.75
285.595	312.75
285.826	282.75
286.057	298.75
286.288	307.75
286.52	288.75
286.751	301.75
286.982	303.75
287.213	308.75
287.444	333.75
287.675	324.75
287.906	336.75
288.138	341.75
288.369	317.75
288.6	363.75
288.831	319.75
289.062	330.75
289.293	308.75
289.524	323.75
289.755	317.75
289.986	329.75
290.217	311.75
290.448	302.75
290.679	312.75
290.91	340.75
291.141	316.75
291.371	323.75
291.602	344.75
291.833	316.75
292.064	306.75
292.295	337.75
292.526	336.75
292.757	349.75
292.987	337.75
293.218	327.75
293.449	331.75
293.68	337.75
293.91	336.75
294.141	356.75
294.372	323.75
294.603	347.75
294.833	350.75
295.064	336.75
295.295	346.75
295.525	331.75
295.756	376.75
295.987	404.75
296.217	409.75
296.448	404.75
296.679	350.75
296.909	337.75
297.14	358.75
297.37	372.75
297.601	358.75
297.831	367.75
298.062	372.75
298.292	364.75
298.523	359.75
298.753	377.75
298.984	370.75
299.214	375.75
299.445	374.75
299.675	363.75
299.905	378.75
300.136	374.75
300.366	363.75
300.597	380.75
300.827	390.75
301.057	391.75
301.288	398.75
301.518	399.75
301.748	387.75
301.979	420.75
302.209	395.75
302.439	402.75
302.669	388.75
302.9	393.75
303.13	399.75
303.36	406.75
303.59	410.75
303.82	418.75
304.051	394.75
304.281	398.75
304.511	392.75
304.741	383.75
304.971	365.75
305.201	397.75
305.431	380.75
305.661	415.75
305.891	408.75
306.121	395.75
306.352	427.75
306.582	427.75
306.812	405.75
307.042	411.75
307.272	384.75
307.502	381.75
307.731	405.75
307.961	393.75
308.191	400.75
308.421	405.75
308.651	409.75
308.881	416.75
309.111	416.75
309.341	441.75
309.571	426.75
309.8	456.75
310.03	469.75
310.26	484.75
310.49	494.75
310.72	512.75
310.949	527.75
311.179	482.75
311.409	463.75
311.639	468.75
311.868	480.75
312.098	504.75
312.328	519.75
312.557	555.75
312.787	549.75
313.017	510.75
313.246	475.75
313.476	478.75
313.706	491.75
313.935	509.75
314.165	520.75
314.394	541.75
314.624	516.75
314.853	478.75
315.083	474.75
315.312	452.75
315.542	459.75
315.771	469.75
316.001	472.75
316.23	451.75
316.46	474.75
316.689	480.75
316.919	485.75
317.148	482.75
317.377	508.75
317.607	501.75
317.836	478.75
318.065	450.75
318.295	446.75
318.524	465.75
318.753	481.75
318.983	479.75
319.212	498.75
319.441	499.75
319.67	492.75
319.9	467.75
320.129	491.75
320.358	483.75
320.587	495.75
320.816	546.75
321.046	510.75
321.275	490.75
321.504	512.75
321.733	522.75
321.962	546.75
322.191	576.75
322.42	589.75
322.649	621.75
322.878	644.75
323.108	674.75
323.337	726.75
323.566	788.75
323.795	886.75
324.024	1200.75
324.253	2039.75
324.482	3475.75
324.71	5150.75
324.939	4538.75
325.168	1985.75
325.397	970.75
325.626	731.75
325.855	666.75
326.084	686.75
326.313	728.75
326.542	822.75
326.77	1164.75
326.999	1923.75
327.228	3048.75
327.457	3845.75
327.686	2501.75
327.914	1189.75
328.143	903.75
328.372	829.75
328.6	816.75
328.829	861.75
329.058	895.75
329.287	812.75
329.515	688.75
329.744	658.75
329.972	658.75
330.201	708.75
330.43	810.75
330.658	920.75
330.887	976.75
331.115	777.75
331.344	703.75
331.572	688.75
331.801	716.75
332.03	686.75
332.258	629.75
332.486	602.75
332.715	646.75
332.943	669.75
333.172	665.75
333.4	667.75
333.629	682.75
333.857	697.75
334.085	648.75
334.314	649.75
334.542	661.75
334.771	682.75
334.999	646.75
335.227	652.75
335.455	626.75
335.684	632.75
335.912	610.75
336.14	628.75
336.369	647.75
336.597	637.75
336.825	653.75
337.053	620.75
337.281	593.75
337.51	614.75
337.738	625.75
337.966	643.75
338.194	629.75
338.422	604.75
338.65	615.75
338.878	581.75
339.106	588.75
339.334	574.75
339.562	581.75
339.79	555.75
340.018	614.75
340.246	624.75
340.474	585.75
340.702	590.75
340.93	586.75
341.158	581.75
341.386	622.75
341.614	606.75
341.842	613.75
342.07	590.75
342.298	554.75
342.526	566.75
342.754	539.75
342.981	586.75
343.209	572.75
343.437	613.75
343.665	620.75
343.893	629.75
344.12	635.75
344.348	613.75
344.576	634.75
344.804	626.75
345.031	648.75
345.259	623.75
345.487	602.75
345.714	565.75
345.942	583.75
346.17	563.75
346.397	601.75
346.625	570.75
346.853	585.75
347.08	580.75
347.308	591.75
347.535	607.75
347.763	596.75
347.99	619.75
348.218	603.75
348.445	633.75
348.673	616.75
348.9	560.75
349.128	549.75
349.355	580.75
349.583	548.75
349.81	538.75
350.037	557.75
350.265	538.75
350.492	536.75
350.72	564.75
350.947	598.75
351.174	609.75
351.402	607.75
351.629	600.75
351.856	577.75
352.083	618.75
352.311	634.75
352.538	660.75
352.765	639.75
352.992	592.75
353.22	593.75
353.447	577.75
353.674	543.75
353.901	523.75
354.128	538.75
354.355	555.75
354.583	538.75
354.81	519.75
355.037	558.75
355.264	528.75
355.491	540.75
355.718	520.75
355.945	508.75
356.172	536.75
356.399	516.75
356.626	526.75
356.853	540.75
357.08	529.75
357.307	507.75
357.534	534.75
357.761	517.75
357.988	560.75
358.215	539.75
358.441	544.75
358.668	550.75
358.895	528.75
359.122	582.75
359.349	606.75
359.576	650.75
359.802	731.75
360.029	773.75
360.256	717.75
360.483	622.75
360.709	599.75
360.936	596.75
361.163	624.75
361.39	613.75
361.616	600.75
361.843	588.75
362.07	624.75
362.296	608.75
362.523	592.75
362.749	572.75
362.976	590.75
363.203	572.75
363.429	563.75
363.656	575.75
363.882	559.75
364.109	573.75
364.335	557.75
364.562	556.75
364.788	557.75
365.015	551.75
365.241	578.75
365.468	594.75
365.694	584.75
365.92	585.75
366.147	557.75
366.373	556.75
366.599	577.75
366.826	555.75
367.052	543.75
367.278	574.75
367.505	564.75
367.731	587.75
367.957	569.75
368.184	578.75
368.41	606.75
368.636	596.75
368.862	600.75
369.089	583.75
369.315	570.75
369.541	567.75
369.767	597.75
369.993	574.75
370.219	560.75
370.445	561.75
370.672	554.75
370.898	581.75
371.124	554.75
371.35	585.75
371.576	594.75
371.802	576.75
372.028	568.75
372.254	584.75
372.48	572.75
372.706	577.75
372.932	580.75
373.158	581.75
373.384	576.75
373.61	572.75
373.835	574.75
374.061	612.75
374.287	602.75
374.513	629.75
374.739	616.75
374.965	616.75
375.191	616.75
375.416	613.75
375.642	596.75
375.868	582.75
376.094	593.75
376.319	568.75
376.545	576.75
376.771	586.75
376.997	589.75
377.222	590.75
377.448	582.75
377.674	584.75
377.899	562.75
378.125	566.75
378.35	564.75
378.576	572.75
378.802	558.75
379.027	558.75
379.253	566.75
379.478	566.75
379.704	572.75
379.929	609.75
380.155	597.75
380.38	581.75
380.606	583.75
380.831	580.75
381.057	586.75
381.282	586.75
381.507	615.75
381.733	600.75
381.958	618.75
382.184	607.75
382.409	608.75
382.634	617.75
382.86	603.75
383.085	617.75
383.31	612.75
383.535	635.75
383.761	629.75
383.986	632.75
384.211	636.75
384.436	647.75
384.662	672.75
384.887	674.75
385.112	656.75
385.337	670.75
385.562	688.75
385.787	672.75
386.013	732.75
386.238	708.75
386.463	683.75
386.688	694.75
386.913	676.75
387.138	666.75
387.363	682.75
387.588	685.75
387.813	671.75
388.038	654.75
388.263	650.75
388.488	682.75
388.713	664.75
388.938	650.75
389.163	681.75
389.387	669.75
389.612	645.75
389.837	683.75
390.062	655.75
390.287	652.75
390.512	655.75
390.736	669.75
390.961	660.75
391.186	693.75
391.411	726.75
391.636	709.75
391.86	720.75
392.085	730.75
392.31	736.75
392.534	708.75
392.759	731.75
392.984	713.75
393.208	717.75
393.433	722.75
393.658	724.75
393.882	703.75
394.107	692.75
394.331	721.75
394.556	701.75
394.78	700.75
395.005	725.75
395.229	738.75
395.454	750.75
395.678	759.75
395.903	721.75
396.127	749.75
396.352	708.75
396.576	693.75
396.801	719.75
397.025	718.75
397.249	742.75
397.474	764.75
397.698	748.75
397.922	782.75
398.147	808.75
398.371	803.75
398.595	800.75
398.82	850.75
399.044	879.75
399.268	979.75
399.492	1090.75
399.717	1076.75
399.941	1038.75
400.165	1021.75
400.389	961.75
400.613	891.75
400.837	858.75
401.062	856.75
401.286	841.75
401.51	826.75
401.734	875.75
401.958	867.75
402.182	917.75
402.406	908.75
402.63	911.75
402.854	886.75
403.078	879.75
403.302	900.75
403.526	935.75
403.75	909.75
403.974	942.75
404.198	942.75
404.422	965.75
404.645	946.75
404.869	936.75
405.093	936.75
405.317	958.75
405.541	963.75
405.765	947.75
405.988	979.75
406.212	1074.75
406.436	1099.75
406.66	1031.75
406.883	1035.75
407.107	1080.75
407.331	1098.75
407.555	1161.75
407.778	1088.75
408.002	979.75
408.226	959.75
408.449	944.75
408.673	952.75
408.896	1001.75
409.12	975.75
409.344	913.75
409.567	873.75
409.791	873.75
410.014	909.75
410.238	851.75
410.461	866.75
410.685	887.75
410.908	897.75
411.132	917.75
411.355	918.75
411.578	840.75
411.802	846.75
412.025	839.75
412.249	836.75
412.472	829.75
412.695	796.75
412.919	817.75
413.142	810.75
413.365	816.75
413.589	793.75
413.812	798.75
414.035	772.75
414.258	808.75
414.482	804.75
414.705	795.75
414.928	801.75
415.151	805.75
415.374	786.75
415.597	784.75
415.821	792.75
416.044	784.75
416.267	809.75
416.49	773.75
416.713	796.75
416.936	816.75
417.159	783.75
417.382	816.75
417.605	808.75
417.828	865.75
418.051	875.75
418.274	836.75
418.497	818.75
418.72	820.75
418.943	798.75
419.166	825.75
419.389	879.75
419.611	836.75
419.834	865.75
420.057	837.75
420.28	833.75
420.503	806.75
420.726	817.75
420.948	859.75
421.171	877.75
421.394	865.75
421.617	822.75
421.839	797.75
422.062	832.75
422.285	902.75
422.507	938.75
422.73	990.75
422.953	897.75
423.175	870.75
423.398	897.75
423.621	890.75
423.843	895.75
424.066	853.75
424.288	917.75
424.511	968.75
424.733	990.75
424.956	1074.75
425.178	1011.75
425.401	997.75
425.623	967.75
425.846	896.75
426.068	882.75
426.291	847.75
426.513	860.75
426.735	872.75
426.958	959.75
427.18	1108.75
427.402	1268.75
427.625	1289.75
427.847	1003.75
428.069	837.75
428.292	803.75
428.514	759.75
428.736	754.75
428.958	774.75
429.181	727.75
429.403	744.75
429.625	788.75
429.847	858.75
430.069	884.75
430.292	819.75
430.514	754.75
430.736	753.75
430.958	742.75
431.18	721.75
431.402	734.75
431.624	739.75
431.846	746.75
432.068	734.75
432.29	742.75
432.512	737.75
432.734	748.75
432.956	763.75
433.178	777.75
433.4	757.75
433.622	759.75
433.844	744.75
434.066	732.75
434.287	767.75
434.509	758.75
434.731	811.75
434.953	844.75
435.175	857.75
435.397	839.75
435.618	875.75
435.84	967.75
436.062	1033.75
436.284	1004.75
436.505	835.75
436.727	823.75
436.949	779.75
437.17	789.75
437.392	767.75
437.614	812.75
437.835	946.75
438.057	1040.75
438.278	1120.75
438.5	1069.75
438.721	1106.75
438.943	963.75
439.165	830.75
439.386	832.75
439.608	842.75
439.829	912.75
440.05	945.75
440.272	961.75
440.493	848.75
440.715	792.75
440.936	795.75
441.158	798.75
441.379	817.75
441.6	884.75
441.822	934.75
442.043	993.75
442.264	1088.75
442.486	984.75
442.707	891.75
442.928	900.75
443.149	962.75
443.371	1042.75
443.592	1101.75
443.813	1141.75
444.034	1053.75
444.255	948.75
444.476	940.75
444.698	928.75
444.919	943.75
445.14	972.75
445.361	974.75
445.582	1068.75
445.803	1179.75
446.024	1234.75
446.245	1158.75
446.466	1000.75
446.687	823.75
446.908	793.75
447.129	768.75
447.35	739.75
447.571	769.75
447.792	756.75
448.013	778.75
448.234	821.75
448.455	944.75
448.675	1101.75
448.896	1064.75
449.117	903.75
449.338	1031.75
449.559	1118.75
449.779	1071.75
450	807.75
450.221	749.75
450.442	786.75
450.662	783.75
450.883	823.75
451.104	852.75
451.324	751.75
451.545	734.75
451.766	708.75
451.986	704.75
452.207	684.75
452.428	693.75
452.648	695.75
452.869	749.75
453.089	732.75
453.31	720.75
453.53	713.75
453.751	686.75
453.971	732.75
454.192	758.75
454.412	698.75
454.633	686.75
454.853	678.75
455.073	689.75
455.294	738.75
455.514	783.75
455.734	705.75
455.955	630.75
456.175	626.75
456.395	620.75
456.616	617.75
456.836	605.75
457.056	620.75
457.276	628.75
457.497	616.75
457.717	639.75
457.937	626.75
458.157	698.75
458.377	718.75
458.598	820.75
458.818	1028.75
459.038	1012.75
459.258	887.75
459.478	779.75
459.698	738.75
459.918	767.75
460.138	768.75
460.358	798.75
460.578	797.75
460.798	811.75
461.018	801.75
461.238	784.75
461.458	792.75
461.678	789.75
461.898	792.75
462.118	786.75
462.338	829.75
462.558	840.75
462.777	873.75
462.997	907.75
463.217	973.75
463.437	916.75
463.657	913.75
463.876	851.75
464.096	907.75
464.316	924.75
464.536	929.75
464.755	914.75
464.975	978.75
465.195	1214.75
465.414	1148.75
465.634	820.75
465.854	792.75
466.073	757.75
466.293	710.75
466.512	690.75
466.732	706.75
466.951	705.75
467.171	707.75
467.391	751.75
467.61	774.75
467.829	746.75
468.049	716.75
468.268	685.75
468.488	669.75
468.707	657.75
468.927	667.75
469.146	662.75
469.365	693.75
469.585	704.75
469.804	744.75
470.023	780.75
470.243	765.75
470.462	792.75
470.681	833.75
470.901	745.75
471.12	712.75
471.339	723.75
471.558	695.75
471.777	682.75
471.997	682.75
472.216	665.75
472.435	659.75
472.654	650.75
472.873	668.75
473.092	661.75
473.311	657.75
473.53	644.75
473.749	713.75
473.968	814.75
474.187	927.75
474.406	805.75
474.625	712.75
474.844	680.75
475.063	696.75
475.282	666.75
475.501	683.75
475.72	671.75
475.939	665.75
476.158	709.75
476.377	701.75
476.596	725.75
476.814	741.75
477.033	754.75
477.252	732.75
477.471	738.75
477.69	767.75
477.908	781.75
478.127	769.75
478.346	787.75
478.564	797.75
478.783	812.75
479.002	820.75
479.22	816.75
479.439	860.75
479.658	890.75
479.876	870.75
480.095	885.75
480.313	922.75
480.532	874.75
480.751	818.75
480.969	853.75
481.188	844.75
481.406	809.75
481.624	789.75
481.843	792.75
482.061	800.75
482.28	771.75
482.498	764.75
482.717	806.75
482.935	767.75
483.153	773.75
483.372	769.75
483.59	765.75
483.808	785.75
484.027	773.75
484.245	775.75
484.463	802.75
484.681	809.75
484.9	804.75
485.118	826.75
485.336	816.75
485.554	820.75
485.772	820.75
485.99	805.75
486.209	829.75
486.427	846.75
486.645	897.75
486.863	914.75
487.081	836.75
487.299	817.75
487.517	828.75
487.735	828.75
487.953	828.75
488.171	862.75
488.389	823.75
488.607	847.75
488.825	818.75
489.043	819.75
489.261	842.75
489.479	836.75
489.696	830.75
489.914	834.75
490.132	890.75
490.35	890.75
490.568	897.75
490.786	898.75
491.003	922.75
491.221	936.75
491.439	954.75
491.657	968.75
491.874	970.75
492.092	986.75
492.31	1014.75
492.527	984.75
492.745	985.75
492.963	986.75
493.18	996.75
493.398	1017.75
493.615	1019.75
493.833	1002.75
494.05	1022.75
494.268	981.75
494.485	988.75
494.703	979.75
494.92	991.75
495.138	981.75
495.355	964.75
495.573	1008.75
495.79	990.75
496.008	996.75
496.225	979.75
496.442	993.75
496.66	995.75
496.877	977.75
497.094	1028.75
497.312	1048.75
497.529	1042.75
497.746	1054.75
497.963	1098.75
498.181	1142.75
498.398	1134.75
498.615	1173.75
498.832	1283.75
499.049	1316.75
499.267	1362.75
499.484	1484.75
499.701	1523.75
499.918	1693.75
500.135	1832.75
500.352	1936.75
500.569	1954.75
500.786	1872.75
501.003	1815.75
501.22	1683.75
501.437	1567.75
501.654	1465.75
