Data from TestCu_HRD10591_00092.txt Node
Date: Thu Oct 05 14:06:12 EDT 2023
User: Yrep
Spectrometer: HR+D1059
Trigger mode: 1
Integration Time (sec): 1.000000E-1
Scans to average: 1
Electric dark correction enabled: true
Nonlinearity correction enabled: false
Boxcar width: 0
XAxis mode: Wavelengths
Number of Pixels in Spectrum: 2048
>>>>>Begin Spectral Data<<<<<
223.165	-14.38
223.4	-14.38
223.635	-14.38
223.869	-27.38
224.104	-20.38
224.338	-9.38
224.573	-23.38
224.808	2.62
225.042	-2.38
225.277	2.62
225.511	3.62
225.746	5.62
225.98	-5.38
226.215	18.62
226.449	3.62
226.683	11.62
226.918	35.62
227.152	18.62
227.387	36.62
227.621	21.62
227.856	31.62
228.09	44.62
228.324	56.62
228.559	55.62
228.793	63.62
229.027	92.62
229.262	118.62
229.496	135.62
229.73	166.62
229.964	164.62
230.199	117.62
230.433	109.62
230.667	118.62
230.901	115.62
231.136	120.62
231.37	108.62
231.604	99.62
231.838	94.62
232.072	117.62
232.306	111.62
232.541	117.62
232.775	114.62
233.009	115.62
233.243	103.62
233.477	108.62
233.711	112.62
233.945	121.62
234.179	104.62
234.413	112.62
234.647	106.62
234.881	131.62
235.115	121.62
235.349	106.62
235.583	116.62
235.817	122.62
236.051	118.62
236.285	133.62
236.519	133.62
236.753	145.62
236.987	163.62
237.221	212.62
237.455	213.62
237.689	135.62
237.922	125.62
238.156	117.62
238.39	116.62
238.624	116.62
238.858	120.62
239.091	130.62
239.325	136.62
239.559	130.62
239.793	133.62
240.027	133.62
240.26	143.62
240.494	159.62
240.728	156.62
240.961	131.62
241.195	136.62
241.429	126.62
241.662	122.62
241.896	119.62
242.13	126.62
242.363	127.62
242.597	124.62
242.83	132.62
243.064	127.62
243.298	119.62
243.531	121.62
243.765	144.62
243.998	142.62
244.232	148.62
244.465	135.62
244.699	135.62
244.932	146.62
245.166	141.62
245.399	152.62
245.633	141.62
245.866	124.62
246.099	141.62
246.333	141.62
246.566	142.62
246.8	152.62
247.033	127.62
247.266	176.62
247.5	164.62
247.733	160.62
247.966	180.62
248.2	163.62
248.433	152.62
248.666	179.62
248.899	166.62
249.133	202.62
249.366	195.62
249.599	179.62
249.832	157.62
250.066	174.62
250.299	190.62
250.532	186.62
250.765	203.62
250.998	222.62
251.231	191.62
251.465	194.62
251.698	182.62
251.931	174.62
252.164	182.62
252.397	192.62
252.63	179.62
252.863	197.62
253.096	228.62
253.329	188.62
253.562	200.62
253.795	202.62
254.028	208.62
254.261	189.62
254.494	267.62
254.727	279.62
254.96	242.62
255.193	203.62
255.426	183.62
255.659	195.62
255.892	196.62
256.124	180.62
256.357	193.62
256.59	208.62
256.823	198.62
257.056	187.62
257.289	185.62
257.521	193.62
257.754	159.62
257.987	190.62
258.22	188.62
258.452	190.62
258.685	203.62
258.918	177.62
259.151	198.62
259.383	230.62
259.616	210.62
259.849	227.62
260.081	218.62
260.314	235.62
260.547	248.62
260.779	231.62
261.012	198.62
261.244	198.62
261.477	195.62
261.71	229.62
261.942	248.62
262.175	247.62
262.407	233.62
262.64	209.62
262.872	220.62
263.105	206.62
263.337	219.62
263.57	196.62
263.802	188.62
264.035	203.62
264.267	224.62
264.499	229.62
264.732	208.62
264.964	211.62
265.197	220.62
265.429	207.62
265.661	208.62
265.894	213.62
266.126	215.62
266.358	227.62
266.591	225.62
266.823	243.62
267.055	235.62
267.287	214.62
267.52	202.62
267.752	218.62
267.984	215.62
268.216	216.62
268.448	228.62
268.681	254.62
268.913	265.62
269.145	277.62
269.377	270.62
269.609	272.62
269.841	282.62
270.073	295.62
270.306	319.62
270.538	310.62
270.77	292.62
271.002	277.62
271.234	284.62
271.466	302.62
271.698	325.62
271.93	323.62
272.162	298.62
272.394	274.62
272.626	282.62
272.858	257.62
273.09	244.62
273.322	262.62
273.553	256.62
273.785	267.62
274.017	250.62
274.249	268.62
274.481	246.62
274.713	268.62
274.945	254.62
275.176	273.62
275.408	259.62
275.64	253.62
275.872	274.62
276.104	271.62
276.335	288.62
276.567	307.62
276.799	310.62
277.031	349.62
277.262	346.62
277.494	314.62
277.726	278.62
277.957	264.62
278.189	277.62
278.421	287.62
278.652	277.62
278.884	250.62
279.115	269.62
279.347	277.62
279.579	274.62
279.81	276.62
280.042	275.62
280.273	285.62
280.505	290.62
280.736	269.62
280.968	284.62
281.199	292.62
281.431	301.62
281.662	286.62
281.894	294.62
282.125	301.62
282.356	344.62
282.588	358.62
282.819	332.62
283.051	291.62
283.282	294.62
283.513	304.62
283.745	310.62
283.976	302.62
284.207	311.62
284.439	295.62
284.67	303.62
284.901	295.62
285.132	291.62
285.364	310.62
285.595	315.62
285.826	310.62
286.057	302.62
286.288	316.62
286.52	303.62
286.751	308.62
286.982	306.62
287.213	312.62
287.444	306.62
287.675	320.62
287.906	334.62
288.138	350.62
288.369	343.62
288.6	334.62
288.831	313.62
289.062	331.62
289.293	311.62
289.524	329.62
289.755	324.62
289.986	310.62
290.217	315.62
290.448	310.62
290.679	302.62
290.91	312.62
291.141	323.62
291.371	317.62
291.602	320.62
291.833	333.62
292.064	327.62
292.295	342.62
292.526	336.62
292.757	316.62
292.987	328.62
293.218	312.62
293.449	354.62
293.68	317.62
293.91	346.62
294.141	317.62
294.372	335.62
294.603	324.62
294.833	324.62
295.064	346.62
295.295	310.62
295.525	346.62
295.756	364.62
295.987	388.62
296.217	411.62
296.448	383.62
296.679	348.62
296.909	356.62
297.14	334.62
297.37	341.62
297.601	354.62
297.831	358.62
298.062	372.62
298.292	382.62
298.523	350.62
298.753	365.62
298.984	360.62
299.214	375.62
299.445	367.62
299.675	377.62
299.905	382.62
300.136	352.62
300.366	363.62
300.597	378.62
300.827	398.62
301.057	405.62
301.288	421.62
301.518	387.62
301.748	398.62
301.979	412.62
302.209	396.62
302.439	406.62
302.669	397.62
302.9	370.62
303.13	403.62
303.36	412.62
303.59	397.62
303.82	410.62
304.051	387.62
304.281	385.62
304.511	397.62
304.741	381.62
304.971	379.62
305.201	399.62
305.431	370.62
305.661	379.62
305.891	386.62
306.121	414.62
306.352	408.62
306.582	407.62
306.812	392.62
307.042	387.62
307.272	374.62
307.502	400.62
307.731	395.62
307.961	403.62
308.191	416.62
308.421	409.62
308.651	398.62
308.881	411.62
309.111	416.62
309.341	428.62
309.571	436.62
309.8	458.62
310.03	459.62
310.26	475.62
310.49	485.62
310.72	508.62
310.949	507.62
311.179	480.62
311.409	458.62
311.639	466.62
311.868	461.62
312.098	466.62
312.328	499.62
312.557	548.62
312.787	535.62
313.017	498.62
313.246	470.62
313.476	457.62
313.706	479.62
313.935	496.62
314.165	504.62
314.394	534.62
314.624	505.62
314.853	490.62
315.083	459.62
315.312	446.62
315.542	454.62
315.771	463.62
316.001	447.62
316.23	463.62
316.46	466.62
316.689	448.62
316.919	496.62
317.148	488.62
317.377	482.62
317.607	471.62
317.836	465.62
318.065	458.62
318.295	448.62
318.524	457.62
318.753	471.62
318.983	470.62
319.212	470.62
319.441	499.62
319.67	474.62
319.9	458.62
320.129	466.62
320.358	460.62
320.587	479.62
320.816	524.62
321.046	491.62
321.275	492.62
321.504	487.62
321.733	498.62
321.962	507.62
322.191	548.62
322.42	566.62
322.649	575.62
322.878	607.62
323.108	668.62
323.337	707.62
323.566	732.62
323.795	849.62
324.024	1094.62
324.253	1937.62
324.482	3282.62
324.71	4852.62
324.939	4263.62
325.168	1859.62
325.397	911.62
325.626	711.62
325.855	660.62
326.084	671.62
326.313	692.62
326.542	808.62
326.77	1087.62
326.999	1790.62
327.228	2827.62
327.457	3550.62
327.686	2332.62
327.914	1118.62
328.143	870.62
328.372	791.62
328.6	767.62
328.829	780.62
329.058	848.62
329.287	768.62
329.515	667.62
329.744	611.62
329.972	636.62
330.201	659.62
330.43	761.62
330.658	860.62
330.887	892.62
331.115	743.62
331.344	679.62
331.572	656.62
331.801	682.62
332.03	656.62
332.258	610.62
332.486	594.62
332.715	619.62
332.943	646.62
333.172	639.62
333.4	679.62
333.629	676.62
333.857	652.62
334.085	644.62
334.314	638.62
334.542	626.62
334.771	631.62
334.999	641.62
335.227	614.62
335.455	612.62
335.684	621.62
335.912	618.62
336.14	616.62
336.369	605.62
336.597	633.62
336.825	629.62
337.053	602.62
337.281	612.62
337.51	615.62
337.738	625.62
337.966	610.62
338.194	609.62
338.422	604.62
338.65	584.62
338.878	567.62
339.106	558.62
339.334	567.62
339.562	584.62
339.79	551.62
340.018	580.62
340.246	579.62
340.474	580.62
340.702	587.62
340.93	565.62
341.158	555.62
341.386	606.62
341.614	582.62
341.842	565.62
342.07	558.62
342.298	552.62
342.526	557.62
342.754	549.62
342.981	572.62
343.209	565.62
343.437	609.62
343.665	610.62
343.893	631.62
344.12	614.62
344.348	563.62
344.576	637.62
344.804	634.62
345.031	647.62
345.259	610.62
345.487	589.62
345.714	551.62
345.942	568.62
346.17	576.62
346.397	560.62
346.625	580.62
346.853	550.62
347.08	536.62
347.308	569.62
347.535	614.62
347.763	597.62
347.99	597.62
348.218	609.62
348.445	612.62
348.673	576.62
348.9	560.62
349.128	555.62
349.355	554.62
349.583	523.62
349.81	540.62
350.037	545.62
350.265	540.62
350.492	525.62
350.72	573.62
350.947	584.62
351.174	587.62
351.402	590.62
351.629	601.62
351.856	626.62
352.083	604.62
352.311	634.62
352.538	623.62
352.765	628.62
352.992	586.62
353.22	572.62
353.447	566.62
353.674	536.62
353.901	519.62
354.128	517.62
354.355	534.62
354.583	539.62
354.81	542.62
355.037	511.62
355.264	525.62
355.491	513.62
355.718	519.62
355.945	503.62
356.172	516.62
356.399	523.62
356.626	512.62
356.853	516.62
357.08	502.62
357.307	540.62
357.534	531.62
357.761	520.62
357.988	503.62
358.215	528.62
358.441	541.62
358.668	531.62
358.895	544.62
359.122	550.62
359.349	567.62
359.576	606.62
359.802	713.62
360.029	758.62
360.256	690.62
360.483	635.62
360.709	568.62
360.936	557.62
361.163	608.62
361.39	592.62
361.616	578.62
361.843	594.62
362.07	616.62
362.296	597.62
362.523	592.62
362.749	558.62
362.976	586.62
363.203	583.62
363.429	575.62
363.656	567.62
363.882	550.62
364.109	535.62
364.335	544.62
364.562	550.62
364.788	560.62
365.015	570.62
365.241	591.62
365.468	583.62
365.694	594.62
365.92	565.62
366.147	561.62
366.373	575.62
366.599	544.62
366.826	548.62
367.052	566.62
367.278	559.62
367.505	583.62
367.731	561.62
367.957	567.62
368.184	586.62
368.41	603.62
368.636	620.62
368.862	607.62
369.089	572.62
369.315	560.62
369.541	576.62
369.767	573.62
369.993	587.62
370.219	562.62
370.445	578.62
370.672	578.62
370.898	553.62
371.124	560.62
371.35	553.62
371.576	554.62
371.802	550.62
372.028	563.62
372.254	582.62
372.48	574.62
372.706	586.62
372.932	541.62
373.158	575.62
373.384	603.62
373.61	579.62
373.835	566.62
374.061	606.62
374.287	573.62
374.513	603.62
374.739	597.62
374.965	592.62
375.191	612.62
375.416	592.62
375.642	550.62
375.868	594.62
376.094	596.62
376.319	590.62
376.545	554.62
376.771	576.62
376.997	569.62
377.222	574.62
377.448	570.62
377.674	569.62
377.899	568.62
378.125	558.62
378.35	542.62
378.576	574.62
378.802	544.62
379.027	578.62
379.253	573.62
379.478	561.62
379.704	574.62
379.929	579.62
380.155	599.62
380.38	586.62
380.606	566.62
380.831	558.62
381.057	596.62
381.282	555.62
381.507	567.62
381.733	597.62
381.958	599.62
382.184	571.62
382.409	614.62
382.634	588.62
382.86	596.62
383.085	609.62
383.31	621.62
383.535	628.62
383.761	624.62
383.986	630.62
384.211	662.62
384.436	627.62
384.662	623.62
384.887	666.62
385.112	672.62
385.337	662.62
385.562	668.62
385.787	697.62
386.013	688.62
386.238	706.62
386.463	693.62
386.688	670.62
386.913	625.62
387.138	662.62
387.363	681.62
387.588	638.62
387.813	648.62
388.038	644.62
388.263	661.62
388.488	669.62
388.713	657.62
388.938	662.62
389.163	651.62
389.387	649.62
389.612	631.62
389.837	677.62
390.062	661.62
390.287	647.62
390.512	683.62
390.736	666.62
390.961	688.62
391.186	690.62
391.411	709.62
391.636	731.62
391.86	726.62
392.085	730.62
392.31	720.62
392.534	716.62
392.759	695.62
392.984	688.62
393.208	695.62
393.433	685.62
393.658	683.62
393.882	694.62
394.107	683.62
394.331	708.62
394.556	694.62
394.78	710.62
395.005	713.62
395.229	719.62
395.454	717.62
395.678	758.62
395.903	725.62
396.127	719.62
396.352	742.62
396.576	710.62
396.801	711.62
397.025	700.62
397.249	723.62
397.474	734.62
397.698	748.62
397.922	774.62
398.147	768.62
398.371	789.62
398.595	794.62
398.82	847.62
399.044	908.62
399.268	1009.62
399.492	1084.62
399.717	1107.62
399.941	1038.62
400.165	1027.62
400.389	931.62
400.613	886.62
400.837	836.62
401.062	844.62
401.286	847.62
401.51	849.62
401.734	839.62
401.958	882.62
402.182	895.62
402.406	913.62
402.63	870.62
402.854	896.62
403.078	898.62
403.302	893.62
403.526	909.62
403.75	899.62
403.974	907.62
404.198	904.62
404.422	926.62
404.645	906.62
404.869	930.62
405.093	919.62
405.317	918.62
405.541	923.62
405.765	931.62
405.988	938.62
406.212	1041.62
406.436	1079.62
406.66	1023.62
406.883	996.62
407.107	1062.62
407.331	1100.62
407.555	1130.62
407.778	1071.62
408.002	958.62
408.226	961.62
408.449	951.62
408.673	931.62
408.896	974.62
409.12	974.62
409.344	924.62
409.567	891.62
409.791	860.62
410.014	855.62
410.238	830.62
410.461	871.62
410.685	876.62
410.908	894.62
411.132	892.62
411.355	897.62
411.578	852.62
411.802	836.62
412.025	862.62
412.249	842.62
412.472	837.62
412.695	832.62
412.919	800.62
413.142	793.62
413.365	819.62
413.589	792.62
413.812	757.62
414.035	773.62
414.258	782.62
414.482	798.62
414.705	776.62
414.928	797.62
415.151	800.62
415.374	794.62
415.597	803.62
415.821	775.62
416.044	755.62
416.267	764.62
416.49	782.62
416.713	773.62
416.936	798.62
417.159	783.62
417.382	791.62
417.605	800.62
417.828	836.62
418.051	822.62
418.274	808.62
418.497	798.62
418.72	831.62
418.943	800.62
419.166	833.62
419.389	874.62
419.611	862.62
419.834	832.62
420.057	841.62
420.28	812.62
420.503	791.62
420.726	812.62
420.948	818.62
421.171	880.62
421.394	857.62
421.617	826.62
421.839	814.62
422.062	823.62
422.285	882.62
422.507	913.62
422.73	932.62
422.953	918.62
423.175	851.62
423.398	891.62
423.621	851.62
423.843	874.62
424.066	858.62
424.288	913.62
424.511	922.62
424.733	1020.62
424.956	1049.62
425.178	974.62
425.401	1002.62
425.623	908.62
425.846	836.62
426.068	826.62
426.291	821.62
426.513	828.62
426.735	846.62
426.958	958.62
427.18	1087.62
427.402	1252.62
427.625	1283.62
427.847	994.62
428.069	829.62
428.292	796.62
428.514	734.62
428.736	751.62
428.958	735.62
429.181	741.62
429.403	765.62
429.625	802.62
429.847	824.62
430.069	871.62
430.292	803.62
430.514	746.62
430.736	734.62
430.958	731.62
431.18	728.62
431.402	717.62
431.624	697.62
431.846	715.62
432.068	716.62
432.29	736.62
432.512	707.62
432.734	730.62
432.956	732.62
433.178	770.62
433.4	775.62
433.622	764.62
433.844	758.62
434.066	741.62
434.287	755.62
434.509	782.62
434.731	784.62
434.953	827.62
435.175	826.62
435.397	801.62
435.618	860.62
435.84	968.62
436.062	1014.62
436.284	967.62
436.505	828.62
436.727	779.62
436.949	774.62
437.17	763.62
437.392	734.62
437.614	808.62
437.835	931.62
438.057	1048.62
438.278	1068.62
438.5	1063.62
438.721	1087.62
438.943	953.62
439.165	805.62
439.386	815.62
439.608	849.62
439.829	882.62
440.05	950.62
440.272	960.62
440.493	860.62
440.715	788.62
440.936	790.62
441.158	799.62
441.379	812.62
441.6	834.62
441.822	894.62
442.043	983.62
442.264	1033.62
442.486	960.62
442.707	859.62
442.928	894.62
443.149	943.62
443.371	1013.62
443.592	1064.62
443.813	1092.62
444.034	1061.62
444.255	935.62
444.476	883.62
444.698	918.62
444.919	925.62
445.14	973.62
445.361	988.62
445.582	1032.62
445.803	1167.62
446.024	1214.62
446.245	1116.62
446.466	959.62
446.687	842.62
446.908	782.62
447.129	740.62
447.35	731.62
447.571	741.62
447.792	732.62
448.013	778.62
448.234	808.62
448.455	926.62
448.675	1059.62
448.896	1026.62
449.117	886.62
449.338	965.62
449.559	1122.62
449.779	1046.62
450	819.62
450.221	762.62
450.442	738.62
450.662	719.62
450.883	812.62
451.104	834.62
451.324	755.62
451.545	706.62
451.766	680.62
451.986	683.62
452.207	692.62
452.428	646.62
452.648	668.62
452.869	717.62
453.089	723.62
453.31	731.62
453.53	654.62
453.751	685.62
453.971	711.62
454.192	716.62
454.412	690.62
454.633	672.62
454.853	680.62
455.073	661.62
455.294	714.62
455.514	774.62
455.734	687.62
455.955	608.62
456.175	618.62
456.395	633.62
456.616	623.62
456.836	596.62
457.056	600.62
457.276	604.62
457.497	600.62
457.717	620.62
457.937	645.62
458.157	657.62
458.377	689.62
458.598	785.62
458.818	997.62
459.038	1014.62
459.258	876.62
459.478	767.62
459.698	734.62
459.918	766.62
460.138	766.62
460.358	787.62
460.578	798.62
460.798	818.62
461.018	790.62
461.238	775.62
461.458	794.62
461.678	778.62
461.898	798.62
462.118	818.62
462.338	835.62
462.558	859.62
462.777	880.62
462.997	948.62
463.217	961.62
463.437	923.62
463.657	863.62
463.876	861.62
464.096	877.62
464.316	877.62
464.536	928.62
464.755	904.62
464.975	967.62
465.195	1166.62
465.414	1072.62
465.634	809.62
465.854	766.62
466.073	724.62
466.293	675.62
466.512	690.62
466.732	686.62
466.951	692.62
467.171	722.62
467.391	736.62
467.61	747.62
467.829	738.62
468.049	708.62
468.268	675.62
468.488	652.62
468.707	667.62
468.927	690.62
469.146	676.62
469.365	638.62
469.585	684.62
469.804	749.62
470.023	768.62
470.243	737.62
470.462	786.62
470.681	781.62
470.901	724.62
471.12	705.62
471.339	683.62
471.558	699.62
471.777	675.62
471.997	662.62
472.216	656.62
472.435	646.62
472.654	668.62
472.873	659.62
473.092	639.62
473.311	639.62
473.53	671.62
473.749	702.62
473.968	803.62
474.187	900.62
474.406	803.62
474.625	695.62
474.844	671.62
475.063	652.62
475.282	662.62
475.501	643.62
475.72	658.62
475.939	673.62
476.158	692.62
476.377	688.62
476.596	721.62
476.814	717.62
477.033	707.62
477.252	725.62
477.471	738.62
477.69	738.62
477.908	766.62
478.127	757.62
478.346	751.62
478.564	814.62
478.783	782.62
479.002	820.62
479.22	825.62
479.439	856.62
479.658	878.62
479.876	844.62
480.095	876.62
480.313	874.62
480.532	892.62
480.751	856.62
480.969	837.62
481.188	805.62
481.406	792.62
481.624	787.62
481.843	779.62
482.061	760.62
482.28	756.62
482.498	767.62
482.717	767.62
482.935	782.62
483.153	778.62
483.372	746.62
483.59	767.62
483.808	783.62
484.027	783.62
484.245	772.62
484.463	770.62
484.681	798.62
484.9	766.62
485.118	816.62
485.336	798.62
485.554	800.62
485.772	815.62
485.99	804.62
486.209	819.62
486.427	828.62
486.645	849.62
486.863	871.62
487.081	854.62
487.299	855.62
487.517	823.62
487.735	841.62
487.953	846.62
488.171	822.62
488.389	798.62
488.607	819.62
488.825	820.62
489.043	796.62
489.261	812.62
489.479	807.62
489.696	832.62
489.914	824.62
490.132	857.62
490.35	862.62
490.568	885.62
490.786	885.62
491.003	908.62
491.221	929.62
491.439	974.62
491.657	954.62
491.874	966.62
492.092	984.62
492.31	977.62
492.527	936.62
492.745	936.62
492.963	933.62
493.18	946.62
493.398	988.62
493.615	968.62
493.833	952.62
494.05	979.62
494.268	983.62
494.485	961.62
494.703	952.62
494.92	943.62
495.138	952.62
495.355	961.62
495.573	950.62
495.79	958.62
496.008	961.62
496.225	967.62
496.442	950.62
496.66	962.62
496.877	975.62
497.094	963.62
497.312	1010.62
497.529	1012.62
497.746	1020.62
497.963	1047.62
498.181	1129.62
498.398	1156.62
498.615	1210.62
498.832	1237.62
499.049	1253.62
499.267	1352.62
499.484	1413.62
499.701	1550.62
499.918	1635.62
500.135	1820.62
500.352	1887.62
500.569	1903.62
500.786	1842.62
501.003	1781.62
501.22	1626.62
501.437	1576.62
501.654	1493.62
501.871	1407.62
