Data from TestCu_HRD10591_00021.txt Node
Date: Thu Oct 05 14:05:02 EDT 2023
User: Yrep
Spectrometer: HR+D1059
Trigger mode: 1
Integration Time (sec): 1.000000E-1
Scans to average: 1
Electric dark correction enabled: true
Nonlinearity correction enabled: false
Boxcar width: 0
XAxis mode: Wavelengths
Number of Pixels in Spectrum: 2048
>>>>>Begin Spectral Data<<<<<
223.165	-7.88
223.4	-7.88
223.635	-7.88
223.869	-26.88
224.104	-4.88
224.338	-6.88
224.573	-28.88
224.808	-11.88
225.042	-18.88
225.277	-4.88
225.511	-4.88
225.746	4.12
225.98	23.12
226.215	4.12
226.449	15.12
226.683	10.12
226.918	25.12
227.152	34.12
227.387	34.12
227.621	36.12
227.856	43.12
228.09	51.12
228.324	43.12
228.559	56.12
228.793	57.12
229.027	111.12
229.262	121.12
229.496	133.12
229.73	162.12
229.964	159.12
230.199	120.12
230.433	126.12
230.667	107.12
230.901	106.12
231.136	99.12
231.37	98.12
231.604	112.12
231.838	124.12
232.072	119.12
232.306	107.12
232.541	101.12
232.775	138.12
233.009	131.12
233.243	113.12
233.477	110.12
233.711	104.12
233.945	113.12
234.179	116.12
234.413	126.12
234.647	121.12
234.881	115.12
235.115	117.12
235.349	126.12
235.583	134.12
235.817	135.12
236.051	141.12
236.285	136.12
236.519	134.12
236.753	150.12
236.987	181.12
237.221	237.12
237.455	213.12
237.689	148.12
237.922	122.12
238.156	129.12
238.39	131.12
238.624	120.12
238.858	119.12
239.091	123.12
239.325	129.12
239.559	136.12
239.793	141.12
240.027	162.12
240.26	159.12
240.494	175.12
240.728	142.12
240.961	143.12
241.195	153.12
241.429	125.12
241.662	150.12
241.896	118.12
242.13	141.12
242.363	135.12
242.597	134.12
242.83	152.12
243.064	138.12
243.298	135.12
243.531	127.12
243.765	136.12
243.998	151.12
244.232	143.12
244.465	140.12
244.699	156.12
244.932	146.12
245.166	135.12
245.399	139.12
245.633	148.12
245.866	132.12
246.099	143.12
246.333	132.12
246.566	141.12
246.8	157.12
247.033	148.12
247.266	157.12
247.5	160.12
247.733	165.12
247.966	173.12
248.2	159.12
248.433	175.12
248.666	195.12
248.899	208.12
249.133	219.12
249.366	218.12
249.599	213.12
249.832	184.12
250.066	172.12
250.299	172.12
250.532	198.12
250.765	205.12
250.998	212.12
251.231	206.12
251.465	187.12
251.698	199.12
251.931	193.12
252.164	186.12
252.397	191.12
252.63	191.12
252.863	214.12
253.096	207.12
253.329	217.12
253.562	199.12
253.795	200.12
254.028	213.12
254.261	232.12
254.494	245.12
254.727	283.12
254.96	264.12
255.193	229.12
255.426	214.12
255.659	209.12
255.892	196.12
256.124	201.12
256.357	193.12
256.59	200.12
256.823	191.12
257.056	202.12
257.289	194.12
257.521	185.12
257.754	201.12
257.987	206.12
258.22	182.12
258.452	208.12
258.685	194.12
258.918	218.12
259.151	215.12
259.383	206.12
259.616	215.12
259.849	234.12
260.081	248.12
260.314	259.12
260.547	234.12
260.779	235.12
261.012	217.12
261.244	201.12
261.477	217.12
261.71	228.12
261.942	250.12
262.175	270.12
262.407	246.12
262.64	214.12
262.872	211.12
263.105	219.12
263.337	215.12
263.57	216.12
263.802	208.12
264.035	214.12
264.267	206.12
264.499	210.12
264.732	207.12
264.964	228.12
265.197	225.12
265.429	208.12
265.661	225.12
265.894	205.12
266.126	216.12
266.358	217.12
266.591	224.12
266.823	235.12
267.055	237.12
267.287	239.12
267.52	217.12
267.752	254.12
267.984	231.12
268.216	221.12
268.448	257.12
268.681	249.12
268.913	258.12
269.145	295.12
269.377	259.12
269.609	288.12
269.841	293.12
270.073	293.12
270.306	333.12
270.538	329.12
270.77	299.12
271.002	292.12
271.234	289.12
271.466	299.12
271.698	331.12
271.93	321.12
272.162	313.12
272.394	299.12
272.626	300.12
272.858	265.12
273.09	262.12
273.322	264.12
273.553	256.12
273.785	269.12
274.017	275.12
274.249	272.12
274.481	266.12
274.713	285.12
274.945	295.12
275.176	287.12
275.408	281.12
275.64	301.12
275.872	289.12
276.104	279.12
276.335	293.12
276.567	323.12
276.799	372.12
277.031	373.12
277.262	325.12
277.494	322.12
277.726	287.12
277.957	285.12
278.189	289.12
278.421	286.12
278.652	271.12
278.884	288.12
279.115	279.12
279.347	274.12
279.579	274.12
279.81	293.12
280.042	282.12
280.273	289.12
280.505	277.12
280.736	279.12
280.968	278.12
281.199	295.12
281.431	282.12
281.662	297.12
281.894	305.12
282.125	333.12
282.356	353.12
282.588	367.12
282.819	324.12
283.051	311.12
283.282	281.12
283.513	289.12
283.745	299.12
283.976	294.12
284.207	313.12
284.439	321.12
284.67	307.12
284.901	299.12
285.132	292.12
285.364	300.12
285.595	315.12
285.826	319.12
286.057	287.12
286.288	314.12
286.52	301.12
286.751	318.12
286.982	326.12
287.213	321.12
287.444	330.12
287.675	312.12
287.906	337.12
288.138	351.12
288.369	338.12
288.6	349.12
288.831	339.12
289.062	325.12
289.293	305.12
289.524	340.12
289.755	321.12
289.986	319.12
290.217	312.12
290.448	323.12
290.679	329.12
290.91	344.12
291.141	327.12
291.371	341.12
291.602	345.12
291.833	321.12
292.064	336.12
292.295	327.12
292.526	346.12
292.757	337.12
292.987	322.12
293.218	342.12
293.449	328.12
293.68	332.12
293.91	330.12
294.141	348.12
294.372	343.12
294.603	360.12
294.833	358.12
295.064	358.12
295.295	354.12
295.525	355.12
295.756	377.12
295.987	419.12
296.217	435.12
296.448	417.12
296.679	362.12
296.909	345.12
297.14	361.12
297.37	358.12
297.601	372.12
297.831	367.12
298.062	352.12
298.292	386.12
298.523	366.12
298.753	387.12
298.984	376.12
299.214	393.12
299.445	389.12
299.675	392.12
299.905	369.12
300.136	390.12
300.366	391.12
300.597	373.12
300.827	425.12
301.057	420.12
301.288	437.12
301.518	399.12
301.748	427.12
301.979	410.12
302.209	388.12
302.439	433.12
302.669	398.12
302.9	392.12
303.13	403.12
303.36	417.12
303.59	406.12
303.82	445.12
304.051	428.12
304.281	401.12
304.511	398.12
304.741	401.12
304.971	421.12
305.201	396.12
305.431	409.12
305.661	399.12
305.891	403.12
306.121	420.12
306.352	434.12
306.582	418.12
306.812	398.12
307.042	386.12
307.272	410.12
307.502	405.12
307.731	385.12
307.961	402.12
308.191	413.12
308.421	423.12
308.651	416.12
308.881	429.12
309.111	440.12
309.341	445.12
309.571	461.12
309.8	466.12
310.03	492.12
310.26	492.12
310.49	509.12
310.72	505.12
310.949	516.12
311.179	499.12
311.409	461.12
311.639	481.12
311.868	481.12
312.098	480.12
312.328	521.12
312.557	544.12
312.787	547.12
313.017	505.12
313.246	485.12
313.476	484.12
313.706	490.12
313.935	520.12
314.165	545.12
314.394	519.12
314.624	525.12
314.853	513.12
315.083	473.12
315.312	498.12
315.542	461.12
315.771	477.12
316.001	469.12
316.23	474.12
316.46	464.12
316.689	495.12
316.919	511.12
317.148	507.12
317.377	497.12
317.607	493.12
317.836	494.12
318.065	468.12
318.295	473.12
318.524	467.12
318.753	465.12
318.983	490.12
319.212	497.12
319.441	529.12
319.67	515.12
319.9	473.12
320.129	477.12
320.358	497.12
320.587	501.12
320.816	506.12
321.046	512.12
321.275	517.12
321.504	516.12
321.733	529.12
321.962	550.12
322.191	579.12
322.42	595.12
322.649	607.12
322.878	629.12
323.108	673.12
323.337	737.12
323.566	766.12
323.795	873.12
324.024	1189.12
324.253	1987.12
324.482	3349.12
324.71	4940.12
324.939	4347.12
325.168	1925.12
325.397	954.12
325.626	750.12
325.855	690.12
326.084	693.12
326.313	730.12
326.542	813.12
326.77	1117.12
326.999	1885.12
327.228	2901.12
327.457	3608.12
327.686	2357.12
327.914	1159.12
328.143	905.12
328.372	854.12
328.6	830.12
328.829	842.12
329.058	895.12
329.287	825.12
329.515	691.12
329.744	647.12
329.972	665.12
330.201	693.12
330.43	827.12
330.658	931.12
330.887	953.12
331.115	813.12
331.344	710.12
331.572	703.12
331.801	697.12
332.03	666.12
332.258	655.12
332.486	621.12
332.715	636.12
332.943	635.12
333.172	670.12
333.4	681.12
333.629	703.12
333.857	680.12
334.085	679.12
334.314	646.12
334.542	657.12
334.771	681.12
334.999	673.12
335.227	663.12
335.455	641.12
335.684	635.12
335.912	630.12
336.14	639.12
336.369	639.12
336.597	656.12
336.825	609.12
337.053	607.12
337.281	628.12
337.51	621.12
337.738	645.12
337.966	629.12
338.194	642.12
338.422	623.12
338.65	623.12
338.878	582.12
339.106	597.12
339.334	573.12
339.562	568.12
339.79	601.12
340.018	601.12
340.246	598.12
340.474	602.12
340.702	592.12
340.93	591.12
341.158	598.12
341.386	597.12
341.614	592.12
341.842	605.12
342.07	584.12
342.298	581.12
342.526	561.12
342.754	583.12
342.981	577.12
343.209	589.12
343.437	625.12
343.665	629.12
343.893	656.12
344.12	647.12
344.348	632.12
344.576	635.12
344.804	649.12
345.031	661.12
345.259	640.12
345.487	600.12
345.714	600.12
345.942	586.12
346.17	577.12
346.397	593.12
346.625	584.12
346.853	569.12
347.08	571.12
347.308	628.12
347.535	625.12
347.763	603.12
347.99	605.12
348.218	617.12
348.445	647.12
348.673	609.12
348.9	572.12
349.128	569.12
349.355	551.12
349.583	554.12
349.81	559.12
350.037	568.12
350.265	559.12
350.492	537.12
350.72	563.12
350.947	603.12
351.174	619.12
351.402	590.12
351.629	609.12
351.856	607.12
352.083	630.12
352.311	643.12
352.538	615.12
352.765	622.12
352.992	617.12
353.22	607.12
353.447	582.12
353.674	571.12
353.901	559.12
354.128	552.12
354.355	539.12
354.583	553.12
354.81	539.12
355.037	557.12
355.264	546.12
355.491	548.12
355.718	526.12
355.945	545.12
356.172	523.12
356.399	539.12
356.626	532.12
356.853	559.12
357.08	518.12
357.307	532.12
357.534	551.12
357.761	534.12
357.988	553.12
358.215	547.12
358.441	546.12
358.668	539.12
358.895	537.12
359.122	567.12
359.349	600.12
359.576	658.12
359.802	716.12
360.029	782.12
360.256	711.12
360.483	649.12
360.709	586.12
360.936	611.12
361.163	626.12
361.39	611.12
361.616	632.12
361.843	597.12
362.07	613.12
362.296	622.12
362.523	599.12
362.749	587.12
362.976	576.12
363.203	585.12
363.429	583.12
363.656	572.12
363.882	547.12
364.109	594.12
364.335	570.12
364.562	565.12
364.788	565.12
365.015	575.12
365.241	592.12
365.468	601.12
365.694	611.12
365.92	599.12
366.147	602.12
366.373	561.12
366.599	564.12
366.826	577.12
367.052	562.12
367.278	563.12
367.505	559.12
367.731	577.12
367.957	578.12
368.184	586.12
368.41	624.12
368.636	624.12
368.862	603.12
369.089	577.12
369.315	571.12
369.541	571.12
369.767	565.12
369.993	602.12
370.219	567.12
370.445	584.12
370.672	592.12
370.898	597.12
371.124	569.12
371.35	586.12
371.576	597.12
371.802	564.12
372.028	580.12
372.254	585.12
372.48	597.12
372.706	606.12
372.932	592.12
373.158	591.12
373.384	601.12
373.61	604.12
373.835	598.12
374.061	602.12
374.287	614.12
374.513	598.12
374.739	627.12
374.965	639.12
375.191	610.12
375.416	608.12
375.642	614.12
375.868	595.12
376.094	599.12
376.319	595.12
376.545	589.12
376.771	597.12
376.997	581.12
377.222	601.12
377.448	586.12
377.674	581.12
377.899	602.12
378.125	559.12
378.35	586.12
378.576	567.12
378.802	571.12
379.027	576.12
379.253	579.12
379.478	593.12
379.704	567.12
379.929	594.12
380.155	587.12
380.38	569.12
380.606	592.12
380.831	584.12
381.057	590.12
381.282	615.12
381.507	601.12
381.733	617.12
381.958	615.12
382.184	585.12
382.409	600.12
382.634	605.12
382.86	632.12
383.085	634.12
383.31	626.12
383.535	641.12
383.761	664.12
383.986	646.12
384.211	646.12
384.436	642.12
384.662	671.12
384.887	663.12
385.112	662.12
385.337	694.12
385.562	682.12
385.787	672.12
386.013	724.12
386.238	717.12
386.463	700.12
386.688	698.12
386.913	672.12
387.138	661.12
387.363	660.12
387.588	676.12
387.813	683.12
388.038	672.12
388.263	675.12
388.488	666.12
388.713	673.12
388.938	667.12
389.163	681.12
389.387	691.12
389.612	679.12
389.837	676.12
390.062	643.12
390.287	664.12
390.512	687.12
390.736	690.12
390.961	721.12
391.186	713.12
391.411	705.12
391.636	726.12
391.86	731.12
392.085	742.12
392.31	730.12
392.534	712.12
392.759	727.12
392.984	682.12
393.208	698.12
393.433	708.12
393.658	696.12
393.882	688.12
394.107	699.12
394.331	728.12
394.556	722.12
394.78	726.12
395.005	730.12
395.229	721.12
395.454	736.12
395.678	761.12
395.903	767.12
396.127	759.12
396.352	733.12
396.576	705.12
396.801	719.12
397.025	720.12
397.249	749.12
397.474	754.12
397.698	798.12
397.922	767.12
398.147	771.12
398.371	794.12
398.595	820.12
398.82	853.12
399.044	943.12
399.268	1013.12
399.492	1124.12
399.717	1125.12
399.941	1095.12
400.165	1040.12
400.389	982.12
400.613	904.12
400.837	888.12
401.062	855.12
401.286	859.12
401.51	854.12
401.734	834.12
401.958	895.12
402.182	927.12
402.406	962.12
402.63	914.12
402.854	884.12
403.078	903.12
403.302	896.12
403.526	965.12
403.75	925.12
403.974	941.12
404.198	947.12
404.422	933.12
404.645	936.12
404.869	921.12
405.093	938.12
405.317	960.12
405.541	998.12
405.765	955.12
405.988	1001.12
406.212	1041.12
406.436	1086.12
406.66	1035.12
406.883	1044.12
407.107	1085.12
407.331	1119.12
407.555	1175.12
407.778	1092.12
408.002	1000.12
408.226	934.12
408.449	964.12
408.673	981.12
408.896	999.12
409.12	964.12
409.344	909.12
409.567	907.12
409.791	889.12
410.014	873.12
410.238	905.12
410.461	866.12
410.685	898.12
410.908	928.12
411.132	905.12
411.355	940.12
411.578	868.12
411.802	868.12
412.025	868.12
412.249	860.12
412.472	855.12
412.695	825.12
412.919	797.12
413.142	802.12
413.365	807.12
413.589	811.12
413.812	770.12
414.035	813.12
414.258	825.12
414.482	841.12
414.705	849.12
414.928	825.12
415.151	804.12
415.374	807.12
415.597	798.12
415.821	782.12
416.044	808.12
416.267	798.12
416.49	790.12
416.713	788.12
416.936	773.12
417.159	804.12
417.382	817.12
417.605	821.12
417.828	837.12
418.051	869.12
418.274	854.12
418.497	811.12
418.72	836.12
418.943	809.12
419.166	838.12
419.389	868.12
419.611	845.12
419.834	833.12
420.057	857.12
420.28	819.12
420.503	831.12
420.726	854.12
420.948	891.12
421.171	911.12
421.394	899.12
421.617	873.12
421.839	847.12
422.062	852.12
422.285	886.12
422.507	945.12
422.73	954.12
422.953	910.12
423.175	875.12
423.398	897.12
423.621	880.12
423.843	911.12
424.066	894.12
424.288	894.12
424.511	960.12
424.733	1031.12
424.956	1047.12
425.178	991.12
425.401	1009.12
425.623	951.12
425.846	860.12
426.068	881.12
426.291	849.12
426.513	847.12
426.735	891.12
426.958	943.12
427.18	1098.12
427.402	1245.12
427.625	1295.12
427.847	1005.12
428.069	867.12
428.292	817.12
428.514	767.12
428.736	793.12
428.958	758.12
429.181	765.12
429.403	759.12
429.625	788.12
429.847	849.12
430.069	893.12
430.292	837.12
430.514	786.12
430.736	769.12
430.958	738.12
431.18	747.12
431.402	731.12
431.624	735.12
431.846	727.12
432.068	715.12
432.29	751.12
432.512	755.12
432.734	770.12
432.956	778.12
433.178	771.12
433.4	776.12
433.622	774.12
433.844	781.12
434.066	739.12
434.287	779.12
434.509	765.12
434.731	794.12
434.953	844.12
435.175	831.12
435.397	857.12
435.618	875.12
435.84	983.12
436.062	1065.12
436.284	964.12
436.505	850.12
436.727	811.12
436.949	787.12
437.17	757.12
437.392	768.12
437.614	813.12
437.835	971.12
438.057	1061.12
438.278	1077.12
438.5	1069.12
438.721	1118.12
438.943	943.12
439.165	823.12
439.386	847.12
439.608	849.12
439.829	902.12
440.05	977.12
440.272	1006.12
440.493	844.12
440.715	831.12
440.936	821.12
441.158	828.12
441.379	835.12
441.6	897.12
441.822	920.12
442.043	955.12
442.264	1061.12
442.486	971.12
442.707	915.12
442.928	929.12
443.149	972.12
443.371	1021.12
443.592	1034.12
443.813	1132.12
444.034	1049.12
444.255	938.12
444.476	919.12
444.698	952.12
444.919	945.12
445.14	971.12
445.361	978.12
445.582	1053.12
445.803	1185.12
446.024	1240.12
446.245	1136.12
446.466	980.12
446.687	846.12
446.908	808.12
447.129	774.12
447.35	770.12
447.571	775.12
447.792	758.12
448.013	776.12
448.234	848.12
448.455	947.12
448.675	1059.12
448.896	1052.12
449.117	937.12
449.338	1012.12
449.559	1133.12
449.779	1054.12
450	854.12
450.221	756.12
450.442	760.12
450.662	750.12
450.883	837.12
451.104	829.12
451.324	770.12
451.545	733.12
451.766	701.12
451.986	688.12
452.207	704.12
452.428	688.12
452.648	717.12
452.869	715.12
453.089	718.12
453.31	759.12
453.53	721.12
453.751	707.12
453.971	734.12
454.192	786.12
454.412	707.12
454.633	669.12
454.853	650.12
455.073	681.12
455.294	754.12
455.514	793.12
455.734	703.12
455.955	630.12
456.175	612.12
456.395	624.12
456.616	610.12
456.836	643.12
457.056	622.12
457.276	598.12
457.497	643.12
457.717	636.12
457.937	650.12
458.157	670.12
458.377	711.12
458.598	797.12
458.818	1048.12
459.038	1054.12
459.258	910.12
459.478	809.12
459.698	757.12
459.918	785.12
460.138	799.12
460.358	817.12
460.578	797.12
460.798	818.12
461.018	818.12
461.238	786.12
461.458	791.12
461.678	806.12
461.898	809.12
462.118	839.12
462.338	852.12
462.558	818.12
462.777	914.12
462.997	991.12
463.217	966.12
463.437	964.12
463.657	913.12
463.876	902.12
464.096	891.12
464.316	926.12
464.536	916.12
464.755	938.12
464.975	981.12
465.195	1182.12
465.414	1135.12
465.634	862.12
465.854	774.12
466.073	758.12
466.293	738.12
466.512	704.12
466.732	716.12
466.951	714.12
467.171	727.12
467.391	751.12
467.61	775.12
467.829	721.12
468.049	726.12
468.268	684.12
468.488	682.12
468.707	687.12
468.927	672.12
469.146	662.12
469.365	709.12
469.585	720.12
469.804	767.12
470.023	775.12
470.243	762.12
470.462	805.12
470.681	831.12
470.901	743.12
471.12	735.12
471.339	733.12
471.558	706.12
471.777	690.12
471.997	682.12
472.216	697.12
472.435	654.12
472.654	661.12
472.873	654.12
473.092	662.12
473.311	663.12
473.53	699.12
473.749	753.12
473.968	813.12
474.187	930.12
474.406	808.12
474.625	697.12
474.844	670.12
475.063	678.12
475.282	687.12
475.501	704.12
475.72	685.12
475.939	691.12
476.158	696.12
476.377	688.12
476.596	711.12
476.814	749.12
477.033	750.12
477.252	736.12
477.471	747.12
477.69	756.12
477.908	779.12
478.127	791.12
478.346	777.12
478.564	790.12
478.783	832.12
479.002	851.12
479.22	837.12
479.439	867.12
479.658	901.12
479.876	917.12
480.095	928.12
480.313	934.12
480.532	900.12
480.751	871.12
480.969	836.12
481.188	811.12
481.406	812.12
481.624	794.12
481.843	781.12
482.061	780.12
482.28	790.12
482.498	783.12
482.717	749.12
482.935	779.12
483.153	783.12
483.372	807.12
483.59	801.12
483.808	783.12
484.027	783.12
484.245	814.12
484.463	823.12
484.681	801.12
484.9	844.12
485.118	820.12
485.336	815.12
485.554	823.12
485.772	824.12
485.99	831.12
486.209	835.12
486.427	846.12
486.645	902.12
486.863	935.12
487.081	878.12
487.299	867.12
487.517	839.12
487.735	845.12
487.953	865.12
488.171	894.12
488.389	824.12
488.607	847.12
488.825	843.12
489.043	860.12
489.261	840.12
489.479	858.12
489.696	835.12
489.914	871.12
490.132	835.12
490.35	865.12
490.568	885.12
490.786	926.12
491.003	929.12
491.221	980.12
491.439	997.12
491.657	981.12
491.874	981.12
492.092	989.12
492.31	995.12
492.527	1001.12
492.745	961.12
492.963	983.12
493.18	1013.12
493.398	1019.12
493.615	1028.12
493.833	1006.12
494.05	987.12
494.268	1010.12
494.485	995.12
494.703	992.12
494.92	982.12
495.138	997.12
495.355	1001.12
495.573	1044.12
495.79	987.12
496.008	985.12
496.225	962.12
496.442	980.12
496.66	963.12
496.877	1003.12
497.094	1019.12
497.312	1048.12
497.529	1070.12
497.746	1061.12
497.963	1066.12
498.181	1141.12
498.398	1168.12
498.615	1216.12
498.832	1271.12
499.049	1297.12
499.267	1380.12
499.484	1483.12
499.701	1574.12
499.918	1674.12
500.135	1826.12
500.352	1911.12
500.569	1923.12
500.786	1898.12
501.003	1782.12
501.22	1722.12
501.437	1585.12
501.654	1497.12
