Data from TestCu_HRD10591_00008.txt Node
Date: Thu Oct 05 14:04:49 EDT 2023
User: Yrep
Spectrometer: HR+D1059
Trigger mode: 1
Integration Time (sec): 1.000000E-1
Scans to average: 1
Electric dark correction enabled: true
Nonlinearity correction enabled: false
Boxcar width: 0
XAxis mode: Wavelengths
Number of Pixels in Spectrum: 2048
>>>>>Begin Spectral Data<<<<<
223.165	-24.88
223.4	-24.88
223.635	-24.88
223.869	-11.88
224.104	-28.88
224.338	-24.88
224.573	-12.88
224.808	-3.88
225.042	-16.88
225.277	-0.88
225.511	11.12
225.746	0.12
225.98	12.12
226.215	14.12
226.449	22.12
226.683	24.12
226.918	20.12
227.152	21.12
227.387	38.12
227.621	46.12
227.856	38.12
228.09	63.12
228.324	51.12
228.559	50.12
228.793	71.12
229.027	110.12
229.262	122.12
229.496	150.12
229.73	164.12
229.964	152.12
230.199	133.12
230.433	124.12
230.667	122.12
230.901	115.12
231.136	103.12
231.37	121.12
231.604	115.12
231.838	114.12
232.072	113.12
232.306	108.12
232.541	94.12
232.775	122.12
233.009	111.12
233.243	117.12
233.477	104.12
233.711	122.12
233.945	122.12
234.179	119.12
234.413	109.12
234.647	118.12
234.881	127.12
235.115	113.12
235.349	135.12
235.583	120.12
235.817	130.12
236.051	117.12
236.285	130.12
236.519	158.12
236.753	163.12
236.987	183.12
237.221	228.12
237.455	237.12
237.689	158.12
237.922	135.12
238.156	127.12
238.39	133.12
238.624	130.12
238.858	115.12
239.091	143.12
239.325	144.12
239.559	133.12
239.793	146.12
240.027	154.12
240.26	179.12
240.494	176.12
240.728	156.12
240.961	141.12
241.195	144.12
241.429	137.12
241.662	132.12
241.896	140.12
242.13	145.12
242.363	142.12
242.597	128.12
242.83	146.12
243.064	136.12
243.298	138.12
243.531	133.12
243.765	143.12
243.998	136.12
244.232	147.12
244.465	136.12
244.699	137.12
244.932	148.12
245.166	139.12
245.399	146.12
245.633	138.12
245.866	159.12
246.099	151.12
246.333	143.12
246.566	148.12
246.8	147.12
247.033	164.12
247.266	158.12
247.5	166.12
247.733	168.12
247.966	176.12
248.2	165.12
248.433	177.12
248.666	174.12
248.899	198.12
249.133	211.12
249.366	216.12
249.599	190.12
249.832	170.12
250.066	189.12
250.299	190.12
250.532	183.12
250.765	211.12
250.998	217.12
251.231	188.12
251.465	194.12
251.698	168.12
251.931	175.12
252.164	166.12
252.397	183.12
252.63	184.12
252.863	191.12
253.096	206.12
253.329	239.12
253.562	201.12
253.795	192.12
254.028	212.12
254.261	214.12
254.494	238.12
254.727	262.12
254.96	263.12
255.193	228.12
255.426	194.12
255.659	204.12
255.892	207.12
256.124	208.12
256.357	183.12
256.59	186.12
256.823	192.12
257.056	198.12
257.289	189.12
257.521	207.12
257.754	194.12
257.987	195.12
258.22	212.12
258.452	200.12
258.685	222.12
258.918	196.12
259.151	219.12
259.383	224.12
259.616	214.12
259.849	231.12
260.081	223.12
260.314	235.12
260.547	241.12
260.779	220.12
261.012	226.12
261.244	224.12
261.477	227.12
261.71	235.12
261.942	255.12
262.175	262.12
262.407	229.12
262.64	216.12
262.872	200.12
263.105	213.12
263.337	214.12
263.57	228.12
263.802	223.12
264.035	227.12
264.267	225.12
264.499	208.12
264.732	224.12
264.964	225.12
265.197	216.12
265.429	222.12
265.661	224.12
265.894	230.12
266.126	210.12
266.358	211.12
266.591	223.12
266.823	241.12
267.055	233.12
267.287	241.12
267.52	248.12
267.752	240.12
267.984	232.12
268.216	224.12
268.448	227.12
268.681	274.12
268.913	275.12
269.145	275.12
269.377	276.12
269.609	267.12
269.841	258.12
270.073	294.12
270.306	339.12
270.538	313.12
270.77	305.12
271.002	295.12
271.234	291.12
271.466	330.12
271.698	316.12
271.93	337.12
272.162	324.12
272.394	303.12
272.626	295.12
272.858	273.12
273.09	271.12
273.322	271.12
273.553	266.12
273.785	265.12
274.017	272.12
274.249	280.12
274.481	295.12
274.713	280.12
274.945	268.12
275.176	283.12
275.408	292.12
275.64	288.12
275.872	278.12
276.104	272.12
276.335	311.12
276.567	314.12
276.799	345.12
277.031	360.12
277.262	345.12
277.494	337.12
277.726	298.12
277.957	292.12
278.189	280.12
278.421	266.12
278.652	287.12
278.884	276.12
279.115	291.12
279.347	290.12
279.579	283.12
279.81	278.12
280.042	282.12
280.273	288.12
280.505	270.12
280.736	277.12
280.968	283.12
281.199	287.12
281.431	283.12
281.662	300.12
281.894	314.12
282.125	331.12
282.356	368.12
282.588	378.12
282.819	336.12
283.051	304.12
283.282	309.12
283.513	308.12
283.745	320.12
283.976	313.12
284.207	328.12
284.439	309.12
284.67	317.12
284.901	328.12
285.132	315.12
285.364	326.12
285.595	315.12
285.826	320.12
286.057	321.12
286.288	328.12
286.52	308.12
286.751	304.12
286.982	331.12
287.213	330.12
287.444	321.12
287.675	332.12
287.906	360.12
288.138	347.12
288.369	354.12
288.6	346.12
288.831	324.12
289.062	347.12
289.293	330.12
289.524	318.12
289.755	329.12
289.986	336.12
290.217	332.12
290.448	346.12
290.679	330.12
290.91	320.12
291.141	310.12
291.371	341.12
291.602	338.12
291.833	318.12
292.064	338.12
292.295	334.12
292.526	347.12
292.757	322.12
292.987	324.12
293.218	350.12
293.449	345.12
293.68	354.12
293.91	354.12
294.141	349.12
294.372	355.12
294.603	356.12
294.833	323.12
295.064	351.12
295.295	354.12
295.525	345.12
295.756	378.12
295.987	410.12
296.217	436.12
296.448	396.12
296.679	371.12
296.909	353.12
297.14	341.12
297.37	370.12
297.601	367.12
297.831	360.12
298.062	384.12
298.292	370.12
298.523	388.12
298.753	370.12
298.984	396.12
299.214	344.12
299.445	366.12
299.675	380.12
299.905	392.12
300.136	377.12
300.366	402.12
300.597	388.12
300.827	391.12
301.057	418.12
301.288	418.12
301.518	432.12
301.748	410.12
301.979	431.12
302.209	431.12
302.439	422.12
302.669	415.12
302.9	406.12
303.13	403.12
303.36	404.12
303.59	416.12
303.82	418.12
304.051	409.12
304.281	409.12
304.511	414.12
304.741	402.12
304.971	415.12
305.201	403.12
305.431	401.12
305.661	415.12
305.891	411.12
306.121	415.12
306.352	434.12
306.582	442.12
306.812	402.12
307.042	415.12
307.272	403.12
307.502	407.12
307.731	395.12
307.961	406.12
308.191	400.12
308.421	414.12
308.651	420.12
308.881	445.12
309.111	426.12
309.341	445.12
309.571	466.12
309.8	463.12
310.03	490.12
310.26	493.12
310.49	482.12
310.72	520.12
310.949	523.12
311.179	526.12
311.409	482.12
311.639	470.12
311.868	487.12
312.098	499.12
312.328	528.12
312.557	556.12
312.787	552.12
313.017	515.12
313.246	499.12
313.476	456.12
313.706	507.12
313.935	514.12
314.165	543.12
314.394	531.12
314.624	521.12
314.853	501.12
315.083	495.12
315.312	479.12
315.542	485.12
315.771	470.12
316.001	454.12
316.23	469.12
316.46	475.12
316.689	479.12
316.919	501.12
317.148	518.12
317.377	512.12
317.607	498.12
317.836	496.12
318.065	489.12
318.295	456.12
318.524	466.12
318.753	454.12
318.983	491.12
319.212	501.12
319.441	503.12
319.67	505.12
319.9	493.12
320.129	484.12
320.358	505.12
320.587	497.12
320.816	510.12
321.046	511.12
321.275	493.12
321.504	513.12
321.733	554.12
321.962	535.12
322.191	564.12
322.42	601.12
322.649	633.12
322.878	627.12
323.108	657.12
323.337	723.12
323.566	777.12
323.795	890.12
324.024	1163.12
324.253	2064.12
324.482	3467.12
324.71	5215.12
324.939	4576.12
325.168	2036.12
325.397	978.12
325.626	769.12
325.855	697.12
326.084	675.12
326.313	724.12
326.542	836.12
326.77	1148.12
326.999	1887.12
327.228	2971.12
327.457	3884.12
327.686	2539.12
327.914	1187.12
328.143	901.12
328.372	851.12
328.6	824.12
328.829	822.12
329.058	849.12
329.287	789.12
329.515	686.12
329.744	649.12
329.972	662.12
330.201	714.12
330.43	827.12
330.658	942.12
330.887	954.12
331.115	791.12
331.344	703.12
331.572	677.12
331.801	709.12
332.03	666.12
332.258	641.12
332.486	638.12
332.715	661.12
332.943	676.12
333.172	676.12
333.4	674.12
333.629	696.12
333.857	704.12
334.085	674.12
334.314	635.12
334.542	633.12
334.771	666.12
334.999	667.12
335.227	640.12
335.455	635.12
335.684	646.12
335.912	651.12
336.14	652.12
336.369	646.12
336.597	651.12
336.825	654.12
337.053	604.12
337.281	602.12
337.51	607.12
337.738	624.12
337.966	648.12
338.194	654.12
338.422	604.12
338.65	602.12
338.878	570.12
339.106	597.12
339.334	590.12
339.562	581.12
339.79	599.12
340.018	604.12
340.246	613.12
340.474	610.12
340.702	592.12
340.93	591.12
341.158	620.12
341.386	624.12
341.614	606.12
341.842	583.12
342.07	566.12
342.298	570.12
342.526	563.12
342.754	585.12
342.981	554.12
343.209	579.12
343.437	612.12
343.665	628.12
343.893	651.12
344.12	648.12
344.348	635.12
344.576	622.12
344.804	660.12
345.031	641.12
345.259	643.12
345.487	626.12
345.714	595.12
345.942	560.12
346.17	584.12
346.397	574.12
346.625	590.12
346.853	567.12
347.08	560.12
347.308	618.12
347.535	612.12
347.763	611.12
347.99	620.12
348.218	636.12
348.445	634.12
348.673	619.12
348.9	568.12
349.128	580.12
349.355	572.12
349.583	559.12
349.81	553.12
350.037	554.12
350.265	563.12
350.492	544.12
350.72	567.12
350.947	596.12
351.174	610.12
351.402	602.12
351.629	627.12
351.856	641.12
352.083	635.12
352.311	637.12
352.538	624.12
352.765	622.12
352.992	615.12
353.22	594.12
353.447	594.12
353.674	561.12
353.901	556.12
354.128	536.12
354.355	544.12
354.583	558.12
354.81	530.12
355.037	540.12
355.264	522.12
355.491	531.12
355.718	540.12
355.945	549.12
356.172	517.12
356.399	531.12
356.626	550.12
356.853	538.12
357.08	538.12
357.307	546.12
357.534	551.12
357.761	544.12
357.988	531.12
358.215	558.12
358.441	540.12
358.668	547.12
358.895	571.12
359.122	594.12
359.349	612.12
359.576	661.12
359.802	742.12
360.029	762.12
360.256	709.12
360.483	667.12
360.709	606.12
360.936	622.12
361.163	616.12
361.39	625.12
361.616	606.12
361.843	587.12
362.07	618.12
362.296	599.12
362.523	603.12
362.749	609.12
362.976	558.12
363.203	583.12
363.429	573.12
363.656	574.12
363.882	558.12
364.109	577.12
364.335	579.12
364.562	579.12
364.788	602.12
365.015	575.12
365.241	586.12
365.468	587.12
365.694	602.12
365.92	598.12
366.147	561.12
366.373	583.12
366.599	560.12
366.826	579.12
367.052	575.12
367.278	584.12
367.505	594.12
367.731	574.12
367.957	589.12
368.184	595.12
368.41	610.12
368.636	630.12
368.862	628.12
369.089	595.12
369.315	562.12
369.541	575.12
369.767	589.12
369.993	598.12
370.219	590.12
370.445	585.12
370.672	578.12
370.898	581.12
371.124	584.12
371.35	597.12
371.576	581.12
371.802	592.12
372.028	572.12
372.254	588.12
372.48	588.12
372.706	595.12
372.932	602.12
373.158	593.12
373.384	601.12
373.61	619.12
373.835	602.12
374.061	595.12
374.287	614.12
374.513	637.12
374.739	614.12
374.965	614.12
375.191	617.12
375.416	622.12
375.642	610.12
375.868	609.12
376.094	603.12
376.319	593.12
376.545	588.12
376.771	585.12
376.997	575.12
377.222	601.12
377.448	598.12
377.674	621.12
377.899	570.12
378.125	584.12
378.35	572.12
378.576	575.12
378.802	572.12
379.027	574.12
379.253	570.12
379.478	589.12
379.704	608.12
379.929	611.12
380.155	605.12
380.38	605.12
380.606	612.12
380.831	570.12
381.057	590.12
381.282	591.12
381.507	571.12
381.733	611.12
381.958	584.12
382.184	592.12
382.409	634.12
382.634	614.12
382.86	620.12
383.085	628.12
383.31	642.12
383.535	617.12
383.761	654.12
383.986	618.12
384.211	645.12
384.436	651.12
384.662	663.12
384.887	667.12
385.112	687.12
385.337	676.12
385.562	693.12
385.787	721.12
386.013	729.12
386.238	722.12
386.463	711.12
386.688	678.12
386.913	690.12
387.138	654.12
387.363	675.12
387.588	665.12
387.813	688.12
388.038	706.12
388.263	684.12
388.488	633.12
388.713	671.12
388.938	671.12
389.163	690.12
389.387	674.12
389.612	662.12
389.837	672.12
390.062	678.12
390.287	690.12
390.512	647.12
390.736	688.12
390.961	691.12
391.186	688.12
391.411	708.12
391.636	721.12
391.86	734.12
392.085	770.12
392.31	741.12
392.534	734.12
392.759	706.12
392.984	727.12
393.208	703.12
393.433	712.12
393.658	675.12
393.882	707.12
394.107	715.12
394.331	708.12
394.556	716.12
394.78	735.12
395.005	730.12
395.229	722.12
395.454	723.12
395.678	742.12
395.903	750.12
396.127	739.12
396.352	750.12
396.576	724.12
396.801	721.12
397.025	752.12
397.249	728.12
397.474	763.12
397.698	782.12
397.922	779.12
398.147	804.12
398.371	792.12
398.595	837.12
398.82	868.12
399.044	919.12
399.268	1024.12
399.492	1114.12
399.717	1131.12
399.941	1095.12
400.165	1041.12
400.389	965.12
400.613	898.12
400.837	851.12
401.062	877.12
401.286	840.12
401.51	838.12
401.734	872.12
401.958	908.12
402.182	927.12
402.406	950.12
402.63	926.12
402.854	920.12
403.078	907.12
403.302	899.12
403.526	913.12
403.75	911.12
403.974	931.12
404.198	924.12
404.422	939.12
404.645	909.12
404.869	935.12
405.093	935.12
405.317	945.12
405.541	986.12
405.765	948.12
405.988	944.12
406.212	1024.12
406.436	1128.12
406.66	1080.12
406.883	1010.12
407.107	1102.12
407.331	1130.12
407.555	1152.12
407.778	1120.12
408.002	1006.12
408.226	969.12
408.449	1000.12
408.673	964.12
408.896	987.12
409.12	1008.12
409.344	932.12
409.567	902.12
409.791	896.12
410.014	890.12
410.238	864.12
410.461	883.12
410.685	900.12
410.908	921.12
411.132	906.12
411.355	920.12
411.578	871.12
411.802	851.12
412.025	844.12
412.249	860.12
412.472	836.12
412.695	838.12
412.919	816.12
413.142	801.12
413.365	813.12
413.589	814.12
413.812	773.12
414.035	819.12
414.258	792.12
414.482	828.12
414.705	839.12
414.928	802.12
415.151	837.12
415.374	811.12
415.597	802.12
415.821	790.12
416.044	798.12
416.267	766.12
416.49	792.12
416.713	793.12
416.936	790.12
417.159	821.12
417.382	828.12
417.605	812.12
417.828	806.12
418.051	843.12
418.274	819.12
418.497	825.12
418.72	804.12
418.943	795.12
419.166	830.12
419.389	874.12
419.611	852.12
419.834	865.12
420.057	869.12
420.28	821.12
420.503	818.12
420.726	845.12
420.948	887.12
421.171	908.12
421.394	896.12
421.617	831.12
421.839	840.12
422.062	857.12
422.285	896.12
422.507	952.12
422.73	971.12
422.953	930.12
423.175	880.12
423.398	876.12
423.621	854.12
423.843	904.12
424.066	899.12
424.288	935.12
424.511	965.12
424.733	1026.12
424.956	1064.12
425.178	1031.12
425.401	998.12
425.623	966.12
425.846	866.12
426.068	862.12
426.291	815.12
426.513	840.12
426.735	884.12
426.958	964.12
427.18	1131.12
427.402	1285.12
427.625	1302.12
427.847	1057.12
428.069	872.12
428.292	800.12
428.514	795.12
428.736	775.12
428.958	767.12
429.181	761.12
429.403	776.12
429.625	783.12
429.847	855.12
430.069	900.12
430.292	811.12
430.514	770.12
430.736	740.12
430.958	735.12
431.18	737.12
431.402	731.12
431.624	754.12
431.846	724.12
432.068	709.12
432.29	735.12
432.512	760.12
432.734	759.12
432.956	793.12
433.178	764.12
433.4	764.12
433.622	754.12
433.844	755.12
434.066	760.12
434.287	771.12
434.509	793.12
434.731	820.12
434.953	800.12
435.175	857.12
435.397	848.12
435.618	876.12
435.84	982.12
436.062	1048.12
436.284	1002.12
436.505	832.12
436.727	839.12
436.949	799.12
437.17	758.12
437.392	798.12
437.614	820.12
437.835	966.12
438.057	1092.12
438.278	1072.12
438.5	1070.12
438.721	1136.12
438.943	970.12
439.165	854.12
439.386	836.12
439.608	836.12
439.829	901.12
440.05	986.12
440.272	1002.12
440.493	876.12
440.715	805.12
440.936	775.12
441.158	812.12
441.379	819.12
441.6	901.12
441.822	900.12
442.043	985.12
442.264	1056.12
442.486	1002.12
442.707	904.12
442.928	906.12
443.149	992.12
443.371	1045.12
443.592	1092.12
443.813	1144.12
444.034	1090.12
444.255	954.12
444.476	929.12
444.698	942.12
444.919	949.12
445.14	993.12
445.361	1007.12
445.582	1055.12
445.803	1219.12
446.024	1272.12
446.245	1135.12
446.466	976.12
446.687	851.12
446.908	820.12
447.129	760.12
447.35	746.12
447.571	779.12
447.792	738.12
448.013	787.12
448.234	817.12
448.455	955.12
448.675	1090.12
448.896	1063.12
449.117	901.12
449.338	987.12
449.559	1143.12
449.779	1087.12
450	840.12
450.221	777.12
450.442	774.12
450.662	780.12
450.883	811.12
451.104	849.12
451.324	770.12
451.545	720.12
451.766	715.12
451.986	670.12
452.207	665.12
452.428	673.12
452.648	694.12
452.869	709.12
453.089	730.12
453.31	725.12
453.53	700.12
453.751	688.12
453.971	753.12
454.192	762.12
454.412	689.12
454.633	635.12
454.853	667.12
455.073	700.12
455.294	748.12
455.514	812.12
455.734	707.12
455.955	648.12
456.175	652.12
456.395	642.12
456.616	601.12
456.836	618.12
457.056	629.12
457.276	609.12
457.497	627.12
457.717	632.12
457.937	656.12
458.157	670.12
458.377	695.12
458.598	817.12
458.818	1012.12
459.038	1050.12
459.258	916.12
459.478	820.12
459.698	751.12
459.918	747.12
460.138	790.12
460.358	802.12
460.578	809.12
460.798	827.12
461.018	811.12
461.238	769.12
461.458	806.12
461.678	793.12
461.898	809.12
462.118	846.12
462.338	840.12
462.558	876.12
462.777	877.12
462.997	954.12
463.217	966.12
463.437	948.12
463.657	889.12
463.876	906.12
464.096	915.12
464.316	923.12
464.536	920.12
464.755	906.12
464.975	991.12
465.195	1227.12
465.414	1104.12
465.634	843.12
465.854	767.12
466.073	743.12
466.293	730.12
466.512	692.12
466.732	704.12
466.951	700.12
467.171	734.12
467.391	761.12
467.61	801.12
467.829	769.12
468.049	714.12
468.268	698.12
468.488	687.12
468.707	665.12
468.927	700.12
469.146	708.12
469.365	676.12
469.585	701.12
469.804	779.12
470.023	750.12
470.243	726.12
470.462	794.12
470.681	804.12
470.901	750.12
471.12	722.12
471.339	712.12
471.558	688.12
471.777	687.12
471.997	662.12
472.216	678.12
472.435	663.12
472.654	661.12
472.873	648.12
473.092	685.12
473.311	666.12
473.53	657.12
473.749	711.12
473.968	835.12
474.187	936.12
474.406	809.12
474.625	696.12
474.844	687.12
475.063	673.12
475.282	709.12
475.501	653.12
475.72	694.12
475.939	702.12
476.158	703.12
476.377	727.12
476.596	706.12
476.814	729.12
477.033	756.12
477.252	722.12
477.471	715.12
477.69	749.12
477.908	742.12
478.127	771.12
478.346	789.12
478.564	795.12
478.783	837.12
479.002	808.12
479.22	855.12
479.439	878.12
479.658	892.12
479.876	884.12
480.095	898.12
480.313	927.12
480.532	889.12
480.751	855.12
480.969	844.12
481.188	844.12
481.406	821.12
481.624	782.12
481.843	792.12
482.061	772.12
482.28	794.12
482.498	751.12
482.717	768.12
482.935	824.12
483.153	793.12
483.372	772.12
483.59	781.12
483.808	768.12
484.027	777.12
484.245	815.12
484.463	793.12
484.681	810.12
484.9	821.12
485.118	812.12
485.336	820.12
485.554	809.12
485.772	814.12
485.99	806.12
486.209	848.12
486.427	860.12
486.645	879.12
486.863	912.12
487.081	869.12
487.299	858.12
487.517	850.12
487.735	856.12
487.953	846.12
488.171	841.12
488.389	851.12
488.607	836.12
488.825	841.12
489.043	830.12
489.261	847.12
489.479	837.12
489.696	866.12
489.914	852.12
490.132	872.12
490.35	864.12
490.568	897.12
490.786	895.12
491.003	908.12
491.221	950.12
491.439	948.12
491.657	934.12
491.874	977.12
492.092	983.12
492.31	986.12
492.527	953.12
492.745	987.12
492.963	971.12
493.18	981.12
493.398	988.12
493.615	1030.12
493.833	1039.12
494.05	1016.12
494.268	1003.12
494.485	980.12
494.703	984.12
494.92	1013.12
495.138	963.12
495.355	984.12
495.573	1023.12
495.79	1011.12
496.008	999.12
496.225	982.12
496.442	969.12
496.66	996.12
496.877	1002.12
497.094	995.12
497.312	1047.12
497.529	1041.12
497.746	1062.12
497.963	1099.12
498.181	1140.12
498.398	1183.12
498.615	1224.12
498.832	1249.12
499.049	1308.12
499.267	1374.12
499.484	1474.12
499.701	1594.12
499.918	1745.12
500.135	1850.12
500.352	1904.12
500.569	1943.12
500.786	1904.12
501.003	1797.12
501.22	1661.12
501.437	1556.12
