Data from TestCu_HRD10591_00031.txt Node
Date: Thu Oct 05 14:05:12 EDT 2023
User: Yrep
Spectrometer: HR+D1059
Trigger mode: 1
Integration Time (sec): 1.000000E-1
Scans to average: 1
Electric dark correction enabled: true
Nonlinearity correction enabled: false
Boxcar width: 0
XAxis mode: Wavelengths
Number of Pixels in Spectrum: 2048
>>>>>Begin Spectral Data<<<<<
223.165	-9.5
223.4	-9.5
223.635	-9.5
223.869	-14.5
224.104	-14.5
224.338	-32.5
224.573	-11.5
224.808	-13.5
225.042	-6.5
225.277	-5.5
225.511	-3.5
225.746	-1.5
225.98	9.5
226.215	19.5
226.449	16.5
226.683	18.5
226.918	23.5
227.152	25.5
227.387	29.5
227.621	42.5
227.856	44.5
228.09	52.5
228.324	49.5
228.559	56.5
228.793	73.5
229.027	113.5
229.262	116.5
229.496	132.5
229.73	177.5
229.964	166.5
230.199	124.5
230.433	120.5
230.667	119.5
230.901	122.5
231.136	117.5
231.37	118.5
231.604	109.5
231.838	121.5
232.072	113.5
232.306	119.5
232.541	108.5
232.775	108.5
233.009	113.5
233.243	116.5
233.477	112.5
233.711	120.5
233.945	110.5
234.179	106.5
234.413	117.5
234.647	112.5
234.881	116.5
235.115	118.5
235.349	126.5
235.583	124.5
235.817	129.5
236.051	130.5
236.285	125.5
236.519	137.5
236.753	150.5
236.987	196.5
237.221	215.5
237.455	241.5
237.689	149.5
237.922	136.5
238.156	137.5
238.39	140.5
238.624	121.5
238.858	115.5
239.091	128.5
239.325	126.5
239.559	130.5
239.793	130.5
240.027	139.5
240.26	158.5
240.494	168.5
240.728	177.5
240.961	141.5
241.195	134.5
241.429	149.5
241.662	141.5
241.896	122.5
242.13	140.5
242.363	138.5
242.597	128.5
242.83	132.5
243.064	149.5
243.298	137.5
243.531	149.5
243.765	136.5
243.998	146.5
244.232	148.5
244.465	147.5
244.699	159.5
244.932	138.5
245.166	127.5
245.399	137.5
245.633	144.5
245.866	127.5
246.099	146.5
246.333	153.5
246.566	134.5
246.8	159.5
247.033	158.5
247.266	158.5
247.5	162.5
247.733	185.5
247.966	176.5
248.2	173.5
248.433	172.5
248.666	179.5
248.899	212.5
249.133	225.5
249.366	220.5
249.599	185.5
249.832	173.5
250.066	163.5
250.299	192.5
250.532	206.5
250.765	201.5
250.998	209.5
251.231	201.5
251.465	190.5
251.698	182.5
251.931	189.5
252.164	192.5
252.397	180.5
252.63	191.5
252.863	197.5
253.096	209.5
253.329	221.5
253.562	200.5
253.795	202.5
254.028	214.5
254.261	205.5
254.494	234.5
254.727	278.5
254.96	260.5
255.193	231.5
255.426	227.5
255.659	212.5
255.892	193.5
256.124	183.5
256.357	190.5
256.59	187.5
256.823	197.5
257.056	196.5
257.289	199.5
257.521	209.5
257.754	190.5
257.987	198.5
258.22	192.5
258.452	199.5
258.685	196.5
258.918	210.5
259.151	200.5
259.383	210.5
259.616	231.5
259.849	239.5
260.081	247.5
260.314	262.5
260.547	248.5
260.779	224.5
261.012	223.5
261.244	220.5
261.477	202.5
261.71	240.5
261.942	258.5
262.175	264.5
262.407	237.5
262.64	238.5
262.872	202.5
263.105	213.5
263.337	205.5
263.57	224.5
263.802	220.5
264.035	197.5
264.267	217.5
264.499	206.5
264.732	244.5
264.964	216.5
265.197	213.5
265.429	227.5
265.661	228.5
265.894	224.5
266.126	205.5
266.358	215.5
266.591	226.5
266.823	238.5
267.055	245.5
267.287	247.5
267.52	238.5
267.752	237.5
267.984	227.5
268.216	239.5
268.448	241.5
268.681	241.5
268.913	272.5
269.145	294.5
269.377	276.5
269.609	270.5
269.841	256.5
270.073	286.5
270.306	326.5
270.538	321.5
270.77	289.5
271.002	277.5
271.234	288.5
271.466	317.5
271.698	333.5
271.93	314.5
272.162	312.5
272.394	299.5
272.626	275.5
272.858	289.5
273.09	262.5
273.322	273.5
273.553	275.5
273.785	260.5
274.017	280.5
274.249	257.5
274.481	271.5
274.713	278.5
274.945	274.5
275.176	274.5
275.408	280.5
275.64	287.5
275.872	254.5
276.104	274.5
276.335	302.5
276.567	326.5
276.799	329.5
277.031	374.5
277.262	357.5
277.494	310.5
277.726	289.5
277.957	291.5
278.189	284.5
278.421	265.5
278.652	279.5
278.884	295.5
279.115	292.5
279.347	280.5
279.579	271.5
279.81	278.5
280.042	292.5
280.273	292.5
280.505	266.5
280.736	298.5
280.968	306.5
281.199	276.5
281.431	300.5
281.662	293.5
281.894	290.5
282.125	337.5
282.356	365.5
282.588	388.5
282.819	333.5
283.051	309.5
283.282	313.5
283.513	302.5
283.745	309.5
283.976	328.5
284.207	293.5
284.439	294.5
284.67	303.5
284.901	306.5
285.132	304.5
285.364	303.5
285.595	321.5
285.826	325.5
286.057	323.5
286.288	290.5
286.52	296.5
286.751	314.5
286.982	327.5
287.213	307.5
287.444	308.5
287.675	344.5
287.906	348.5
288.138	334.5
288.369	322.5
288.6	344.5
288.831	322.5
289.062	333.5
289.293	320.5
289.524	336.5
289.755	319.5
289.986	330.5
290.217	314.5
290.448	316.5
290.679	324.5
290.91	330.5
291.141	325.5
291.371	335.5
291.602	345.5
291.833	337.5
292.064	314.5
292.295	340.5
292.526	329.5
292.757	347.5
292.987	332.5
293.218	324.5
293.449	332.5
293.68	333.5
293.91	343.5
294.141	338.5
294.372	338.5
294.603	340.5
294.833	344.5
295.064	350.5
295.295	345.5
295.525	346.5
295.756	363.5
295.987	417.5
296.217	451.5
296.448	408.5
296.679	369.5
296.909	344.5
297.14	337.5
297.37	373.5
297.601	385.5
297.831	369.5
298.062	392.5
298.292	375.5
298.523	356.5
298.753	371.5
298.984	378.5
299.214	386.5
299.445	383.5
299.675	382.5
299.905	369.5
300.136	384.5
300.366	381.5
300.597	388.5
300.827	396.5
301.057	413.5
301.288	418.5
301.518	415.5
301.748	396.5
301.979	412.5
302.209	447.5
302.439	426.5
302.669	412.5
302.9	404.5
303.13	406.5
303.36	412.5
303.59	430.5
303.82	420.5
304.051	382.5
304.281	402.5
304.511	407.5
304.741	405.5
304.971	393.5
305.201	410.5
305.431	393.5
305.661	397.5
305.891	403.5
306.121	421.5
306.352	408.5
306.582	406.5
306.812	385.5
307.042	402.5
307.272	391.5
307.502	391.5
307.731	401.5
307.961	407.5
308.191	417.5
308.421	414.5
308.651	431.5
308.881	416.5
309.111	442.5
309.341	419.5
309.571	434.5
309.8	456.5
310.03	487.5
310.26	480.5
310.49	484.5
310.72	501.5
310.949	536.5
311.179	501.5
311.409	476.5
311.639	494.5
311.868	494.5
312.098	498.5
312.328	509.5
312.557	577.5
312.787	567.5
313.017	502.5
313.246	479.5
313.476	493.5
313.706	482.5
313.935	523.5
314.165	540.5
314.394	564.5
314.624	520.5
314.853	520.5
315.083	495.5
315.312	462.5
315.542	456.5
315.771	470.5
316.001	494.5
316.23	477.5
316.46	462.5
316.689	479.5
316.919	497.5
317.148	495.5
317.377	501.5
317.607	520.5
317.836	501.5
318.065	456.5
318.295	465.5
318.524	464.5
318.753	468.5
318.983	483.5
319.212	470.5
319.441	530.5
319.67	487.5
319.9	481.5
320.129	485.5
320.358	486.5
320.587	484.5
320.816	515.5
321.046	500.5
321.275	515.5
321.504	518.5
321.733	520.5
321.962	521.5
322.191	568.5
322.42	589.5
322.649	636.5
322.878	629.5
323.108	681.5
323.337	722.5
323.566	803.5
323.795	898.5
324.024	1180.5
324.253	2041.5
324.482	3517.5
324.71	5301.5
324.939	4613.5
325.168	2056.5
325.397	977.5
325.626	747.5
325.855	677.5
326.084	683.5
326.313	740.5
326.542	829.5
326.77	1118.5
326.999	1923.5
327.228	3054.5
327.457	3902.5
327.686	2593.5
327.914	1173.5
328.143	958.5
328.372	853.5
328.6	838.5
328.829	870.5
329.058	910.5
329.287	839.5
329.515	711.5
329.744	641.5
329.972	651.5
330.201	696.5
330.43	808.5
330.658	945.5
330.887	964.5
331.115	830.5
331.344	661.5
331.572	698.5
331.801	715.5
332.03	690.5
332.258	646.5
332.486	644.5
332.715	609.5
332.943	668.5
333.172	661.5
333.4	688.5
333.629	707.5
333.857	670.5
334.085	656.5
334.314	638.5
334.542	654.5
334.771	663.5
334.999	678.5
335.227	673.5
335.455	648.5
335.684	647.5
335.912	612.5
336.14	627.5
336.369	653.5
336.597	682.5
336.825	640.5
337.053	656.5
337.281	609.5
337.51	633.5
337.738	634.5
337.966	637.5
338.194	627.5
338.422	612.5
338.65	602.5
338.878	605.5
339.106	582.5
339.334	578.5
339.562	594.5
339.79	578.5
340.018	599.5
340.246	604.5
340.474	610.5
340.702	576.5
340.93	581.5
341.158	568.5
341.386	597.5
341.614	631.5
341.842	601.5
342.07	560.5
342.298	571.5
342.526	572.5
342.754	556.5
342.981	571.5
343.209	578.5
343.437	608.5
343.665	647.5
343.893	634.5
344.12	624.5
344.348	608.5
344.576	605.5
344.804	638.5
345.031	664.5
345.259	661.5
345.487	607.5
345.714	586.5
345.942	558.5
346.17	590.5
346.397	570.5
346.625	611.5
346.853	560.5
347.08	592.5
347.308	578.5
347.535	615.5
347.763	628.5
347.99	597.5
348.218	619.5
348.445	646.5
348.673	607.5
348.9	588.5
349.128	551.5
349.355	534.5
349.583	579.5
349.81	542.5
350.037	568.5
350.265	553.5
350.492	546.5
350.72	561.5
350.947	584.5
351.174	614.5
351.402	640.5
351.629	600.5
351.856	614.5
352.083	608.5
352.311	646.5
352.538	641.5
352.765	630.5
352.992	630.5
353.22	583.5
353.447	580.5
353.674	557.5
353.901	550.5
354.128	534.5
354.355	562.5
354.583	529.5
354.81	548.5
355.037	517.5
355.264	550.5
355.491	550.5
355.718	534.5
355.945	541.5
356.172	532.5
356.399	514.5
356.626	528.5
356.853	536.5
357.08	535.5
357.307	548.5
357.534	537.5
357.761	548.5
357.988	540.5
358.215	540.5
358.441	521.5
358.668	540.5
358.895	529.5
359.122	574.5
359.349	624.5
359.576	639.5
359.802	747.5
360.029	776.5
360.256	726.5
360.483	640.5
360.709	597.5
360.936	616.5
361.163	610.5
361.39	639.5
361.616	605.5
361.843	610.5
362.07	640.5
362.296	588.5
362.523	598.5
362.749	573.5
362.976	593.5
363.203	590.5
363.429	562.5
363.656	576.5
363.882	561.5
364.109	560.5
364.335	564.5
364.562	581.5
364.788	563.5
365.015	577.5
365.241	599.5
365.468	606.5
365.694	612.5
365.92	575.5
366.147	574.5
366.373	576.5
366.599	561.5
366.826	576.5
367.052	566.5
367.278	564.5
367.505	571.5
367.731	580.5
367.957	579.5
368.184	604.5
368.41	617.5
368.636	607.5
368.862	606.5
369.089	580.5
369.315	564.5
369.541	586.5
369.767	590.5
369.993	580.5
370.219	584.5
370.445	597.5
370.672	562.5
370.898	573.5
371.124	577.5
371.35	570.5
371.576	556.5
371.802	575.5
372.028	597.5
372.254	568.5
372.48	590.5
372.706	599.5
372.932	597.5
373.158	614.5
373.384	602.5
373.61	594.5
373.835	614.5
374.061	576.5
374.287	618.5
374.513	614.5
374.739	640.5
374.965	591.5
375.191	607.5
375.416	610.5
375.642	592.5
375.868	600.5
376.094	598.5
376.319	597.5
376.545	583.5
376.771	572.5
376.997	592.5
377.222	591.5
377.448	582.5
377.674	584.5
377.899	561.5
378.125	564.5
378.35	585.5
378.576	562.5
378.802	577.5
379.027	596.5
379.253	579.5
379.478	583.5
379.704	579.5
379.929	577.5
380.155	612.5
380.38	600.5
380.606	604.5
380.831	593.5
381.057	587.5
381.282	590.5
381.507	581.5
381.733	607.5
381.958	598.5
382.184	616.5
382.409	616.5
382.634	606.5
382.86	608.5
383.085	614.5
383.31	618.5
383.535	641.5
383.761	629.5
383.986	647.5
384.211	642.5
384.436	646.5
384.662	670.5
384.887	692.5
385.112	692.5
385.337	695.5
385.562	695.5
385.787	695.5
386.013	709.5
386.238	725.5
386.463	674.5
386.688	697.5
386.913	662.5
387.138	655.5
387.363	691.5
387.588	671.5
387.813	698.5
388.038	656.5
388.263	672.5
388.488	682.5
388.713	684.5
388.938	653.5
389.163	672.5
389.387	690.5
389.612	644.5
389.837	673.5
390.062	674.5
390.287	669.5
390.512	671.5
390.736	660.5
390.961	677.5
391.186	695.5
391.411	718.5
391.636	730.5
391.86	719.5
392.085	737.5
392.31	732.5
392.534	723.5
392.759	722.5
392.984	713.5
393.208	710.5
393.433	710.5
393.658	724.5
393.882	693.5
394.107	728.5
394.331	736.5
394.556	706.5
394.78	711.5
395.005	717.5
395.229	721.5
395.454	750.5
395.678	740.5
395.903	760.5
396.127	737.5
396.352	745.5
396.576	721.5
396.801	722.5
397.025	718.5
397.249	728.5
397.474	777.5
397.698	782.5
397.922	810.5
398.147	802.5
398.371	826.5
398.595	801.5
398.82	858.5
399.044	883.5
399.268	995.5
399.492	1100.5
399.717	1130.5
399.941	1128.5
400.165	1012.5
400.389	950.5
400.613	889.5
400.837	851.5
401.062	887.5
401.286	841.5
401.51	837.5
401.734	841.5
401.958	879.5
402.182	948.5
402.406	988.5
402.63	966.5
402.854	888.5
403.078	902.5
403.302	917.5
403.526	899.5
403.75	934.5
403.974	950.5
404.198	922.5
404.422	952.5
404.645	921.5
404.869	926.5
405.093	947.5
405.317	988.5
405.541	954.5
405.765	964.5
405.988	960.5
406.212	1022.5
406.436	1120.5
406.66	1059.5
406.883	1019.5
407.107	1066.5
407.331	1161.5
407.555	1144.5
407.778	1090.5
408.002	988.5
408.226	944.5
408.449	964.5
408.673	962.5
408.896	962.5
409.12	1002.5
409.344	949.5
409.567	888.5
409.791	891.5
410.014	892.5
410.238	866.5
410.461	890.5
410.685	860.5
410.908	873.5
411.132	920.5
411.355	926.5
411.578	892.5
411.802	832.5
412.025	863.5
412.249	847.5
412.472	833.5
412.695	815.5
412.919	818.5
413.142	825.5
413.365	806.5
413.589	812.5
413.812	822.5
414.035	800.5
414.258	797.5
414.482	788.5
414.705	792.5
414.928	833.5
415.151	828.5
415.374	810.5
415.597	799.5
415.821	785.5
416.044	783.5
416.267	776.5
416.49	776.5
416.713	775.5
416.936	787.5
417.159	810.5
417.382	830.5
417.605	834.5
417.828	850.5
418.051	862.5
418.274	826.5
418.497	830.5
418.72	807.5
418.943	807.5
419.166	837.5
419.389	892.5
419.611	854.5
419.834	860.5
420.057	846.5
420.28	844.5
420.503	799.5
420.726	836.5
420.948	848.5
421.171	926.5
421.394	915.5
421.617	859.5
421.839	822.5
422.062	846.5
422.285	907.5
422.507	952.5
422.73	968.5
422.953	911.5
423.175	886.5
423.398	862.5
423.621	874.5
423.843	873.5
424.066	877.5
424.288	899.5
424.511	974.5
424.733	972.5
424.956	1077.5
425.178	1004.5
425.401	986.5
425.623	977.5
425.846	880.5
426.068	832.5
426.291	862.5
426.513	818.5
426.735	883.5
426.958	975.5
427.18	1075.5
427.402	1300.5
427.625	1325.5
427.847	1032.5
428.069	866.5
428.292	822.5
428.514	785.5
428.736	766.5
428.958	757.5
429.181	756.5
429.403	741.5
429.625	800.5
429.847	843.5
430.069	886.5
430.292	790.5
430.514	745.5
430.736	770.5
430.958	722.5
431.18	751.5
431.402	741.5
431.624	726.5
431.846	739.5
432.068	704.5
432.29	741.5
432.512	727.5
432.734	752.5
432.956	764.5
433.178	785.5
433.4	776.5
433.622	760.5
433.844	752.5
434.066	751.5
434.287	740.5
434.509	784.5
434.731	775.5
434.953	791.5
435.175	836.5
435.397	857.5
435.618	916.5
435.84	995.5
436.062	1023.5
436.284	984.5
436.505	837.5
436.727	822.5
436.949	778.5
437.17	812.5
437.392	788.5
437.614	839.5
437.835	939.5
438.057	1070.5
438.278	1098.5
438.5	1102.5
438.721	1119.5
438.943	967.5
439.165	833.5
439.386	811.5
439.608	880.5
439.829	924.5
440.05	972.5
440.272	1009.5
440.493	849.5
440.715	798.5
440.936	812.5
441.158	781.5
441.379	825.5
441.6	887.5
441.822	934.5
442.043	992.5
442.264	1057.5
442.486	988.5
442.707	912.5
442.928	936.5
443.149	988.5
443.371	1015.5
443.592	1078.5
443.813	1146.5
444.034	1070.5
444.255	932.5
444.476	917.5
444.698	914.5
444.919	943.5
445.14	980.5
445.361	1004.5
445.582	1092.5
445.803	1229.5
446.024	1288.5
446.245	1129.5
446.466	990.5
446.687	872.5
446.908	802.5
447.129	783.5
447.35	764.5
447.571	729.5
447.792	762.5
448.013	777.5
448.234	827.5
448.455	990.5
448.675	1096.5
448.896	1038.5
449.117	934.5
449.338	1012.5
449.559	1127.5
449.779	1108.5
450	832.5
450.221	761.5
450.442	754.5
450.662	799.5
450.883	839.5
451.104	864.5
451.324	761.5
451.545	742.5
451.766	708.5
451.986	672.5
452.207	675.5
452.428	704.5
452.648	712.5
452.869	716.5
453.089	745.5
453.31	746.5
453.53	698.5
453.751	678.5
453.971	758.5
454.192	800.5
454.412	715.5
454.633	670.5
454.853	654.5
455.073	681.5
455.294	752.5
455.514	814.5
455.734	706.5
455.955	660.5
456.175	642.5
456.395	618.5
456.616	618.5
456.836	618.5
457.056	617.5
457.276	591.5
457.497	641.5
457.717	643.5
457.937	646.5
458.157	678.5
458.377	726.5
458.598	824.5
458.818	1024.5
459.038	1082.5
459.258	952.5
459.478	790.5
459.698	751.5
459.918	790.5
460.138	765.5
460.358	780.5
460.578	798.5
460.798	828.5
461.018	813.5
461.238	799.5
461.458	782.5
461.678	800.5
461.898	812.5
462.118	778.5
462.338	844.5
462.558	855.5
462.777	940.5
462.997	938.5
463.217	968.5
463.437	952.5
463.657	904.5
463.876	901.5
464.096	898.5
464.316	919.5
464.536	923.5
464.755	901.5
464.975	988.5
465.195	1206.5
465.414	1141.5
465.634	854.5
465.854	781.5
466.073	758.5
466.293	735.5
466.512	711.5
466.732	712.5
466.951	697.5
467.171	722.5
467.391	771.5
467.61	806.5
467.829	764.5
468.049	696.5
468.268	692.5
468.488	668.5
468.707	681.5
468.927	672.5
469.146	695.5
469.365	702.5
469.585	696.5
469.804	725.5
470.023	757.5
470.243	750.5
470.462	815.5
470.681	834.5
470.901	748.5
471.12	738.5
471.339	720.5
471.558	730.5
471.777	684.5
471.997	670.5
472.216	657.5
472.435	656.5
472.654	652.5
472.873	671.5
473.092	674.5
473.311	681.5
473.53	662.5
473.749	704.5
473.968	810.5
474.187	904.5
474.406	794.5
474.625	704.5
474.844	671.5
475.063	670.5
475.282	661.5
475.501	686.5
475.72	691.5
475.939	673.5
476.158	698.5
476.377	691.5
476.596	708.5
476.814	757.5
477.033	769.5
477.252	728.5
477.471	748.5
477.69	778.5
477.908	786.5
478.127	773.5
478.346	780.5
478.564	804.5
478.783	816.5
479.002	822.5
479.22	842.5
479.439	891.5
479.658	889.5
479.876	886.5
480.095	903.5
480.313	897.5
480.532	882.5
480.751	864.5
480.969	855.5
481.188	841.5
481.406	835.5
481.624	802.5
481.843	768.5
482.061	747.5
482.28	768.5
482.498	768.5
482.717	753.5
482.935	777.5
483.153	772.5
483.372	782.5
483.59	768.5
483.808	769.5
484.027	774.5
484.245	790.5
484.463	804.5
484.681	806.5
484.9	815.5
485.118	796.5
485.336	824.5
485.554	806.5
485.772	829.5
485.99	838.5
486.209	844.5
486.427	837.5
486.645	893.5
486.863	901.5
487.081	875.5
487.299	861.5
487.517	850.5
487.735	855.5
487.953	818.5
488.171	840.5
488.389	852.5
488.607	853.5
488.825	825.5
489.043	840.5
489.261	852.5
489.479	855.5
489.696	849.5
489.914	868.5
490.132	867.5
490.35	868.5
490.568	879.5
490.786	893.5
491.003	915.5
491.221	953.5
491.439	965.5
491.657	950.5
491.874	978.5
492.092	1002.5
492.31	986.5
492.527	1005.5
492.745	985.5
492.963	977.5
493.18	991.5
493.398	964.5
493.615	1017.5
493.833	1009.5
494.05	983.5
494.268	984.5
494.485	972.5
494.703	985.5
494.92	998.5
495.138	990.5
495.355	976.5
495.573	986.5
495.79	1000.5
496.008	967.5
496.225	960.5
496.442	999.5
496.66	997.5
496.877	1029.5
497.094	1002.5
497.312	1009.5
497.529	1056.5
497.746	1063.5
497.963	1083.5
498.181	1122.5
498.398	1159.5
498.615	1229.5
498.832	1249.5
499.049	1312.5
499.267	1361.5
499.484	1463.5
499.701	1567.5
499.918	1677.5
500.135	1840.5
500.352	1923.5
500.569	1934.5
500.786	1893.5
501.003	1805.5
501.22	1668.5
501.437	1554.5
501.654	1513.5
501.871	1425.5
502.088	1307.5
502.305	1240.5
502.522	1185.5
502.739	1144.5
502.956	1109.5
503.172	1072.5
503.389	1074.5
503.606	1097.5
503.823	1052.5
504.04	1032.5
504.256	1015.5
504.473	1044.5
504.69	1024.5
504.907	1004.5
505.123	974.5
505.34	953.5
505.557	956.5
505.773	919.5
505.99	919.5
506.207	919.5
506.423	914.5
506.64	905.5
506.856	879.5
507.073	894.5
507.289	875.5
507.506	896.5
507.722	985.5
507.939	958.5
508.155	898.5
508.372	871.5
508.588	848.5
508.805	839.5
509.021	884.5
509.238	861.5
509.454	862.5
509.67	835.5
509.887	837.5
510.103	855.5
510.319	991.5
510.536	1788.5
510.752	2960.5
510.968	1302.5
511.184	864.5
511.401	855.5
511.617	805.5
511.833	830.5
512.049	766.5
512.265	794.5
512.481	762.5
512.698	764.5
512.914	805.5
513.13	797.5
513.346	795.5
513.562	806.5
513.778	833.5
513.994	876.5
514.21	870.5
514.426	998.5
514.642	1063.5
514.858	1110.5
515.074	1348.5
515.29	2320.5
515.506	3476.5
515.721	1744.5
515.937	1092.5
516.153	974.5
516.369	889.5
516.585	925.5
516.801	914.5
517.016	958.5
517.232	922.5
517.448	963.5
517.664	993.5
517.879	962.5
518.095	958.5
518.311	946.5
518.527	914.5
518.742	881.5
518.958	887.5
519.173	870.5
