Data from TestCu_HRD10591_00049.txt Node
Date: Thu Oct 05 14:05:29 EDT 2023
User: Yrep
Spectrometer: HR+D1059
Trigger mode: 1
Integration Time (sec): 1.000000E-1
Scans to average: 1
Electric dark correction enabled: true
Nonlinearity correction enabled: false
Boxcar width: 0
XAxis mode: Wavelengths
Number of Pixels in Spectrum: 2048
>>>>>Begin Spectral Data<<<<<
223.165	-23
223.4	-23
223.635	-23
223.869	-20
224.104	-26
224.338	-8
224.573	-17
224.808	-3
225.042	11
225.277	-7
225.511	-1
225.746	0
225.98	3
226.215	15
226.449	14
226.683	20
226.918	18
227.152	24
227.387	36
227.621	43
227.856	37
228.09	54
228.324	52
228.559	58
228.793	69
229.027	112
229.262	104
229.496	132
229.73	135
229.964	150
230.199	116
230.433	103
230.667	109
230.901	106
231.136	119
231.37	108
231.604	104
231.838	95
232.072	97
232.306	111
232.541	119
232.775	103
233.009	100
233.243	104
233.477	108
233.711	106
233.945	119
234.179	121
234.413	117
234.647	136
234.881	121
235.115	119
235.349	115
235.583	120
235.817	125
236.051	120
236.285	137
236.519	138
236.753	141
236.987	171
237.221	200
237.455	221
237.689	138
237.922	124
238.156	125
238.39	105
238.624	111
238.858	127
239.091	111
239.325	131
239.559	129
239.793	150
240.027	150
240.26	145
240.494	155
240.728	157
240.961	137
241.195	138
241.429	124
241.662	137
241.896	128
242.13	136
242.363	147
242.597	128
242.83	128
243.064	121
243.298	146
243.531	132
243.765	134
243.998	147
244.232	139
244.465	148
244.699	148
244.932	136
245.166	127
245.399	134
245.633	130
245.866	136
246.099	132
246.333	132
246.566	147
246.8	140
247.033	153
247.266	137
247.5	169
247.733	173
247.966	155
248.2	158
248.433	156
248.666	181
248.899	183
249.133	181
249.366	190
249.599	178
249.832	162
250.066	166
250.299	177
250.532	179
250.765	208
250.998	194
251.231	188
251.465	185
251.698	152
251.931	185
252.164	165
252.397	185
252.63	184
252.863	213
253.096	211
253.329	214
253.562	199
253.795	186
254.028	202
254.261	214
254.494	226
254.727	253
254.96	255
255.193	219
255.426	209
255.659	179
255.892	187
256.124	188
256.357	192
256.59	189
256.823	180
257.056	173
257.289	191
257.521	192
257.754	190
257.987	197
258.22	188
258.452	204
258.685	197
258.918	181
259.151	195
259.383	206
259.616	212
259.849	223
260.081	233
260.314	251
260.547	215
260.779	211
261.012	188
261.244	204
261.477	198
261.71	240
261.942	239
262.175	239
262.407	220
262.64	191
262.872	207
263.105	209
263.337	209
263.57	202
263.802	192
264.035	211
264.267	197
264.499	222
264.732	214
264.964	193
265.197	203
265.429	204
265.661	221
265.894	218
266.126	231
266.358	213
266.591	223
266.823	231
267.055	214
267.287	213
267.52	239
267.752	231
267.984	230
268.216	222
268.448	260
268.681	252
268.913	269
269.145	280
269.377	254
269.609	261
269.841	256
270.073	288
270.306	298
270.538	295
270.77	285
271.002	283
271.234	281
271.466	307
271.698	324
271.93	302
272.162	305
272.394	286
272.626	284
272.858	272
273.09	246
273.322	247
273.553	248
273.785	264
274.017	252
274.249	255
274.481	253
274.713	288
274.945	253
275.176	278
275.408	246
275.64	257
275.872	260
276.104	267
276.335	267
276.567	294
276.799	327
277.031	342
277.262	339
277.494	311
277.726	303
277.957	278
278.189	279
278.421	280
278.652	279
278.884	287
279.115	270
279.347	268
279.579	268
279.81	261
280.042	265
280.273	262
280.505	259
280.736	271
280.968	267
281.199	281
281.431	280
281.662	288
281.894	271
282.125	321
282.356	336
282.588	357
282.819	315
283.051	299
283.282	304
283.513	292
283.745	297
283.976	310
284.207	291
284.439	289
284.67	304
284.901	284
285.132	290
285.364	284
285.595	298
285.826	282
286.057	303
286.288	303
286.52	293
286.751	289
286.982	291
287.213	306
287.444	307
287.675	321
287.906	316
288.138	311
288.369	317
288.6	325
288.831	324
289.062	331
289.293	312
289.524	307
289.755	303
289.986	318
290.217	310
290.448	317
290.679	327
290.91	317
291.141	325
291.371	311
291.602	304
291.833	323
292.064	311
292.295	323
292.526	337
292.757	323
292.987	307
293.218	316
293.449	344
293.68	316
293.91	320
294.141	328
294.372	309
294.603	329
294.833	319
295.064	335
295.295	362
295.525	350
295.756	342
295.987	391
296.217	415
296.448	383
296.679	339
296.909	350
297.14	324
297.37	339
297.601	335
297.831	334
298.062	356
298.292	360
298.523	331
298.753	341
298.984	347
299.214	363
299.445	371
299.675	381
299.905	370
300.136	370
300.366	361
300.597	373
300.827	397
301.057	393
301.288	387
301.518	373
301.748	384
301.979	411
302.209	395
302.439	378
302.669	389
302.9	388
303.13	395
303.36	386
303.59	399
303.82	417
304.051	380
304.281	368
304.511	386
304.741	375
304.971	385
305.201	373
305.431	380
305.661	380
305.891	379
306.121	399
306.352	406
306.582	400
306.812	376
307.042	406
307.272	385
307.502	383
307.731	370
307.961	381
308.191	381
308.421	358
308.651	402
308.881	398
309.111	407
309.341	402
309.571	413
309.8	455
310.03	477
310.26	459
310.49	493
310.72	504
310.949	501
311.179	484
311.409	457
311.639	455
311.868	462
312.098	448
312.328	501
312.557	512
312.787	503
313.017	478
313.246	446
313.476	443
313.706	451
313.935	452
314.165	490
314.394	504
314.624	486
314.853	484
315.083	429
315.312	441
315.542	432
315.771	437
316.001	454
316.23	450
316.46	451
316.689	449
316.919	478
317.148	478
317.377	482
317.607	480
317.836	467
318.065	454
318.295	449
318.524	445
318.753	437
318.983	468
319.212	475
319.441	493
319.67	460
319.9	451
320.129	452
320.358	447
320.587	473
320.816	491
321.046	486
321.275	483
321.504	489
321.733	503
321.962	523
322.191	545
322.42	578
322.649	563
322.878	581
323.108	637
323.337	694
323.566	733
323.795	815
324.024	1063
324.253	1812
324.482	3119
324.71	4470
324.939	3961
325.168	1806
325.397	907
325.626	699
325.855	623
326.084	647
326.313	665
326.542	779
326.77	1054
326.999	1684
327.228	2681
327.457	3324
327.686	2157
327.914	1086
328.143	853
328.372	792
328.6	773
328.829	784
329.058	829
329.287	765
329.515	654
329.744	605
329.972	603
330.201	660
330.43	766
330.658	866
330.887	869
331.115	745
331.344	634
331.572	628
331.801	689
332.03	632
332.258	613
332.486	603
332.715	608
332.943	613
333.172	639
333.4	621
333.629	665
333.857	663
334.085	640
334.314	613
334.542	612
334.771	630
334.999	615
335.227	609
335.455	611
335.684	622
335.912	607
336.14	625
336.369	621
336.597	613
336.825	597
337.053	561
337.281	561
337.51	573
337.738	589
337.966	603
338.194	589
338.422	597
338.65	570
338.878	549
339.106	544
339.334	550
339.562	560
339.79	555
340.018	575
340.246	584
340.474	566
340.702	552
340.93	552
341.158	597
341.386	569
341.614	592
341.842	555
342.07	539
342.298	546
342.526	559
342.754	528
342.981	548
343.209	547
343.437	587
343.665	579
343.893	622
344.12	617
344.348	599
344.576	607
344.804	594
345.031	651
345.259	605
345.487	579
345.714	557
345.942	537
346.17	561
346.397	536
346.625	539
346.853	547
347.08	564
347.308	557
347.535	589
347.763	594
347.99	583
348.218	567
348.445	599
348.673	561
348.9	544
349.128	525
349.355	530
349.583	537
349.81	539
350.037	547
350.265	516
350.492	532
350.72	531
350.947	553
351.174	576
351.402	581
351.629	551
351.856	566
352.083	607
352.311	591
352.538	609
352.765	597
352.992	567
353.22	558
353.447	547
353.674	545
353.901	534
354.128	512
354.355	513
354.583	536
354.81	517
355.037	523
355.264	509
355.491	482
355.718	504
355.945	495
356.172	504
356.399	525
356.626	512
356.853	516
357.08	506
357.307	487
357.534	511
357.761	530
357.988	543
358.215	507
358.441	515
358.668	513
358.895	525
359.122	532
359.349	550
359.576	624
359.802	679
360.029	719
360.256	672
360.483	605
360.709	566
360.936	567
361.163	581
361.39	607
361.616	573
361.843	579
362.07	589
362.296	577
362.523	575
362.749	587
362.976	583
363.203	555
363.429	540
363.656	551
363.882	517
364.109	535
364.335	543
364.562	539
364.788	542
365.015	534
365.241	553
365.468	598
365.694	587
365.92	571
366.147	555
366.373	534
366.599	535
366.826	539
367.052	521
367.278	540
367.505	545
367.731	532
367.957	545
368.184	549
368.41	574
368.636	580
368.862	575
369.089	574
369.315	525
369.541	553
369.767	573
369.993	564
370.219	552
370.445	542
370.672	543
370.898	547
371.124	545
371.35	565
371.576	547
371.802	555
372.028	532
372.254	550
372.48	567
372.706	577
372.932	582
373.158	574
373.384	548
373.61	561
373.835	580
374.061	559
374.287	596
374.513	589
374.739	579
374.965	580
375.191	599
375.416	591
375.642	585
375.868	568
376.094	573
376.319	547
376.545	571
376.771	546
376.997	561
377.222	557
377.448	536
377.674	589
377.899	555
378.125	521
378.35	553
378.576	541
378.802	529
379.027	536
379.253	547
379.478	560
379.704	552
379.929	536
380.155	545
380.38	577
380.606	584
380.831	585
381.057	567
381.282	554
381.507	566
381.733	586
381.958	569
382.184	575
382.409	581
382.634	584
382.86	569
383.085	590
383.31	593
383.535	608
383.761	576
383.986	591
384.211	624
384.436	628
384.662	619
384.887	665
385.112	647
385.337	647
385.562	667
385.787	678
386.013	655
386.238	691
386.463	675
386.688	676
386.913	627
387.138	639
387.363	642
387.588	632
387.813	653
388.038	634
388.263	658
388.488	652
388.713	660
388.938	658
389.163	640
389.387	662
389.612	646
389.837	651
390.062	658
390.287	622
390.512	627
390.736	639
390.961	670
391.186	673
391.411	694
391.636	694
391.86	704
392.085	716
392.31	662
392.534	692
392.759	660
392.984	645
393.208	673
393.433	675
393.658	670
393.882	662
394.107	647
394.331	682
394.556	676
394.78	696
395.005	681
395.229	698
395.454	726
395.678	723
395.903	706
396.127	739
396.352	715
396.576	691
396.801	669
397.025	693
397.249	701
397.474	711
397.698	737
397.922	754
398.147	755
398.371	752
398.595	783
398.82	791
399.044	877
399.268	956
399.492	1040
399.717	1074
399.941	1036
400.165	979
400.389	942
400.613	851
400.837	821
401.062	820
401.286	787
401.51	827
401.734	805
401.958	827
402.182	875
402.406	884
402.63	861
402.854	859
403.078	864
403.302	875
403.526	880
403.75	868
403.974	869
404.198	875
404.422	899
404.645	868
404.869	898
405.093	882
405.317	940
405.541	874
405.765	897
405.988	887
406.212	974
406.436	1019
406.66	1008
406.883	976
407.107	1040
407.331	1051
407.555	1108
407.778	1044
408.002	992
408.226	916
408.449	948
408.673	915
408.896	927
409.12	959
409.344	859
409.567	818
409.791	864
410.014	819
410.238	836
410.461	809
410.685	841
410.908	853
411.132	896
411.355	874
411.578	805
411.802	784
412.025	815
412.249	831
412.472	802
412.695	790
412.919	775
413.142	773
413.365	773
413.589	737
413.812	775
414.035	745
414.258	765
414.482	774
414.705	793
414.928	798
415.151	783
415.374	770
415.597	777
415.821	751
416.044	759
416.267	765
416.49	753
416.713	736
416.936	770
417.159	745
417.382	762
417.605	755
417.828	785
418.051	789
418.274	810
418.497	779
418.72	795
418.943	779
419.166	799
419.389	828
419.611	829
419.834	806
420.057	823
420.28	780
420.503	751
420.726	784
420.948	835
421.171	845
421.394	844
421.617	779
421.839	805
422.062	820
422.285	844
422.507	911
422.73	939
422.953	848
423.175	829
423.398	846
423.621	837
423.843	841
424.066	842
424.288	853
424.511	918
424.733	971
424.956	1034
425.178	941
425.401	977
425.623	925
425.846	812
426.068	800
426.291	815
426.513	824
426.735	855
426.958	926
427.18	1062
427.402	1184
427.625	1195
427.847	956
428.069	811
428.292	772
428.514	751
428.736	712
428.958	733
429.181	713
429.403	727
429.625	776
429.847	797
430.069	836
430.292	800
430.514	720
430.736	726
430.958	716
431.18	715
431.402	718
431.624	699
431.846	729
432.068	712
432.29	741
432.512	716
432.734	726
432.956	715
433.178	717
433.4	737
433.622	717
433.844	738
434.066	707
434.287	748
434.509	741
434.731	760
434.953	756
435.175	775
435.397	823
435.618	845
435.84	903
436.062	1002
436.284	963
436.505	807
436.727	761
436.949	723
437.17	722
437.392	762
437.614	777
437.835	916
438.057	1000
438.278	1054
438.5	1059
438.721	1034
438.943	889
439.165	802
439.386	799
439.608	808
439.829	861
440.05	925
440.272	925
440.493	824
440.715	785
440.936	769
441.158	760
441.379	761
441.6	841
441.822	879
442.043	944
442.264	993
442.486	942
442.707	813
442.928	852
443.149	918
443.371	937
443.592	1021
443.813	1058
444.034	989
444.255	900
444.476	853
444.698	900
444.919	897
445.14	931
445.361	919
445.582	1003
445.803	1115
446.024	1133
446.245	1088
446.466	891
446.687	797
446.908	759
447.129	752
447.35	739
447.571	705
447.792	711
448.013	738
448.234	799
448.455	913
448.675	1013
448.896	977
449.117	839
449.338	926
449.559	1058
449.779	996
450	799
450.221	724
450.442	735
450.662	744
450.883	772
451.104	799
451.324	721
451.545	701
451.766	674
451.986	637
452.207	685
452.428	656
452.648	675
452.869	678
453.089	709
453.31	695
453.53	643
453.751	654
453.971	733
454.192	751
454.412	673
454.633	636
454.853	613
455.073	619
455.294	740
455.514	749
455.734	657
455.955	613
456.175	603
456.395	598
456.616	604
456.836	613
457.056	601
457.276	585
457.497	609
457.717	602
457.937	624
458.157	632
458.377	651
458.598	761
458.818	957
459.038	972
459.258	851
459.478	731
459.698	720
459.918	729
460.138	737
460.358	759
460.578	775
460.798	789
461.018	746
461.238	757
461.458	775
461.678	764
461.898	775
462.118	805
462.338	813
462.558	837
462.777	857
462.997	872
463.217	902
463.437	872
463.657	864
463.876	848
464.096	844
464.316	864
464.536	852
464.755	867
464.975	937
465.195	1146
465.414	1056
465.634	832
465.854	754
466.073	711
466.293	675
466.512	681
466.732	683
466.951	686
467.171	671
467.391	707
467.61	739
467.829	704
468.049	675
468.268	648
468.488	617
468.707	647
468.927	653
469.146	635
469.365	641
469.585	675
469.804	713
470.023	732
470.243	716
470.462	756
470.681	772
470.901	731
471.12	694
471.339	693
471.558	688
471.777	677
471.997	625
472.216	632
472.435	621
472.654	610
472.873	642
473.092	638
473.311	632
473.53	646
473.749	671
473.968	805
474.187	864
474.406	784
474.625	683
474.844	624
475.063	646
475.282	652
475.501	655
475.72	673
475.939	654
476.158	679
476.377	657
476.596	673
476.814	700
477.033	715
477.252	709
477.471	715
477.69	719
477.908	761
478.127	744
478.346	765
478.564	749
478.783	768
479.002	783
479.22	798
479.439	839
479.658	870
479.876	850
480.095	847
480.313	867
480.532	856
480.751	831
480.969	811
481.188	815
481.406	763
481.624	751
481.843	752
482.061	744
482.28	745
482.498	716
482.717	750
482.935	755
483.153	774
483.372	744
483.59	741
483.808	760
484.027	751
484.245	756
484.463	761
484.681	768
484.9	777
485.118	787
485.336	781
485.554	803
485.772	811
485.99	784
486.209	793
486.427	821
486.645	854
486.863	884
487.081	843
487.299	801
487.517	790
487.735	773
487.953	817
488.171	794
488.389	837
488.607	807
488.825	790
489.043	775
489.261	809
489.479	803
489.696	813
489.914	823
490.132	846
490.35	845
490.568	871
490.786	866
491.003	905
491.221	915
491.439	909
491.657	921
491.874	934
492.092	940
492.31	954
492.527	933
492.745	941
492.963	925
493.18	950
493.398	961
493.615	957
493.833	961
494.05	974
494.268	915
494.485	927
494.703	963
494.92	951
495.138	933
495.355	973
495.573	962
495.79	932
496.008	942
496.225	928
496.442	945
496.66	967
496.877	963
497.094	969
497.312	998
497.529	991
497.746	1020
497.963	1054
498.181	1082
498.398	1097
498.615	1153
498.832	1179
499.049	1257
499.267	1340
499.484	1379
499.701	1517
499.918	1596
500.135	1733
500.352	1855
500.569	1821
500.786	1794
501.003	1708
501.22	1615
501.437	1508
501.654	1433
501.871	1372
502.088	1279
502.305	1191
502.522	1167
502.739	1087
502.956	1043
503.172	1024
503.389	1030
503.606	1019
503.823	1016
504.04	989
504.256	987
504.473	1006
504.69	986
504.907	964
505.123	935
505.34	885
505.557	913
505.773	908
505.99	872
506.207	899
506.423	880
506.64	873
506.856	858
507.073	863
507.289	862
507.506	846
507.722	924
507.939	887
508.155	839
508.372	805
508.588	787
508.805	805
509.021	823
509.238	840
509.454	837
509.67	810
509.887	809
510.103	793
510.319	955
510.536	1643
510.752	2633
510.968	1172
511.184	799
511.401	801
511.617	756
511.833	755
512.049	760
512.265	756
512.481	747
512.698	726
512.914	758
513.13	754
513.346	752
513.562	771
513.778	773
513.994	803
514.21	851
514.426	957
514.642	1003
514.858	1049
515.074	1263
515.29	2132
515.506	3047
515.721	1517
515.937	1030
516.153	937
516.369	865
516.585	847
516.801	854
517.016	885
517.232	912
517.448	910
517.664	912
517.879	902
518.095	911
518.311	890
518.527	852
518.742	856
518.958	838
519.173	768
519.389	799
519.605	815
519.82	831
520.036	854
520.251	958
520.467	931
520.682	899
520.898	921
521.113	988
521.329	1150
521.544	1544
521.76	2691
521.975	4984
522.19	2820
522.406	1294
522.621	909
522.836	821
523.052	767
523.267	741
523.482	713
523.698	760
523.913	755
524.128	731
524.343	693
524.559	696
524.774	660
524.989	691
525.204	725
525.419	710
525.634	667
525.849	648
526.064	659
526.28	660
526.495	626
526.71	633
526.925	627
527.14	633
527.355	627
527.57	624
527.785	623
527.999	636
528.214	650
528.429	639
528.644	655
528.859	647
529.074	685
529.289	787
529.503	943
529.718	733
529.933	653
530.148	657
530.363	631
530.577	632
530.792	604
531.007	607
531.221	611
531.436	616
531.651	607
531.865	605
532.08	621
532.295	611
532.509	620
532.724	627
532.938	603
533.153	630
533.367	612
533.582	611
533.796	622
534.011	617
534.225	615
534.44	599
534.654	601
534.868	607
535.083	592
535.297	601
535.511	643
535.726	651
535.94	645
536.154	615
536.369	615
536.583	572
536.797	587
537.011	568
537.225	562
537.44	587
537.654	600
537.868	576
538.082	600
538.296	584
538.51	596
538.724	581
538.938	575
539.153	622
539.367	633
539.581	579
539.795	583
540.009	565
540.222	555
540.436	610
540.65	619
540.864	615
541.078	620
541.292	603
541.506	583
541.72	592
541.934	587
542.147	604
542.361	568
542.575	574
542.789	579
543.002	584
543.216	587
543.43	608
543.644	580
543.857	564
544.071	558
544.285	590
544.498	581
544.712	610
544.925	571
545.139	583
545.352	588
545.566	607
545.779	587
545.993	579
546.206	581
546.42	589
546.633	605
546.847	589
547.06	573
547.274	587
547.487	596
547.7	597
547.914	559
548.127	577
548.34	583
548.554	604
548.767	573
548.98	579
549.193	591
549.407	584
549.62	565
549.833	582
550.046	589
550.259	578
550.473	592
550.686	565
550.899	569
551.112	579
551.325	578
551.538	565
551.751	540
551.964	567
552.177	571
552.39	570
552.603	609
552.816	623
553.029	607
553.242	620
553.455	639
553.667	639
553.88	661
554.093	627
554.306	629
554.519	584
554.732	585
554.944	581
555.157	553
555.37	539
555.583	535
555.795	548
556.008	529
556.221	517
556.433	504
556.646	515
556.859	498
557.071	510
557.284	505
557.496	508
557.709	493
557.921	493
558.134	516
558.346	509
558.559	486
558.771	481
558.984	493
559.196	503
559.409	492
559.621	485
559.833	482
560.046	462
560.258	470
560.47	482
560.683	472
560.895	471
561.107	505
561.32	471
561.532	490
561.744	485
561.956	487
562.168	511
562.381	484
562.593	489
562.805	482
563.017	488
563.229	469
