Data from TestCu_HRD10591_00052.txt Node
Date: Thu Oct 05 14:05:32 EDT 2023
User: Yrep
Spectrometer: HR+D1059
Trigger mode: 1
Integration Time (sec): 1.000000E-1
Scans to average: 1
Electric dark correction enabled: true
Nonlinearity correction enabled: false
Boxcar width: 0
XAxis mode: Wavelengths
Number of Pixels in Spectrum: 2048
>>>>>Begin Spectral Data<<<<<
223.165	-11.56
223.4	-11.56
223.635	-11.56
223.869	-23.56
224.104	-18.56
224.338	-11.56
224.573	-14.56
224.808	-11.56
225.042	-10.56
225.277	0.44
225.511	-12.56
225.746	-15.56
225.98	10.44
226.215	18.44
226.449	23.44
226.683	18.44
226.918	30.44
227.152	28.44
227.387	38.44
227.621	20.44
227.856	37.44
228.09	56.44
228.324	63.44
228.559	58.44
228.793	60.44
229.027	119.44
229.262	127.44
229.496	144.44
229.73	165.44
229.964	144.44
230.199	124.44
230.433	102.44
230.667	108.44
230.901	103.44
231.136	119.44
231.37	121.44
231.604	111.44
231.838	105.44
232.072	130.44
232.306	118.44
232.541	115.44
232.775	102.44
233.009	108.44
233.243	114.44
233.477	124.44
233.711	104.44
233.945	108.44
234.179	99.44
234.413	121.44
234.647	112.44
234.881	114.44
235.115	115.44
235.349	112.44
235.583	118.44
235.817	133.44
236.051	123.44
236.285	136.44
236.519	136.44
236.753	145.44
236.987	187.44
237.221	233.44
237.455	228.44
237.689	146.44
237.922	139.44
238.156	127.44
238.39	123.44
238.624	131.44
238.858	118.44
239.091	135.44
239.325	133.44
239.559	123.44
239.793	137.44
240.027	153.44
240.26	148.44
240.494	154.44
240.728	138.44
240.961	138.44
241.195	138.44
241.429	131.44
241.662	125.44
241.896	117.44
242.13	124.44
242.363	142.44
242.597	125.44
242.83	134.44
243.064	127.44
243.298	149.44
243.531	148.44
243.765	144.44
243.998	143.44
244.232	143.44
244.465	146.44
244.699	142.44
244.932	144.44
245.166	121.44
245.399	143.44
245.633	143.44
245.866	128.44
246.099	156.44
246.333	154.44
246.566	137.44
246.8	144.44
247.033	167.44
247.266	172.44
247.5	168.44
247.733	171.44
247.966	181.44
248.2	154.44
248.433	172.44
248.666	158.44
248.899	198.44
249.133	198.44
249.366	210.44
249.599	186.44
249.832	163.44
250.066	156.44
250.299	177.44
250.532	182.44
250.765	199.44
250.998	235.44
251.231	201.44
251.465	185.44
251.698	169.44
251.931	171.44
252.164	188.44
252.397	164.44
252.63	199.44
252.863	203.44
253.096	221.44
253.329	205.44
253.562	204.44
253.795	197.44
254.028	186.44
254.261	206.44
254.494	243.44
254.727	260.44
254.96	268.44
255.193	216.44
255.426	195.44
255.659	194.44
255.892	214.44
256.124	186.44
256.357	188.44
256.59	182.44
256.823	198.44
257.056	196.44
257.289	195.44
257.521	200.44
257.754	200.44
257.987	184.44
258.22	204.44
258.452	191.44
258.685	195.44
258.918	198.44
259.151	198.44
259.383	199.44
259.616	220.44
259.849	224.44
260.081	240.44
260.314	244.44
260.547	249.44
260.779	209.44
261.012	213.44
261.244	198.44
261.477	215.44
261.71	237.44
261.942	259.44
262.175	246.44
262.407	220.44
262.64	222.44
262.872	217.44
263.105	176.44
263.337	198.44
263.57	204.44
263.802	198.44
264.035	207.44
264.267	211.44
264.499	218.44
264.732	207.44
264.964	192.44
265.197	215.44
265.429	230.44
265.661	218.44
265.894	229.44
266.126	208.44
266.358	216.44
266.591	218.44
266.823	244.44
267.055	230.44
267.287	225.44
267.52	228.44
267.752	223.44
267.984	227.44
268.216	233.44
268.448	237.44
268.681	245.44
268.913	273.44
269.145	261.44
269.377	277.44
269.609	246.44
269.841	264.44
270.073	291.44
270.306	312.44
270.538	298.44
270.77	290.44
271.002	279.44
271.234	300.44
271.466	300.44
271.698	314.44
271.93	314.44
272.162	312.44
272.394	294.44
272.626	291.44
272.858	279.44
273.09	256.44
273.322	262.44
273.553	254.44
273.785	253.44
274.017	249.44
274.249	251.44
274.481	264.44
274.713	263.44
274.945	268.44
275.176	281.44
275.408	276.44
275.64	266.44
275.872	266.44
276.104	275.44
276.335	298.44
276.567	314.44
276.799	346.44
277.031	357.44
277.262	345.44
277.494	323.44
277.726	293.44
277.957	282.44
278.189	280.44
278.421	270.44
278.652	261.44
278.884	277.44
279.115	277.44
279.347	264.44
279.579	266.44
279.81	269.44
280.042	263.44
280.273	268.44
280.505	273.44
280.736	276.44
280.968	284.44
281.199	287.44
281.431	276.44
281.662	292.44
281.894	296.44
282.125	338.44
282.356	360.44
282.588	374.44
282.819	332.44
283.051	300.44
283.282	297.44
283.513	297.44
283.745	333.44
283.976	314.44
284.207	304.44
284.439	318.44
284.67	308.44
284.901	311.44
285.132	290.44
285.364	303.44
285.595	310.44
285.826	300.44
286.057	317.44
286.288	328.44
286.52	318.44
286.751	315.44
286.982	320.44
287.213	320.44
287.444	314.44
287.675	330.44
287.906	355.44
288.138	352.44
288.369	341.44
288.6	353.44
288.831	338.44
289.062	328.44
289.293	333.44
289.524	317.44
289.755	331.44
289.986	311.44
290.217	322.44
290.448	320.44
290.679	318.44
290.91	336.44
291.141	320.44
291.371	329.44
291.602	322.44
291.833	333.44
292.064	338.44
292.295	359.44
292.526	342.44
292.757	346.44
292.987	333.44
293.218	336.44
293.449	345.44
293.68	336.44
293.91	318.44
294.141	336.44
294.372	337.44
294.603	332.44
294.833	344.44
295.064	354.44
295.295	339.44
295.525	332.44
295.756	351.44
295.987	395.44
296.217	405.44
296.448	369.44
296.679	375.44
296.909	356.44
297.14	362.44
297.37	386.44
297.601	345.44
297.831	384.44
298.062	370.44
298.292	381.44
298.523	368.44
298.753	369.44
298.984	355.44
299.214	374.44
299.445	365.44
299.675	365.44
299.905	364.44
300.136	359.44
300.366	361.44
300.597	371.44
300.827	394.44
301.057	394.44
301.288	399.44
301.518	414.44
301.748	388.44
301.979	418.44
302.209	412.44
302.439	425.44
302.669	401.44
302.9	375.44
303.13	397.44
303.36	398.44
303.59	397.44
303.82	414.44
304.051	403.44
304.281	415.44
304.511	392.44
304.741	403.44
304.971	377.44
305.201	398.44
305.431	381.44
305.661	386.44
305.891	375.44
306.121	378.44
306.352	425.44
306.582	410.44
306.812	390.44
307.042	394.44
307.272	389.44
307.502	404.44
307.731	398.44
307.961	406.44
308.191	412.44
308.421	402.44
308.651	424.44
308.881	418.44
309.111	415.44
309.341	419.44
309.571	428.44
309.8	466.44
310.03	495.44
310.26	498.44
310.49	502.44
310.72	514.44
310.949	521.44
311.179	484.44
311.409	476.44
311.639	471.44
311.868	458.44
312.098	480.44
312.328	515.44
312.557	546.44
312.787	549.44
313.017	520.44
313.246	502.44
313.476	478.44
313.706	512.44
313.935	515.44
314.165	518.44
314.394	516.44
314.624	507.44
314.853	518.44
315.083	476.44
315.312	483.44
315.542	465.44
315.771	468.44
316.001	446.44
316.23	458.44
316.46	466.44
316.689	469.44
316.919	497.44
317.148	496.44
317.377	495.44
317.607	480.44
317.836	470.44
318.065	476.44
318.295	448.44
318.524	467.44
318.753	486.44
318.983	473.44
319.212	478.44
319.441	481.44
319.67	502.44
319.9	460.44
320.129	465.44
320.358	485.44
320.587	490.44
320.816	513.44
321.046	514.44
321.275	514.44
321.504	509.44
321.733	504.44
321.962	558.44
322.191	550.44
322.42	588.44
322.649	610.44
322.878	616.44
323.108	671.44
323.337	729.44
323.566	765.44
323.795	857.44
324.024	1132.44
324.253	1962.44
324.482	3361.44
324.71	5042.44
324.939	4426.44
325.168	1953.44
325.397	932.44
325.626	740.44
325.855	663.44
326.084	688.44
326.313	714.44
326.542	793.44
326.77	1104.44
326.999	1845.44
327.228	2883.44
327.457	3674.44
327.686	2393.44
327.914	1140.44
328.143	845.44
328.372	796.44
328.6	794.44
328.829	830.44
329.058	856.44
329.287	826.44
329.515	694.44
329.744	649.44
329.972	630.44
330.201	696.44
330.43	804.44
330.658	931.44
330.887	943.44
331.115	776.44
331.344	692.44
331.572	696.44
331.801	692.44
332.03	668.44
332.258	631.44
332.486	626.44
332.715	624.44
332.943	652.44
333.172	645.44
333.4	674.44
333.629	686.44
333.857	702.44
334.085	677.44
334.314	649.44
334.542	653.44
334.771	648.44
334.999	632.44
335.227	647.44
335.455	652.44
335.684	632.44
335.912	608.44
336.14	623.44
336.369	647.44
336.597	664.44
336.825	627.44
337.053	622.44
337.281	606.44
337.51	616.44
337.738	617.44
337.966	632.44
338.194	625.44
338.422	585.44
338.65	581.44
338.878	564.44
339.106	560.44
339.334	589.44
339.562	566.44
339.79	565.44
340.018	609.44
340.246	593.44
340.474	585.44
340.702	584.44
340.93	585.44
341.158	580.44
341.386	579.44
341.614	606.44
341.842	601.44
342.07	574.44
342.298	564.44
342.526	552.44
342.754	549.44
342.981	554.44
343.209	567.44
343.437	614.44
343.665	644.44
343.893	634.44
344.12	628.44
344.348	620.44
344.576	621.44
344.804	620.44
345.031	637.44
345.259	656.44
345.487	603.44
345.714	564.44
345.942	584.44
346.17	564.44
346.397	583.44
346.625	561.44
346.853	550.44
347.08	590.44
347.308	578.44
347.535	601.44
347.763	598.44
347.99	600.44
348.218	617.44
348.445	617.44
348.673	584.44
348.9	554.44
349.128	566.44
349.355	534.44
349.583	523.44
349.81	551.44
350.037	533.44
350.265	524.44
350.492	548.44
350.72	553.44
350.947	582.44
351.174	611.44
351.402	600.44
351.629	622.44
351.856	583.44
352.083	628.44
352.311	642.44
352.538	630.44
352.765	636.44
352.992	586.44
353.22	578.44
353.447	588.44
353.674	561.44
353.901	541.44
354.128	525.44
354.355	529.44
354.583	521.44
354.81	534.44
355.037	527.44
355.264	509.44
355.491	509.44
355.718	525.44
355.945	522.44
356.172	519.44
356.399	528.44
356.626	522.44
356.853	536.44
357.08	535.44
357.307	530.44
357.534	540.44
357.761	513.44
357.988	521.44
358.215	534.44
358.441	552.44
358.668	544.44
358.895	555.44
359.122	542.44
359.349	576.44
359.576	649.44
359.802	724.44
360.029	757.44
360.256	716.44
360.483	621.44
360.709	582.44
360.936	590.44
361.163	585.44
361.39	602.44
361.616	596.44
361.843	596.44
362.07	630.44
362.296	600.44
362.523	594.44
362.749	582.44
362.976	560.44
363.203	546.44
363.429	544.44
363.656	588.44
363.882	560.44
364.109	566.44
364.335	567.44
364.562	559.44
364.788	549.44
365.015	552.44
365.241	588.44
365.468	593.44
365.694	589.44
365.92	595.44
366.147	553.44
366.373	548.44
366.599	568.44
366.826	548.44
367.052	563.44
367.278	554.44
367.505	554.44
367.731	557.44
367.957	548.44
368.184	580.44
368.41	601.44
368.636	628.44
368.862	598.44
369.089	578.44
369.315	568.44
369.541	554.44
369.767	564.44
369.993	569.44
370.219	574.44
370.445	576.44
370.672	560.44
370.898	581.44
371.124	560.44
371.35	562.44
371.576	556.44
371.802	545.44
372.028	556.44
372.254	578.44
372.48	576.44
372.706	577.44
372.932	571.44
373.158	582.44
373.384	588.44
373.61	576.44
373.835	599.44
374.061	582.44
374.287	605.44
374.513	599.44
374.739	597.44
374.965	622.44
375.191	608.44
375.416	590.44
375.642	569.44
375.868	589.44
376.094	570.44
376.319	560.44
376.545	588.44
376.771	570.44
376.997	573.44
377.222	577.44
377.448	575.44
377.674	582.44
377.899	560.44
378.125	578.44
378.35	555.44
378.576	569.44
378.802	561.44
379.027	570.44
379.253	553.44
379.478	573.44
379.704	581.44
379.929	596.44
380.155	584.44
380.38	564.44
380.606	585.44
380.831	573.44
381.057	575.44
381.282	592.44
381.507	589.44
381.733	597.44
381.958	584.44
382.184	595.44
382.409	599.44
382.634	598.44
382.86	594.44
383.085	610.44
383.31	602.44
383.535	627.44
383.761	624.44
383.986	633.44
384.211	650.44
384.436	628.44
384.662	690.44
384.887	654.44
385.112	641.44
385.337	681.44
385.562	687.44
385.787	678.44
386.013	723.44
386.238	699.44
386.463	696.44
386.688	674.44
386.913	645.44
387.138	665.44
387.363	676.44
387.588	650.44
387.813	673.44
388.038	670.44
388.263	684.44
388.488	650.44
388.713	670.44
388.938	653.44
389.163	668.44
389.387	664.44
389.612	675.44
389.837	679.44
390.062	673.44
390.287	676.44
390.512	647.44
390.736	672.44
390.961	653.44
391.186	671.44
391.411	706.44
391.636	731.44
391.86	732.44
392.085	741.44
392.31	722.44
392.534	697.44
392.759	693.44
392.984	708.44
393.208	693.44
393.433	686.44
393.658	701.44
393.882	686.44
394.107	702.44
394.331	716.44
394.556	711.44
394.78	697.44
395.005	716.44
395.229	701.44
395.454	744.44
395.678	745.44
395.903	739.44
396.127	745.44
396.352	742.44
396.576	702.44
396.801	709.44
397.025	711.44
397.249	730.44
397.474	756.44
397.698	729.44
397.922	768.44
398.147	782.44
398.371	821.44
398.595	824.44
398.82	856.44
399.044	922.44
399.268	1002.44
399.492	1096.44
399.717	1088.44
399.941	1070.44
400.165	1023.44
400.389	990.44
400.613	895.44
400.837	849.44
401.062	825.44
401.286	820.44
401.51	830.44
401.734	858.44
401.958	899.44
402.182	917.44
402.406	929.44
402.63	900.44
402.854	894.44
403.078	906.44
403.302	885.44
403.526	897.44
403.75	941.44
403.974	916.44
404.198	902.44
404.422	915.44
404.645	913.44
404.869	926.44
405.093	902.44
405.317	927.44
405.541	950.44
405.765	935.44
405.988	966.44
406.212	1062.44
406.436	1081.44
406.66	1021.44
406.883	1021.44
407.107	1041.44
407.331	1128.44
407.555	1150.44
407.778	1090.44
408.002	974.44
408.226	958.44
408.449	973.44
408.673	930.44
408.896	950.44
409.12	962.44
409.344	908.44
409.567	905.44
409.791	875.44
410.014	854.44
410.238	851.44
410.461	874.44
410.685	884.44
410.908	880.44
411.132	936.44
411.355	868.44
411.578	889.44
411.802	874.44
412.025	812.44
412.249	826.44
412.472	862.44
412.695	806.44
412.919	804.44
413.142	818.44
413.365	814.44
413.589	796.44
413.812	806.44
414.035	803.44
414.258	788.44
414.482	793.44
414.705	799.44
414.928	797.44
415.151	770.44
415.374	798.44
415.597	789.44
415.821	797.44
416.044	776.44
416.267	780.44
416.49	796.44
416.713	761.44
416.936	802.44
417.159	796.44
417.382	776.44
417.605	808.44
417.828	836.44
418.051	834.44
418.274	820.44
418.497	828.44
418.72	826.44
418.943	802.44
419.166	826.44
419.389	843.44
419.611	855.44
419.834	845.44
420.057	808.44
420.28	825.44
420.503	835.44
420.726	813.44
420.948	835.44
421.171	877.44
421.394	862.44
421.617	808.44
421.839	815.44
422.062	842.44
422.285	894.44
422.507	976.44
422.73	978.44
422.953	881.44
423.175	872.44
423.398	871.44
423.621	864.44
423.843	939.44
424.066	862.44
424.288	869.44
424.511	920.44
424.733	985.44
424.956	1024.44
425.178	998.44
425.401	1000.44
425.623	949.44
425.846	849.44
426.068	835.44
426.291	826.44
426.513	858.44
426.735	864.44
426.958	955.44
427.18	1093.44
427.402	1255.44
427.625	1310.44
427.847	1010.44
428.069	834.44
428.292	816.44
428.514	749.44
428.736	742.44
428.958	743.44
429.181	744.44
429.403	725.44
429.625	785.44
429.847	816.44
430.069	873.44
430.292	791.44
430.514	740.44
430.736	737.44
430.958	738.44
431.18	718.44
431.402	737.44
431.624	718.44
431.846	736.44
432.068	722.44
432.29	708.44
432.512	736.44
432.734	746.44
432.956	764.44
433.178	762.44
433.4	759.44
433.622	738.44
433.844	729.44
434.066	757.44
434.287	716.44
434.509	750.44
434.731	774.44
434.953	828.44
435.175	840.44
435.397	847.44
435.618	870.44
435.84	912.44
436.062	1011.44
436.284	973.44
436.505	847.44
436.727	793.44
436.949	780.44
437.17	750.44
437.392	760.44
437.614	818.44
437.835	949.44
438.057	1025.44
438.278	1053.44
438.5	1054.44
438.721	1100.44
438.943	905.44
439.165	832.44
439.386	814.44
439.608	839.44
439.829	896.44
440.05	957.44
440.272	995.44
440.493	861.44
440.715	808.44
440.936	789.44
441.158	803.44
441.379	847.44
441.6	881.44
441.822	905.44
442.043	984.44
442.264	1058.44
442.486	965.44
442.707	911.44
442.928	896.44
443.149	938.44
443.371	1004.44
443.592	1080.44
443.813	1146.44
444.034	1047.44
444.255	925.44
444.476	937.44
444.698	921.44
444.919	919.44
445.14	947.44
445.361	972.44
445.582	1065.44
445.803	1181.44
446.024	1212.44
446.245	1102.44
446.466	952.44
446.687	826.44
446.908	768.44
447.129	761.44
447.35	745.44
447.571	749.44
447.792	725.44
448.013	781.44
448.234	829.44
448.455	936.44
448.675	1052.44
448.896	1040.44
449.117	882.44
449.338	978.44
449.559	1098.44
449.779	1058.44
450	824.44
450.221	727.44
450.442	747.44
450.662	750.44
450.883	836.44
451.104	826.44
451.324	752.44
451.545	729.44
451.766	690.44
451.986	668.44
452.207	683.44
452.428	694.44
452.648	692.44
452.869	710.44
453.089	744.44
453.31	734.44
453.53	709.44
453.751	688.44
453.971	730.44
454.192	760.44
454.412	702.44
454.633	671.44
454.853	653.44
455.073	655.44
455.294	738.44
455.514	765.44
455.734	696.44
455.955	634.44
456.175	636.44
456.395	622.44
456.616	606.44
456.836	606.44
457.056	613.44
457.276	612.44
457.497	616.44
457.717	642.44
457.937	629.44
458.157	638.44
458.377	659.44
458.598	805.44
458.818	1014.44
459.038	1014.44
459.258	900.44
459.478	826.44
459.698	761.44
459.918	772.44
460.138	778.44
460.358	799.44
460.578	802.44
460.798	798.44
461.018	798.44
461.238	785.44
461.458	746.44
461.678	755.44
461.898	804.44
462.118	791.44
462.338	832.44
462.558	852.44
462.777	874.44
462.997	948.44
463.217	970.44
463.437	927.44
463.657	879.44
463.876	885.44
464.096	908.44
464.316	914.44
464.536	910.44
464.755	858.44
464.975	991.44
465.195	1175.44
465.414	1122.44
465.634	841.44
465.854	789.44
466.073	761.44
466.293	719.44
466.512	727.44
466.732	694.44
466.951	701.44
467.171	705.44
467.391	730.44
467.61	790.44
467.829	749.44
468.049	709.44
468.268	646.44
468.488	681.44
468.707	696.44
468.927	673.44
469.146	648.44
469.365	702.44
469.585	680.44
469.804	728.44
470.023	759.44
470.243	739.44
470.462	793.44
470.681	793.44
470.901	742.44
471.12	724.44
471.339	696.44
471.558	698.44
471.777	698.44
471.997	658.44
472.216	665.44
472.435	658.44
472.654	641.44
472.873	638.44
473.092	639.44
473.311	633.44
473.53	668.44
473.749	711.44
473.968	818.44
474.187	921.44
474.406	806.44
474.625	702.44
474.844	692.44
475.063	655.44
475.282	681.44
475.501	674.44
475.72	694.44
475.939	688.44
476.158	689.44
476.377	710.44
476.596	691.44
476.814	720.44
477.033	735.44
477.252	750.44
477.471	756.44
477.69	764.44
477.908	766.44
478.127	763.44
478.346	775.44
478.564	770.44
478.783	796.44
479.002	836.44
479.22	845.44
479.439	882.44
479.658	879.44
479.876	871.44
480.095	883.44
480.313	938.44
480.532	896.44
480.751	839.44
480.969	844.44
481.188	802.44
481.406	823.44
481.624	800.44
481.843	779.44
482.061	766.44
482.28	761.44
482.498	752.44
482.717	770.44
482.935	782.44
483.153	752.44
483.372	752.44
483.59	789.44
483.808	758.44
484.027	761.44
484.245	802.44
484.463	772.44
484.681	809.44
484.9	785.44
485.118	812.44
485.336	814.44
485.554	825.44
485.772	804.44
485.99	830.44
486.209	831.44
486.427	839.44
486.645	878.44
486.863	874.44
487.081	870.44
487.299	849.44
487.517	848.44
487.735	831.44
487.953	818.44
488.171	798.44
488.389	834.44
488.607	811.44
488.825	832.44
489.043	831.44
489.261	793.44
489.479	821.44
489.696	844.44
489.914	882.44
490.132	845.44
490.35	840.44
490.568	881.44
490.786	861.44
491.003	900.44
491.221	965.44
491.439	955.44
491.657	970.44
491.874	964.44
492.092	990.44
492.31	986.44
492.527	937.44
492.745	932.44
492.963	965.44
493.18	960.44
493.398	1004.44
493.615	998.44
493.833	992.44
494.05	1006.44
494.268	958.44
494.485	962.44
494.703	979.44
494.92	971.44
495.138	943.44
495.355	984.44
495.573	1000.44
495.79	974.44
496.008	968.44
496.225	991.44
496.442	968.44
496.66	945.44
496.877	978.44
497.094	998.44
497.312	999.44
497.529	1058.44
497.746	1036.44
497.963	1064.44
498.181	1076.44
498.398	1146.44
498.615	1169.44
498.832	1225.44
499.049	1297.44
499.267	1396.44
499.484	1442.44
499.701	1539.44
499.918	1628.44
500.135	1759.44
500.352	1869.44
500.569	1923.44
500.786	1858.44
501.003	1743.44
501.22	1626.44
501.437	1518.44
501.654	1486.44
