Data from TestCu_HRD10591_00083.txt Node
Date: Thu Oct 05 14:06:03 EDT 2023
User: Yrep
Spectrometer: HR+D1059
Trigger mode: 1
Integration Time (sec): 1.000000E-1
Scans to average: 1
Electric dark correction enabled: true
Nonlinearity correction enabled: false
Boxcar width: 0
XAxis mode: Wavelengths
Number of Pixels in Spectrum: 2048
>>>>>Begin Spectral Data<<<<<
223.165	-16.25
223.4	-16.25
223.635	-16.25
223.869	-16.25
224.104	-12.25
224.338	-25.25
224.573	-5.25
224.808	-8.25
225.042	-7.25
225.277	-2.25
225.511	-12.25
225.746	2.75
225.98	-3.25
226.215	0.75
226.449	25.75
226.683	26.75
226.918	21.75
227.152	30.75
227.387	36.75
227.621	41.75
227.856	38.75
228.09	50.75
228.324	38.75
228.559	56.75
228.793	74.75
229.027	95.75
229.262	124.75
229.496	124.75
229.73	176.75
229.964	176.75
230.199	126.75
230.433	116.75
230.667	110.75
230.901	107.75
231.136	124.75
231.37	100.75
231.604	90.75
231.838	103.75
232.072	100.75
232.306	108.75
232.541	107.75
232.775	110.75
233.009	105.75
233.243	116.75
233.477	112.75
233.711	118.75
233.945	113.75
234.179	121.75
234.413	136.75
234.647	127.75
234.881	124.75
235.115	104.75
235.349	103.75
235.583	113.75
235.817	113.75
236.051	135.75
236.285	124.75
236.519	150.75
236.753	136.75
236.987	187.75
237.221	226.75
237.455	224.75
237.689	154.75
237.922	134.75
238.156	125.75
238.39	119.75
238.624	126.75
238.858	130.75
239.091	128.75
239.325	136.75
239.559	129.75
239.793	130.75
240.027	147.75
240.26	160.75
240.494	162.75
240.728	147.75
240.961	140.75
241.195	142.75
241.429	153.75
241.662	133.75
241.896	117.75
242.13	111.75
242.363	131.75
242.597	142.75
242.83	141.75
243.064	126.75
243.298	135.75
243.531	144.75
243.765	132.75
243.998	128.75
244.232	129.75
244.465	152.75
244.699	133.75
244.932	140.75
245.166	150.75
245.399	144.75
245.633	160.75
245.866	128.75
246.099	140.75
246.333	153.75
246.566	148.75
246.8	148.75
247.033	159.75
247.266	158.75
247.5	165.75
247.733	161.75
247.966	160.75
248.2	164.75
248.433	183.75
248.666	186.75
248.899	201.75
249.133	194.75
249.366	209.75
249.599	196.75
249.832	164.75
250.066	182.75
250.299	190.75
250.532	188.75
250.765	205.75
250.998	207.75
251.231	204.75
251.465	182.75
251.698	175.75
251.931	174.75
252.164	192.75
252.397	179.75
252.63	181.75
252.863	210.75
253.096	222.75
253.329	217.75
253.562	208.75
253.795	211.75
254.028	197.75
254.261	219.75
254.494	245.75
254.727	270.75
254.96	262.75
255.193	210.75
255.426	205.75
255.659	199.75
255.892	191.75
256.124	205.75
256.357	180.75
256.59	194.75
256.823	203.75
257.056	190.75
257.289	191.75
257.521	195.75
257.754	182.75
257.987	198.75
258.22	198.75
258.452	207.75
258.685	201.75
258.918	210.75
259.151	207.75
259.383	208.75
259.616	227.75
259.849	224.75
260.081	228.75
260.314	238.75
260.547	222.75
260.779	221.75
261.012	203.75
261.244	195.75
261.477	202.75
261.71	228.75
261.942	268.75
262.175	265.75
262.407	241.75
262.64	216.75
262.872	223.75
263.105	207.75
263.337	208.75
263.57	208.75
263.802	200.75
264.035	209.75
264.267	226.75
264.499	216.75
264.732	219.75
264.964	215.75
265.197	210.75
265.429	216.75
265.661	224.75
265.894	207.75
266.126	217.75
266.358	209.75
266.591	223.75
266.823	228.75
267.055	234.75
267.287	222.75
267.52	244.75
267.752	233.75
267.984	235.75
268.216	230.75
268.448	229.75
268.681	255.75
268.913	276.75
269.145	284.75
269.377	283.75
269.609	268.75
269.841	267.75
270.073	296.75
270.306	298.75
270.538	332.75
270.77	302.75
271.002	282.75
271.234	281.75
271.466	304.75
271.698	313.75
271.93	342.75
272.162	316.75
272.394	307.75
272.626	283.75
272.858	266.75
273.09	254.75
273.322	277.75
273.553	246.75
273.785	253.75
274.017	270.75
274.249	258.75
274.481	264.75
274.713	274.75
274.945	292.75
275.176	267.75
275.408	276.75
275.64	260.75
275.872	272.75
276.104	275.75
276.335	299.75
276.567	320.75
276.799	357.75
277.031	344.75
277.262	336.75
277.494	310.75
277.726	289.75
277.957	286.75
278.189	274.75
278.421	286.75
278.652	274.75
278.884	276.75
279.115	283.75
279.347	259.75
279.579	263.75
279.81	275.75
280.042	286.75
280.273	258.75
280.505	287.75
280.736	284.75
280.968	276.75
281.199	289.75
281.431	284.75
281.662	297.75
281.894	286.75
282.125	309.75
282.356	370.75
282.588	366.75
282.819	316.75
283.051	286.75
283.282	315.75
283.513	294.75
283.745	303.75
283.976	311.75
284.207	308.75
284.439	301.75
284.67	302.75
284.901	308.75
285.132	302.75
285.364	299.75
285.595	307.75
285.826	326.75
286.057	302.75
286.288	297.75
286.52	292.75
286.751	310.75
286.982	307.75
287.213	296.75
287.444	307.75
287.675	355.75
287.906	349.75
288.138	346.75
288.369	337.75
288.6	324.75
288.831	322.75
289.062	327.75
289.293	317.75
289.524	326.75
289.755	324.75
289.986	327.75
290.217	334.75
290.448	312.75
290.679	316.75
290.91	317.75
291.141	326.75
291.371	325.75
291.602	317.75
291.833	335.75
292.064	309.75
292.295	325.75
292.526	339.75
292.757	313.75
292.987	325.75
293.218	330.75
293.449	324.75
293.68	340.75
293.91	336.75
294.141	339.75
294.372	351.75
294.603	337.75
294.833	326.75
295.064	350.75
295.295	336.75
295.525	348.75
295.756	375.75
295.987	398.75
296.217	408.75
296.448	397.75
296.679	341.75
296.909	334.75
297.14	371.75
297.37	377.75
297.601	350.75
297.831	372.75
298.062	367.75
298.292	367.75
298.523	371.75
298.753	362.75
298.984	368.75
299.214	364.75
299.445	382.75
299.675	381.75
299.905	371.75
300.136	357.75
300.366	370.75
300.597	359.75
300.827	411.75
301.057	418.75
301.288	408.75
301.518	412.75
301.748	394.75
301.979	433.75
302.209	399.75
302.439	396.75
302.669	397.75
302.9	381.75
303.13	386.75
303.36	423.75
303.59	419.75
303.82	398.75
304.051	405.75
304.281	400.75
304.511	396.75
304.741	405.75
304.971	393.75
305.201	380.75
305.431	407.75
305.661	396.75
305.891	385.75
306.121	406.75
306.352	413.75
306.582	406.75
306.812	419.75
307.042	401.75
307.272	389.75
307.502	388.75
307.731	406.75
307.961	389.75
308.191	398.75
308.421	405.75
308.651	406.75
308.881	412.75
309.111	426.75
309.341	425.75
309.571	435.75
309.8	463.75
310.03	483.75
310.26	489.75
310.49	490.75
310.72	535.75
310.949	536.75
311.179	478.75
311.409	451.75
311.639	486.75
311.868	482.75
312.098	489.75
312.328	507.75
312.557	541.75
312.787	558.75
313.017	514.75
313.246	466.75
313.476	480.75
313.706	485.75
313.935	504.75
314.165	556.75
314.394	517.75
314.624	508.75
314.853	481.75
315.083	495.75
315.312	454.75
315.542	449.75
315.771	453.75
316.001	447.75
316.23	427.75
316.46	443.75
316.689	487.75
316.919	498.75
317.148	494.75
317.377	501.75
317.607	492.75
317.836	482.75
318.065	453.75
318.295	449.75
318.524	465.75
318.753	472.75
318.983	487.75
319.212	497.75
319.441	511.75
319.67	498.75
319.9	470.75
320.129	466.75
320.358	480.75
320.587	488.75
320.816	516.75
321.046	508.75
321.275	489.75
321.504	523.75
321.733	533.75
321.962	549.75
322.191	551.75
322.42	603.75
322.649	619.75
322.878	620.75
323.108	671.75
323.337	712.75
323.566	774.75
323.795	866.75
324.024	1166.75
324.253	2022.75
324.482	3470.75
324.71	5174.75
324.939	4550.75
325.168	1970.75
325.397	930.75
325.626	749.75
325.855	691.75
326.084	694.75
326.313	737.75
326.542	836.75
326.77	1128.75
326.999	1885.75
327.228	3002.75
327.457	3846.75
327.686	2496.75
327.914	1169.75
328.143	917.75
328.372	810.75
328.6	819.75
328.829	842.75
329.058	895.75
329.287	794.75
329.515	717.75
329.744	645.75
329.972	651.75
330.201	687.75
330.43	829.75
330.658	926.75
330.887	951.75
331.115	778.75
331.344	678.75
331.572	653.75
331.801	700.75
332.03	653.75
332.258	618.75
332.486	624.75
332.715	607.75
332.943	626.75
333.172	646.75
333.4	660.75
333.629	678.75
333.857	695.75
334.085	650.75
334.314	644.75
334.542	637.75
334.771	672.75
334.999	663.75
335.227	642.75
335.455	626.75
335.684	590.75
335.912	641.75
336.14	642.75
336.369	646.75
336.597	664.75
336.825	628.75
337.053	594.75
337.281	589.75
337.51	622.75
337.738	604.75
337.966	641.75
338.194	627.75
338.422	600.75
338.65	577.75
338.878	590.75
339.106	580.75
339.334	578.75
339.562	574.75
339.79	575.75
340.018	587.75
340.246	602.75
340.474	582.75
340.702	586.75
340.93	545.75
341.158	578.75
341.386	613.75
341.614	604.75
341.842	597.75
342.07	578.75
342.298	564.75
342.526	556.75
342.754	556.75
342.981	571.75
343.209	556.75
343.437	605.75
343.665	611.75
343.893	633.75
344.12	637.75
344.348	643.75
344.576	625.75
344.804	629.75
345.031	631.75
345.259	638.75
345.487	591.75
345.714	576.75
345.942	569.75
346.17	548.75
346.397	558.75
346.625	575.75
346.853	566.75
347.08	573.75
347.308	608.75
347.535	599.75
347.763	596.75
347.99	605.75
348.218	622.75
348.445	633.75
348.673	600.75
348.9	561.75
349.128	546.75
349.355	513.75
349.583	561.75
349.81	554.75
350.037	541.75
350.265	528.75
350.492	536.75
350.72	554.75
350.947	611.75
351.174	596.75
351.402	579.75
351.629	600.75
351.856	604.75
352.083	616.75
352.311	628.75
352.538	619.75
352.765	604.75
352.992	598.75
353.22	594.75
353.447	583.75
353.674	523.75
353.901	528.75
354.128	554.75
354.355	558.75
354.583	531.75
354.81	521.75
355.037	546.75
355.264	531.75
355.491	531.75
355.718	532.75
355.945	524.75
356.172	531.75
356.399	520.75
356.626	497.75
356.853	531.75
357.08	540.75
357.307	520.75
357.534	513.75
357.761	535.75
357.988	545.75
358.215	546.75
358.441	534.75
358.668	550.75
358.895	545.75
359.122	565.75
359.349	595.75
359.576	618.75
359.802	711.75
360.029	757.75
360.256	709.75
360.483	635.75
360.709	582.75
360.936	597.75
361.163	581.75
361.39	600.75
361.616	613.75
361.843	622.75
362.07	607.75
362.296	621.75
362.523	597.75
362.749	561.75
362.976	569.75
363.203	576.75
363.429	558.75
363.656	583.75
363.882	566.75
364.109	554.75
364.335	588.75
364.562	554.75
364.788	570.75
365.015	550.75
365.241	576.75
365.468	599.75
365.694	608.75
365.92	574.75
366.147	545.75
366.373	560.75
366.599	565.75
366.826	542.75
367.052	558.75
367.278	553.75
367.505	566.75
367.731	556.75
367.957	554.75
368.184	574.75
368.41	601.75
368.636	617.75
368.862	597.75
369.089	550.75
369.315	564.75
369.541	549.75
369.767	572.75
369.993	589.75
370.219	561.75
370.445	571.75
370.672	562.75
370.898	572.75
371.124	562.75
371.35	556.75
371.576	560.75
371.802	554.75
372.028	571.75
372.254	562.75
372.48	575.75
372.706	582.75
372.932	583.75
373.158	585.75
373.384	592.75
373.61	568.75
373.835	582.75
374.061	576.75
374.287	593.75
374.513	595.75
374.739	601.75
374.965	610.75
375.191	602.75
375.416	606.75
375.642	602.75
375.868	608.75
376.094	586.75
376.319	549.75
376.545	578.75
376.771	583.75
376.997	581.75
377.222	563.75
377.448	548.75
377.674	561.75
377.899	556.75
378.125	552.75
378.35	550.75
378.576	557.75
378.802	562.75
379.027	563.75
379.253	572.75
379.478	550.75
379.704	573.75
379.929	581.75
380.155	583.75
380.38	587.75
380.606	579.75
380.831	584.75
381.057	590.75
381.282	575.75
381.507	580.75
381.733	587.75
381.958	612.75
382.184	586.75
382.409	586.75
382.634	600.75
382.86	605.75
383.085	596.75
383.31	627.75
383.535	623.75
383.761	603.75
383.986	630.75
384.211	637.75
384.436	654.75
384.662	645.75
384.887	666.75
385.112	656.75
385.337	691.75
385.562	650.75
385.787	673.75
386.013	667.75
386.238	686.75
386.463	676.75
386.688	680.75
386.913	672.75
387.138	657.75
387.363	667.75
387.588	638.75
387.813	655.75
388.038	655.75
388.263	655.75
388.488	662.75
388.713	645.75
388.938	656.75
389.163	633.75
389.387	653.75
389.612	672.75
389.837	644.75
390.062	649.75
390.287	660.75
390.512	669.75
390.736	650.75
390.961	685.75
391.186	682.75
391.411	699.75
391.636	696.75
391.86	721.75
392.085	722.75
392.31	702.75
392.534	694.75
392.759	697.75
392.984	696.75
393.208	680.75
393.433	674.75
393.658	717.75
393.882	666.75
394.107	693.75
394.331	693.75
394.556	692.75
394.78	708.75
395.005	714.75
395.229	739.75
395.454	740.75
395.678	720.75
395.903	766.75
396.127	750.75
396.352	735.75
396.576	718.75
396.801	686.75
397.025	703.75
397.249	714.75
397.474	740.75
397.698	758.75
397.922	784.75
398.147	817.75
398.371	784.75
398.595	806.75
398.82	822.75
399.044	923.75
399.268	988.75
399.492	1056.75
399.717	1106.75
399.941	1072.75
400.165	988.75
400.389	961.75
400.613	888.75
400.837	863.75
401.062	834.75
401.286	816.75
401.51	827.75
401.734	828.75
401.958	861.75
402.182	902.75
402.406	927.75
402.63	904.75
402.854	871.75
403.078	890.75
403.302	891.75
403.526	913.75
403.75	915.75
403.974	903.75
404.198	909.75
404.422	896.75
404.645	887.75
404.869	878.75
405.093	923.75
405.317	913.75
405.541	929.75
405.765	942.75
405.988	907.75
406.212	1035.75
406.436	1070.75
406.66	1008.75
406.883	1013.75
407.107	1051.75
407.331	1116.75
407.555	1078.75
407.778	1060.75
408.002	987.75
408.226	919.75
408.449	960.75
408.673	960.75
408.896	961.75
409.12	942.75
409.344	898.75
409.567	823.75
409.791	862.75
410.014	872.75
410.238	852.75
410.461	868.75
410.685	898.75
410.908	906.75
411.132	919.75
411.355	894.75
411.578	841.75
411.802	809.75
412.025	825.75
412.249	818.75
412.472	810.75
412.695	783.75
412.919	805.75
413.142	814.75
413.365	780.75
413.589	796.75
413.812	783.75
414.035	779.75
414.258	800.75
414.482	785.75
414.705	806.75
414.928	763.75
415.151	762.75
415.374	786.75
415.597	786.75
415.821	774.75
416.044	778.75
416.267	762.75
416.49	799.75
416.713	794.75
416.936	773.75
417.159	773.75
417.382	784.75
417.605	789.75
417.828	828.75
418.051	824.75
418.274	778.75
418.497	822.75
418.72	826.75
418.943	788.75
419.166	811.75
419.389	841.75
419.611	837.75
419.834	820.75
420.057	820.75
420.28	798.75
420.503	806.75
420.726	815.75
420.948	849.75
421.171	848.75
421.394	856.75
421.617	831.75
421.839	825.75
422.062	819.75
422.285	864.75
422.507	934.75
422.73	964.75
422.953	868.75
423.175	835.75
423.398	842.75
423.621	834.75
423.843	853.75
424.066	860.75
424.288	879.75
424.511	910.75
424.733	1007.75
424.956	1061.75
425.178	980.75
425.401	977.75
425.623	980.75
425.846	853.75
426.068	859.75
426.291	825.75
426.513	834.75
426.735	830.75
426.958	939.75
427.18	1105.75
427.402	1242.75
427.625	1316.75
427.847	1006.75
428.069	845.75
428.292	786.75
428.514	744.75
428.736	731.75
428.958	748.75
429.181	715.75
429.403	733.75
429.625	774.75
429.847	828.75
430.069	884.75
430.292	799.75
430.514	725.75
430.736	740.75
430.958	735.75
431.18	732.75
431.402	698.75
431.624	702.75
431.846	704.75
432.068	715.75
432.29	716.75
432.512	724.75
432.734	755.75
432.956	751.75
433.178	743.75
433.4	732.75
433.622	736.75
433.844	763.75
434.066	748.75
434.287	747.75
434.509	744.75
434.731	798.75
434.953	789.75
435.175	834.75
435.397	836.75
435.618	842.75
435.84	958.75
436.062	1014.75
436.284	961.75
436.505	841.75
436.727	806.75
436.949	754.75
437.17	736.75
437.392	736.75
437.614	805.75
437.835	974.75
438.057	1053.75
438.278	1079.75
438.5	1073.75
438.721	1097.75
438.943	940.75
439.165	808.75
439.386	840.75
439.608	864.75
439.829	917.75
440.05	968.75
440.272	990.75
440.493	834.75
440.715	763.75
440.936	791.75
441.158	798.75
441.379	816.75
441.6	862.75
441.822	914.75
442.043	986.75
442.264	1064.75
442.486	944.75
442.707	894.75
442.928	904.75
443.149	978.75
443.371	992.75
443.592	1058.75
443.813	1138.75
444.034	1042.75
444.255	946.75
444.476	898.75
444.698	927.75
444.919	905.75
445.14	976.75
445.361	977.75
445.582	1047.75
445.803	1190.75
446.024	1232.75
446.245	1141.75
446.466	968.75
446.687	828.75
446.908	756.75
447.129	753.75
447.35	745.75
447.571	737.75
447.792	724.75
448.013	753.75
448.234	821.75
448.455	906.75
448.675	1041.75
448.896	1039.75
449.117	910.75
449.338	982.75
449.559	1120.75
449.779	1067.75
450	839.75
450.221	748.75
450.442	756.75
450.662	789.75
450.883	810.75
451.104	820.75
451.324	764.75
451.545	728.75
451.766	701.75
451.986	656.75
452.207	686.75
452.428	667.75
452.648	690.75
452.869	714.75
453.089	713.75
453.31	714.75
453.53	679.75
453.751	690.75
453.971	738.75
454.192	736.75
454.412	689.75
454.633	650.75
454.853	656.75
455.073	680.75
455.294	739.75
455.514	802.75
455.734	696.75
455.955	622.75
456.175	631.75
456.395	598.75
456.616	605.75
456.836	590.75
457.056	609.75
457.276	585.75
457.497	634.75
457.717	645.75
457.937	655.75
458.157	659.75
458.377	689.75
458.598	818.75
458.818	1015.75
459.038	1033.75
459.258	884.75
459.478	781.75
459.698	755.75
459.918	769.75
460.138	768.75
460.358	780.75
460.578	772.75
460.798	787.75
461.018	789.75
461.238	777.75
461.458	775.75
461.678	743.75
461.898	802.75
462.118	794.75
462.338	834.75
462.558	858.75
462.777	872.75
462.997	922.75
463.217	935.75
463.437	928.75
463.657	869.75
463.876	868.75
464.096	914.75
464.316	879.75
464.536	866.75
464.755	878.75
464.975	976.75
465.195	1206.75
465.414	1105.75
465.634	844.75
465.854	762.75
466.073	744.75
466.293	721.75
466.512	675.75
466.732	684.75
466.951	703.75
467.171	700.75
467.391	714.75
467.61	763.75
467.829	723.75
468.049	694.75
468.268	636.75
468.488	667.75
468.707	659.75
468.927	670.75
469.146	670.75
469.365	705.75
469.585	699.75
469.804	742.75
470.023	760.75
470.243	749.75
470.462	772.75
470.681	775.75
470.901	720.75
471.12	688.75
471.339	700.75
471.558	709.75
471.777	669.75
471.997	657.75
472.216	668.75
472.435	624.75
472.654	644.75
472.873	647.75
473.092	646.75
473.311	670.75
473.53	653.75
473.749	702.75
473.968	804.75
474.187	911.75
474.406	799.75
474.625	694.75
474.844	672.75
475.063	648.75
475.282	671.75
475.501	658.75
475.72	682.75
475.939	691.75
476.158	702.75
476.377	689.75
476.596	690.75
476.814	718.75
477.033	706.75
477.252	725.75
477.471	716.75
477.69	750.75
477.908	732.75
478.127	747.75
478.346	786.75
478.564	783.75
478.783	798.75
479.002	836.75
479.22	818.75
479.439	874.75
479.658	887.75
479.876	878.75
480.095	858.75
480.313	915.75
480.532	887.75
480.751	856.75
480.969	828.75
481.188	805.75
481.406	800.75
481.624	800.75
481.843	771.75
482.061	765.75
482.28	758.75
482.498	753.75
482.717	754.75
482.935	727.75
483.153	775.75
483.372	783.75
483.59	738.75
483.808	759.75
484.027	774.75
484.245	763.75
484.463	776.75
484.681	808.75
484.9	796.75
485.118	785.75
485.336	783.75
485.554	794.75
485.772	785.75
485.99	801.75
486.209	805.75
486.427	810.75
486.645	862.75
486.863	902.75
487.081	889.75
487.299	832.75
487.517	856.75
487.735	843.75
487.953	836.75
488.171	839.75
488.389	814.75
488.607	820.75
488.825	819.75
489.043	796.75
489.261	832.75
489.479	838.75
489.696	823.75
489.914	833.75
490.132	842.75
490.35	868.75
490.568	843.75
490.786	894.75
491.003	958.75
491.221	934.75
491.439	949.75
491.657	935.75
491.874	963.75
492.092	953.75
492.31	972.75
492.527	975.75
492.745	978.75
492.963	987.75
493.18	966.75
493.398	988.75
493.615	1005.75
493.833	970.75
494.05	958.75
494.268	975.75
494.485	968.75
494.703	991.75
494.92	990.75
495.138	958.75
495.355	977.75
495.573	1002.75
495.79	932.75
496.008	955.75
496.225	952.75
496.442	971.75
496.66	990.75
496.877	968.75
497.094	973.75
497.312	1010.75
497.529	1023.75
497.746	1038.75
497.963	1074.75
498.181	1087.75
498.398	1130.75
498.615	1167.75
498.832	1231.75
499.049	1277.75
499.267	1333.75
499.484	1446.75
499.701	1549.75
499.918	1652.75
500.135	1795.75
500.352	1887.75
500.569	1890.75
500.786	1834.75
501.003	1727.75
501.22	1639.75
501.437	1586.75
501.654	1493.75
