Data from TestCu_HRD10591_00077.txt Node
Date: Thu Oct 05 14:05:57 EDT 2023
User: Yrep
Spectrometer: HR+D1059
Trigger mode: 1
Integration Time (sec): 1.000000E-1
Scans to average: 1
Electric dark correction enabled: true
Nonlinearity correction enabled: false
Boxcar width: 0
XAxis mode: Wavelengths
Number of Pixels in Spectrum: 2048
>>>>>Begin Spectral Data<<<<<
223.165	-27.69
223.4	-27.69
223.635	-27.69
223.869	-24.69
224.104	-22.69
224.338	-13.69
224.573	-12.69
224.808	-2.69
225.042	-8.69
225.277	-4.69
225.511	-5.69
225.746	-3.69
225.98	14.31
226.215	12.31
226.449	21.31
226.683	16.31
226.918	25.31
227.152	37.31
227.387	45.31
227.621	26.31
227.856	50.31
228.09	49.31
228.324	47.31
228.559	61.31
228.793	69.31
229.027	102.31
229.262	124.31
229.496	142.31
229.73	166.31
229.964	159.31
230.199	111.31
230.433	125.31
230.667	108.31
230.901	121.31
231.136	115.31
231.37	116.31
231.604	115.31
231.838	117.31
232.072	114.31
232.306	94.31
232.541	111.31
232.775	112.31
233.009	118.31
233.243	113.31
233.477	114.31
233.711	114.31
233.945	127.31
234.179	113.31
234.413	129.31
234.647	115.31
234.881	111.31
235.115	131.31
235.349	120.31
235.583	115.31
235.817	132.31
236.051	137.31
236.285	133.31
236.519	161.31
236.753	149.31
236.987	180.31
237.221	228.31
237.455	235.31
237.689	157.31
237.922	138.31
238.156	130.31
238.39	129.31
238.624	115.31
238.858	125.31
239.091	111.31
239.325	127.31
239.559	130.31
239.793	131.31
240.027	137.31
240.26	152.31
240.494	168.31
240.728	156.31
240.961	151.31
241.195	136.31
241.429	134.31
241.662	148.31
241.896	135.31
242.13	125.31
242.363	131.31
242.597	141.31
242.83	141.31
243.064	147.31
243.298	138.31
243.531	133.31
243.765	129.31
243.998	142.31
244.232	138.31
244.465	143.31
244.699	161.31
244.932	142.31
245.166	150.31
245.399	142.31
245.633	156.31
245.866	146.31
246.099	146.31
246.333	151.31
246.566	162.31
246.8	147.31
247.033	150.31
247.266	167.31
247.5	148.31
247.733	159.31
247.966	171.31
248.2	173.31
248.433	168.31
248.666	177.31
248.899	178.31
249.133	196.31
249.366	209.31
249.599	186.31
249.832	182.31
250.066	171.31
250.299	169.31
250.532	183.31
250.765	203.31
250.998	212.31
251.231	193.31
251.465	171.31
251.698	182.31
251.931	192.31
252.164	183.31
252.397	193.31
252.63	198.31
252.863	206.31
253.096	203.31
253.329	219.31
253.562	210.31
253.795	191.31
254.028	208.31
254.261	217.31
254.494	239.31
254.727	277.31
254.96	242.31
255.193	211.31
255.426	215.31
255.659	201.31
255.892	196.31
256.124	195.31
256.357	197.31
256.59	192.31
256.823	195.31
257.056	186.31
257.289	193.31
257.521	189.31
257.754	198.31
257.987	196.31
258.22	213.31
258.452	197.31
258.685	198.31
258.918	199.31
259.151	198.31
259.383	207.31
259.616	230.31
259.849	225.31
260.081	251.31
260.314	239.31
260.547	231.31
260.779	221.31
261.012	224.31
261.244	209.31
261.477	226.31
261.71	229.31
261.942	260.31
262.175	256.31
262.407	234.31
262.64	222.31
262.872	210.31
263.105	218.31
263.337	212.31
263.57	201.31
263.802	200.31
264.035	192.31
264.267	195.31
264.499	225.31
264.732	224.31
264.964	210.31
265.197	213.31
265.429	209.31
265.661	207.31
265.894	223.31
266.126	222.31
266.358	225.31
266.591	219.31
266.823	237.31
267.055	203.31
267.287	226.31
267.52	223.31
267.752	241.31
267.984	234.31
268.216	227.31
268.448	228.31
268.681	243.31
268.913	264.31
269.145	281.31
269.377	272.31
269.609	273.31
269.841	279.31
270.073	291.31
270.306	315.31
270.538	310.31
270.77	293.31
271.002	289.31
271.234	286.31
271.466	320.31
271.698	313.31
271.93	317.31
272.162	305.31
272.394	285.31
272.626	294.31
272.858	259.31
273.09	265.31
273.322	257.31
273.553	278.31
273.785	267.31
274.017	266.31
274.249	274.31
274.481	285.31
274.713	270.31
274.945	269.31
275.176	270.31
275.408	259.31
275.64	259.31
275.872	271.31
276.104	282.31
276.335	307.31
276.567	327.31
276.799	347.31
277.031	373.31
277.262	357.31
277.494	320.31
277.726	297.31
277.957	287.31
278.189	276.31
278.421	276.31
278.652	293.31
278.884	286.31
279.115	284.31
279.347	283.31
279.579	268.31
279.81	293.31
280.042	281.31
280.273	293.31
280.505	288.31
280.736	294.31
280.968	269.31
281.199	285.31
281.431	279.31
281.662	275.31
281.894	300.31
282.125	313.31
282.356	357.31
282.588	380.31
282.819	343.31
283.051	289.31
283.282	292.31
283.513	299.31
283.745	315.31
283.976	306.31
284.207	303.31
284.439	289.31
284.67	302.31
284.901	299.31
285.132	300.31
285.364	297.31
285.595	313.31
285.826	302.31
286.057	307.31
286.288	292.31
286.52	306.31
286.751	300.31
286.982	321.31
287.213	322.31
287.444	328.31
287.675	336.31
287.906	351.31
288.138	337.31
288.369	353.31
288.6	343.31
288.831	324.31
289.062	326.31
289.293	346.31
289.524	318.31
289.755	311.31
289.986	321.31
290.217	314.31
290.448	329.31
290.679	332.31
290.91	352.31
291.141	315.31
291.371	333.31
291.602	325.31
291.833	326.31
292.064	354.31
292.295	351.31
292.526	329.31
292.757	337.31
292.987	327.31
293.218	314.31
293.449	312.31
293.68	333.31
293.91	326.31
294.141	329.31
294.372	340.31
294.603	337.31
294.833	347.31
295.064	338.31
295.295	338.31
295.525	344.31
295.756	364.31
295.987	399.31
296.217	415.31
296.448	388.31
296.679	341.31
296.909	350.31
297.14	349.31
297.37	366.31
297.601	343.31
297.831	363.31
298.062	342.31
298.292	373.31
298.523	373.31
298.753	374.31
298.984	378.31
299.214	372.31
299.445	364.31
299.675	388.31
299.905	390.31
300.136	378.31
300.366	381.31
300.597	362.31
300.827	401.31
301.057	418.31
301.288	394.31
301.518	400.31
301.748	392.31
301.979	399.31
302.209	425.31
302.439	408.31
302.669	377.31
302.9	404.31
303.13	396.31
303.36	391.31
303.59	408.31
303.82	408.31
304.051	408.31
304.281	384.31
304.511	385.31
304.741	381.31
304.971	379.31
305.201	395.31
305.431	403.31
305.661	408.31
305.891	402.31
306.121	392.31
306.352	421.31
306.582	420.31
306.812	391.31
307.042	378.31
307.272	413.31
307.502	389.31
307.731	408.31
307.961	396.31
308.191	382.31
308.421	407.31
308.651	402.31
308.881	405.31
309.111	426.31
309.341	429.31
309.571	440.31
309.8	437.31
310.03	472.31
310.26	478.31
310.49	481.31
310.72	529.31
310.949	530.31
311.179	482.31
311.409	485.31
311.639	451.31
311.868	459.31
312.098	474.31
312.328	503.31
312.557	552.31
312.787	552.31
313.017	489.31
313.246	482.31
313.476	482.31
313.706	475.31
313.935	535.31
314.165	551.31
314.394	521.31
314.624	497.31
314.853	498.31
315.083	492.31
315.312	458.31
315.542	435.31
315.771	466.31
316.001	453.31
316.23	466.31
316.46	466.31
316.689	495.31
316.919	485.31
317.148	489.31
317.377	494.31
317.607	495.31
317.836	491.31
318.065	453.31
318.295	465.31
318.524	448.31
318.753	474.31
318.983	489.31
319.212	482.31
319.441	499.31
319.67	496.31
319.9	462.31
320.129	459.31
320.358	487.31
320.587	481.31
320.816	512.31
321.046	519.31
321.275	511.31
321.504	504.31
321.733	518.31
321.962	539.31
322.191	546.31
322.42	595.31
322.649	605.31
322.878	632.31
323.108	664.31
323.337	732.31
323.566	767.31
323.795	872.31
324.024	1179.31
324.253	2009.31
324.482	3432.31
324.71	5100.31
324.939	4459.31
325.168	2031.31
325.397	943.31
325.626	724.31
325.855	703.31
326.084	687.31
326.313	707.31
326.542	815.31
326.77	1101.31
326.999	1861.31
327.228	2975.31
327.457	3734.31
327.686	2479.31
327.914	1158.31
328.143	885.31
328.372	846.31
328.6	787.31
328.829	823.31
329.058	849.31
329.287	817.31
329.515	691.31
329.744	638.31
329.972	633.31
330.201	685.31
330.43	829.31
330.658	939.31
330.887	946.31
331.115	763.31
331.344	678.31
331.572	700.31
331.801	676.31
332.03	651.31
332.258	652.31
332.486	599.31
332.715	630.31
332.943	638.31
333.172	663.31
333.4	659.31
333.629	677.31
333.857	692.31
334.085	655.31
334.314	642.31
334.542	649.31
334.771	658.31
334.999	661.31
335.227	627.31
335.455	633.31
335.684	626.31
335.912	610.31
336.14	650.31
336.369	633.31
336.597	656.31
336.825	633.31
337.053	601.31
337.281	602.31
337.51	615.31
337.738	624.31
337.966	625.31
338.194	611.31
338.422	608.31
338.65	579.31
338.878	579.31
339.106	569.31
339.334	575.31
339.562	567.31
339.79	559.31
340.018	570.31
340.246	610.31
340.474	578.31
340.702	586.31
340.93	594.31
341.158	580.31
341.386	589.31
341.614	601.31
341.842	591.31
342.07	559.31
342.298	564.31
342.526	566.31
342.754	558.31
342.981	543.31
343.209	589.31
343.437	593.31
343.665	612.31
343.893	645.31
344.12	613.31
344.348	624.31
344.576	615.31
344.804	627.31
345.031	650.31
345.259	630.31
345.487	612.31
345.714	593.31
345.942	563.31
346.17	554.31
346.397	559.31
346.625	563.31
346.853	558.31
347.08	566.31
347.308	613.31
347.535	614.31
347.763	617.31
347.99	612.31
348.218	618.31
348.445	629.31
348.673	609.31
348.9	582.31
349.128	535.31
349.355	539.31
349.583	543.31
349.81	538.31
350.037	541.31
350.265	544.31
350.492	534.31
350.72	567.31
350.947	576.31
351.174	623.31
351.402	615.31
351.629	603.31
351.856	623.31
352.083	615.31
352.311	632.31
352.538	623.31
352.765	643.31
352.992	609.31
353.22	566.31
353.447	583.31
353.674	547.31
353.901	523.31
354.128	541.31
354.355	518.31
354.583	529.31
354.81	543.31
355.037	517.31
355.264	511.31
355.491	541.31
355.718	551.31
355.945	522.31
356.172	525.31
356.399	533.31
356.626	514.31
356.853	501.31
357.08	508.31
357.307	534.31
357.534	543.31
357.761	523.31
357.988	548.31
358.215	540.31
358.441	541.31
358.668	526.31
358.895	545.31
359.122	553.31
359.349	584.31
359.576	638.31
359.802	738.31
360.029	763.31
360.256	717.31
360.483	643.31
360.709	597.31
360.936	602.31
361.163	623.31
361.39	620.31
361.616	609.31
361.843	607.31
362.07	615.31
362.296	617.31
362.523	597.31
362.749	565.31
362.976	589.31
363.203	584.31
363.429	561.31
363.656	571.31
363.882	596.31
364.109	553.31
364.335	566.31
364.562	569.31
364.788	554.31
365.015	568.31
365.241	592.31
365.468	607.31
365.694	585.31
365.92	566.31
366.147	573.31
366.373	563.31
366.599	551.31
366.826	553.31
367.052	561.31
367.278	554.31
367.505	551.31
367.731	573.31
367.957	557.31
368.184	586.31
368.41	585.31
368.636	597.31
368.862	612.31
369.089	586.31
369.315	559.31
369.541	578.31
369.767	582.31
369.993	579.31
370.219	579.31
370.445	576.31
370.672	577.31
370.898	561.31
371.124	567.31
371.35	569.31
371.576	577.31
371.802	564.31
372.028	571.31
372.254	562.31
372.48	586.31
372.706	595.31
372.932	599.31
373.158	603.31
373.384	594.31
373.61	592.31
373.835	585.31
374.061	581.31
374.287	601.31
374.513	603.31
374.739	616.31
374.965	607.31
375.191	607.31
375.416	566.31
375.642	594.31
375.868	585.31
376.094	596.31
376.319	587.31
376.545	601.31
376.771	574.31
376.997	577.31
377.222	575.31
377.448	561.31
377.674	582.31
377.899	538.31
378.125	574.31
378.35	575.31
378.576	588.31
378.802	537.31
379.027	575.31
379.253	570.31
379.478	574.31
379.704	569.31
379.929	563.31
380.155	578.31
380.38	581.31
380.606	581.31
380.831	570.31
381.057	569.31
381.282	571.31
381.507	586.31
381.733	589.31
381.958	584.31
382.184	625.31
382.409	602.31
382.634	613.31
382.86	610.31
383.085	591.31
383.31	615.31
383.535	610.31
383.761	623.31
383.986	623.31
384.211	628.31
384.436	629.31
384.662	665.31
384.887	644.31
385.112	643.31
385.337	662.31
385.562	663.31
385.787	686.31
386.013	697.31
386.238	697.31
386.463	667.31
386.688	698.31
386.913	649.31
387.138	667.31
387.363	660.31
387.588	665.31
387.813	650.31
388.038	657.31
388.263	681.31
388.488	665.31
388.713	657.31
388.938	649.31
389.163	652.31
389.387	666.31
389.612	644.31
389.837	672.31
390.062	665.31
390.287	664.31
390.512	651.31
390.736	652.31
390.961	673.31
391.186	693.31
391.411	715.31
391.636	724.31
391.86	718.31
392.085	705.31
392.31	687.31
392.534	710.31
392.759	693.31
392.984	663.31
393.208	695.31
393.433	680.31
393.658	678.31
393.882	679.31
394.107	709.31
394.331	716.31
394.556	696.31
394.78	719.31
395.005	692.31
395.229	697.31
395.454	730.31
395.678	735.31
395.903	736.31
396.127	737.31
396.352	714.31
396.576	730.31
396.801	720.31
397.025	725.31
397.249	743.31
397.474	742.31
397.698	751.31
397.922	770.31
398.147	776.31
398.371	778.31
398.595	797.31
398.82	853.31
399.044	935.31
399.268	981.31
399.492	1068.31
399.717	1113.31
399.941	1038.31
400.165	1009.31
400.389	983.31
400.613	889.31
400.837	843.31
401.062	839.31
401.286	835.31
401.51	823.31
401.734	829.31
401.958	888.31
402.182	881.31
402.406	960.31
402.63	909.31
402.854	886.31
403.078	887.31
403.302	910.31
403.526	902.31
403.75	888.31
403.974	910.31
404.198	906.31
404.422	919.31
404.645	922.31
404.869	912.31
405.093	954.31
405.317	961.31
405.541	913.31
405.765	923.31
405.988	964.31
406.212	1043.31
406.436	1092.31
406.66	1015.31
406.883	1018.31
407.107	1030.31
407.331	1095.31
407.555	1127.31
407.778	1060.31
408.002	975.31
408.226	967.31
408.449	944.31
408.673	930.31
408.896	939.31
409.12	970.31
409.344	926.31
409.567	868.31
409.791	879.31
410.014	874.31
410.238	870.31
410.461	866.31
410.685	891.31
410.908	905.31
411.132	921.31
411.355	908.31
411.578	863.31
411.802	861.31
412.025	817.31
412.249	850.31
412.472	808.31
412.695	809.31
412.919	791.31
413.142	777.31
413.365	806.31
413.589	823.31
413.812	799.31
414.035	791.31
414.258	819.31
414.482	770.31
414.705	809.31
414.928	787.31
415.151	782.31
415.374	778.31
415.597	782.31
415.821	755.31
416.044	795.31
416.267	785.31
416.49	778.31
416.713	777.31
416.936	784.31
417.159	804.31
417.382	808.31
417.605	816.31
417.828	846.31
418.051	821.31
418.274	814.31
418.497	805.31
418.72	849.31
418.943	810.31
419.166	832.31
419.389	848.31
419.611	815.31
419.834	832.31
420.057	822.31
420.28	813.31
420.503	803.31
420.726	798.31
420.948	841.31
421.171	869.31
421.394	867.31
421.617	835.31
421.839	809.31
422.062	823.31
422.285	868.31
422.507	922.31
422.73	966.31
422.953	879.31
423.175	856.31
423.398	882.31
423.621	878.31
423.843	897.31
424.066	887.31
424.288	899.31
424.511	935.31
424.733	985.31
424.956	1030.31
425.178	995.31
425.401	973.31
425.623	948.31
425.846	853.31
426.068	856.31
426.291	804.31
426.513	844.31
426.735	850.31
426.958	995.31
427.18	1080.31
427.402	1243.31
427.625	1286.31
427.847	1021.31
428.069	829.31
428.292	799.31
428.514	747.31
428.736	754.31
428.958	752.31
429.181	722.31
429.403	755.31
429.625	798.31
429.847	855.31
430.069	861.31
430.292	777.31
430.514	755.31
430.736	750.31
430.958	718.31
431.18	724.31
431.402	694.31
431.624	738.31
431.846	718.31
432.068	736.31
432.29	731.31
432.512	747.31
432.734	744.31
432.956	747.31
433.178	779.31
433.4	754.31
433.622	714.31
433.844	755.31
434.066	737.31
434.287	752.31
434.509	761.31
434.731	784.31
434.953	816.31
435.175	821.31
435.397	840.31
435.618	840.31
435.84	933.31
436.062	1010.31
436.284	967.31
436.505	840.31
436.727	833.31
436.949	792.31
437.17	778.31
437.392	780.31
437.614	832.31
437.835	935.31
438.057	1053.31
438.278	1075.31
438.5	1055.31
438.721	1093.31
438.943	943.31
439.165	853.31
439.386	821.31
439.608	823.31
439.829	881.31
440.05	955.31
440.272	1001.31
440.493	850.31
440.715	781.31
440.936	791.31
441.158	779.31
441.379	807.31
441.6	883.31
441.822	926.31
442.043	973.31
442.264	1063.31
442.486	966.31
442.707	853.31
442.928	895.31
443.149	920.31
443.371	991.31
443.592	1053.31
443.813	1104.31
444.034	1053.31
444.255	925.31
444.476	901.31
444.698	917.31
444.919	943.31
445.14	945.31
445.361	978.31
445.582	1083.31
445.803	1224.31
446.024	1219.31
446.245	1119.31
446.466	957.31
446.687	835.31
446.908	821.31
447.129	769.31
447.35	757.31
447.571	731.31
447.792	749.31
448.013	756.31
448.234	830.31
448.455	939.31
448.675	1049.31
448.896	1026.31
449.117	894.31
449.338	1009.31
449.559	1139.31
449.779	1040.31
450	816.31
450.221	720.31
450.442	733.31
450.662	770.31
450.883	792.31
451.104	844.31
451.324	762.31
451.545	717.31
451.766	671.31
451.986	695.31
452.207	705.31
452.428	686.31
452.648	693.31
452.869	722.31
453.089	714.31
453.31	733.31
453.53	657.31
453.751	688.31
453.971	739.31
454.192	754.31
454.412	708.31
454.633	661.31
454.853	641.31
455.073	653.31
455.294	722.31
455.514	778.31
455.734	678.31
455.955	657.31
456.175	614.31
456.395	613.31
456.616	599.31
456.836	599.31
457.056	617.31
457.276	607.31
457.497	620.31
457.717	635.31
457.937	612.31
458.157	639.31
458.377	687.31
458.598	826.31
458.818	1023.31
459.038	1016.31
459.258	902.31
459.478	780.31
459.698	767.31
459.918	774.31
460.138	778.31
460.358	770.31
460.578	803.31
460.798	795.31
461.018	793.31
461.238	784.31
461.458	809.31
461.678	775.31
461.898	791.31
462.118	805.31
462.338	831.31
462.558	861.31
462.777	889.31
462.997	945.31
463.217	948.31
463.437	934.31
463.657	885.31
463.876	896.31
464.096	898.31
464.316	898.31
464.536	919.31
464.755	919.31
464.975	960.31
465.195	1203.31
465.414	1102.31
465.634	870.31
465.854	771.31
466.073	738.31
466.293	719.31
466.512	713.31
466.732	681.31
466.951	672.31
467.171	706.31
467.391	733.31
467.61	793.31
467.829	749.31
468.049	694.31
468.268	686.31
468.488	661.31
468.707	661.31
468.927	684.31
469.146	665.31
469.365	700.31
469.585	705.31
469.804	751.31
470.023	767.31
470.243	762.31
470.462	792.31
470.681	814.31
470.901	737.31
471.12	711.31
471.339	703.31
471.558	706.31
471.777	696.31
471.997	662.31
472.216	664.31
472.435	670.31
472.654	637.31
472.873	641.31
473.092	646.31
473.311	663.31
473.53	658.31
473.749	701.31
473.968	806.31
474.187	892.31
474.406	817.31
474.625	697.31
474.844	673.31
475.063	675.31
475.282	654.31
475.501	675.31
475.72	683.31
475.939	661.31
476.158	681.31
476.377	687.31
476.596	692.31
476.814	741.31
477.033	717.31
477.252	741.31
477.471	752.31
477.69	762.31
477.908	762.31
478.127	768.31
478.346	788.31
478.564	770.31
478.783	828.31
479.002	822.31
479.22	846.31
479.439	859.31
479.658	911.31
479.876	865.31
480.095	887.31
480.313	914.31
480.532	880.31
480.751	883.31
480.969	833.31
481.188	834.31
481.406	826.31
481.624	803.31
481.843	761.31
482.061	774.31
482.28	754.31
482.498	756.31
482.717	775.31
482.935	775.31
483.153	765.31
483.372	792.31
483.59	789.31
483.808	773.31
484.027	752.31
484.245	777.31
484.463	774.31
484.681	812.31
484.9	803.31
485.118	786.31
485.336	804.31
485.554	802.31
485.772	802.31
485.99	803.31
486.209	807.31
486.427	844.31
486.645	889.31
486.863	903.31
487.081	855.31
487.299	831.31
487.517	845.31
487.735	823.31
487.953	830.31
488.171	822.31
488.389	829.31
488.607	823.31
488.825	820.31
489.043	830.31
489.261	814.31
489.479	841.31
489.696	824.31
489.914	827.31
490.132	856.31
490.35	869.31
490.568	865.31
490.786	902.31
491.003	903.31
491.221	951.31
491.439	964.31
491.657	958.31
491.874	963.31
492.092	977.31
492.31	959.31
492.527	968.31
492.745	938.31
492.963	969.31
493.18	957.31
493.398	971.31
493.615	988.31
493.833	959.31
494.05	998.31
494.268	963.31
494.485	983.31
494.703	983.31
494.92	962.31
495.138	967.31
495.355	955.31
495.573	983.31
495.79	982.31
496.008	991.31
496.225	979.31
496.442	972.31
496.66	983.31
496.877	992.31
497.094	982.31
497.312	1015.31
497.529	1022.31
497.746	1031.31
497.963	1093.31
498.181	1112.31
498.398	1188.31
498.615	1221.31
498.832	1291.31
499.049	1282.31
499.267	1354.31
499.484	1431.31
499.701	1535.31
499.918	1673.31
500.135	1831.31
500.352	1873.31
500.569	1920.31
500.786	1828.31
501.003	1721.31
501.22	1629.31
501.437	1558.31
501.654	1472.31
