Data from TestCu_HRD10591_00067.txt Node
Date: Thu Oct 05 14:05:47 EDT 2023
User: Yrep
Spectrometer: HR+D1059
Trigger mode: 1
Integration Time (sec): 1.000000E-1
Scans to average: 1
Electric dark correction enabled: true
Nonlinearity correction enabled: false
Boxcar width: 0
XAxis mode: Wavelengths
Number of Pixels in Spectrum: 2048
>>>>>Begin Spectral Data<<<<<
223.165	-23.94
223.4	-23.94
223.635	-23.94
223.869	-3.94
224.104	-23.94
224.338	-3.94
224.573	-15.94
224.808	-2.94
225.042	-2.94
225.277	-14.94
225.511	-8.94
225.746	4.06
225.98	-2.94
226.215	11.06
226.449	17.06
226.683	25.06
226.918	21.06
227.152	26.06
227.387	21.06
227.621	44.06
227.856	54.06
228.09	49.06
228.324	50.06
228.559	54.06
228.793	57.06
229.027	110.06
229.262	116.06
229.496	126.06
229.73	178.06
229.964	166.06
230.199	123.06
230.433	119.06
230.667	116.06
230.901	96.06
231.136	100.06
231.37	104.06
231.604	114.06
231.838	128.06
232.072	114.06
232.306	116.06
232.541	105.06
232.775	120.06
233.009	106.06
233.243	127.06
233.477	111.06
233.711	118.06
233.945	115.06
234.179	121.06
234.413	119.06
234.647	112.06
234.881	114.06
235.115	108.06
235.349	116.06
235.583	121.06
235.817	120.06
236.051	122.06
236.285	140.06
236.519	140.06
236.753	154.06
236.987	168.06
237.221	230.06
237.455	239.06
237.689	151.06
237.922	140.06
238.156	145.06
238.39	123.06
238.624	120.06
238.858	126.06
239.091	124.06
239.325	138.06
239.559	125.06
239.793	131.06
240.027	142.06
240.26	157.06
240.494	162.06
240.728	139.06
240.961	140.06
241.195	148.06
241.429	116.06
241.662	125.06
241.896	124.06
242.13	135.06
242.363	135.06
242.597	156.06
242.83	152.06
243.064	123.06
243.298	134.06
243.531	118.06
243.765	134.06
243.998	149.06
244.232	137.06
244.465	155.06
244.699	149.06
244.932	153.06
245.166	152.06
245.399	148.06
245.633	149.06
245.866	154.06
246.099	146.06
246.333	159.06
246.566	147.06
246.8	161.06
247.033	146.06
247.266	163.06
247.5	160.06
247.733	151.06
247.966	174.06
248.2	151.06
248.433	159.06
248.666	178.06
248.899	193.06
249.133	203.06
249.366	197.06
249.599	185.06
249.832	169.06
250.066	163.06
250.299	181.06
250.532	196.06
250.765	209.06
250.998	205.06
251.231	207.06
251.465	193.06
251.698	180.06
251.931	191.06
252.164	188.06
252.397	178.06
252.63	189.06
252.863	212.06
253.096	214.06
253.329	222.06
253.562	201.06
253.795	203.06
254.028	209.06
254.261	216.06
254.494	250.06
254.727	269.06
254.96	256.06
255.193	230.06
255.426	190.06
255.659	207.06
255.892	191.06
256.124	182.06
256.357	190.06
256.59	188.06
256.823	173.06
257.056	198.06
257.289	201.06
257.521	202.06
257.754	189.06
257.987	203.06
258.22	185.06
258.452	195.06
258.685	177.06
258.918	205.06
259.151	221.06
259.383	200.06
259.616	224.06
259.849	221.06
260.081	241.06
260.314	252.06
260.547	224.06
260.779	218.06
261.012	216.06
261.244	210.06
261.477	224.06
261.71	234.06
261.942	256.06
262.175	251.06
262.407	226.06
262.64	205.06
262.872	212.06
263.105	203.06
263.337	196.06
263.57	212.06
263.802	212.06
264.035	207.06
264.267	224.06
264.499	206.06
264.732	220.06
264.964	220.06
265.197	213.06
265.429	215.06
265.661	204.06
265.894	222.06
266.126	195.06
266.358	228.06
266.591	232.06
266.823	214.06
267.055	221.06
267.287	233.06
267.52	220.06
267.752	220.06
267.984	236.06
268.216	220.06
268.448	258.06
268.681	254.06
268.913	289.06
269.145	284.06
269.377	288.06
269.609	264.06
269.841	272.06
270.073	291.06
270.306	332.06
270.538	310.06
270.77	302.06
271.002	293.06
271.234	303.06
271.466	314.06
271.698	311.06
271.93	332.06
272.162	318.06
272.394	308.06
272.626	260.06
272.858	278.06
273.09	248.06
273.322	274.06
273.553	267.06
273.785	273.06
274.017	246.06
274.249	268.06
274.481	263.06
274.713	272.06
274.945	272.06
275.176	273.06
275.408	275.06
275.64	284.06
275.872	260.06
276.104	283.06
276.335	286.06
276.567	317.06
276.799	344.06
277.031	373.06
277.262	338.06
277.494	304.06
277.726	274.06
277.957	296.06
278.189	302.06
278.421	267.06
278.652	288.06
278.884	266.06
279.115	266.06
279.347	276.06
279.579	275.06
279.81	291.06
280.042	267.06
280.273	288.06
280.505	278.06
280.736	279.06
280.968	287.06
281.199	266.06
281.431	290.06
281.662	304.06
281.894	301.06
282.125	306.06
282.356	352.06
282.588	367.06
282.819	313.06
283.051	291.06
283.282	286.06
283.513	294.06
283.745	322.06
283.976	305.06
284.207	332.06
284.439	309.06
284.67	302.06
284.901	293.06
285.132	300.06
285.364	302.06
285.595	308.06
285.826	304.06
286.057	295.06
286.288	290.06
286.52	309.06
286.751	306.06
286.982	312.06
287.213	334.06
287.444	300.06
287.675	335.06
287.906	348.06
288.138	325.06
288.369	355.06
288.6	348.06
288.831	324.06
289.062	345.06
289.293	326.06
289.524	330.06
289.755	336.06
289.986	320.06
290.217	328.06
290.448	319.06
290.679	331.06
290.91	320.06
291.141	327.06
291.371	323.06
291.602	316.06
291.833	318.06
292.064	340.06
292.295	348.06
292.526	346.06
292.757	335.06
292.987	312.06
293.218	313.06
293.449	327.06
293.68	330.06
293.91	336.06
294.141	329.06
294.372	333.06
294.603	326.06
294.833	337.06
295.064	330.06
295.295	322.06
295.525	353.06
295.756	373.06
295.987	405.06
296.217	401.06
296.448	387.06
296.679	362.06
296.909	346.06
297.14	356.06
297.37	350.06
297.601	363.06
297.831	381.06
298.062	366.06
298.292	368.06
298.523	372.06
298.753	363.06
298.984	371.06
299.214	362.06
299.445	365.06
299.675	369.06
299.905	383.06
300.136	364.06
300.366	384.06
300.597	375.06
300.827	396.06
301.057	423.06
301.288	414.06
301.518	392.06
301.748	373.06
301.979	406.06
302.209	405.06
302.439	408.06
302.669	399.06
302.9	398.06
303.13	393.06
303.36	407.06
303.59	413.06
303.82	411.06
304.051	407.06
304.281	402.06
304.511	398.06
304.741	390.06
304.971	397.06
305.201	397.06
305.431	395.06
305.661	389.06
305.891	397.06
306.121	388.06
306.352	418.06
306.582	400.06
306.812	392.06
307.042	390.06
307.272	388.06
307.502	411.06
307.731	404.06
307.961	406.06
308.191	401.06
308.421	408.06
308.651	400.06
308.881	430.06
309.111	433.06
309.341	428.06
309.571	450.06
309.8	451.06
310.03	477.06
310.26	484.06
310.49	489.06
310.72	508.06
310.949	512.06
311.179	487.06
311.409	471.06
311.639	489.06
311.868	483.06
312.098	484.06
312.328	514.06
312.557	534.06
312.787	529.06
313.017	507.06
313.246	468.06
313.476	469.06
313.706	497.06
313.935	517.06
314.165	520.06
314.394	540.06
314.624	520.06
314.853	476.06
315.083	484.06
315.312	477.06
315.542	475.06
315.771	466.06
316.001	446.06
316.23	467.06
316.46	474.06
316.689	491.06
316.919	482.06
317.148	492.06
317.377	508.06
317.607	491.06
317.836	462.06
318.065	460.06
318.295	454.06
318.524	461.06
318.753	484.06
318.983	482.06
319.212	490.06
319.441	499.06
319.67	487.06
319.9	476.06
320.129	459.06
320.358	480.06
320.587	497.06
320.816	515.06
321.046	501.06
321.275	508.06
321.504	494.06
321.733	521.06
321.962	542.06
322.191	542.06
322.42	590.06
322.649	593.06
322.878	619.06
323.108	658.06
323.337	720.06
323.566	777.06
323.795	871.06
324.024	1095.06
324.253	1983.06
324.482	3343.06
324.71	5004.06
324.939	4415.06
325.168	1943.06
325.397	948.06
325.626	699.06
325.855	668.06
326.084	658.06
326.313	714.06
326.542	810.06
326.77	1104.06
326.999	1858.06
327.228	2940.06
327.457	3758.06
327.686	2444.06
327.914	1125.06
328.143	898.06
328.372	840.06
328.6	794.06
328.829	814.06
329.058	867.06
329.287	785.06
329.515	682.06
329.744	624.06
329.972	630.06
330.201	686.06
330.43	790.06
330.658	917.06
330.887	932.06
331.115	779.06
331.344	688.06
331.572	689.06
331.801	694.06
332.03	690.06
332.258	638.06
332.486	614.06
332.715	637.06
332.943	628.06
333.172	666.06
333.4	676.06
333.629	681.06
333.857	669.06
334.085	650.06
334.314	640.06
334.542	646.06
334.771	640.06
334.999	668.06
335.227	655.06
335.455	636.06
335.684	630.06
335.912	617.06
336.14	646.06
336.369	638.06
336.597	658.06
336.825	643.06
337.053	577.06
337.281	595.06
337.51	596.06
337.738	634.06
337.966	637.06
338.194	610.06
338.422	599.06
338.65	578.06
338.878	578.06
339.106	591.06
339.334	604.06
339.562	556.06
339.79	565.06
340.018	580.06
340.246	578.06
340.474	584.06
340.702	576.06
340.93	582.06
341.158	595.06
341.386	598.06
341.614	595.06
341.842	584.06
342.07	574.06
342.298	550.06
342.526	549.06
342.754	558.06
342.981	566.06
343.209	570.06
343.437	627.06
343.665	630.06
343.893	642.06
344.12	626.06
344.348	622.06
344.576	610.06
344.804	655.06
345.031	655.06
345.259	604.06
345.487	616.06
345.714	586.06
345.942	566.06
346.17	568.06
346.397	578.06
346.625	582.06
346.853	554.06
347.08	558.06
347.308	620.06
347.535	606.06
347.763	600.06
347.99	614.06
348.218	603.06
348.445	615.06
348.673	596.06
348.9	546.06
349.128	552.06
349.355	558.06
349.583	553.06
349.81	535.06
350.037	539.06
350.265	524.06
350.492	543.06
350.72	590.06
350.947	593.06
351.174	627.06
351.402	598.06
351.629	604.06
351.856	594.06
352.083	652.06
352.311	640.06
352.538	614.06
352.765	617.06
352.992	602.06
353.22	575.06
353.447	559.06
353.674	569.06
353.901	536.06
354.128	548.06
354.355	538.06
354.583	551.06
354.81	533.06
355.037	526.06
355.264	523.06
355.491	506.06
355.718	495.06
355.945	514.06
356.172	524.06
356.399	531.06
356.626	548.06
356.853	540.06
357.08	525.06
357.307	512.06
357.534	528.06
357.761	520.06
357.988	523.06
358.215	520.06
358.441	576.06
358.668	534.06
358.895	546.06
359.122	550.06
359.349	585.06
359.576	637.06
359.802	721.06
360.029	744.06
360.256	707.06
360.483	644.06
360.709	604.06
360.936	624.06
361.163	619.06
361.39	612.06
361.616	626.06
361.843	575.06
362.07	598.06
362.296	622.06
362.523	602.06
362.749	564.06
362.976	574.06
363.203	572.06
363.429	577.06
363.656	552.06
363.882	555.06
364.109	550.06
364.335	546.06
364.562	559.06
364.788	576.06
365.015	594.06
365.241	586.06
365.468	591.06
365.694	599.06
365.92	577.06
366.147	568.06
366.373	551.06
366.599	559.06
366.826	555.06
367.052	574.06
367.278	564.06
367.505	560.06
367.731	552.06
367.957	549.06
368.184	565.06
368.41	597.06
368.636	594.06
368.862	593.06
369.089	568.06
369.315	574.06
369.541	562.06
369.767	597.06
369.993	556.06
370.219	581.06
370.445	568.06
370.672	577.06
370.898	540.06
371.124	578.06
371.35	587.06
371.576	566.06
371.802	556.06
372.028	570.06
372.254	582.06
372.48	573.06
372.706	574.06
372.932	577.06
373.158	587.06
373.384	606.06
373.61	571.06
373.835	611.06
374.061	581.06
374.287	633.06
374.513	593.06
374.739	599.06
374.965	608.06
375.191	607.06
375.416	636.06
375.642	608.06
375.868	604.06
376.094	596.06
376.319	592.06
376.545	569.06
376.771	594.06
376.997	583.06
377.222	564.06
377.448	592.06
377.674	564.06
377.899	580.06
378.125	582.06
378.35	574.06
378.576	571.06
378.802	556.06
379.027	589.06
379.253	581.06
379.478	562.06
379.704	579.06
379.929	582.06
380.155	596.06
380.38	595.06
380.606	585.06
380.831	555.06
381.057	585.06
381.282	586.06
381.507	583.06
381.733	584.06
381.958	595.06
382.184	616.06
382.409	614.06
382.634	603.06
382.86	625.06
383.085	600.06
383.31	604.06
383.535	633.06
383.761	623.06
383.986	630.06
384.211	629.06
384.436	649.06
384.662	662.06
384.887	664.06
385.112	678.06
385.337	675.06
385.562	659.06
385.787	682.06
386.013	715.06
386.238	719.06
386.463	685.06
386.688	673.06
386.913	675.06
387.138	641.06
387.363	670.06
387.588	646.06
387.813	664.06
388.038	669.06
388.263	668.06
388.488	684.06
388.713	700.06
388.938	683.06
389.163	675.06
389.387	673.06
389.612	661.06
389.837	670.06
390.062	653.06
390.287	676.06
390.512	647.06
390.736	652.06
390.961	698.06
391.186	674.06
391.411	712.06
391.636	709.06
391.86	715.06
392.085	711.06
392.31	717.06
392.534	721.06
392.759	707.06
392.984	685.06
393.208	682.06
393.433	695.06
393.658	708.06
393.882	706.06
394.107	707.06
394.331	711.06
394.556	716.06
394.78	722.06
395.005	726.06
395.229	735.06
395.454	770.06
395.678	766.06
395.903	764.06
396.127	737.06
396.352	742.06
396.576	722.06
396.801	717.06
397.025	726.06
397.249	719.06
397.474	760.06
397.698	758.06
397.922	778.06
398.147	783.06
398.371	787.06
398.595	803.06
398.82	834.06
399.044	911.06
399.268	1034.06
399.492	1098.06
399.717	1136.06
399.941	1085.06
400.165	1040.06
400.389	956.06
400.613	877.06
400.837	864.06
401.062	871.06
401.286	822.06
401.51	852.06
401.734	827.06
401.958	869.06
402.182	919.06
402.406	923.06
402.63	924.06
402.854	914.06
403.078	886.06
403.302	912.06
403.526	944.06
403.75	909.06
403.974	938.06
404.198	915.06
404.422	936.06
404.645	931.06
404.869	903.06
405.093	929.06
405.317	936.06
405.541	946.06
405.765	929.06
405.988	964.06
406.212	1048.06
406.436	1111.06
406.66	1058.06
406.883	1013.06
407.107	1068.06
407.331	1135.06
407.555	1125.06
407.778	1107.06
408.002	1005.06
408.226	977.06
408.449	947.06
408.673	936.06
408.896	948.06
409.12	978.06
409.344	928.06
409.567	866.06
409.791	874.06
410.014	890.06
410.238	868.06
410.461	858.06
410.685	868.06
410.908	890.06
411.132	928.06
411.355	924.06
411.578	867.06
411.802	846.06
412.025	864.06
412.249	850.06
412.472	852.06
412.695	821.06
412.919	814.06
413.142	814.06
413.365	795.06
413.589	828.06
413.812	780.06
414.035	811.06
414.258	820.06
414.482	793.06
414.705	798.06
414.928	795.06
415.151	794.06
415.374	804.06
415.597	824.06
415.821	784.06
416.044	808.06
416.267	772.06
416.49	795.06
416.713	796.06
416.936	799.06
417.159	824.06
417.382	816.06
417.605	815.06
417.828	858.06
418.051	836.06
418.274	814.06
418.497	810.06
418.72	840.06
418.943	808.06
419.166	871.06
419.389	861.06
419.611	852.06
419.834	862.06
420.057	854.06
420.28	808.06
420.503	812.06
420.726	828.06
420.948	860.06
421.171	894.06
421.394	880.06
421.617	832.06
421.839	813.06
422.062	866.06
422.285	884.06
422.507	955.06
422.73	998.06
422.953	898.06
423.175	873.06
423.398	882.06
423.621	869.06
423.843	915.06
424.066	865.06
424.288	903.06
424.511	966.06
424.733	1027.06
424.956	1074.06
425.178	1004.06
425.401	1011.06
425.623	966.06
425.846	834.06
426.068	833.06
426.291	842.06
426.513	841.06
426.735	890.06
426.958	950.06
427.18	1078.06
427.402	1257.06
427.625	1306.06
427.847	1014.06
428.069	845.06
428.292	787.06
428.514	785.06
428.736	776.06
428.958	760.06
429.181	726.06
429.403	763.06
429.625	788.06
429.847	828.06
430.069	878.06
430.292	806.06
430.514	778.06
430.736	735.06
430.958	725.06
431.18	742.06
431.402	735.06
431.624	747.06
431.846	730.06
432.068	732.06
432.29	731.06
432.512	720.06
432.734	726.06
432.956	739.06
433.178	760.06
433.4	759.06
433.622	769.06
433.844	744.06
434.066	755.06
434.287	752.06
434.509	773.06
434.731	808.06
434.953	842.06
435.175	834.06
435.397	836.06
435.618	846.06
435.84	971.06
436.062	1037.06
436.284	987.06
436.505	854.06
436.727	850.06
436.949	761.06
437.17	768.06
437.392	778.06
437.614	801.06
437.835	942.06
438.057	1037.06
438.278	1108.06
438.5	1104.06
438.721	1115.06
438.943	942.06
439.165	814.06
439.386	846.06
439.608	825.06
439.829	871.06
440.05	982.06
440.272	983.06
440.493	830.06
440.715	794.06
440.936	781.06
441.158	825.06
441.379	835.06
441.6	887.06
441.822	903.06
442.043	973.06
442.264	1087.06
442.486	1003.06
442.707	865.06
442.928	909.06
443.149	991.06
443.371	1020.06
443.592	1057.06
443.813	1113.06
444.034	1078.06
444.255	957.06
444.476	900.06
444.698	918.06
444.919	912.06
445.14	966.06
445.361	982.06
445.582	1057.06
445.803	1187.06
446.024	1221.06
446.245	1151.06
446.466	977.06
446.687	818.06
446.908	810.06
447.129	737.06
447.35	759.06
447.571	748.06
447.792	749.06
448.013	766.06
448.234	810.06
448.455	962.06
448.675	1057.06
448.896	1061.06
449.117	906.06
449.338	992.06
449.559	1147.06
449.779	1060.06
450	809.06
450.221	759.06
450.442	736.06
450.662	776.06
450.883	808.06
451.104	847.06
451.324	756.06
451.545	731.06
451.766	693.06
451.986	682.06
452.207	670.06
452.428	680.06
452.648	693.06
452.869	712.06
453.089	734.06
453.31	739.06
453.53	668.06
453.751	657.06
453.971	722.06
454.192	764.06
454.412	686.06
454.633	672.06
454.853	659.06
455.073	686.06
455.294	768.06
455.514	774.06
455.734	694.06
455.955	629.06
456.175	627.06
456.395	627.06
456.616	619.06
456.836	627.06
457.056	611.06
457.276	637.06
457.497	650.06
457.717	622.06
457.937	646.06
458.157	661.06
458.377	696.06
458.598	814.06
458.818	1022.06
459.038	1070.06
459.258	895.06
459.478	801.06
459.698	746.06
459.918	741.06
460.138	769.06
460.358	780.06
460.578	794.06
460.798	842.06
461.018	804.06
461.238	759.06
461.458	812.06
461.678	782.06
461.898	802.06
462.118	818.06
462.338	836.06
462.558	861.06
462.777	901.06
462.997	949.06
463.217	981.06
463.437	950.06
463.657	880.06
463.876	901.06
464.096	901.06
464.316	912.06
464.536	911.06
464.755	920.06
464.975	975.06
465.195	1168.06
465.414	1116.06
465.634	856.06
465.854	776.06
466.073	753.06
466.293	720.06
466.512	702.06
466.732	705.06
466.951	695.06
467.171	707.06
467.391	742.06
467.61	780.06
467.829	728.06
468.049	722.06
468.268	654.06
468.488	682.06
468.707	668.06
468.927	700.06
469.146	659.06
469.365	664.06
469.585	717.06
469.804	749.06
470.023	779.06
470.243	740.06
470.462	803.06
470.681	796.06
470.901	750.06
471.12	713.06
471.339	701.06
471.558	713.06
471.777	684.06
471.997	685.06
472.216	672.06
472.435	661.06
472.654	655.06
472.873	666.06
473.092	670.06
473.311	688.06
473.53	667.06
473.749	704.06
473.968	818.06
474.187	906.06
474.406	814.06
474.625	738.06
474.844	677.06
475.063	655.06
475.282	663.06
475.501	682.06
475.72	678.06
475.939	684.06
476.158	719.06
476.377	695.06
476.596	687.06
476.814	738.06
477.033	748.06
477.252	727.06
477.471	715.06
477.69	780.06
477.908	774.06
478.127	767.06
478.346	748.06
478.564	774.06
478.783	812.06
479.002	862.06
479.22	863.06
479.439	882.06
479.658	887.06
479.876	863.06
480.095	889.06
480.313	906.06
480.532	871.06
480.751	862.06
480.969	861.06
481.188	817.06
481.406	797.06
481.624	778.06
481.843	794.06
482.061	757.06
482.28	789.06
482.498	767.06
482.717	784.06
482.935	791.06
483.153	782.06
483.372	769.06
483.59	777.06
483.808	805.06
484.027	760.06
484.245	783.06
484.463	807.06
484.681	812.06
484.9	803.06
485.118	820.06
485.336	803.06
485.554	820.06
485.772	815.06
485.99	816.06
486.209	841.06
486.427	832.06
486.645	860.06
486.863	924.06
487.081	886.06
487.299	836.06
487.517	834.06
487.735	861.06
487.953	811.06
488.171	842.06
488.389	832.06
488.607	840.06
488.825	816.06
489.043	809.06
489.261	816.06
489.479	846.06
489.696	833.06
489.914	853.06
490.132	874.06
490.35	877.06
490.568	878.06
490.786	894.06
491.003	908.06
491.221	938.06
491.439	951.06
491.657	962.06
491.874	967.06
492.092	966.06
492.31	976.06
492.527	946.06
492.745	956.06
492.963	959.06
493.18	977.06
493.398	982.06
493.615	1011.06
493.833	1004.06
494.05	999.06
494.268	979.06
494.485	966.06
494.703	974.06
494.92	983.06
495.138	959.06
495.355	986.06
495.573	974.06
495.79	961.06
496.008	1000.06
496.225	986.06
496.442	971.06
496.66	989.06
496.877	1015.06
497.094	1012.06
497.312	1007.06
497.529	1051.06
497.746	1073.06
497.963	1095.06
498.181	1107.06
498.398	1163.06
498.615	1222.06
498.832	1270.06
499.049	1289.06
499.267	1404.06
499.484	1466.06
499.701	1564.06
499.918	1670.06
500.135	1830.06
500.352	1927.06
500.569	1908.06
500.786	1872.06
501.003	1772.06
501.22	1659.06
501.437	1560.06
501.654	1498.06
