Data from TestCu_HRD10591_00029.txt Node
Date: Thu Oct 05 14:05:10 EDT 2023
User: Yrep
Spectrometer: HR+D1059
Trigger mode: 1
Integration Time (sec): 1.000000E-1
Scans to average: 1
Electric dark correction enabled: true
Nonlinearity correction enabled: false
Boxcar width: 0
XAxis mode: Wavelengths
Number of Pixels in Spectrum: 2048
>>>>>Begin Spectral Data<<<<<
223.165	-21.81
223.4	-21.81
223.635	-21.81
223.869	-18.81
224.104	-17.81
224.338	-22.81
224.573	-16.81
224.808	-20.81
225.042	-0.81
225.277	-4.81
225.511	4.19
225.746	13.19
225.98	4.19
226.215	11.19
226.449	13.19
226.683	36.19
226.918	19.19
227.152	23.19
227.387	27.19
227.621	35.19
227.856	41.19
228.09	55.19
228.324	32.19
228.559	67.19
228.793	72.19
229.027	109.19
229.262	115.19
229.496	144.19
229.73	172.19
229.964	159.19
230.199	128.19
230.433	112.19
230.667	111.19
230.901	102.19
231.136	100.19
231.37	106.19
231.604	129.19
231.838	130.19
232.072	113.19
232.306	112.19
232.541	130.19
232.775	107.19
233.009	107.19
233.243	112.19
233.477	119.19
233.711	111.19
233.945	123.19
234.179	120.19
234.413	119.19
234.647	134.19
234.881	107.19
235.115	116.19
235.349	116.19
235.583	123.19
235.817	119.19
236.051	135.19
236.285	124.19
236.519	135.19
236.753	149.19
236.987	174.19
237.221	219.19
237.455	230.19
237.689	148.19
237.922	119.19
238.156	128.19
238.39	137.19
238.624	133.19
238.858	123.19
239.091	129.19
239.325	127.19
239.559	134.19
239.793	120.19
240.027	145.19
240.26	167.19
240.494	166.19
240.728	151.19
240.961	137.19
241.195	136.19
241.429	142.19
241.662	129.19
241.896	136.19
242.13	125.19
242.363	117.19
242.597	139.19
242.83	138.19
243.064	132.19
243.298	138.19
243.531	126.19
243.765	140.19
243.998	143.19
244.232	127.19
244.465	145.19
244.699	145.19
244.932	147.19
245.166	134.19
245.399	143.19
245.633	141.19
245.866	163.19
246.099	155.19
246.333	160.19
246.566	147.19
246.8	155.19
247.033	159.19
247.266	150.19
247.5	165.19
247.733	175.19
247.966	176.19
248.2	170.19
248.433	156.19
248.666	177.19
248.899	187.19
249.133	203.19
249.366	208.19
249.599	178.19
249.832	171.19
250.066	158.19
250.299	162.19
250.532	187.19
250.765	193.19
250.998	211.19
251.231	203.19
251.465	186.19
251.698	184.19
251.931	189.19
252.164	184.19
252.397	165.19
252.63	200.19
252.863	191.19
253.096	206.19
253.329	222.19
253.562	201.19
253.795	205.19
254.028	211.19
254.261	226.19
254.494	256.19
254.727	270.19
254.96	243.19
255.193	240.19
255.426	189.19
255.659	167.19
255.892	189.19
256.124	195.19
256.357	183.19
256.59	204.19
256.823	189.19
257.056	208.19
257.289	199.19
257.521	190.19
257.754	201.19
257.987	195.19
258.22	201.19
258.452	204.19
258.685	190.19
258.918	202.19
259.151	205.19
259.383	213.19
259.616	226.19
259.849	230.19
260.081	262.19
260.314	264.19
260.547	241.19
260.779	212.19
261.012	235.19
261.244	216.19
261.477	219.19
261.71	231.19
261.942	278.19
262.175	269.19
262.407	241.19
262.64	216.19
262.872	230.19
263.105	221.19
263.337	223.19
263.57	215.19
263.802	221.19
264.035	199.19
264.267	222.19
264.499	213.19
264.732	215.19
264.964	207.19
265.197	194.19
265.429	207.19
265.661	233.19
265.894	225.19
266.126	213.19
266.358	219.19
266.591	226.19
266.823	231.19
267.055	229.19
267.287	236.19
267.52	210.19
267.752	228.19
267.984	221.19
268.216	215.19
268.448	215.19
268.681	249.19
268.913	273.19
269.145	291.19
269.377	290.19
269.609	274.19
269.841	275.19
270.073	295.19
270.306	328.19
270.538	319.19
270.77	300.19
271.002	293.19
271.234	301.19
271.466	317.19
271.698	315.19
271.93	324.19
272.162	341.19
272.394	311.19
272.626	279.19
272.858	280.19
273.09	277.19
273.322	255.19
273.553	267.19
273.785	277.19
274.017	268.19
274.249	258.19
274.481	286.19
274.713	278.19
274.945	288.19
275.176	278.19
275.408	284.19
275.64	267.19
275.872	272.19
276.104	269.19
276.335	294.19
276.567	311.19
276.799	372.19
277.031	363.19
277.262	339.19
277.494	316.19
277.726	304.19
277.957	278.19
278.189	280.19
278.421	280.19
278.652	294.19
278.884	289.19
279.115	267.19
279.347	275.19
279.579	295.19
279.81	274.19
280.042	291.19
280.273	258.19
280.505	276.19
280.736	267.19
280.968	290.19
281.199	291.19
281.431	291.19
281.662	293.19
281.894	302.19
282.125	333.19
282.356	367.19
282.588	387.19
282.819	320.19
283.051	293.19
283.282	300.19
283.513	310.19
283.745	314.19
283.976	297.19
284.207	305.19
284.439	317.19
284.67	301.19
284.901	295.19
285.132	301.19
285.364	287.19
285.595	313.19
285.826	311.19
286.057	321.19
286.288	310.19
286.52	309.19
286.751	322.19
286.982	340.19
287.213	329.19
287.444	333.19
287.675	327.19
287.906	358.19
288.138	343.19
288.369	341.19
288.6	337.19
288.831	343.19
289.062	328.19
289.293	324.19
289.524	321.19
289.755	323.19
289.986	306.19
290.217	337.19
290.448	315.19
290.679	319.19
290.91	349.19
291.141	345.19
291.371	333.19
291.602	330.19
291.833	340.19
292.064	340.19
292.295	355.19
292.526	343.19
292.757	339.19
292.987	331.19
293.218	327.19
293.449	343.19
293.68	344.19
293.91	355.19
294.141	339.19
294.372	333.19
294.603	339.19
294.833	343.19
295.064	348.19
295.295	336.19
295.525	351.19
295.756	369.19
295.987	433.19
296.217	441.19
296.448	408.19
296.679	348.19
296.909	357.19
297.14	348.19
297.37	371.19
297.601	341.19
297.831	367.19
298.062	385.19
298.292	366.19
298.523	381.19
298.753	371.19
298.984	381.19
299.214	370.19
299.445	377.19
299.675	382.19
299.905	397.19
300.136	388.19
300.366	390.19
300.597	412.19
300.827	415.19
301.057	445.19
301.288	418.19
301.518	418.19
301.748	395.19
301.979	431.19
302.209	424.19
302.439	398.19
302.669	411.19
302.9	405.19
303.13	418.19
303.36	405.19
303.59	420.19
303.82	423.19
304.051	411.19
304.281	399.19
304.511	403.19
304.741	387.19
304.971	391.19
305.201	385.19
305.431	392.19
305.661	390.19
305.891	401.19
306.121	405.19
306.352	423.19
306.582	401.19
306.812	400.19
307.042	396.19
307.272	425.19
307.502	415.19
307.731	404.19
307.961	407.19
308.191	427.19
308.421	416.19
308.651	417.19
308.881	398.19
309.111	435.19
309.341	427.19
309.571	445.19
309.8	477.19
310.03	486.19
310.26	485.19
310.49	500.19
310.72	514.19
310.949	517.19
311.179	499.19
311.409	456.19
311.639	473.19
311.868	477.19
312.098	488.19
312.328	500.19
312.557	542.19
312.787	555.19
313.017	512.19
313.246	483.19
313.476	475.19
313.706	513.19
313.935	527.19
314.165	532.19
314.394	535.19
314.624	536.19
314.853	509.19
315.083	487.19
315.312	472.19
315.542	460.19
315.771	465.19
316.001	458.19
316.23	460.19
316.46	461.19
316.689	487.19
316.919	489.19
317.148	507.19
317.377	501.19
317.607	500.19
317.836	496.19
318.065	479.19
318.295	487.19
318.524	462.19
318.753	469.19
318.983	463.19
319.212	503.19
319.441	518.19
319.67	507.19
319.9	475.19
320.129	492.19
320.358	504.19
320.587	505.19
320.816	516.19
321.046	539.19
321.275	523.19
321.504	526.19
321.733	524.19
321.962	542.19
322.191	577.19
322.42	598.19
322.649	611.19
322.878	636.19
323.108	658.19
323.337	742.19
323.566	793.19
323.795	901.19
324.024	1184.19
324.253	2039.19
324.482	3523.19
324.71	5257.19
324.939	4652.19
325.168	2021.19
325.397	987.19
325.626	736.19
325.855	698.19
326.084	712.19
326.313	740.19
326.542	834.19
326.77	1133.19
326.999	1917.19
327.228	3040.19
327.457	3855.19
327.686	2567.19
327.914	1209.19
328.143	912.19
328.372	830.19
328.6	819.19
328.829	844.19
329.058	892.19
329.287	820.19
329.515	697.19
329.744	642.19
329.972	655.19
330.201	705.19
330.43	795.19
330.658	981.19
330.887	960.19
331.115	787.19
331.344	683.19
331.572	685.19
331.801	699.19
332.03	679.19
332.258	640.19
332.486	629.19
332.715	648.19
332.943	663.19
333.172	657.19
333.4	674.19
333.629	712.19
333.857	688.19
334.085	672.19
334.314	646.19
334.542	656.19
334.771	661.19
334.999	696.19
335.227	652.19
335.455	619.19
335.684	619.19
335.912	663.19
336.14	622.19
336.369	645.19
336.597	654.19
336.825	629.19
337.053	615.19
337.281	622.19
337.51	599.19
337.738	619.19
337.966	653.19
338.194	636.19
338.422	628.19
338.65	589.19
338.878	614.19
339.106	616.19
339.334	562.19
339.562	568.19
339.79	605.19
340.018	593.19
340.246	603.19
340.474	604.19
340.702	583.19
340.93	569.19
341.158	599.19
341.386	606.19
341.614	598.19
341.842	588.19
342.07	586.19
342.298	579.19
342.526	561.19
342.754	556.19
342.981	570.19
343.209	578.19
343.437	609.19
343.665	628.19
343.893	629.19
344.12	647.19
344.348	604.19
344.576	638.19
344.804	656.19
345.031	664.19
345.259	662.19
345.487	638.19
345.714	609.19
345.942	559.19
346.17	577.19
346.397	574.19
346.625	572.19
346.853	613.19
347.08	567.19
347.308	608.19
347.535	634.19
347.763	620.19
347.99	591.19
348.218	635.19
348.445	632.19
348.673	603.19
348.9	580.19
349.128	583.19
349.355	561.19
349.583	542.19
349.81	583.19
350.037	545.19
350.265	549.19
350.492	585.19
350.72	577.19
350.947	603.19
351.174	624.19
351.402	630.19
351.629	585.19
351.856	609.19
352.083	637.19
352.311	687.19
352.538	649.19
352.765	613.19
352.992	608.19
353.22	582.19
353.447	596.19
353.674	559.19
353.901	552.19
354.128	563.19
354.355	558.19
354.583	535.19
354.81	551.19
355.037	545.19
355.264	541.19
355.491	541.19
355.718	544.19
355.945	533.19
356.172	543.19
356.399	519.19
356.626	541.19
356.853	524.19
357.08	529.19
357.307	542.19
357.534	529.19
357.761	555.19
357.988	533.19
358.215	539.19
358.441	527.19
358.668	548.19
358.895	571.19
359.122	561.19
359.349	613.19
359.576	675.19
359.802	733.19
360.029	772.19
360.256	730.19
360.483	643.19
360.709	578.19
360.936	597.19
361.163	618.19
361.39	613.19
361.616	619.19
361.843	623.19
362.07	640.19
362.296	640.19
362.523	614.19
362.749	608.19
362.976	578.19
363.203	579.19
363.429	594.19
363.656	570.19
363.882	574.19
364.109	587.19
364.335	568.19
364.562	575.19
364.788	558.19
365.015	591.19
365.241	584.19
365.468	591.19
365.694	607.19
365.92	590.19
366.147	605.19
366.373	579.19
366.599	570.19
366.826	563.19
367.052	568.19
367.278	595.19
367.505	575.19
367.731	589.19
367.957	566.19
368.184	591.19
368.41	601.19
368.636	640.19
368.862	635.19
369.089	592.19
369.315	587.19
369.541	605.19
369.767	599.19
369.993	602.19
370.219	583.19
370.445	567.19
370.672	579.19
370.898	569.19
371.124	592.19
371.35	607.19
371.576	566.19
371.802	600.19
372.028	563.19
372.254	603.19
372.48	574.19
372.706	593.19
372.932	591.19
373.158	612.19
373.384	601.19
373.61	592.19
373.835	607.19
374.061	587.19
374.287	596.19
374.513	639.19
374.739	637.19
374.965	633.19
375.191	624.19
375.416	590.19
375.642	624.19
375.868	614.19
376.094	580.19
376.319	598.19
376.545	587.19
376.771	591.19
376.997	578.19
377.222	587.19
377.448	596.19
377.674	583.19
377.899	580.19
378.125	581.19
378.35	579.19
378.576	563.19
378.802	582.19
379.027	576.19
379.253	581.19
379.478	584.19
379.704	599.19
379.929	604.19
380.155	609.19
380.38	613.19
380.606	613.19
380.831	611.19
381.057	585.19
381.282	592.19
381.507	587.19
381.733	600.19
381.958	624.19
382.184	610.19
382.409	606.19
382.634	634.19
382.86	606.19
383.085	648.19
383.31	645.19
383.535	635.19
383.761	667.19
383.986	654.19
384.211	663.19
384.436	688.19
384.662	667.19
384.887	677.19
385.112	680.19
385.337	674.19
385.562	686.19
385.787	705.19
386.013	711.19
386.238	707.19
386.463	705.19
386.688	706.19
386.913	688.19
387.138	688.19
387.363	674.19
387.588	680.19
387.813	649.19
388.038	687.19
388.263	682.19
388.488	686.19
388.713	661.19
388.938	676.19
389.163	675.19
389.387	683.19
389.612	679.19
389.837	682.19
390.062	664.19
390.287	671.19
390.512	665.19
390.736	683.19
390.961	707.19
391.186	711.19
391.411	728.19
391.636	735.19
391.86	749.19
392.085	740.19
392.31	733.19
392.534	723.19
392.759	712.19
392.984	711.19
393.208	698.19
393.433	701.19
393.658	691.19
393.882	708.19
394.107	724.19
394.331	712.19
394.556	719.19
394.78	738.19
395.005	747.19
395.229	711.19
395.454	742.19
395.678	768.19
395.903	744.19
396.127	752.19
396.352	747.19
396.576	726.19
396.801	731.19
397.025	745.19
397.249	748.19
397.474	795.19
397.698	765.19
397.922	784.19
398.147	799.19
398.371	810.19
398.595	837.19
398.82	848.19
399.044	975.19
399.268	1063.19
399.492	1125.19
399.717	1143.19
399.941	1088.19
400.165	1057.19
400.389	980.19
400.613	901.19
400.837	871.19
401.062	847.19
401.286	867.19
401.51	849.19
401.734	851.19
401.958	879.19
402.182	907.19
402.406	974.19
402.63	926.19
402.854	908.19
403.078	920.19
403.302	912.19
403.526	928.19
403.75	921.19
403.974	901.19
404.198	908.19
404.422	959.19
404.645	910.19
404.869	931.19
405.093	955.19
405.317	982.19
405.541	969.19
405.765	954.19
405.988	995.19
406.212	1046.19
406.436	1137.19
406.66	1090.19
406.883	1046.19
407.107	1117.19
407.331	1134.19
407.555	1184.19
407.778	1116.19
408.002	990.19
408.226	966.19
408.449	988.19
408.673	999.19
408.896	973.19
409.12	994.19
409.344	947.19
409.567	914.19
409.791	897.19
410.014	883.19
410.238	864.19
410.461	903.19
410.685	896.19
410.908	952.19
411.132	940.19
411.355	935.19
411.578	885.19
411.802	846.19
412.025	878.19
412.249	854.19
412.472	868.19
412.695	851.19
412.919	797.19
413.142	811.19
413.365	822.19
413.589	842.19
413.812	824.19
414.035	805.19
414.258	805.19
414.482	804.19
414.705	804.19
414.928	819.19
415.151	815.19
415.374	841.19
415.597	819.19
415.821	831.19
416.044	808.19
416.267	820.19
416.49	804.19
416.713	784.19
416.936	828.19
417.159	801.19
417.382	823.19
417.605	833.19
417.828	851.19
418.051	852.19
418.274	844.19
418.497	825.19
418.72	824.19
418.943	870.19
419.166	859.19
419.389	870.19
419.611	866.19
419.834	862.19
420.057	864.19
420.28	816.19
420.503	784.19
420.726	855.19
420.948	883.19
421.171	903.19
421.394	887.19
421.617	844.19
421.839	815.19
422.062	841.19
422.285	891.19
422.507	980.19
422.73	1015.19
422.953	937.19
423.175	873.19
423.398	885.19
423.621	907.19
423.843	883.19
424.066	903.19
424.288	915.19
424.511	937.19
424.733	1046.19
424.956	1089.19
425.178	1031.19
425.401	1021.19
425.623	991.19
425.846	873.19
426.068	868.19
426.291	854.19
426.513	844.19
426.735	907.19
426.958	967.19
427.18	1135.19
427.402	1314.19
427.625	1343.19
427.847	1070.19
428.069	853.19
428.292	812.19
428.514	789.19
428.736	769.19
428.958	747.19
429.181	767.19
429.403	743.19
429.625	799.19
429.847	849.19
430.069	902.19
430.292	832.19
430.514	753.19
430.736	759.19
430.958	743.19
431.18	752.19
431.402	753.19
431.624	747.19
431.846	727.19
432.068	720.19
432.29	755.19
432.512	728.19
432.734	755.19
432.956	783.19
433.178	795.19
433.4	781.19
433.622	747.19
433.844	767.19
434.066	783.19
434.287	804.19
434.509	803.19
434.731	818.19
434.953	839.19
435.175	851.19
435.397	862.19
435.618	858.19
435.84	959.19
436.062	1047.19
436.284	994.19
436.505	851.19
436.727	816.19
436.949	783.19
437.17	769.19
437.392	775.19
437.614	828.19
437.835	953.19
438.057	1073.19
438.278	1116.19
438.5	1084.19
438.721	1149.19
438.943	972.19
439.165	837.19
439.386	827.19
439.608	855.19
439.829	920.19
440.05	993.19
440.272	1013.19
440.493	888.19
440.715	809.19
440.936	812.19
441.158	816.19
441.379	847.19
441.6	904.19
441.822	936.19
442.043	988.19
442.264	1080.19
442.486	1017.19
442.707	886.19
442.928	944.19
443.149	997.19
443.371	1008.19
443.592	1119.19
443.813	1178.19
444.034	1120.19
444.255	950.19
444.476	940.19
444.698	929.19
444.919	949.19
445.14	976.19
445.361	1009.19
445.582	1096.19
445.803	1248.19
446.024	1259.19
446.245	1169.19
446.466	1003.19
446.687	874.19
446.908	791.19
447.129	759.19
447.35	768.19
447.571	773.19
447.792	773.19
448.013	772.19
448.234	829.19
448.455	959.19
448.675	1072.19
448.896	1051.19
449.117	920.19
449.338	1011.19
449.559	1137.19
449.779	1085.19
450	830.19
450.221	755.19
450.442	758.19
450.662	768.19
450.883	835.19
451.104	848.19
451.324	768.19
451.545	707.19
451.766	715.19
451.986	687.19
452.207	675.19
452.428	688.19
452.648	732.19
452.869	739.19
453.089	744.19
453.31	757.19
453.53	695.19
453.751	712.19
453.971	751.19
454.192	793.19
454.412	710.19
454.633	673.19
454.853	686.19
455.073	694.19
455.294	725.19
455.514	798.19
455.734	717.19
455.955	645.19
456.175	653.19
456.395	633.19
456.616	620.19
456.836	638.19
457.056	631.19
457.276	624.19
457.497	627.19
457.717	634.19
457.937	671.19
458.157	667.19
458.377	695.19
458.598	854.19
458.818	1037.19
459.038	1079.19
459.258	941.19
459.478	773.19
459.698	751.19
459.918	781.19
460.138	801.19
460.358	813.19
460.578	818.19
460.798	819.19
461.018	812.19
461.238	782.19
461.458	804.19
461.678	793.19
461.898	798.19
462.118	808.19
462.338	854.19
462.558	840.19
462.777	901.19
462.997	944.19
463.217	982.19
463.437	959.19
463.657	911.19
463.876	908.19
464.096	948.19
464.316	942.19
464.536	909.19
464.755	919.19
464.975	993.19
465.195	1240.19
465.414	1150.19
465.634	874.19
465.854	773.19
466.073	747.19
466.293	733.19
466.512	727.19
466.732	715.19
466.951	733.19
467.171	721.19
467.391	749.19
467.61	798.19
467.829	763.19
468.049	709.19
468.268	664.19
468.488	695.19
468.707	714.19
468.927	679.19
469.146	691.19
469.365	715.19
469.585	721.19
469.804	756.19
470.023	765.19
470.243	772.19
470.462	810.19
470.681	845.19
470.901	779.19
471.12	744.19
471.339	717.19
471.558	701.19
471.777	703.19
471.997	683.19
472.216	658.19
472.435	675.19
472.654	689.19
472.873	670.19
473.092	657.19
473.311	667.19
473.53	677.19
473.749	724.19
473.968	826.19
474.187	951.19
474.406	802.19
474.625	706.19
474.844	708.19
475.063	681.19
475.282	683.19
475.501	667.19
475.72	699.19
475.939	688.19
476.158	707.19
476.377	724.19
476.596	721.19
476.814	755.19
477.033	749.19
477.252	729.19
477.471	748.19
477.69	777.19
477.908	774.19
478.127	764.19
478.346	804.19
478.564	789.19
478.783	819.19
479.002	831.19
479.22	833.19
479.439	893.19
479.658	910.19
479.876	884.19
480.095	905.19
480.313	943.19
480.532	893.19
480.751	907.19
480.969	864.19
481.188	839.19
481.406	810.19
481.624	798.19
481.843	779.19
482.061	763.19
482.28	780.19
482.498	763.19
482.717	757.19
482.935	766.19
483.153	805.19
483.372	804.19
483.59	775.19
483.808	802.19
484.027	796.19
484.245	782.19
484.463	815.19
484.681	819.19
484.9	831.19
485.118	813.19
485.336	830.19
485.554	812.19
485.772	840.19
485.99	805.19
486.209	829.19
486.427	836.19
486.645	873.19
486.863	929.19
487.081	868.19
487.299	852.19
487.517	865.19
487.735	846.19
487.953	853.19
488.171	837.19
488.389	863.19
488.607	863.19
488.825	843.19
489.043	839.19
489.261	835.19
489.479	861.19
489.696	859.19
489.914	864.19
490.132	877.19
490.35	870.19
490.568	904.19
490.786	915.19
491.003	915.19
491.221	952.19
491.439	987.19
491.657	974.19
491.874	984.19
492.092	1034.19
492.31	999.19
492.527	980.19
492.745	978.19
492.963	984.19
493.18	980.19
493.398	1008.19
493.615	1021.19
493.833	1045.19
494.05	992.19
494.268	993.19
494.485	982.19
494.703	973.19
494.92	1006.19
495.138	1009.19
495.355	980.19
495.573	1005.19
495.79	987.19
496.008	1017.19
496.225	993.19
496.442	992.19
496.66	988.19
496.877	1003.19
497.094	1003.19
497.312	1036.19
497.529	1022.19
497.746	1065.19
497.963	1091.19
498.181	1132.19
498.398	1164.19
498.615	1243.19
498.832	1271.19
499.049	1287.19
499.267	1416.19
499.484	1477.19
499.701	1579.19
499.918	1695.19
500.135	1851.19
500.352	1997.19
500.569	1968.19
500.786	1919.19
501.003	1791.19
501.22	1674.19
501.437	1577.19
