Data from TestCu_HRD10591_00044.txt Node
Date: Thu Oct 05 14:05:24 EDT 2023
User: Yrep
Spectrometer: HR+D1059
Trigger mode: 1
Integration Time (sec): 1.000000E-1
Scans to average: 1
Electric dark correction enabled: true
Nonlinearity correction enabled: false
Boxcar width: 0
XAxis mode: Wavelengths
Number of Pixels in Spectrum: 2048
>>>>>Begin Spectral Data<<<<<
223.165	-25.69
223.4	-25.69
223.635	-25.69
223.869	-14.69
224.104	-28.69
224.338	-19.69
224.573	-2.69
224.808	-27.69
225.042	3.31
225.277	-1.69
225.511	-0.69
225.746	0.31
225.98	0.31
226.215	14.31
226.449	28.31
226.683	26.31
226.918	24.31
227.152	24.31
227.387	37.31
227.621	32.31
227.856	45.31
228.09	29.31
228.324	49.31
228.559	54.31
228.793	75.31
229.027	100.31
229.262	119.31
229.496	139.31
229.73	161.31
229.964	180.31
230.199	133.31
230.433	108.31
230.667	126.31
230.901	119.31
231.136	102.31
231.37	103.31
231.604	105.31
231.838	115.31
232.072	112.31
232.306	109.31
232.541	119.31
232.775	111.31
233.009	117.31
233.243	118.31
233.477	113.31
233.711	129.31
233.945	128.31
234.179	108.31
234.413	114.31
234.647	129.31
234.881	115.31
235.115	109.31
235.349	110.31
235.583	110.31
235.817	131.31
236.051	133.31
236.285	117.31
236.519	125.31
236.753	153.31
236.987	174.31
237.221	226.31
237.455	220.31
237.689	158.31
237.922	136.31
238.156	122.31
238.39	122.31
238.624	141.31
238.858	125.31
239.091	123.31
239.325	120.31
239.559	122.31
239.793	133.31
240.027	115.31
240.26	143.31
240.494	159.31
240.728	140.31
240.961	157.31
241.195	150.31
241.429	134.31
241.662	115.31
241.896	126.31
242.13	133.31
242.363	134.31
242.597	135.31
242.83	143.31
243.064	134.31
243.298	139.31
243.531	137.31
243.765	144.31
243.998	122.31
244.232	148.31
244.465	144.31
244.699	136.31
244.932	156.31
245.166	143.31
245.399	140.31
245.633	144.31
245.866	137.31
246.099	144.31
246.333	134.31
246.566	153.31
246.8	149.31
247.033	130.31
247.266	150.31
247.5	158.31
247.733	163.31
247.966	160.31
248.2	149.31
248.433	149.31
248.666	179.31
248.899	175.31
249.133	199.31
249.366	207.31
249.599	205.31
249.832	160.31
250.066	164.31
250.299	182.31
250.532	184.31
250.765	202.31
250.998	227.31
251.231	203.31
251.465	192.31
251.698	187.31
251.931	172.31
252.164	173.31
252.397	183.31
252.63	192.31
252.863	193.31
253.096	210.31
253.329	213.31
253.562	205.31
253.795	197.31
254.028	204.31
254.261	202.31
254.494	257.31
254.727	268.31
254.96	256.31
255.193	209.31
255.426	200.31
255.659	193.31
255.892	189.31
256.124	189.31
256.357	199.31
256.59	173.31
256.823	183.31
257.056	185.31
257.289	185.31
257.521	198.31
257.754	205.31
257.987	189.31
258.22	186.31
258.452	188.31
258.685	192.31
258.918	201.31
259.151	193.31
259.383	201.31
259.616	207.31
259.849	232.31
260.081	234.31
260.314	243.31
260.547	244.31
260.779	217.31
261.012	212.31
261.244	195.31
261.477	221.31
261.71	235.31
261.942	260.31
262.175	252.31
262.407	226.31
262.64	217.31
262.872	207.31
263.105	192.31
263.337	226.31
263.57	215.31
263.802	222.31
264.035	222.31
264.267	207.31
264.499	201.31
264.732	208.31
264.964	216.31
265.197	206.31
265.429	200.31
265.661	200.31
265.894	202.31
266.126	217.31
266.358	206.31
266.591	220.31
266.823	226.31
267.055	221.31
267.287	234.31
267.52	230.31
267.752	227.31
267.984	224.31
268.216	232.31
268.448	225.31
268.681	240.31
268.913	263.31
269.145	277.31
269.377	274.31
269.609	258.31
269.841	268.31
270.073	290.31
270.306	315.31
270.538	301.31
270.77	288.31
271.002	272.31
271.234	295.31
271.466	330.31
271.698	304.31
271.93	310.31
272.162	305.31
272.394	296.31
272.626	276.31
272.858	280.31
273.09	260.31
273.322	265.31
273.553	275.31
273.785	275.31
274.017	256.31
274.249	270.31
274.481	274.31
274.713	248.31
274.945	256.31
275.176	264.31
275.408	256.31
275.64	268.31
275.872	255.31
276.104	264.31
276.335	286.31
276.567	302.31
276.799	341.31
277.031	353.31
277.262	345.31
277.494	309.31
277.726	284.31
277.957	272.31
278.189	278.31
278.421	266.31
278.652	276.31
278.884	279.31
279.115	290.31
279.347	275.31
279.579	276.31
279.81	271.31
280.042	272.31
280.273	294.31
280.505	274.31
280.736	280.31
280.968	298.31
281.199	263.31
281.431	283.31
281.662	296.31
281.894	293.31
282.125	316.31
282.356	356.31
282.588	364.31
282.819	339.31
283.051	289.31
283.282	291.31
283.513	293.31
283.745	308.31
283.976	303.31
284.207	292.31
284.439	308.31
284.67	301.31
284.901	310.31
285.132	275.31
285.364	300.31
285.595	312.31
285.826	309.31
286.057	282.31
286.288	312.31
286.52	304.31
286.751	306.31
286.982	323.31
287.213	324.31
287.444	316.31
287.675	324.31
287.906	328.31
288.138	336.31
288.369	312.31
288.6	326.31
288.831	333.31
289.062	333.31
289.293	305.31
289.524	323.31
289.755	318.31
289.986	310.31
290.217	317.31
290.448	312.31
290.679	310.31
290.91	326.31
291.141	311.31
291.371	300.31
291.602	310.31
291.833	325.31
292.064	335.31
292.295	318.31
292.526	345.31
292.757	308.31
292.987	324.31
293.218	335.31
293.449	327.31
293.68	342.31
293.91	316.31
294.141	326.31
294.372	321.31
294.603	330.31
294.833	338.31
295.064	335.31
295.295	338.31
295.525	352.31
295.756	352.31
295.987	381.31
296.217	423.31
296.448	368.31
296.679	340.31
296.909	353.31
297.14	348.31
297.37	345.31
297.601	362.31
297.831	364.31
298.062	377.31
298.292	366.31
298.523	361.31
298.753	361.31
298.984	352.31
299.214	379.31
299.445	364.31
299.675	355.31
299.905	367.31
300.136	357.31
300.366	359.31
300.597	384.31
300.827	392.31
301.057	410.31
301.288	409.31
301.518	406.31
301.748	401.31
301.979	414.31
302.209	385.31
302.439	403.31
302.669	389.31
302.9	375.31
303.13	388.31
303.36	398.31
303.59	409.31
303.82	405.31
304.051	377.31
304.281	375.31
304.511	356.31
304.741	385.31
304.971	387.31
305.201	381.31
305.431	392.31
305.661	388.31
305.891	403.31
306.121	405.31
306.352	413.31
306.582	400.31
306.812	394.31
307.042	399.31
307.272	393.31
307.502	397.31
307.731	397.31
307.961	396.31
308.191	391.31
308.421	385.31
308.651	404.31
308.881	425.31
309.111	419.31
309.341	424.31
309.571	465.31
309.8	450.31
310.03	470.31
310.26	472.31
310.49	452.31
310.72	501.31
310.949	513.31
311.179	478.31
311.409	469.31
311.639	457.31
311.868	456.31
312.098	471.31
312.328	487.31
312.557	532.31
312.787	536.31
313.017	500.31
313.246	471.31
313.476	481.31
313.706	483.31
313.935	500.31
314.165	530.31
314.394	516.31
314.624	495.31
314.853	472.31
315.083	465.31
315.312	440.31
315.542	450.31
315.771	447.31
316.001	463.31
316.23	462.31
316.46	472.31
316.689	456.31
316.919	509.31
317.148	457.31
317.377	483.31
317.607	497.31
317.836	467.31
318.065	437.31
318.295	450.31
318.524	451.31
318.753	457.31
318.983	484.31
319.212	480.31
319.441	500.31
319.67	494.31
319.9	456.31
320.129	478.31
320.358	472.31
320.587	484.31
320.816	501.31
321.046	503.31
321.275	481.31
321.504	500.31
321.733	515.31
321.962	521.31
322.191	556.31
322.42	582.31
322.649	610.31
322.878	616.31
323.108	674.31
323.337	716.31
323.566	741.31
323.795	842.31
324.024	1150.31
324.253	1901.31
324.482	3241.31
324.71	4802.31
324.939	4163.31
325.168	1884.31
325.397	924.31
325.626	710.31
325.855	650.31
326.084	648.31
326.313	700.31
326.542	807.31
326.77	1067.31
326.999	1786.31
327.228	2841.31
327.457	3526.31
327.686	2254.31
327.914	1106.31
328.143	864.31
328.372	789.31
328.6	749.31
328.829	787.31
329.058	823.31
329.287	785.31
329.515	670.31
329.744	626.31
329.972	629.31
330.201	690.31
330.43	740.31
330.658	895.31
330.887	921.31
331.115	750.31
331.344	673.31
331.572	671.31
331.801	668.31
332.03	638.31
332.258	608.31
332.486	626.31
332.715	624.31
332.943	634.31
333.172	654.31
333.4	655.31
333.629	666.31
333.857	677.31
334.085	628.31
334.314	632.31
334.542	649.31
334.771	663.31
334.999	659.31
335.227	639.31
335.455	622.31
335.684	612.31
335.912	610.31
336.14	604.31
336.369	637.31
336.597	640.31
336.825	604.31
337.053	582.31
337.281	582.31
337.51	581.31
337.738	616.31
337.966	626.31
338.194	609.31
338.422	590.31
338.65	572.31
338.878	573.31
339.106	575.31
339.334	589.31
339.562	548.31
339.79	556.31
340.018	566.31
340.246	590.31
340.474	581.31
340.702	565.31
340.93	575.31
341.158	599.31
341.386	576.31
341.614	570.31
341.842	579.31
342.07	550.31
342.298	560.31
342.526	549.31
342.754	552.31
342.981	522.31
343.209	562.31
343.437	592.31
343.665	623.31
343.893	634.31
344.12	628.31
344.348	624.31
344.576	627.31
344.804	639.31
345.031	634.31
345.259	615.31
345.487	595.31
345.714	591.31
345.942	563.31
346.17	556.31
346.397	574.31
346.625	557.31
346.853	562.31
347.08	567.31
347.308	575.31
347.535	594.31
347.763	568.31
347.99	587.31
348.218	634.31
348.445	604.31
348.673	593.31
348.9	563.31
349.128	549.31
349.355	558.31
349.583	554.31
349.81	520.31
350.037	559.31
350.265	531.31
350.492	537.31
350.72	556.31
350.947	570.31
351.174	598.31
351.402	600.31
351.629	589.31
351.856	598.31
352.083	610.31
352.311	638.31
352.538	617.31
352.765	579.31
352.992	585.31
353.22	596.31
353.447	554.31
353.674	553.31
353.901	521.31
354.128	524.31
354.355	533.31
354.583	542.31
354.81	532.31
355.037	520.31
355.264	541.31
355.491	518.31
355.718	502.31
355.945	510.31
356.172	517.31
356.399	525.31
356.626	508.31
356.853	551.31
357.08	522.31
357.307	515.31
357.534	503.31
357.761	532.31
357.988	513.31
358.215	521.31
358.441	511.31
358.668	529.31
358.895	545.31
359.122	560.31
359.349	576.31
359.576	650.31
359.802	677.31
360.029	729.31
360.256	698.31
360.483	599.31
360.709	588.31
360.936	574.31
361.163	581.31
361.39	578.31
361.616	589.31
361.843	594.31
362.07	620.31
362.296	584.31
362.523	598.31
362.749	580.31
362.976	543.31
363.203	545.31
363.429	552.31
363.656	572.31
363.882	564.31
364.109	550.31
364.335	547.31
364.562	558.31
364.788	550.31
365.015	552.31
365.241	570.31
365.468	596.31
365.694	606.31
365.92	587.31
366.147	563.31
366.373	558.31
366.599	559.31
366.826	547.31
367.052	575.31
367.278	553.31
367.505	565.31
367.731	562.31
367.957	561.31
368.184	567.31
368.41	593.31
368.636	588.31
368.862	589.31
369.089	571.31
369.315	562.31
369.541	564.31
369.767	563.31
369.993	586.31
370.219	558.31
370.445	565.31
370.672	554.31
370.898	596.31
371.124	596.31
371.35	560.31
371.576	558.31
371.802	549.31
372.028	559.31
372.254	574.31
372.48	581.31
372.706	588.31
372.932	577.31
373.158	575.31
373.384	586.31
373.61	584.31
373.835	576.31
374.061	578.31
374.287	609.31
374.513	624.31
374.739	606.31
374.965	606.31
375.191	598.31
375.416	608.31
375.642	583.31
375.868	585.31
376.094	585.31
376.319	562.31
376.545	592.31
376.771	575.31
376.997	573.31
377.222	587.31
377.448	576.31
377.674	561.31
377.899	547.31
378.125	561.31
378.35	552.31
378.576	535.31
378.802	552.31
379.027	550.31
379.253	559.31
379.478	567.31
379.704	565.31
379.929	577.31
380.155	569.31
380.38	600.31
380.606	578.31
380.831	561.31
381.057	583.31
381.282	564.31
381.507	550.31
381.733	575.31
381.958	590.31
382.184	591.31
382.409	575.31
382.634	585.31
382.86	593.31
383.085	605.31
383.31	634.31
383.535	612.31
383.761	618.31
383.986	647.31
384.211	643.31
384.436	629.31
384.662	648.31
384.887	641.31
385.112	638.31
385.337	663.31
385.562	657.31
385.787	652.31
386.013	705.31
386.238	689.31
386.463	660.31
386.688	680.31
386.913	661.31
387.138	635.31
387.363	612.31
387.588	661.31
387.813	662.31
388.038	663.31
388.263	678.31
388.488	652.31
388.713	680.31
388.938	650.31
389.163	660.31
389.387	673.31
389.612	673.31
389.837	662.31
390.062	657.31
390.287	682.31
390.512	679.31
390.736	650.31
390.961	678.31
391.186	673.31
391.411	727.31
391.636	704.31
391.86	732.31
392.085	707.31
392.31	716.31
392.534	694.31
392.759	708.31
392.984	689.31
393.208	685.31
393.433	702.31
393.658	693.31
393.882	674.31
394.107	690.31
394.331	684.31
394.556	683.31
394.78	694.31
395.005	689.31
395.229	702.31
395.454	708.31
395.678	733.31
395.903	726.31
396.127	734.31
396.352	735.31
396.576	683.31
396.801	710.31
397.025	702.31
397.249	713.31
397.474	748.31
397.698	742.31
397.922	759.31
398.147	754.31
398.371	798.31
398.595	806.31
398.82	839.31
399.044	893.31
399.268	1006.31
399.492	1073.31
399.717	1120.31
399.941	1044.31
400.165	1016.31
400.389	936.31
400.613	881.31
400.837	837.31
401.062	825.31
401.286	805.31
401.51	809.31
401.734	807.31
401.958	869.31
402.182	901.31
402.406	897.31
402.63	900.31
402.854	882.31
403.078	883.31
403.302	898.31
403.526	912.31
403.75	880.31
403.974	916.31
404.198	908.31
404.422	937.31
404.645	914.31
404.869	931.31
405.093	910.31
405.317	951.31
405.541	934.31
405.765	901.31
405.988	924.31
406.212	1044.31
406.436	1038.31
406.66	1056.31
406.883	964.31
407.107	1027.31
407.331	1104.31
407.555	1139.31
407.778	1046.31
408.002	973.31
408.226	930.31
408.449	953.31
408.673	926.31
408.896	974.31
409.12	945.31
409.344	892.31
409.567	862.31
409.791	876.31
410.014	853.31
410.238	848.31
410.461	876.31
410.685	864.31
410.908	893.31
411.132	940.31
411.355	898.31
411.578	841.31
411.802	833.31
412.025	834.31
412.249	815.31
412.472	816.31
412.695	816.31
412.919	792.31
413.142	804.31
413.365	787.31
413.589	783.31
413.812	768.31
414.035	773.31
414.258	779.31
414.482	774.31
414.705	796.31
414.928	798.31
415.151	780.31
415.374	784.31
415.597	793.31
415.821	797.31
416.044	769.31
416.267	765.31
416.49	786.31
416.713	756.31
416.936	791.31
417.159	784.31
417.382	813.31
417.605	809.31
417.828	831.31
418.051	817.31
418.274	821.31
418.497	782.31
418.72	820.31
418.943	780.31
419.166	832.31
419.389	851.31
419.611	840.31
419.834	818.31
420.057	831.31
420.28	798.31
420.503	806.31
420.726	805.31
420.948	841.31
421.171	891.31
421.394	846.31
421.617	814.31
421.839	819.31
422.062	844.31
422.285	881.31
422.507	925.31
422.73	953.31
422.953	891.31
423.175	828.31
423.398	850.31
423.621	855.31
423.843	846.31
424.066	868.31
424.288	882.31
424.511	927.31
424.733	972.31
424.956	1030.31
425.178	988.31
425.401	993.31
425.623	932.31
425.846	843.31
426.068	833.31
426.291	790.31
426.513	812.31
426.735	852.31
426.958	943.31
427.18	1068.31
427.402	1224.31
427.625	1262.31
427.847	977.31
428.069	824.31
428.292	794.31
428.514	744.31
428.736	749.31
428.958	784.31
429.181	737.31
429.403	722.31
429.625	758.31
429.847	819.31
430.069	833.31
430.292	791.31
430.514	752.31
430.736	740.31
430.958	716.31
431.18	736.31
431.402	722.31
431.624	720.31
431.846	729.31
432.068	705.31
432.29	732.31
432.512	721.31
432.734	714.31
432.956	747.31
433.178	748.31
433.4	737.31
433.622	739.31
433.844	720.31
434.066	720.31
434.287	727.31
434.509	761.31
434.731	766.31
434.953	803.31
435.175	833.31
435.397	838.31
435.618	842.31
435.84	936.31
436.062	1001.31
436.284	966.31
436.505	849.31
436.727	779.31
436.949	757.31
437.17	749.31
437.392	741.31
437.614	791.31
437.835	908.31
438.057	1018.31
438.278	1044.31
438.5	1054.31
438.721	1065.31
438.943	913.31
439.165	789.31
439.386	807.31
439.608	786.31
439.829	865.31
440.05	937.31
440.272	972.31
440.493	839.31
440.715	745.31
440.936	786.31
441.158	792.31
441.379	789.31
441.6	836.31
441.822	920.31
442.043	973.31
442.264	1028.31
442.486	964.31
442.707	874.31
442.928	877.31
443.149	958.31
443.371	994.31
443.592	1050.31
443.813	1114.31
444.034	1044.31
444.255	889.31
444.476	901.31
444.698	928.31
444.919	931.31
445.14	966.31
445.361	970.31
445.582	1036.31
445.803	1152.31
446.024	1221.31
446.245	1104.31
446.466	933.31
446.687	812.31
446.908	768.31
447.129	733.31
447.35	736.31
447.571	747.31
447.792	738.31
448.013	751.31
448.234	796.31
448.455	898.31
448.675	1065.31
448.896	998.31
449.117	892.31
449.338	966.31
449.559	1100.31
449.779	1022.31
450	810.31
450.221	708.31
450.442	721.31
450.662	745.31
450.883	791.31
451.104	818.31
451.324	746.31
451.545	708.31
451.766	668.31
451.986	657.31
452.207	669.31
452.428	653.31
452.648	688.31
452.869	705.31
453.089	712.31
453.31	710.31
453.53	661.31
453.751	663.31
453.971	726.31
454.192	750.31
454.412	679.31
454.633	662.31
454.853	660.31
455.073	651.31
455.294	733.31
455.514	774.31
455.734	711.31
455.955	626.31
456.175	618.31
456.395	613.31
456.616	585.31
456.836	591.31
457.056	586.31
457.276	610.31
457.497	601.31
457.717	643.31
457.937	624.31
458.157	649.31
458.377	684.31
458.598	770.31
458.818	978.31
459.038	998.31
459.258	885.31
459.478	743.31
459.698	745.31
459.918	737.31
460.138	766.31
460.358	780.31
460.578	756.31
460.798	796.31
461.018	789.31
461.238	779.31
461.458	776.31
461.678	749.31
461.898	790.31
462.118	806.31
462.338	818.31
462.558	854.31
462.777	869.31
462.997	923.31
463.217	963.31
463.437	949.31
463.657	870.31
463.876	861.31
464.096	892.31
464.316	898.31
464.536	895.31
464.755	898.31
464.975	960.31
465.195	1170.31
465.414	1035.31
465.634	831.31
465.854	760.31
466.073	728.31
466.293	704.31
466.512	704.31
466.732	677.31
466.951	693.31
467.171	718.31
467.391	698.31
467.61	760.31
467.829	716.31
468.049	699.31
468.268	668.31
468.488	653.31
468.707	654.31
468.927	647.31
469.146	664.31
469.365	677.31
469.585	693.31
469.804	709.31
470.023	738.31
470.243	709.31
470.462	790.31
470.681	773.31
470.901	744.31
471.12	725.31
471.339	693.31
471.558	699.31
471.777	686.31
471.997	662.31
472.216	646.31
472.435	608.31
472.654	637.31
472.873	652.31
473.092	660.31
473.311	642.31
473.53	663.31
473.749	687.31
473.968	808.31
474.187	890.31
474.406	801.31
474.625	700.31
474.844	693.31
475.063	676.31
475.282	675.31
475.501	645.31
475.72	660.31
475.939	691.31
476.158	665.31
476.377	688.31
476.596	677.31
476.814	726.31
477.033	739.31
477.252	732.31
477.471	739.31
477.69	752.31
477.908	767.31
478.127	760.31
478.346	771.31
478.564	797.31
478.783	775.31
479.002	823.31
479.22	842.31
479.439	863.31
479.658	878.31
479.876	866.31
480.095	875.31
480.313	896.31
480.532	866.31
480.751	837.31
480.969	845.31
481.188	805.31
481.406	790.31
481.624	776.31
481.843	763.31
482.061	753.31
482.28	778.31
482.498	750.31
482.717	737.31
482.935	727.31
483.153	765.31
483.372	761.31
483.59	754.31
483.808	745.31
484.027	753.31
484.245	788.31
484.463	780.31
484.681	799.31
484.9	793.31
485.118	783.31
485.336	793.31
485.554	800.31
485.772	816.31
485.99	798.31
486.209	798.31
486.427	832.31
486.645	853.31
486.863	860.31
487.081	863.31
487.299	834.31
487.517	834.31
487.735	856.31
487.953	824.31
488.171	838.31
488.389	809.31
488.607	824.31
488.825	790.31
489.043	798.31
489.261	795.31
489.479	816.31
489.696	833.31
489.914	844.31
490.132	830.31
490.35	865.31
490.568	840.31
490.786	872.31
491.003	899.31
491.221	966.31
491.439	958.31
491.657	920.31
491.874	910.31
492.092	945.31
492.31	964.31
492.527	981.31
492.745	954.31
492.963	967.31
493.18	969.31
493.398	966.31
493.615	975.31
493.833	972.31
494.05	972.31
494.268	959.31
494.485	959.31
494.703	952.31
494.92	940.31
495.138	961.31
495.355	971.31
495.573	967.31
495.79	921.31
496.008	983.31
496.225	948.31
496.442	955.31
496.66	958.31
496.877	968.31
497.094	987.31
497.312	1010.31
497.529	1014.31
497.746	1048.31
497.963	1068.31
498.181	1099.31
498.398	1111.31
498.615	1181.31
498.832	1214.31
499.049	1232.31
499.267	1354.31
499.484	1426.31
499.701	1527.31
499.918	1660.31
500.135	1794.31
500.352	1905.31
500.569	1902.31
500.786	1824.31
501.003	1757.31
501.22	1649.31
501.437	1521.31
501.654	1471.31
501.871	1400.31
