Data from TestCu_HRD10591_00042.txt Node
Date: Thu Oct 05 14:05:22 EDT 2023
User: Yrep
Spectrometer: HR+D1059
Trigger mode: 1
Integration Time (sec): 1.000000E-1
Scans to average: 1
Electric dark correction enabled: true
Nonlinearity correction enabled: false
Boxcar width: 0
XAxis mode: Wavelengths
Number of Pixels in Spectrum: 2048
>>>>>Begin Spectral Data<<<<<
223.165	-6.62
223.4	-6.62
223.635	-6.62
223.869	-23.62
224.104	-14.62
224.338	-8.62
224.573	-11.62
224.808	-27.62
225.042	-8.62
225.277	-5.62
225.511	-5.62
225.746	7.38
225.98	10.38
226.215	20.38
226.449	14.38
226.683	12.38
226.918	14.38
227.152	33.38
227.387	40.38
227.621	34.38
227.856	58.38
228.09	58.38
228.324	51.38
228.559	68.38
228.793	56.38
229.027	104.38
229.262	112.38
229.496	144.38
229.73	155.38
229.964	171.38
230.199	137.38
230.433	118.38
230.667	116.38
230.901	113.38
231.136	121.38
231.37	98.38
231.604	108.38
231.838	107.38
232.072	120.38
232.306	108.38
232.541	111.38
232.775	122.38
233.009	108.38
233.243	109.38
233.477	128.38
233.711	109.38
233.945	120.38
234.179	112.38
234.413	121.38
234.647	111.38
234.881	115.38
235.115	118.38
235.349	119.38
235.583	126.38
235.817	129.38
236.051	126.38
236.285	140.38
236.519	134.38
236.753	144.38
236.987	189.38
237.221	224.38
237.455	218.38
237.689	143.38
237.922	139.38
238.156	121.38
238.39	132.38
238.624	113.38
238.858	118.38
239.091	117.38
239.325	133.38
239.559	142.38
239.793	150.38
240.027	147.38
240.26	159.38
240.494	158.38
240.728	151.38
240.961	136.38
241.195	143.38
241.429	142.38
241.662	128.38
241.896	141.38
242.13	132.38
242.363	128.38
242.597	145.38
242.83	138.38
243.064	127.38
243.298	135.38
243.531	139.38
243.765	147.38
243.998	141.38
244.232	146.38
244.465	149.38
244.699	146.38
244.932	135.38
245.166	131.38
245.399	136.38
245.633	165.38
245.866	153.38
246.099	140.38
246.333	141.38
246.566	146.38
246.8	141.38
247.033	160.38
247.266	155.38
247.5	163.38
247.733	157.38
247.966	152.38
248.2	143.38
248.433	176.38
248.666	186.38
248.899	216.38
249.133	210.38
249.366	209.38
249.599	186.38
249.832	182.38
250.066	164.38
250.299	174.38
250.532	185.38
250.765	200.38
250.998	210.38
251.231	197.38
251.465	181.38
251.698	182.38
251.931	182.38
252.164	196.38
252.397	189.38
252.63	211.38
252.863	192.38
253.096	226.38
253.329	220.38
253.562	203.38
253.795	184.38
254.028	193.38
254.261	210.38
254.494	248.38
254.727	267.38
254.96	258.38
255.193	227.38
255.426	206.38
255.659	190.38
255.892	189.38
256.124	211.38
256.357	199.38
256.59	205.38
256.823	214.38
257.056	187.38
257.289	198.38
257.521	206.38
257.754	182.38
257.987	207.38
258.22	207.38
258.452	186.38
258.685	197.38
258.918	195.38
259.151	220.38
259.383	220.38
259.616	228.38
259.849	221.38
260.081	240.38
260.314	253.38
260.547	230.38
260.779	213.38
261.012	222.38
261.244	211.38
261.477	226.38
261.71	236.38
261.942	255.38
262.175	252.38
262.407	222.38
262.64	214.38
262.872	209.38
263.105	207.38
263.337	216.38
263.57	206.38
263.802	198.38
264.035	208.38
264.267	216.38
264.499	212.38
264.732	229.38
264.964	216.38
265.197	214.38
265.429	213.38
265.661	207.38
265.894	213.38
266.126	241.38
266.358	220.38
266.591	236.38
266.823	222.38
267.055	239.38
267.287	234.38
267.52	236.38
267.752	237.38
267.984	232.38
268.216	234.38
268.448	226.38
268.681	237.38
268.913	261.38
269.145	292.38
269.377	280.38
269.609	262.38
269.841	285.38
270.073	295.38
270.306	322.38
270.538	336.38
270.77	298.38
271.002	274.38
271.234	298.38
271.466	309.38
271.698	310.38
271.93	322.38
272.162	318.38
272.394	285.38
272.626	276.38
272.858	260.38
273.09	264.38
273.322	269.38
273.553	254.38
273.785	267.38
274.017	274.38
274.249	262.38
274.481	272.38
274.713	273.38
274.945	277.38
275.176	276.38
275.408	272.38
275.64	285.38
275.872	290.38
276.104	298.38
276.335	277.38
276.567	302.38
276.799	359.38
277.031	381.38
277.262	342.38
277.494	290.38
277.726	290.38
277.957	277.38
278.189	290.38
278.421	270.38
278.652	286.38
278.884	294.38
279.115	288.38
279.347	281.38
279.579	272.38
279.81	283.38
280.042	284.38
280.273	291.38
280.505	281.38
280.736	276.38
280.968	288.38
281.199	288.38
281.431	304.38
281.662	287.38
281.894	305.38
282.125	323.38
282.356	367.38
282.588	391.38
282.819	339.38
283.051	307.38
283.282	293.38
283.513	300.38
283.745	307.38
283.976	316.38
284.207	328.38
284.439	298.38
284.67	326.38
284.901	310.38
285.132	297.38
285.364	302.38
285.595	294.38
285.826	314.38
286.057	331.38
286.288	308.38
286.52	319.38
286.751	311.38
286.982	308.38
287.213	319.38
287.444	324.38
287.675	326.38
287.906	336.38
288.138	350.38
288.369	338.38
288.6	344.38
288.831	343.38
289.062	354.38
289.293	338.38
289.524	336.38
289.755	333.38
289.986	319.38
290.217	317.38
290.448	324.38
290.679	317.38
290.91	330.38
291.141	330.38
291.371	325.38
291.602	320.38
291.833	322.38
292.064	327.38
292.295	339.38
292.526	332.38
292.757	333.38
292.987	326.38
293.218	350.38
293.449	331.38
293.68	340.38
293.91	328.38
294.141	345.38
294.372	319.38
294.603	328.38
294.833	341.38
295.064	350.38
295.295	332.38
295.525	342.38
295.756	375.38
295.987	388.38
296.217	422.38
296.448	384.38
296.679	342.38
296.909	359.38
297.14	350.38
297.37	358.38
297.601	348.38
297.831	362.38
298.062	354.38
298.292	358.38
298.523	368.38
298.753	381.38
298.984	383.38
299.214	365.38
299.445	357.38
299.675	384.38
299.905	389.38
300.136	364.38
300.366	382.38
300.597	393.38
300.827	395.38
301.057	418.38
301.288	426.38
301.518	412.38
301.748	408.38
301.979	407.38
302.209	415.38
302.439	426.38
302.669	405.38
302.9	415.38
303.13	401.38
303.36	420.38
303.59	429.38
303.82	410.38
304.051	413.38
304.281	382.38
304.511	384.38
304.741	382.38
304.971	401.38
305.201	384.38
305.431	398.38
305.661	412.38
305.891	394.38
306.121	405.38
306.352	414.38
306.582	412.38
306.812	401.38
307.042	388.38
307.272	396.38
307.502	403.38
307.731	405.38
307.961	389.38
308.191	416.38
308.421	400.38
308.651	406.38
308.881	408.38
309.111	432.38
309.341	415.38
309.571	441.38
309.8	471.38
310.03	464.38
310.26	481.38
310.49	481.38
310.72	494.38
310.949	524.38
311.179	502.38
311.409	464.38
311.639	474.38
311.868	480.38
312.098	526.38
312.328	513.38
312.557	542.38
312.787	543.38
313.017	512.38
313.246	488.38
313.476	483.38
313.706	495.38
313.935	511.38
314.165	531.38
314.394	538.38
314.624	510.38
314.853	512.38
315.083	494.38
315.312	470.38
315.542	466.38
315.771	477.38
316.001	470.38
316.23	463.38
316.46	480.38
316.689	478.38
316.919	489.38
317.148	496.38
317.377	481.38
317.607	500.38
317.836	478.38
318.065	463.38
318.295	468.38
318.524	480.38
318.753	465.38
318.983	478.38
319.212	485.38
319.441	499.38
319.67	474.38
319.9	480.38
320.129	496.38
320.358	482.38
320.587	497.38
320.816	501.38
321.046	510.38
321.275	511.38
321.504	499.38
321.733	527.38
321.962	542.38
322.191	566.38
322.42	591.38
322.649	601.38
322.878	644.38
323.108	643.38
323.337	706.38
323.566	759.38
323.795	864.38
324.024	1136.38
324.253	1968.38
324.482	3432.38
324.71	5091.38
324.939	4448.38
325.168	1976.38
325.397	969.38
325.626	735.38
325.855	665.38
326.084	686.38
326.313	706.38
326.542	828.38
326.77	1120.38
326.999	1827.38
327.228	2933.38
327.457	3745.38
327.686	2442.38
327.914	1126.38
328.143	875.38
328.372	838.38
328.6	787.38
328.829	811.38
329.058	853.38
329.287	782.38
329.515	682.38
329.744	648.38
329.972	638.38
330.201	682.38
330.43	799.38
330.658	920.38
330.887	980.38
331.115	789.38
331.344	686.38
331.572	670.38
331.801	695.38
332.03	674.38
332.258	617.38
332.486	612.38
332.715	626.38
332.943	620.38
333.172	658.38
333.4	690.38
333.629	696.38
333.857	709.38
334.085	668.38
334.314	649.38
334.542	655.38
334.771	668.38
334.999	654.38
335.227	646.38
335.455	625.38
335.684	613.38
335.912	614.38
336.14	629.38
336.369	635.38
336.597	629.38
336.825	621.38
337.053	589.38
337.281	611.38
337.51	586.38
337.738	635.38
337.966	627.38
338.194	615.38
338.422	602.38
338.65	578.38
338.878	576.38
339.106	562.38
339.334	577.38
339.562	577.38
339.79	577.38
340.018	587.38
340.246	590.38
340.474	589.38
340.702	576.38
340.93	604.38
341.158	610.38
341.386	597.38
341.614	596.38
341.842	575.38
342.07	564.38
342.298	580.38
342.526	551.38
342.754	579.38
342.981	552.38
343.209	585.38
343.437	598.38
343.665	618.38
343.893	649.38
344.12	658.38
344.348	615.38
344.576	618.38
344.804	644.38
345.031	642.38
345.259	621.38
345.487	616.38
345.714	564.38
345.942	552.38
346.17	581.38
346.397	565.38
346.625	595.38
346.853	582.38
347.08	584.38
347.308	595.38
347.535	594.38
347.763	623.38
347.99	591.38
348.218	624.38
348.445	647.38
348.673	608.38
348.9	558.38
349.128	547.38
349.355	548.38
349.583	529.38
349.81	552.38
350.037	527.38
350.265	532.38
350.492	558.38
350.72	576.38
350.947	582.38
351.174	603.38
351.402	596.38
351.629	599.38
351.856	621.38
352.083	640.38
352.311	626.38
352.538	637.38
352.765	631.38
352.992	610.38
353.22	572.38
353.447	566.38
353.674	564.38
353.901	552.38
354.128	550.38
354.355	528.38
354.583	536.38
354.81	529.38
355.037	524.38
355.264	508.38
355.491	528.38
355.718	518.38
355.945	514.38
356.172	527.38
356.399	520.38
356.626	527.38
356.853	530.38
357.08	530.38
357.307	548.38
357.534	526.38
357.761	530.38
357.988	530.38
358.215	535.38
358.441	519.38
358.668	535.38
358.895	555.38
359.122	563.38
359.349	578.38
359.576	637.38
359.802	746.38
360.029	797.38
360.256	734.38
360.483	662.38
360.709	594.38
360.936	597.38
361.163	605.38
361.39	628.38
361.616	607.38
361.843	597.38
362.07	597.38
362.296	614.38
362.523	554.38
362.749	588.38
362.976	583.38
363.203	569.38
363.429	574.38
363.656	551.38
363.882	558.38
364.109	574.38
364.335	542.38
364.562	562.38
364.788	564.38
365.015	554.38
365.241	584.38
365.468	581.38
365.694	606.38
365.92	593.38
366.147	574.38
366.373	562.38
366.599	564.38
366.826	552.38
367.052	548.38
367.278	589.38
367.505	566.38
367.731	580.38
367.957	566.38
368.184	560.38
368.41	623.38
368.636	604.38
368.862	632.38
369.089	561.38
369.315	579.38
369.541	558.38
369.767	578.38
369.993	576.38
370.219	573.38
370.445	572.38
370.672	560.38
370.898	576.38
371.124	589.38
371.35	590.38
371.576	564.38
371.802	562.38
372.028	575.38
372.254	602.38
372.48	594.38
372.706	608.38
372.932	599.38
373.158	594.38
373.384	594.38
373.61	605.38
373.835	578.38
374.061	588.38
374.287	597.38
374.513	621.38
374.739	650.38
374.965	589.38
375.191	604.38
375.416	620.38
375.642	612.38
375.868	596.38
376.094	600.38
376.319	596.38
376.545	578.38
376.771	586.38
376.997	594.38
377.222	574.38
377.448	580.38
377.674	584.38
377.899	586.38
378.125	584.38
378.35	560.38
378.576	593.38
378.802	577.38
379.027	573.38
379.253	582.38
379.478	555.38
379.704	559.38
379.929	583.38
380.155	591.38
380.38	581.38
380.606	596.38
380.831	595.38
381.057	567.38
381.282	561.38
381.507	584.38
381.733	593.38
381.958	604.38
382.184	598.38
382.409	615.38
382.634	601.38
382.86	600.38
383.085	606.38
383.31	645.38
383.535	610.38
383.761	647.38
383.986	640.38
384.211	648.38
384.436	660.38
384.662	657.38
384.887	674.38
385.112	677.38
385.337	655.38
385.562	670.38
385.787	699.38
386.013	710.38
386.238	704.38
386.463	718.38
386.688	688.38
386.913	665.38
387.138	694.38
387.363	686.38
387.588	676.38
387.813	675.38
388.038	674.38
388.263	665.38
388.488	652.38
388.713	660.38
388.938	689.38
389.163	650.38
389.387	693.38
389.612	665.38
389.837	669.38
390.062	668.38
390.287	675.38
390.512	672.38
390.736	659.38
390.961	692.38
391.186	671.38
391.411	690.38
391.636	728.38
391.86	760.38
392.085	733.38
392.31	730.38
392.534	722.38
392.759	708.38
392.984	709.38
393.208	727.38
393.433	671.38
393.658	671.38
393.882	679.38
394.107	689.38
394.331	697.38
394.556	713.38
394.78	716.38
395.005	728.38
395.229	716.38
395.454	733.38
395.678	766.38
395.903	747.38
396.127	737.38
396.352	716.38
396.576	701.38
396.801	745.38
397.025	731.38
397.249	744.38
397.474	762.38
397.698	762.38
397.922	782.38
398.147	800.38
398.371	791.38
398.595	814.38
398.82	852.38
399.044	929.38
399.268	985.38
399.492	1061.38
399.717	1108.38
399.941	1076.38
400.165	1008.38
400.389	967.38
400.613	906.38
400.837	842.38
401.062	850.38
401.286	824.38
401.51	846.38
401.734	815.38
401.958	869.38
402.182	901.38
402.406	922.38
402.63	908.38
402.854	897.38
403.078	899.38
403.302	937.38
403.526	929.38
403.75	898.38
403.974	935.38
404.198	923.38
404.422	921.38
404.645	923.38
404.869	909.38
405.093	928.38
405.317	957.38
405.541	953.38
405.765	919.38
405.988	945.38
406.212	1034.38
406.436	1076.38
406.66	1080.38
406.883	1029.38
407.107	1068.38
407.331	1124.38
407.555	1143.38
407.778	1088.38
408.002	1006.38
408.226	986.38
408.449	990.38
408.673	978.38
408.896	1005.38
409.12	992.38
409.344	919.38
409.567	901.38
409.791	856.38
410.014	858.38
410.238	878.38
410.461	879.38
410.685	898.38
410.908	916.38
411.132	934.38
411.355	899.38
411.578	878.38
411.802	855.38
412.025	844.38
412.249	834.38
412.472	837.38
412.695	820.38
412.919	782.38
413.142	809.38
413.365	818.38
413.589	813.38
413.812	783.38
414.035	808.38
414.258	814.38
414.482	796.38
414.705	815.38
414.928	791.38
415.151	804.38
415.374	794.38
415.597	796.38
415.821	797.38
416.044	791.38
416.267	781.38
416.49	775.38
416.713	777.38
416.936	784.38
417.159	794.38
417.382	817.38
417.605	819.38
417.828	838.38
418.051	856.38
418.274	830.38
418.497	805.38
418.72	813.38
418.943	800.38
419.166	800.38
419.389	863.38
419.611	864.38
419.834	858.38
420.057	820.38
420.28	805.38
420.503	800.38
420.726	826.38
420.948	840.38
421.171	898.38
421.394	891.38
421.617	800.38
421.839	804.38
422.062	866.38
422.285	897.38
422.507	960.38
422.73	986.38
422.953	907.38
423.175	870.38
423.398	876.38
423.621	861.38
423.843	905.38
424.066	882.38
424.288	889.38
424.511	945.38
424.733	1018.38
424.956	1074.38
425.178	969.38
425.401	1018.38
425.623	961.38
425.846	850.38
426.068	855.38
426.291	838.38
426.513	857.38
426.735	873.38
426.958	964.38
427.18	1129.38
427.402	1264.38
427.625	1283.38
427.847	1000.38
428.069	838.38
428.292	800.38
428.514	778.38
428.736	761.38
428.958	765.38
429.181	743.38
429.403	746.38
429.625	790.38
429.847	836.38
430.069	852.38
430.292	823.38
430.514	744.38
430.736	762.38
430.958	750.38
431.18	740.38
431.402	723.38
431.624	722.38
431.846	730.38
432.068	722.38
432.29	726.38
432.512	734.38
432.734	762.38
432.956	781.38
433.178	768.38
433.4	767.38
433.622	735.38
433.844	748.38
434.066	742.38
434.287	762.38
434.509	778.38
434.731	791.38
434.953	846.38
435.175	841.38
435.397	846.38
435.618	852.38
435.84	952.38
436.062	1063.38
436.284	966.38
436.505	848.38
436.727	840.38
436.949	789.38
437.17	769.38
437.392	786.38
437.614	831.38
437.835	949.38
438.057	1048.38
438.278	1071.38
438.5	1086.38
438.721	1105.38
438.943	951.38
439.165	822.38
439.386	823.38
439.608	830.38
439.829	903.38
440.05	954.38
440.272	1004.38
440.493	846.38
440.715	825.38
440.936	781.38
441.158	791.38
441.379	822.38
441.6	872.38
441.822	911.38
442.043	980.38
442.264	1057.38
442.486	954.38
442.707	897.38
442.928	904.38
443.149	978.38
443.371	998.38
443.592	1070.38
443.813	1143.38
444.034	1092.38
444.255	936.38
444.476	903.38
444.698	918.38
444.919	922.38
445.14	971.38
445.361	966.38
445.582	1064.38
445.803	1201.38
446.024	1291.38
446.245	1150.38
446.466	958.38
446.687	824.38
446.908	808.38
447.129	757.38
447.35	764.38
447.571	760.38
447.792	738.38
448.013	786.38
448.234	814.38
448.455	966.38
448.675	1068.38
448.896	1039.38
449.117	915.38
449.338	994.38
449.559	1169.38
449.779	1058.38
450	823.38
450.221	761.38
450.442	766.38
450.662	773.38
450.883	827.38
451.104	813.38
451.324	754.38
451.545	720.38
451.766	681.38
451.986	661.38
452.207	698.38
452.428	676.38
452.648	699.38
452.869	720.38
453.089	740.38
453.31	723.38
453.53	674.38
453.751	688.38
453.971	727.38
454.192	750.38
454.412	688.38
454.633	656.38
454.853	680.38
455.073	692.38
455.294	740.38
455.514	800.38
455.734	716.38
455.955	641.38
456.175	620.38
456.395	638.38
456.616	600.38
456.836	622.38
457.056	624.38
457.276	605.38
457.497	648.38
457.717	617.38
457.937	652.38
458.157	663.38
458.377	688.38
458.598	809.38
458.818	992.38
459.038	1026.38
459.258	896.38
459.478	788.38
459.698	740.38
459.918	766.38
460.138	765.38
460.358	799.38
460.578	794.38
460.798	790.38
461.018	803.38
461.238	826.38
461.458	819.38
461.678	768.38
461.898	796.38
462.118	812.38
462.338	827.38
462.558	877.38
462.777	881.38
462.997	980.38
463.217	964.38
463.437	960.38
463.657	898.38
463.876	874.38
464.096	908.38
464.316	908.38
464.536	881.38
464.755	900.38
464.975	972.38
465.195	1182.38
465.414	1138.38
465.634	850.38
465.854	816.38
466.073	780.38
466.293	723.38
466.512	707.38
466.732	709.38
466.951	673.38
467.171	718.38
467.391	732.38
467.61	756.38
467.829	735.38
468.049	699.38
468.268	689.38
468.488	648.38
468.707	674.38
468.927	658.38
469.146	676.38
469.365	683.38
469.585	693.38
469.804	739.38
470.023	775.38
470.243	757.38
470.462	794.38
470.681	804.38
470.901	744.38
471.12	698.38
471.339	676.38
471.558	713.38
471.777	688.38
471.997	666.38
472.216	650.38
472.435	658.38
472.654	661.38
472.873	665.38
473.092	654.38
473.311	652.38
473.53	665.38
473.749	703.38
473.968	834.38
474.187	924.38
474.406	799.38
474.625	705.38
474.844	684.38
475.063	676.38
475.282	669.38
475.501	658.38
475.72	672.38
475.939	696.38
476.158	702.38
476.377	700.38
476.596	708.38
476.814	713.38
477.033	738.38
477.252	743.38
477.471	749.38
477.69	764.38
477.908	768.38
478.127	786.38
478.346	754.38
478.564	781.38
478.783	804.38
479.002	791.38
479.22	817.38
479.439	869.38
479.658	866.38
479.876	886.38
480.095	887.38
480.313	906.38
480.532	880.38
480.751	877.38
480.969	863.38
481.188	838.38
481.406	812.38
481.624	791.38
481.843	781.38
482.061	758.38
482.28	771.38
482.498	762.38
482.717	788.38
482.935	788.38
483.153	757.38
483.372	769.38
483.59	799.38
483.808	778.38
484.027	773.38
484.245	794.38
484.463	782.38
484.681	835.38
484.9	826.38
485.118	802.38
485.336	809.38
485.554	799.38
485.772	806.38
485.99	842.38
486.209	822.38
486.427	867.38
486.645	884.38
486.863	887.38
487.081	862.38
487.299	873.38
487.517	853.38
487.735	848.38
487.953	818.38
488.171	835.38
488.389	834.38
488.607	824.38
488.825	813.38
489.043	818.38
489.261	814.38
489.479	857.38
489.696	816.38
489.914	836.38
490.132	847.38
490.35	866.38
490.568	886.38
490.786	924.38
491.003	942.38
491.221	942.38
491.439	977.38
491.657	958.38
491.874	954.38
492.092	967.38
492.31	957.38
492.527	966.38
492.745	977.38
492.963	982.38
493.18	988.38
493.398	990.38
493.615	991.38
493.833	999.38
494.05	963.38
494.268	984.38
494.485	985.38
494.703	982.38
494.92	989.38
495.138	988.38
495.355	988.38
495.573	1001.38
495.79	980.38
496.008	982.38
496.225	1006.38
496.442	986.38
496.66	1013.38
496.877	984.38
497.094	1004.38
497.312	1026.38
497.529	1042.38
497.746	1030.38
497.963	1076.38
498.181	1129.38
498.398	1155.38
498.615	1205.38
498.832	1250.38
499.049	1280.38
499.267	1357.38
499.484	1473.38
499.701	1541.38
499.918	1697.38
500.135	1814.38
500.352	1933.38
500.569	1913.38
500.786	1862.38
501.003	1813.38
501.22	1640.38
501.437	1588.38
501.654	1520.38
