Data from Circ_2006_H10_HRD10591_00051.txt Node
Date: Wed Jan 03 10:26:14 EST 2024
User: Yrep
Spectrometer: HR+D1059
Trigger mode: 1
Integration Time (sec): 1.000000E-1
Scans to average: 1
Electric dark correction enabled: true
Nonlinearity correction enabled: false
Boxcar width: 0
XAxis mode: Wavelengths
Number of Pixels in Spectrum: 2048
>>>>>Begin Spectral Data<<<<<
223.165	-28.69
223.4	-28.69
223.635	-28.69
223.869	-24.69
224.104	-18.69
224.338	-22.69
224.573	-20.69
224.808	-10.69
225.042	-7.69
225.277	-3.69
225.511	-3.69
225.746	4.31
225.98	10.31
226.215	24.31
226.449	20.31
226.683	19.31
226.918	40.31
227.152	22.31
227.387	37.31
227.621	34.31
227.856	40.31
228.09	37.31
228.324	40.31
228.559	55.31
228.793	57.31
229.027	68.31
229.262	56.31
229.496	77.31
229.73	86.31
229.964	88.31
230.199	77.31
230.433	78.31
230.667	87.31
230.901	79.31
231.136	75.31
231.37	79.31
231.604	77.31
231.838	80.31
232.072	89.31
232.306	70.31
232.541	81.31
232.775	75.31
233.009	84.31
233.243	86.31
233.477	83.31
233.711	80.31
233.945	73.31
234.179	97.31
234.413	84.31
234.647	81.31
234.881	79.31
235.115	78.31
235.349	86.31
235.583	88.31
235.817	72.31
236.051	85.31
236.285	69.31
236.519	75.31
236.753	75.31
236.987	75.31
237.221	76.31
237.455	91.31
237.689	89.31
237.922	75.31
238.156	83.31
238.39	77.31
238.624	93.31
238.858	82.31
239.091	83.31
239.325	80.31
239.559	78.31
239.793	81.31
240.027	84.31
240.26	87.31
240.494	77.31
240.728	81.31
240.961	70.31
241.195	87.31
241.429	75.31
241.662	75.31
241.896	97.31
242.13	64.31
242.363	72.31
242.597	83.31
242.83	94.31
243.064	80.31
243.298	84.31
243.531	85.31
243.765	84.31
243.998	97.31
244.232	76.31
244.465	84.31
244.699	81.31
244.932	93.31
245.166	94.31
245.399	82.31
245.633	85.31
245.866	81.31
246.099	73.31
246.333	90.31
246.566	82.31
246.8	84.31
247.033	85.31
247.266	85.31
247.5	94.31
247.733	89.31
247.966	84.31
248.2	87.31
248.433	75.31
248.666	88.31
248.899	84.31
249.133	96.31
249.366	111.31
249.599	104.31
249.832	71.31
250.066	92.31
250.299	93.31
250.532	79.31
250.765	84.31
250.998	76.31
251.231	83.31
251.465	88.31
251.698	81.31
251.931	94.31
252.164	86.31
252.397	95.31
252.63	81.31
252.863	98.31
253.096	80.31
253.329	82.31
253.562	86.31
253.795	75.31
254.028	79.31
254.261	83.31
254.494	85.31
254.727	81.31
254.96	96.31
255.193	88.31
255.426	89.31
255.659	76.31
255.892	84.31
256.124	70.31
256.357	71.31
256.59	76.31
256.823	89.31
257.056	78.31
257.289	89.31
257.521	85.31
257.754	91.31
257.987	88.31
258.22	90.31
258.452	84.31
258.685	73.31
258.918	80.31
259.151	94.31
259.383	81.31
259.616	86.31
259.849	77.31
260.081	95.31
260.314	83.31
260.547	90.31
260.779	83.31
261.012	76.31
261.244	87.31
261.477	94.31
261.71	104.31
261.942	111.31
262.175	128.31
262.407	95.31
262.64	95.31
262.872	89.31
263.105	87.31
263.337	87.31
263.57	77.31
263.802	84.31
264.035	89.31
264.267	91.31
264.499	81.31
264.732	88.31
264.964	84.31
265.197	84.31
265.429	86.31
265.661	81.31
265.894	85.31
266.126	89.31
266.358	79.31
266.591	73.31
266.823	89.31
267.055	63.31
267.287	84.31
267.52	85.31
267.752	90.31
267.984	94.31
268.216	92.31
268.448	87.31
268.681	84.31
268.913	77.31
269.145	70.31
269.377	96.31
269.609	97.31
269.841	86.31
270.073	86.31
270.306	83.31
270.538	93.31
270.77	81.31
271.002	93.31
271.234	85.31
271.466	90.31
271.698	83.31
271.93	83.31
272.162	80.31
272.394	84.31
272.626	81.31
272.858	84.31
273.09	95.31
273.322	89.31
273.553	71.31
273.785	82.31
274.017	86.31
274.249	88.31
274.481	91.31
274.713	85.31
274.945	92.31
275.176	84.31
275.408	90.31
275.64	92.31
275.872	77.31
276.104	97.31
276.335	100.31
276.567	96.31
276.799	115.31
277.031	96.31
277.262	97.31
277.494	92.31
277.726	99.31
277.957	79.31
278.189	84.31
278.421	72.31
278.652	97.31
278.884	82.31
279.115	84.31
279.347	96.31
279.579	83.31
279.81	89.31
280.042	74.31
280.273	101.31
280.505	98.31
280.736	91.31
280.968	84.31
281.199	85.31
281.431	94.31
281.662	97.31
281.894	98.31
282.125	116.31
282.356	132.31
282.588	145.31
282.819	124.31
283.051	88.31
283.282	81.31
283.513	83.31
283.745	92.31
283.976	95.31
284.207	85.31
284.439	92.31
284.67	100.31
284.901	86.31
285.132	78.31
285.364	94.31
285.595	87.31
285.826	93.31
286.057	92.31
286.288	88.31
286.52	94.31
286.751	87.31
286.982	93.31
287.213	93.31
287.444	85.31
287.675	93.31
287.906	87.31
288.138	99.31
288.369	87.31
288.6	84.31
288.831	99.31
289.062	96.31
289.293	87.31
289.524	88.31
289.755	95.31
289.986	97.31
290.217	83.31
290.448	88.31
290.679	80.31
290.91	89.31
291.141	105.31
291.371	83.31
291.602	106.31
291.833	96.31
292.064	96.31
292.295	77.31
292.526	99.31
292.757	92.31
292.987	82.31
293.218	93.31
293.449	99.31
293.68	89.31
293.91	88.31
294.141	96.31
294.372	91.31
294.603	96.31
294.833	82.31
295.064	99.31
295.295	95.31
295.525	96.31
295.756	120.31
295.987	117.31
296.217	160.31
296.448	137.31
296.679	117.31
296.909	89.31
297.14	80.31
297.37	86.31
297.601	100.31
297.831	84.31
298.062	93.31
298.292	94.31
298.523	83.31
298.753	101.31
298.984	95.31
299.214	90.31
299.445	102.31
299.675	99.31
299.905	104.31
300.136	104.31
300.366	106.31
300.597	75.31
300.827	101.31
301.057	106.31
301.288	106.31
301.518	107.31
301.748	95.31
301.979	111.31
302.209	85.31
302.439	95.31
302.669	89.31
302.9	88.31
303.13	93.31
303.36	101.31
303.59	96.31
303.82	113.31
304.051	97.31
304.281	91.31
304.511	89.31
304.741	89.31
304.971	91.31
305.201	87.31
305.431	104.31
305.661	102.31
305.891	111.31
306.121	87.31
306.352	102.31
306.582	108.31
306.812	93.31
307.042	100.31
307.272	97.31
307.502	100.31
307.731	98.31
307.961	102.31
308.191	108.31
308.421	86.31
308.651	94.31
308.881	94.31
309.111	96.31
309.341	90.31
309.571	103.31
309.8	101.31
310.03	108.31
310.26	100.31
310.49	100.31
310.72	107.31
310.949	95.31
311.179	117.31
311.409	102.31
311.639	93.31
311.868	86.31
312.098	107.31
312.328	104.31
312.557	103.31
312.787	103.31
313.017	115.31
313.246	100.31
313.476	96.31
313.706	99.31
313.935	95.31
314.165	101.31
314.394	109.31
314.624	101.31
314.853	101.31
315.083	103.31
315.312	102.31
315.542	87.31
315.771	107.31
316.001	99.31
316.23	88.31
316.46	93.31
316.689	99.31
316.919	83.31
317.148	102.31
317.377	91.31
317.607	97.31
317.836	92.31
318.065	84.31
318.295	91.31
318.524	85.31
318.753	93.31
318.983	99.31
319.212	114.31
319.441	122.31
319.67	114.31
319.9	94.31
320.129	89.31
320.358	89.31
320.587	93.31
320.816	91.31
321.046	103.31
321.275	109.31
321.504	96.31
321.733	101.31
321.962	93.31
322.191	112.31
322.42	103.31
322.649	114.31
322.878	125.31
323.108	124.31
323.337	136.31
323.566	137.31
323.795	181.31
324.024	247.31
324.253	507.31
324.482	1107.31
324.71	2292.31
324.939	2977.31
325.168	1067.31
325.397	280.31
325.626	177.31
325.855	148.31
326.084	147.31
326.313	131.31
326.542	172.31
326.77	281.31
326.999	592.31
327.228	1218.31
327.457	2286.31
327.686	1750.31
327.914	454.31
328.143	215.31
328.372	161.31
328.6	139.31
328.829	130.31
329.058	150.31
329.287	135.31
329.515	111.31
329.744	106.31
329.972	108.31
330.201	111.31
330.43	143.31
330.658	154.31
330.887	153.31
331.115	149.31
331.344	105.31
331.572	108.31
331.801	125.31
332.03	107.31
332.258	95.31
332.486	87.31
332.715	100.31
332.943	91.31
333.172	85.31
333.4	105.31
333.629	104.31
333.857	117.31
334.085	107.31
334.314	106.31
334.542	147.31
334.771	132.31
334.999	111.31
335.227	99.31
335.455	84.31
335.684	89.31
335.912	104.31
336.14	100.31
336.369	98.31
336.597	92.31
336.825	105.31
337.053	89.31
337.281	91.31
337.51	111.31
337.738	111.31
337.966	102.31
338.194	118.31
338.422	97.31
338.65	102.31
338.878	98.31
339.106	92.31
339.334	85.31
339.562	81.31
339.79	87.31
340.018	80.31
340.246	96.31
340.474	94.31
340.702	99.31
340.93	92.31
341.158	85.31
341.386	103.31
341.614	99.31
341.842	96.31
342.07	105.31
342.298	89.31
342.526	90.31
342.754	87.31
342.981	91.31
343.209	89.31
343.437	107.31
343.665	96.31
343.893	89.31
344.12	97.31
344.348	93.31
344.576	97.31
344.804	101.31
345.031	103.31
345.259	111.31
345.487	102.31
345.714	85.31
345.942	93.31
346.17	98.31
346.397	91.31
346.625	85.31
346.853	101.31
347.08	77.31
347.308	93.31
347.535	99.31
347.763	108.31
347.99	96.31
348.218	111.31
348.445	106.31
348.673	104.31
348.9	89.31
349.128	87.31
349.355	91.31
349.583	102.31
349.81	100.31
350.037	94.31
350.265	87.31
350.492	101.31
350.72	107.31
350.947	119.31
351.174	115.31
351.402	118.31
351.629	105.31
351.856	101.31
352.083	110.31
352.311	100.31
352.538	93.31
352.765	104.31
352.992	110.31
353.22	114.31
353.447	108.31
353.674	97.31
353.901	96.31
354.128	94.31
354.355	113.31
354.583	102.31
354.81	95.31
355.037	93.31
355.264	94.31
355.491	92.31
355.718	100.31
355.945	99.31
356.172	87.31
356.399	92.31
356.626	84.31
356.853	89.31
357.08	84.31
357.307	94.31
357.534	88.31
357.761	95.31
357.988	96.31
358.215	104.31
358.441	95.31
358.668	100.31
358.895	91.31
359.122	102.31
359.349	92.31
359.576	86.31
359.802	111.31
360.029	124.31
360.256	129.31
360.483	105.31
360.709	74.31
360.936	93.31
361.163	103.31
361.39	92.31
361.616	89.31
361.843	88.31
362.07	103.31
362.296	87.31
362.523	99.31
362.749	103.31
362.976	79.31
363.203	99.31
363.429	97.31
363.656	95.31
363.882	94.31
364.109	79.31
364.335	111.31
364.562	95.31
364.788	87.31
365.015	99.31
365.241	95.31
365.468	112.31
365.694	94.31
365.92	114.31
366.147	87.31
366.373	89.31
366.599	85.31
366.826	87.31
367.052	84.31
367.278	93.31
367.505	103.31
367.731	77.31
367.957	92.31
368.184	83.31
368.41	97.31
368.636	126.31
368.862	123.31
369.089	104.31
369.315	102.31
369.541	89.31
369.767	96.31
369.993	89.31
370.219	95.31
370.445	93.31
370.672	92.31
370.898	89.31
371.124	87.31
371.35	85.31
371.576	85.31
371.802	104.31
372.028	89.31
372.254	93.31
372.48	92.31
372.706	89.31
372.932	94.31
373.158	87.31
373.384	90.31
373.61	63.31
373.835	86.31
374.061	90.31
374.287	99.31
374.513	107.31
374.739	95.31
374.965	76.31
375.191	79.31
375.416	98.31
375.642	103.31
375.868	104.31
376.094	103.31
376.319	86.31
376.545	100.31
376.771	109.31
376.997	90.31
377.222	83.31
377.448	83.31
377.674	93.31
377.899	81.31
378.125	88.31
378.35	92.31
378.576	93.31
378.802	87.31
379.027	97.31
379.253	102.31
379.478	91.31
379.704	95.31
379.929	110.31
380.155	79.31
380.38	87.31
380.606	89.31
380.831	87.31
381.057	85.31
381.282	101.31
381.507	100.31
381.733	107.31
381.958	99.31
382.184	107.31
382.409	95.31
382.634	109.31
382.86	98.31
383.085	93.31
383.31	93.31
383.535	108.31
383.761	103.31
383.986	104.31
384.211	110.31
384.436	107.31
384.662	105.31
384.887	95.31
385.112	111.31
385.337	94.31
385.562	101.31
385.787	112.31
386.013	117.31
386.238	121.31
386.463	111.31
386.688	89.31
386.913	108.31
387.138	118.31
387.363	100.31
387.588	83.31
387.813	101.31
388.038	99.31
388.263	110.31
388.488	117.31
388.713	92.31
388.938	92.31
389.163	86.31
389.387	93.31
389.612	97.31
389.837	85.31
390.062	103.31
390.287	86.31
390.512	94.31
390.736	94.31
390.961	92.31
391.186	100.31
391.411	100.31
391.636	101.31
391.86	85.31
392.085	84.31
392.31	83.31
392.534	89.31
392.759	99.31
392.984	75.31
393.208	84.31
393.433	96.31
393.658	96.31
393.882	87.31
394.107	86.31
394.331	85.31
394.556	81.31
394.78	83.31
395.005	89.31
395.229	92.31
395.454	83.31
395.678	96.31
395.903	76.31
396.127	86.31
396.352	110.31
396.576	97.31
396.801	83.31
397.025	96.31
397.249	93.31
397.474	86.31
397.698	99.31
397.922	84.31
398.147	87.31
398.371	97.31
398.595	85.31
398.82	96.31
399.044	83.31
399.268	79.31
399.492	91.31
399.717	92.31
399.941	99.31
400.165	94.31
400.389	79.31
400.613	82.31
400.837	70.31
401.062	88.31
401.286	75.31
401.51	82.31
401.734	92.31
401.958	101.31
402.182	140.31
402.406	177.31
402.63	119.31
402.854	84.31
403.078	97.31
403.302	99.31
403.526	84.31
403.75	106.31
403.974	83.31
404.198	94.31
404.422	76.31
404.645	94.31
404.869	102.31
405.093	109.31
405.317	102.31
405.541	108.31
405.765	120.31
405.988	112.31
406.212	195.31
406.436	237.31
406.66	159.31
406.883	102.31
407.107	111.31
407.331	96.31
407.555	99.31
407.778	106.31
408.002	100.31
408.226	86.31
408.449	99.31
408.673	101.31
408.896	87.31
409.12	96.31
409.344	86.31
409.567	87.31
409.791	95.31
410.014	98.31
410.238	94.31
410.461	85.31
410.685	109.31
410.908	87.31
411.132	109.31
411.355	95.31
411.578	88.31
411.802	96.31
412.025	94.31
412.249	89.31
412.472	105.31
412.695	102.31
412.919	103.31
413.142	95.31
413.365	89.31
413.589	93.31
413.812	81.31
414.035	89.31
414.258	86.31
414.482	86.31
414.705	88.31
414.928	108.31
415.151	87.31
415.374	104.31
415.597	94.31
415.821	96.31
416.044	82.31
416.267	85.31
416.49	81.31
416.713	100.31
416.936	93.31
417.159	100.31
417.382	94.31
417.605	74.31
417.828	95.31
418.051	94.31
418.274	79.31
418.497	89.31
418.72	75.31
418.943	87.31
419.166	94.31
419.389	90.31
419.611	88.31
419.834	89.31
420.057	82.31
420.28	95.31
420.503	77.31
420.726	99.31
420.948	88.31
421.171	97.31
421.394	77.31
421.617	86.31
421.839	87.31
422.062	85.31
422.285	91.31
422.507	111.31
422.73	97.31
422.953	98.31
423.175	99.31
423.398	85.31
423.621	96.31
423.843	87.31
424.066	96.31
424.288	84.31
424.511	86.31
424.733	101.31
424.956	107.31
425.178	97.31
425.401	106.31
425.623	92.31
425.846	88.31
426.068	99.31
426.291	86.31
426.513	87.31
426.735	94.31
426.958	99.31
427.18	127.31
427.402	136.31
427.625	196.31
427.847	167.31
428.069	113.31
428.292	88.31
428.514	107.31
428.736	87.31
428.958	97.31
429.181	102.31
429.403	96.31
429.625	96.31
429.847	93.31
430.069	116.31
430.292	103.31
430.514	99.31
430.736	92.31
430.958	93.31
431.18	87.31
431.402	103.31
431.624	85.31
431.846	95.31
432.068	86.31
432.29	85.31
432.512	94.31
432.734	95.31
432.956	97.31
433.178	101.31
433.4	103.31
433.622	95.31
433.844	92.31
434.066	85.31
434.287	114.31
434.509	92.31
434.731	77.31
434.953	98.31
435.175	89.31
435.397	107.31
435.618	99.31
435.84	117.31
436.062	142.31
436.284	120.31
436.505	110.31
436.727	113.31
436.949	93.31
437.17	101.31
437.392	96.31
437.614	99.31
437.835	102.31
438.057	127.31
438.278	119.31
438.5	102.31
438.721	125.31
438.943	112.31
439.165	84.31
439.386	87.31
439.608	95.31
439.829	94.31
440.05	113.31
440.272	177.31
440.493	107.31
440.715	88.31
440.936	89.31
441.158	101.31
441.379	99.31
441.6	86.31
441.822	96.31
442.043	105.31
442.264	102.31
442.486	105.31
442.707	97.31
442.928	112.31
443.149	111.31
443.371	142.31
443.592	104.31
443.813	120.31
444.034	114.31
444.255	95.31
444.476	103.31
444.698	84.31
444.919	92.31
445.14	124.31
445.361	133.31
445.582	132.31
445.803	152.31
446.024	141.31
446.245	140.31
446.466	111.31
446.687	93.31
446.908	89.31
447.129	93.31
447.35	85.31
447.571	86.31
447.792	93.31
448.013	106.31
448.234	115.31
448.455	103.31
448.675	102.31
448.896	120.31
449.117	95.31
449.338	107.31
449.559	136.31
449.779	123.31
450	87.31
450.221	86.31
450.442	95.31
450.662	115.31
450.883	125.31
451.104	102.31
451.324	112.31
451.545	81.31
451.766	86.31
451.986	92.31
452.207	89.31
452.428	97.31
452.648	99.31
452.869	121.31
453.089	127.31
453.31	121.31
453.53	94.31
453.751	94.31
453.971	105.31
454.192	112.31
454.412	95.31
454.633	87.31
454.853	88.31
455.073	87.31
455.294	97.31
455.514	109.31
455.734	89.31
455.955	80.31
456.175	81.31
456.395	98.31
456.616	90.31
456.836	78.31
457.056	90.31
457.276	95.31
457.497	82.31
457.717	89.31
457.937	80.31
458.157	99.31
458.377	99.31
458.598	108.31
458.818	149.31
459.038	165.31
459.258	128.31
459.478	100.31
459.698	86.31
459.918	93.31
460.138	86.31
460.358	85.31
460.578	78.31
460.798	99.31
461.018	101.31
461.238	95.31
461.458	87.31
461.678	97.31
461.898	89.31
462.118	89.31
462.338	78.31
462.558	89.31
462.777	76.31
462.997	94.31
463.217	89.31
463.437	97.31
463.657	100.31
463.876	90.31
464.096	92.31
464.316	102.31
464.536	99.31
464.755	99.31
464.975	110.31
465.195	181.31
465.414	187.31
465.634	101.31
465.854	81.31
466.073	81.31
466.293	77.31
466.512	87.31
466.732	85.31
466.951	93.31
467.171	99.31
467.391	95.31
467.61	110.31
467.829	113.31
468.049	98.31
468.268	127.31
468.488	82.31
468.707	86.31
468.927	84.31
469.146	99.31
469.365	94.31
469.585	92.31
469.804	119.31
470.023	101.31
470.243	104.31
470.462	100.31
470.681	108.31
470.901	102.31
471.12	103.31
471.339	94.31
471.558	81.31
471.777	88.31
471.997	92.31
472.216	123.31
472.435	157.31
472.654	106.31
472.873	74.31
473.092	84.31
473.311	83.31
473.53	93.31
473.749	89.31
473.968	99.31
474.187	96.31
474.406	100.31
474.625	89.31
474.844	86.31
475.063	86.31
475.282	92.31
475.501	71.31
475.72	98.31
475.939	81.31
476.158	93.31
476.377	100.31
476.596	99.31
476.814	104.31
477.033	104.31
477.252	101.31
477.471	98.31
477.69	100.31
477.908	95.31
478.127	84.31
478.346	87.31
478.564	100.31
478.783	93.31
479.002	100.31
479.22	93.31
479.439	113.31
479.658	112.31
479.876	101.31
480.095	97.31
480.313	110.31
480.532	89.31
480.751	88.31
480.969	103.31
481.188	221.31
481.406	149.31
481.624	93.31
481.843	85.31
482.061	80.31
482.28	89.31
482.498	90.31
482.717	79.31
482.935	91.31
483.153	91.31
483.372	80.31
483.59	89.31
483.808	117.31
484.027	87.31
484.245	102.31
484.463	93.31
484.681	98.31
484.9	97.31
485.118	103.31
485.336	91.31
485.554	119.31
485.772	112.31
485.99	104.31
486.209	95.31
486.427	112.31
486.645	114.31
486.863	111.31
487.081	111.31
487.299	108.31
487.517	100.31
487.735	95.31
487.953	89.31
488.171	108.31
488.389	104.31
488.607	105.31
488.825	100.31
489.043	89.31
489.261	88.31
489.479	92.31
489.696	77.31
489.914	86.31
490.132	81.31
490.35	97.31
490.568	86.31
490.786	83.31
491.003	80.31
491.221	99.31
491.439	93.31
491.657	96.31
491.874	96.31
492.092	81.31
492.31	91.31
492.527	84.31
492.745	88.31
492.963	93.31
493.18	89.31
493.398	89.31
493.615	89.31
493.833	97.31
494.05	88.31
494.268	87.31
494.485	110.31
494.703	93.31
494.92	108.31
495.138	95.31
495.355	89.31
495.573	92.31
495.79	98.31
496.008	97.31
496.225	87.31
496.442	103.31
496.66	95.31
496.877	90.31
497.094	107.31
497.312	101.31
497.529	100.31
497.746	94.31
497.963	96.31
498.181	91.31
498.398	96.31
498.615	112.31
498.832	109.31
499.049	94.31
499.267	90.31
499.484	95.31
499.701	96.31
499.918	86.31
500.135	102.31
500.352	81.31
500.569	96.31
500.786	88.31
501.003	93.31
501.22	98.31
501.437	107.31
501.654	101.31
501.871	112.31
502.088	95.31
502.305	105.31
502.522	103.31
502.739	94.31
502.956	92.31
503.172	94.31
503.389	99.31
503.606	96.31
503.823	93.31
504.04	95.31
504.256	97.31
504.473	89.31
504.69	97.31
504.907	84.31
505.123	87.31
505.34	98.31
505.557	95.31
505.773	91.31
505.99	94.31
506.207	93.31
506.423	101.31
506.64	84.31
506.856	94.31
507.073	99.31
507.289	100.31
507.506	102.31
507.722	127.31
507.939	104.31
508.155	105.31
508.372	115.31
508.588	96.31
508.805	99.31
509.021	103.31
509.238	107.31
509.454	96.31
509.67	127.31
509.887	114.31
510.103	143.31
510.319	246.31
510.536	859.31
510.752	2920.31
510.968	799.31
511.184	175.31
511.401	127.31
511.617	116.31
511.833	99.31
512.049	96.31
512.265	95.31
512.481	97.31
512.698	102.31
512.914	96.31
513.13	91.31
513.346	98.31
513.562	89.31
513.778	94.31
513.994	91.31
514.21	107.31
