Data from Circ_2006_H10_HRD10591_00036.txt Node
Date: Wed Jan 03 10:26:11 EST 2024
User: Yrep
Spectrometer: HR+D1059
Trigger mode: 1
Integration Time (sec): 1.000000E-1
Scans to average: 1
Electric dark correction enabled: true
Nonlinearity correction enabled: false
Boxcar width: 0
XAxis mode: Wavelengths
Number of Pixels in Spectrum: 2048
>>>>>Begin Spectral Data<<<<<
223.165	-11.19
223.4	-11.19
223.635	-11.19
223.869	-13.19
224.104	-16.19
224.338	-8.19
224.573	-36.19
224.808	-4.19
225.042	3.81
225.277	3.81
225.511	-14.19
225.746	0.81
225.98	-4.19
226.215	5.81
226.449	15.81
226.683	11.81
226.918	35.81
227.152	29.81
227.387	41.81
227.621	40.81
227.856	43.81
228.09	25.81
228.324	30.81
228.559	45.81
228.793	64.81
229.027	61.81
229.262	57.81
229.496	83.81
229.73	92.81
229.964	72.81
230.199	74.81
230.433	77.81
230.667	63.81
230.901	87.81
231.136	91.81
231.37	71.81
231.604	79.81
231.838	75.81
232.072	75.81
232.306	70.81
232.541	73.81
232.775	90.81
233.009	90.81
233.243	71.81
233.477	85.81
233.711	96.81
233.945	74.81
234.179	69.81
234.413	77.81
234.647	77.81
234.881	77.81
235.115	91.81
235.349	80.81
235.583	82.81
235.817	91.81
236.051	82.81
236.285	76.81
236.519	67.81
236.753	71.81
236.987	65.81
237.221	98.81
237.455	91.81
237.689	92.81
237.922	79.81
238.156	65.81
238.39	79.81
238.624	73.81
238.858	80.81
239.091	75.81
239.325	81.81
239.559	82.81
239.793	81.81
240.027	69.81
240.26	66.81
240.494	78.81
240.728	82.81
240.961	84.81
241.195	84.81
241.429	73.81
241.662	78.81
241.896	89.81
242.13	85.81
242.363	77.81
242.597	77.81
242.83	79.81
243.064	71.81
243.298	77.81
243.531	80.81
243.765	81.81
243.998	87.81
244.232	66.81
244.465	84.81
244.699	72.81
244.932	80.81
245.166	74.81
245.399	79.81
245.633	69.81
245.866	80.81
246.099	70.81
246.333	74.81
246.566	74.81
246.8	67.81
247.033	74.81
247.266	71.81
247.5	82.81
247.733	72.81
247.966	80.81
248.2	84.81
248.433	75.81
248.666	77.81
248.899	73.81
249.133	83.81
249.366	100.81
249.599	92.81
249.832	76.81
250.066	72.81
250.299	72.81
250.532	58.81
250.765	72.81
250.998	69.81
251.231	73.81
251.465	79.81
251.698	85.81
251.931	76.81
252.164	90.81
252.397	75.81
252.63	77.81
252.863	64.81
253.096	87.81
253.329	89.81
253.562	88.81
253.795	72.81
254.028	92.81
254.261	77.81
254.494	80.81
254.727	94.81
254.96	80.81
255.193	87.81
255.426	91.81
255.659	80.81
255.892	80.81
256.124	68.81
256.357	70.81
256.59	77.81
256.823	81.81
257.056	86.81
257.289	103.81
257.521	85.81
257.754	65.81
257.987	83.81
258.22	85.81
258.452	71.81
258.685	80.81
258.918	73.81
259.151	73.81
259.383	89.81
259.616	87.81
259.849	75.81
260.081	85.81
260.314	83.81
260.547	78.81
260.779	84.81
261.012	87.81
261.244	80.81
261.477	93.81
261.71	99.81
261.942	121.81
262.175	127.81
262.407	78.81
262.64	75.81
262.872	96.81
263.105	84.81
263.337	94.81
263.57	73.81
263.802	86.81
264.035	81.81
264.267	82.81
264.499	75.81
264.732	78.81
264.964	91.81
265.197	80.81
265.429	88.81
265.661	85.81
265.894	90.81
266.126	73.81
266.358	88.81
266.591	77.81
266.823	78.81
267.055	86.81
267.287	85.81
267.52	74.81
267.752	80.81
267.984	96.81
268.216	83.81
268.448	92.81
268.681	65.81
268.913	85.81
269.145	86.81
269.377	57.81
269.609	81.81
269.841	74.81
270.073	82.81
270.306	85.81
270.538	84.81
270.77	88.81
271.002	88.81
271.234	84.81
271.466	88.81
271.698	82.81
271.93	81.81
272.162	94.81
272.394	91.81
272.626	75.81
272.858	89.81
273.09	83.81
273.322	96.81
273.553	97.81
273.785	84.81
274.017	91.81
274.249	87.81
274.481	78.81
274.713	89.81
274.945	99.81
275.176	96.81
275.408	82.81
275.64	78.81
275.872	80.81
276.104	91.81
276.335	87.81
276.567	94.81
276.799	107.81
277.031	105.81
277.262	89.81
277.494	88.81
277.726	95.81
277.957	88.81
278.189	83.81
278.421	74.81
278.652	88.81
278.884	72.81
279.115	83.81
279.347	95.81
279.579	84.81
279.81	83.81
280.042	72.81
280.273	85.81
280.505	83.81
280.736	90.81
280.968	89.81
281.199	93.81
281.431	82.81
281.662	83.81
281.894	88.81
282.125	96.81
282.356	115.81
282.588	159.81
282.819	119.81
283.051	91.81
283.282	86.81
283.513	90.81
283.745	91.81
283.976	80.81
284.207	78.81
284.439	82.81
284.67	92.81
284.901	83.81
285.132	79.81
285.364	92.81
285.595	79.81
285.826	73.81
286.057	85.81
286.288	90.81
286.52	93.81
286.751	78.81
286.982	78.81
287.213	91.81
287.444	95.81
287.675	94.81
287.906	84.81
288.138	84.81
288.369	99.81
288.6	80.81
288.831	85.81
289.062	92.81
289.293	78.81
289.524	61.81
289.755	69.81
289.986	91.81
290.217	98.81
290.448	91.81
290.679	88.81
290.91	82.81
291.141	74.81
291.371	89.81
291.602	87.81
291.833	89.81
292.064	85.81
292.295	80.81
292.526	70.81
292.757	95.81
292.987	93.81
293.218	89.81
293.449	77.81
293.68	89.81
293.91	86.81
294.141	90.81
294.372	77.81
294.603	71.81
294.833	75.81
295.064	93.81
295.295	84.81
295.525	84.81
295.756	98.81
295.987	139.81
296.217	147.81
296.448	137.81
296.679	84.81
296.909	92.81
297.14	85.81
297.37	82.81
297.601	81.81
297.831	85.81
298.062	84.81
298.292	89.81
298.523	108.81
298.753	98.81
298.984	81.81
299.214	77.81
299.445	97.81
299.675	90.81
299.905	99.81
300.136	92.81
300.366	73.81
300.597	78.81
300.827	96.81
301.057	101.81
301.288	125.81
301.518	91.81
301.748	82.81
301.979	100.81
302.209	87.81
302.439	87.81
302.669	94.81
302.9	87.81
303.13	87.81
303.36	84.81
303.59	102.81
303.82	102.81
304.051	90.81
304.281	86.81
304.511	86.81
304.741	90.81
304.971	94.81
305.201	95.81
305.431	83.81
305.661	87.81
305.891	96.81
306.121	92.81
306.352	111.81
306.582	92.81
306.812	95.81
307.042	77.81
307.272	105.81
307.502	108.81
307.731	105.81
307.961	91.81
308.191	99.81
308.421	88.81
308.651	88.81
308.881	87.81
309.111	92.81
309.341	92.81
309.571	96.81
309.8	90.81
310.03	107.81
310.26	98.81
310.49	92.81
310.72	108.81
310.949	117.81
311.179	103.81
311.409	108.81
311.639	91.81
311.868	107.81
312.098	101.81
312.328	103.81
312.557	107.81
312.787	109.81
313.017	113.81
313.246	98.81
313.476	91.81
313.706	92.81
313.935	98.81
314.165	96.81
314.394	112.81
314.624	99.81
314.853	111.81
315.083	92.81
315.312	87.81
315.542	92.81
315.771	95.81
316.001	102.81
316.23	81.81
316.46	85.81
316.689	93.81
316.919	96.81
317.148	97.81
317.377	109.81
317.607	113.81
317.836	85.81
318.065	100.81
318.295	104.81
318.524	91.81
318.753	85.81
318.983	96.81
319.212	97.81
319.441	120.81
319.67	108.81
319.9	90.81
320.129	97.81
320.358	103.81
320.587	103.81
320.816	88.81
321.046	104.81
321.275	104.81
321.504	96.81
321.733	97.81
321.962	105.81
322.191	99.81
322.42	123.81
322.649	120.81
322.878	123.81
323.108	135.81
323.337	152.81
323.566	165.81
323.795	177.81
324.024	274.81
324.253	559.81
324.482	1292.81
324.71	2747.81
324.939	3603.81
325.168	1254.81
325.397	329.81
325.626	201.81
325.855	146.81
326.084	155.81
326.313	144.81
326.542	187.81
326.77	308.81
326.999	671.81
327.228	1508.81
327.457	2739.81
327.686	2103.81
327.914	531.81
328.143	259.81
328.372	187.81
328.6	156.81
328.829	135.81
329.058	151.81
329.287	160.81
329.515	117.81
329.744	104.81
329.972	118.81
330.201	111.81
330.43	125.81
330.658	143.81
330.887	183.81
331.115	145.81
331.344	111.81
331.572	112.81
331.801	96.81
332.03	101.81
332.258	93.81
332.486	91.81
332.715	96.81
332.943	95.81
333.172	100.81
333.4	89.81
333.629	100.81
333.857	113.81
334.085	110.81
334.314	124.81
334.542	130.81
334.771	127.81
334.999	99.81
335.227	109.81
335.455	97.81
335.684	96.81
335.912	96.81
336.14	78.81
336.369	97.81
336.597	106.81
336.825	95.81
337.053	100.81
337.281	95.81
337.51	89.81
337.738	79.81
337.966	89.81
338.194	88.81
338.422	105.81
338.65	114.81
338.878	90.81
339.106	86.81
339.334	96.81
339.562	100.81
339.79	85.81
340.018	102.81
340.246	79.81
340.474	90.81
340.702	90.81
340.93	114.81
341.158	96.81
341.386	83.81
341.614	101.81
341.842	112.81
342.07	92.81
342.298	79.81
342.526	87.81
342.754	90.81
342.981	85.81
343.209	86.81
343.437	93.81
343.665	82.81
343.893	89.81
344.12	76.81
344.348	84.81
344.576	91.81
344.804	101.81
345.031	104.81
345.259	99.81
345.487	96.81
345.714	98.81
345.942	83.81
346.17	85.81
346.397	109.81
346.625	95.81
346.853	104.81
347.08	83.81
347.308	97.81
347.535	106.81
347.763	96.81
347.99	110.81
348.218	97.81
348.445	116.81
348.673	109.81
348.9	99.81
349.128	90.81
349.355	94.81
349.583	94.81
349.81	96.81
350.037	94.81
350.265	87.81
350.492	96.81
350.72	94.81
350.947	103.81
351.174	100.81
351.402	107.81
351.629	108.81
351.856	104.81
352.083	95.81
352.311	103.81
352.538	116.81
352.765	103.81
352.992	105.81
353.22	124.81
353.447	115.81
353.674	96.81
353.901	84.81
354.128	92.81
354.355	86.81
354.583	85.81
354.81	95.81
355.037	84.81
355.264	91.81
355.491	87.81
355.718	90.81
355.945	80.81
356.172	104.81
356.399	92.81
356.626	87.81
356.853	93.81
357.08	97.81
357.307	87.81
357.534	78.81
357.761	89.81
357.988	107.81
358.215	92.81
358.441	85.81
358.668	90.81
358.895	92.81
359.122	89.81
359.349	85.81
359.576	95.81
359.802	98.81
360.029	123.81
360.256	125.81
360.483	103.81
360.709	93.81
360.936	92.81
361.163	109.81
361.39	104.81
361.616	96.81
361.843	94.81
362.07	93.81
362.296	84.81
362.523	90.81
362.749	93.81
362.976	97.81
363.203	103.81
363.429	97.81
363.656	78.81
363.882	102.81
364.109	97.81
364.335	99.81
364.562	101.81
364.788	96.81
365.015	104.81
365.241	92.81
365.468	107.81
365.694	98.81
365.92	108.81
366.147	102.81
366.373	93.81
366.599	87.81
366.826	84.81
367.052	99.81
367.278	91.81
367.505	96.81
367.731	100.81
367.957	89.81
368.184	96.81
368.41	96.81
368.636	126.81
368.862	148.81
369.089	117.81
369.315	95.81
369.541	73.81
369.767	84.81
369.993	83.81
370.219	79.81
370.445	90.81
370.672	82.81
370.898	98.81
371.124	104.81
371.35	90.81
371.576	94.81
371.802	90.81
372.028	97.81
372.254	79.81
372.48	81.81
372.706	86.81
372.932	95.81
373.158	83.81
373.384	103.81
373.61	100.81
373.835	87.81
374.061	86.81
374.287	96.81
374.513	90.81
374.739	96.81
374.965	91.81
375.191	79.81
375.416	99.81
375.642	86.81
375.868	88.81
376.094	90.81
376.319	93.81
376.545	84.81
376.771	92.81
376.997	92.81
377.222	77.81
377.448	87.81
377.674	92.81
377.899	89.81
378.125	96.81
378.35	93.81
378.576	86.81
378.802	94.81
379.027	93.81
379.253	83.81
379.478	96.81
379.704	91.81
379.929	89.81
380.155	107.81
380.38	101.81
380.606	91.81
380.831	93.81
381.057	100.81
381.282	89.81
381.507	100.81
381.733	92.81
381.958	92.81
382.184	97.81
382.409	85.81
382.634	104.81
382.86	105.81
383.085	110.81
383.31	105.81
383.535	108.81
383.761	103.81
383.986	90.81
384.211	114.81
384.436	96.81
384.662	84.81
384.887	95.81
385.112	109.81
385.337	106.81
385.562	110.81
385.787	105.81
386.013	113.81
386.238	129.81
386.463	114.81
386.688	107.81
386.913	99.81
387.138	116.81
387.363	98.81
387.588	88.81
387.813	100.81
388.038	97.81
388.263	116.81
388.488	104.81
388.713	108.81
388.938	83.81
389.163	95.81
389.387	83.81
389.612	100.81
389.837	95.81
390.062	94.81
390.287	95.81
390.512	82.81
390.736	88.81
390.961	93.81
391.186	87.81
391.411	83.81
391.636	82.81
391.86	96.81
392.085	78.81
392.31	79.81
392.534	75.81
392.759	84.81
392.984	85.81
393.208	82.81
393.433	98.81
393.658	79.81
393.882	87.81
394.107	79.81
394.331	84.81
394.556	77.81
394.78	86.81
395.005	91.81
395.229	90.81
395.454	92.81
395.678	85.81
395.903	100.81
396.127	77.81
396.352	81.81
396.576	84.81
396.801	100.81
397.025	95.81
397.249	90.81
397.474	88.81
397.698	99.81
397.922	82.81
398.147	84.81
398.371	85.81
398.595	73.81
398.82	86.81
399.044	94.81
399.268	85.81
399.492	83.81
399.717	85.81
399.941	77.81
400.165	96.81
400.389	96.81
400.613	100.81
400.837	94.81
401.062	88.81
401.286	112.81
401.51	78.81
401.734	97.81
401.958	111.81
402.182	149.81
402.406	187.81
402.63	113.81
402.854	103.81
403.078	96.81
403.302	78.81
403.526	93.81
403.75	92.81
403.974	88.81
404.198	93.81
404.422	73.81
404.645	95.81
404.869	97.81
405.093	101.81
405.317	105.81
405.541	112.81
405.765	107.81
405.988	131.81
406.212	212.81
406.436	275.81
406.66	180.81
406.883	111.81
407.107	97.81
407.331	101.81
407.555	103.81
407.778	118.81
408.002	83.81
408.226	75.81
408.449	85.81
408.673	86.81
408.896	98.81
409.12	102.81
409.344	100.81
409.567	97.81
409.791	91.81
410.014	102.81
410.238	92.81
410.461	88.81
410.685	93.81
410.908	81.81
411.132	107.81
411.355	99.81
411.578	99.81
411.802	91.81
412.025	92.81
412.249	78.81
412.472	98.81
412.695	96.81
412.919	86.81
413.142	96.81
413.365	90.81
413.589	82.81
413.812	82.81
414.035	92.81
414.258	81.81
414.482	79.81
414.705	96.81
414.928	100.81
415.151	94.81
415.374	85.81
415.597	92.81
415.821	68.81
416.044	78.81
416.267	86.81
416.49	98.81
416.713	85.81
416.936	85.81
417.159	90.81
417.382	79.81
417.605	82.81
417.828	101.81
418.051	80.81
418.274	73.81
418.497	84.81
418.72	85.81
418.943	66.81
419.166	89.81
419.389	97.81
419.611	78.81
419.834	84.81
420.057	90.81
420.28	87.81
420.503	90.81
420.726	91.81
420.948	100.81
421.171	99.81
421.394	107.81
421.617	89.81
421.839	96.81
422.062	91.81
422.285	87.81
422.507	108.81
422.73	119.81
422.953	106.81
423.175	88.81
423.398	92.81
423.621	86.81
423.843	84.81
424.066	89.81
424.288	90.81
424.511	90.81
424.733	96.81
424.956	130.81
425.178	99.81
425.401	100.81
425.623	91.81
425.846	95.81
426.068	94.81
426.291	92.81
426.513	100.81
426.735	94.81
426.958	92.81
427.18	115.81
427.402	174.81
427.625	210.81
427.847	152.81
428.069	109.81
428.292	93.81
428.514	90.81
428.736	81.81
428.958	83.81
429.181	88.81
429.403	84.81
429.625	83.81
429.847	83.81
430.069	102.81
430.292	100.81
430.514	73.81
430.736	86.81
430.958	76.81
431.18	77.81
431.402	89.81
431.624	91.81
431.846	77.81
432.068	89.81
432.29	93.81
432.512	90.81
432.734	96.81
432.956	97.81
433.178	109.81
433.4	101.81
433.622	96.81
433.844	92.81
434.066	74.81
434.287	92.81
434.509	99.81
434.731	87.81
434.953	94.81
435.175	85.81
435.397	82.81
435.618	94.81
435.84	96.81
436.062	129.81
436.284	144.81
436.505	104.81
436.727	104.81
436.949	87.81
437.17	92.81
437.392	97.81
437.614	104.81
437.835	113.81
438.057	135.81
438.278	127.81
438.5	105.81
438.721	146.81
438.943	95.81
439.165	97.81
439.386	92.81
439.608	99.81
439.829	98.81
440.05	139.81
440.272	164.81
440.493	104.81
440.715	96.81
440.936	82.81
441.158	77.81
441.379	88.81
441.6	88.81
441.822	104.81
442.043	96.81
442.264	110.81
442.486	100.81
442.707	88.81
442.928	121.81
443.149	149.81
443.371	160.81
443.592	125.81
443.813	107.81
444.034	111.81
444.255	103.81
444.476	88.81
444.698	93.81
444.919	90.81
445.14	137.81
445.361	135.81
445.582	133.81
445.803	160.81
446.024	176.81
446.245	154.81
446.466	121.81
446.687	99.81
446.908	89.81
447.129	85.81
447.35	92.81
447.571	98.81
447.792	82.81
448.013	106.81
448.234	121.81
448.455	120.81
448.675	123.81
448.896	126.81
449.117	104.81
449.338	106.81
449.559	157.81
449.779	148.81
450	107.81
450.221	100.81
450.442	78.81
450.662	107.81
450.883	99.81
451.104	117.81
451.324	105.81
451.545	83.81
451.766	85.81
451.986	88.81
452.207	88.81
452.428	97.81
452.648	110.81
452.869	113.81
453.089	132.81
453.31	132.81
453.53	109.81
453.751	86.81
453.971	105.81
454.192	127.81
454.412	90.81
454.633	85.81
454.853	86.81
455.073	91.81
455.294	92.81
455.514	106.81
455.734	90.81
455.955	84.81
456.175	75.81
456.395	81.81
456.616	72.81
456.836	84.81
457.056	78.81
457.276	84.81
457.497	79.81
457.717	79.81
457.937	84.81
458.157	85.81
458.377	91.81
458.598	106.81
458.818	182.81
459.038	206.81
459.258	137.81
459.478	84.81
459.698	75.81
459.918	80.81
460.138	82.81
460.358	85.81
460.578	82.81
460.798	95.81
461.018	92.81
461.238	83.81
461.458	82.81
461.678	94.81
461.898	79.81
462.118	92.81
462.338	89.81
462.558	85.81
462.777	92.81
462.997	85.81
463.217	87.81
463.437	93.81
463.657	87.81
463.876	84.81
464.096	89.81
464.316	104.81
464.536	98.81
464.755	112.81
464.975	114.81
465.195	205.81
465.414	212.81
465.634	108.81
465.854	84.81
466.073	93.81
466.293	91.81
466.512	75.81
466.732	83.81
466.951	97.81
467.171	101.81
467.391	105.81
467.61	114.81
467.829	91.81
468.049	86.81
468.268	86.81
468.488	87.81
468.707	89.81
468.927	81.81
469.146	84.81
469.365	84.81
469.585	92.81
469.804	100.81
470.023	96.81
470.243	102.81
470.462	95.81
470.681	110.81
470.901	98.81
471.12	93.81
471.339	74.81
471.558	90.81
471.777	98.81
471.997	91.81
472.216	97.81
472.435	144.81
472.654	108.81
472.873	83.81
473.092	100.81
473.311	79.81
473.53	83.81
473.749	88.81
473.968	93.81
474.187	121.81
474.406	91.81
474.625	89.81
474.844	85.81
475.063	91.81
475.282	90.81
475.501	82.81
475.72	94.81
475.939	91.81
476.158	81.81
476.377	92.81
476.596	89.81
476.814	92.81
477.033	95.81
477.252	73.81
477.471	61.81
477.69	88.81
477.908	94.81
478.127	77.81
478.346	92.81
478.564	92.81
478.783	99.81
479.002	106.81
479.22	83.81
479.439	105.81
479.658	112.81
479.876	112.81
480.095	81.81
480.313	100.81
480.532	92.81
480.751	84.81
480.969	110.81
481.188	181.81
481.406	135.81
481.624	92.81
481.843	101.81
482.061	92.81
482.28	99.81
482.498	93.81
482.717	92.81
482.935	88.81
483.153	77.81
483.372	84.81
483.59	89.81
483.808	76.81
484.027	96.81
484.245	93.81
484.463	92.81
484.681	86.81
484.9	107.81
485.118	85.81
485.336	112.81
485.554	88.81
485.772	98.81
485.99	100.81
486.209	102.81
486.427	115.81
486.645	111.81
486.863	130.81
487.081	97.81
487.299	100.81
487.517	98.81
487.735	106.81
487.953	79.81
488.171	95.81
488.389	105.81
488.607	95.81
488.825	95.81
489.043	88.81
489.261	81.81
489.479	92.81
489.696	82.81
489.914	81.81
490.132	93.81
490.35	91.81
490.568	96.81
490.786	83.81
491.003	101.81
491.221	88.81
491.439	88.81
491.657	95.81
491.874	86.81
492.092	88.81
492.31	85.81
492.527	93.81
492.745	98.81
492.963	81.81
493.18	78.81
493.398	89.81
493.615	109.81
493.833	96.81
494.05	94.81
494.268	97.81
494.485	88.81
494.703	75.81
494.92	91.81
495.138	93.81
495.355	81.81
495.573	87.81
495.79	89.81
496.008	82.81
496.225	89.81
496.442	82.81
496.66	98.81
496.877	89.81
497.094	93.81
497.312	81.81
497.529	89.81
497.746	90.81
497.963	97.81
498.181	78.81
498.398	105.81
498.615	121.81
498.832	107.81
499.049	107.81
499.267	84.81
499.484	85.81
499.701	90.81
499.918	88.81
500.135	77.81
500.352	95.81
500.569	97.81
500.786	89.81
501.003	85.81
501.22	82.81
501.437	81.81
501.654	94.81
501.871	113.81
502.088	80.81
502.305	90.81
502.522	97.81
502.739	88.81
502.956	100.81
503.172	100.81
503.389	98.81
503.606	113.81
503.823	111.81
504.04	99.81
504.256	95.81
504.473	95.81
504.69	98.81
504.907	104.81
505.123	86.81
505.34	95.81
505.557	91.81
505.773	82.81
505.99	89.81
506.207	98.81
506.423	105.81
506.64	91.81
506.856	90.81
507.073	107.81
507.289	103.81
507.506	91.81
507.722	117.81
507.939	113.81
508.155	96.81
508.372	91.81
508.588	85.81
508.805	99.81
509.021	109.81
509.238	110.81
509.454	111.81
509.67	105.81
509.887	107.81
510.103	154.81
510.319	261.81
510.536	1012.81
510.752	3394.81
510.968	885.81
511.184	177.81
511.401	116.81
511.617	96.81
511.833	85.81
512.049	104.81
512.265	103.81
512.481	88.81
512.698	93.81
512.914	83.81
513.13	93.81
513.346	90.81
513.562	99.81
513.778	111.81
513.994	100.81
514.21	112.81
514.426	142.81
514.642	154.81
514.858	159.81
515.074	197.81
