Data from Circ_2006_H10_HRD10591_00089.txt Node
Date: Wed Jan 03 10:26:21 EST 2024
User: Yrep
Spectrometer: HR+D1059
Trigger mode: 1
Integration Time (sec): 1.000000E-1
Scans to average: 1
Electric dark correction enabled: true
Nonlinearity correction enabled: false
Boxcar width: 0
XAxis mode: Wavelengths
Number of Pixels in Spectrum: 2048
>>>>>Begin Spectral Data<<<<<
223.165	-34
223.4	-34
223.635	-34
223.869	-7
224.104	-10
224.338	-11
224.573	-7
224.808	-12
225.042	-14
225.277	-5
225.511	0
225.746	9
225.98	8
226.215	18
226.449	0
226.683	20
226.918	23
227.152	22
227.387	37
227.621	38
227.856	37
228.09	43
228.324	50
228.559	66
228.793	39
229.027	56
229.262	63
229.496	63
229.73	78
229.964	72
230.199	63
230.433	71
230.667	80
230.901	75
231.136	80
231.37	79
231.604	70
231.838	75
232.072	73
232.306	71
232.541	66
232.775	57
233.009	62
233.243	79
233.477	74
233.711	70
233.945	84
234.179	84
234.413	76
234.647	80
234.881	92
235.115	72
235.349	80
235.583	66
235.817	75
236.051	71
236.285	75
236.519	72
236.753	78
236.987	79
237.221	74
237.455	84
237.689	81
237.922	67
238.156	81
238.39	90
238.624	62
238.858	74
239.091	90
239.325	58
239.559	84
239.793	82
240.027	76
240.26	72
240.494	76
240.728	74
240.961	81
241.195	80
241.429	64
241.662	63
241.896	84
242.13	72
242.363	78
242.597	65
242.83	94
243.064	90
243.298	75
243.531	65
243.765	79
243.998	80
244.232	76
244.465	83
244.699	91
244.932	70
245.166	65
245.399	84
245.633	74
245.866	77
246.099	66
246.333	68
246.566	67
246.8	63
247.033	82
247.266	70
247.5	78
247.733	82
247.966	83
248.2	80
248.433	88
248.666	79
248.899	79
249.133	80
249.366	63
249.599	107
249.832	91
250.066	88
250.299	90
250.532	73
250.765	66
250.998	68
251.231	87
251.465	81
251.698	92
251.931	82
252.164	87
252.397	88
252.63	89
252.863	74
253.096	77
253.329	85
253.562	68
253.795	78
254.028	84
254.261	81
254.494	71
254.727	87
254.96	79
255.193	70
255.426	76
255.659	79
255.892	90
256.124	81
256.357	74
256.59	78
256.823	70
257.056	78
257.289	75
257.521	86
257.754	81
257.987	68
258.22	80
258.452	87
258.685	85
258.918	69
259.151	82
259.383	72
259.616	84
259.849	71
260.081	75
260.314	79
260.547	80
260.779	81
261.012	65
261.244	81
261.477	89
261.71	102
261.942	108
262.175	116
262.407	109
262.64	83
262.872	76
263.105	78
263.337	82
263.57	80
263.802	89
264.035	79
264.267	82
264.499	77
264.732	86
264.964	82
265.197	72
265.429	72
265.661	72
265.894	79
266.126	74
266.358	75
266.591	84
266.823	83
267.055	79
267.287	83
267.52	81
267.752	84
267.984	83
268.216	84
268.448	81
268.681	79
268.913	92
269.145	83
269.377	81
269.609	71
269.841	80
270.073	87
270.306	64
270.538	83
270.77	85
271.002	77
271.234	84
271.466	90
271.698	77
271.93	77
272.162	91
272.394	91
272.626	75
272.858	75
273.09	82
273.322	83
273.553	61
273.785	77
274.017	84
274.249	88
274.481	93
274.713	94
274.945	75
275.176	74
275.408	75
275.64	83
275.872	84
276.104	81
276.335	89
276.567	89
276.799	99
277.031	114
277.262	91
277.494	87
277.726	82
277.957	94
278.189	80
278.421	91
278.652	89
278.884	90
279.115	86
279.347	74
279.579	70
279.81	85
280.042	107
280.273	97
280.505	84
280.736	72
280.968	74
281.199	96
281.431	73
281.662	91
281.894	103
282.125	99
282.356	125
282.588	143
282.819	109
283.051	86
283.282	80
283.513	76
283.745	89
283.976	84
284.207	74
284.439	85
284.67	83
284.901	73
285.132	90
285.364	84
285.595	83
285.826	80
286.057	86
286.288	89
286.52	83
286.751	91
286.982	90
287.213	84
287.444	80
287.675	89
287.906	84
288.138	81
288.369	72
288.6	91
288.831	95
289.062	91
289.293	90
289.524	88
289.755	98
289.986	85
290.217	82
290.448	86
290.679	89
290.91	91
291.141	80
291.371	79
291.602	74
291.833	88
292.064	85
292.295	93
292.526	99
292.757	90
292.987	95
293.218	79
293.449	81
293.68	77
293.91	96
294.141	84
294.372	82
294.603	90
294.833	94
295.064	81
295.295	99
295.525	77
295.756	94
295.987	113
296.217	135
296.448	123
296.679	96
296.909	100
297.14	79
297.37	70
297.601	81
297.831	86
298.062	96
298.292	84
298.523	81
298.753	99
298.984	81
299.214	90
299.445	101
299.675	94
299.905	93
300.136	83
300.366	92
300.597	90
300.827	93
301.057	106
301.288	98
301.518	84
301.748	85
301.979	100
302.209	88
302.439	87
302.669	84
302.9	96
303.13	82
303.36	83
303.59	111
303.82	100
304.051	89
304.281	75
304.511	86
304.741	93
304.971	83
305.201	90
305.431	82
305.661	94
305.891	96
306.121	89
306.352	89
306.582	104
306.812	82
307.042	82
307.272	94
307.502	81
307.731	115
307.961	102
308.191	90
308.421	81
308.651	83
308.881	102
309.111	98
309.341	106
309.571	95
309.8	96
310.03	81
310.26	92
310.49	91
310.72	91
310.949	89
311.179	100
311.409	88
311.639	91
311.868	100
312.098	96
312.328	90
312.557	96
312.787	112
313.017	106
313.246	103
313.476	94
313.706	82
313.935	86
314.165	99
314.394	105
314.624	79
314.853	93
315.083	92
315.312	89
315.542	90
315.771	91
316.001	75
316.23	91
316.46	97
316.689	84
316.919	93
317.148	96
317.377	95
317.607	97
317.836	101
318.065	94
318.295	103
318.524	100
318.753	90
318.983	94
319.212	100
319.441	99
319.67	118
319.9	94
320.129	80
320.358	93
320.587	92
320.816	94
321.046	109
321.275	95
321.504	78
321.733	98
321.962	108
322.191	103
322.42	108
322.649	118
322.878	114
323.108	125
323.337	114
323.566	138
323.795	167
324.024	247
324.253	458
324.482	1005
324.71	2095
324.939	2674
325.168	973
325.397	277
325.626	162
325.855	132
326.084	142
326.313	128
326.542	164
326.77	271
326.999	540
327.228	1130
327.457	2078
327.686	1624
327.914	447
328.143	239
328.372	193
328.6	140
328.829	110
329.058	134
329.287	131
329.515	103
329.744	107
329.972	110
330.201	155
330.43	182
330.658	155
330.887	156
331.115	118
331.344	84
331.572	98
331.801	118
332.03	111
332.258	100
332.486	94
332.715	98
332.943	99
333.172	99
333.4	102
333.629	94
333.857	123
334.085	124
334.314	168
334.542	231
334.771	213
334.999	120
335.227	125
335.455	99
335.684	96
335.912	110
336.14	100
336.369	92
336.597	105
336.825	94
337.053	90
337.281	92
337.51	88
337.738	99
337.966	102
338.194	105
338.422	95
338.65	94
338.878	94
339.106	87
339.334	92
339.562	86
339.79	92
340.018	87
340.246	99
340.474	95
340.702	92
340.93	83
341.158	85
341.386	91
341.614	96
341.842	89
342.07	84
342.298	88
342.526	98
342.754	90
342.981	90
343.209	83
343.437	95
343.665	82
343.893	92
344.12	82
344.348	97
344.576	106
344.804	78
345.031	92
345.259	99
345.487	93
345.714	82
345.942	90
346.17	92
346.397	91
346.625	84
346.853	82
347.08	92
347.308	89
347.535	88
347.763	108
347.99	100
348.218	102
348.445	98
348.673	96
348.9	103
349.128	113
349.355	90
349.583	88
349.81	82
350.037	84
350.265	93
350.492	83
350.72	87
350.947	89
351.174	115
351.402	113
351.629	108
351.856	105
352.083	103
352.311	94
352.538	101
352.765	105
352.992	96
353.22	114
353.447	92
353.674	95
353.901	94
354.128	100
354.355	109
354.583	96
354.81	84
355.037	103
355.264	94
355.491	83
355.718	88
355.945	88
356.172	108
356.399	98
356.626	82
356.853	93
357.08	81
357.307	78
357.534	86
357.761	84
357.988	87
358.215	89
358.441	89
358.668	72
358.895	89
359.122	101
359.349	89
359.576	97
359.802	101
360.029	116
360.256	113
360.483	100
360.709	94
360.936	96
361.163	87
361.39	103
361.616	78
361.843	87
362.07	120
362.296	83
362.523	91
362.749	79
362.976	79
363.203	77
363.429	90
363.656	87
363.882	81
364.109	102
364.335	86
364.562	85
364.788	84
365.015	97
365.241	99
365.468	93
365.694	93
365.92	101
366.147	96
366.373	94
366.599	92
366.826	91
367.052	88
367.278	82
367.505	87
367.731	96
367.957	93
368.184	98
368.41	82
368.636	113
368.862	109
369.089	115
369.315	94
369.541	110
369.767	90
369.993	86
370.219	82
370.445	78
370.672	75
370.898	84
371.124	83
371.35	81
371.576	76
371.802	81
372.028	75
372.254	96
372.48	92
372.706	88
372.932	83
373.158	77
373.384	94
373.61	95
373.835	84
374.061	73
374.287	82
374.513	87
374.739	88
374.965	96
375.191	84
375.416	81
375.642	94
375.868	92
376.094	95
376.319	94
376.545	68
376.771	95
376.997	76
377.222	84
377.448	80
377.674	104
377.899	103
378.125	88
378.35	80
378.576	84
378.802	78
379.027	93
379.253	99
379.478	80
379.704	98
379.929	88
380.155	94
380.38	95
380.606	95
380.831	85
381.057	99
381.282	108
381.507	83
381.733	94
381.958	90
382.184	74
382.409	94
382.634	104
382.86	103
383.085	112
383.31	102
383.535	93
383.761	103
383.986	94
384.211	92
384.436	91
384.662	92
384.887	105
385.112	102
385.337	101
385.562	101
385.787	97
386.013	92
386.238	100
386.463	115
386.688	103
386.913	91
387.138	102
387.363	95
387.588	84
387.813	91
388.038	98
388.263	101
388.488	91
388.713	99
388.938	89
389.163	97
389.387	97
389.612	82
389.837	93
390.062	94
390.287	100
390.512	88
390.736	88
390.961	95
391.186	92
391.411	91
391.636	89
391.86	87
392.085	75
392.31	75
392.534	87
392.759	89
392.984	93
393.208	79
393.433	82
393.658	87
393.882	91
394.107	84
394.331	85
394.556	75
394.78	89
395.005	104
395.229	80
395.454	83
395.678	78
395.903	103
396.127	96
396.352	81
396.576	80
396.801	95
397.025	94
397.249	73
397.474	80
397.698	83
397.922	92
398.147	74
398.371	78
398.595	89
398.82	87
399.044	80
399.268	91
399.492	89
399.717	83
399.941	89
400.165	81
400.389	75
400.613	80
400.837	72
401.062	88
401.286	83
401.51	84
401.734	89
401.958	106
402.182	134
402.406	165
402.63	131
402.854	96
403.078	86
403.302	90
403.526	81
403.75	99
403.974	74
404.198	89
404.422	83
404.645	86
404.869	81
405.093	110
405.317	105
405.541	102
405.765	89
405.988	120
406.212	190
406.436	249
406.66	168
406.883	120
407.107	93
407.331	86
407.555	99
407.778	104
408.002	83
408.226	87
408.449	83
408.673	89
408.896	89
409.12	99
409.344	90
409.567	91
409.791	99
410.014	100
410.238	89
410.461	85
410.685	83
410.908	109
411.132	98
411.355	96
411.578	88
411.802	79
412.025	87
412.249	83
412.472	94
412.695	92
412.919	76
413.142	93
413.365	79
413.589	92
413.812	69
414.035	103
414.258	84
414.482	77
414.705	81
414.928	88
415.151	82
415.374	87
415.597	103
415.821	98
416.044	96
416.267	75
416.49	86
416.713	74
416.936	91
417.159	87
417.382	90
417.605	78
417.828	76
418.051	93
418.274	97
418.497	90
418.72	75
418.943	95
419.166	90
419.389	79
419.611	88
419.834	79
420.057	90
420.28	75
420.503	82
420.726	84
420.948	84
421.171	87
421.394	94
421.617	82
421.839	89
422.062	85
422.285	90
422.507	92
422.73	103
422.953	89
423.175	81
423.398	86
423.621	73
423.843	87
424.066	84
424.288	81
424.511	90
424.733	96
424.956	111
425.178	95
425.401	85
425.623	96
425.846	82
426.068	84
426.291	95
426.513	90
426.735	83
426.958	90
427.18	93
427.402	156
427.625	187
427.847	146
428.069	139
428.292	86
428.514	83
428.736	82
428.958	73
429.181	81
429.403	78
429.625	77
429.847	99
430.069	84
430.292	99
430.514	91
430.736	84
430.958	82
431.18	79
431.402	89
431.624	86
431.846	78
432.068	74
432.29	95
432.512	86
432.734	78
432.956	93
433.178	88
433.4	102
433.622	100
433.844	81
434.066	84
434.287	85
434.509	79
434.731	99
434.953	88
435.175	70
435.397	88
435.618	87
435.84	94
436.062	114
436.284	120
436.505	87
436.727	88
436.949	93
437.17	92
437.392	87
437.614	90
437.835	100
438.057	121
438.278	106
438.5	115
438.721	123
438.943	89
439.165	71
439.386	88
439.608	94
439.829	103
440.05	123
440.272	136
440.493	92
440.715	80
440.936	88
441.158	89
441.379	76
441.6	96
441.822	88
442.043	100
442.264	104
442.486	113
442.707	89
442.928	100
443.149	125
443.371	146
443.592	115
443.813	114
444.034	112
444.255	102
444.476	85
444.698	69
444.919	79
445.14	132
445.361	125
445.582	107
445.803	152
446.024	142
446.245	138
446.466	103
446.687	83
446.908	75
447.129	87
447.35	91
447.571	106
447.792	88
448.013	88
448.234	89
448.455	90
448.675	117
448.896	125
449.117	96
449.338	104
449.559	120
449.779	114
450	93
450.221	80
450.442	75
450.662	95
450.883	102
451.104	102
451.324	100
451.545	76
451.766	89
451.986	75
452.207	99
452.428	86
452.648	83
452.869	103
453.089	124
453.31	113
453.53	103
453.751	81
453.971	110
454.192	93
454.412	96
454.633	98
454.853	76
455.073	83
455.294	79
455.514	97
455.734	86
455.955	74
456.175	84
456.395	87
456.616	86
456.836	88
457.056	82
457.276	90
457.497	92
457.717	86
457.937	74
458.157	79
458.377	70
458.598	101
458.818	147
459.038	163
459.258	104
459.478	88
459.698	81
459.918	74
460.138	80
460.358	84
460.578	78
460.798	98
461.018	85
461.238	83
461.458	87
461.678	78
461.898	89
462.118	94
462.338	90
462.558	77
462.777	78
462.997	86
463.217	89
463.437	85
463.657	77
463.876	63
464.096	83
464.316	94
464.536	92
464.755	89
464.975	119
465.195	158
465.414	183
465.634	104
465.854	86
466.073	93
466.293	87
466.512	83
466.732	90
466.951	94
467.171	94
467.391	79
467.61	101
467.829	95
468.049	122
468.268	128
468.488	90
468.707	75
468.927	84
469.146	84
469.365	78
469.585	100
469.804	95
470.023	98
470.243	90
470.462	102
470.681	106
470.901	87
471.12	83
471.339	93
471.558	88
471.777	84
471.997	97
472.216	175
472.435	281
472.654	115
472.873	87
473.092	78
473.311	97
473.53	85
473.749	85
473.968	101
474.187	93
474.406	83
474.625	74
474.844	76
475.063	86
475.282	82
475.501	80
475.72	93
475.939	82
476.158	84
476.377	81
476.596	94
476.814	82
477.033	88
477.252	83
477.471	87
477.69	79
477.908	81
478.127	90
478.346	90
478.564	93
478.783	87
479.002	87
479.22	82
479.439	85
479.658	103
479.876	94
480.095	98
480.313	100
480.532	89
480.751	94
480.969	180
481.188	429
481.406	282
481.624	115
481.843	88
482.061	82
482.28	94
482.498	83
482.717	80
482.935	80
483.153	91
483.372	92
483.59	81
483.808	84
484.027	103
484.245	97
484.463	84
484.681	80
484.9	90
485.118	93
485.336	71
485.554	94
485.772	92
485.99	103
486.209	98
486.427	92
486.645	106
486.863	99
487.081	121
487.299	118
487.517	81
487.735	94
487.953	90
488.171	95
488.389	82
488.607	90
488.825	98
489.043	91
489.261	88
489.479	76
489.696	84
489.914	83
490.132	92
490.35	89
490.568	95
490.786	92
491.003	84
491.221	92
491.439	77
491.657	75
491.874	95
492.092	90
492.31	77
492.527	81
492.745	84
492.963	94
493.18	78
493.398	97
493.615	101
493.833	87
494.05	88
494.268	83
494.485	82
494.703	84
494.92	84
495.138	87
495.355	87
495.573	90
495.79	83
496.008	79
496.225	74
496.442	108
496.66	82
496.877	92
497.094	77
497.312	80
497.529	72
497.746	92
497.963	92
498.181	93
498.398	99
498.615	113
498.832	98
499.049	75
499.267	91
499.484	89
499.701	95
499.918	78
500.135	91
500.352	90
500.569	77
500.786	84
501.003	84
501.22	88
501.437	86
501.654	102
501.871	119
502.088	90
502.305	88
502.522	83
502.739	78
502.956	105
503.172	80
503.389	91
503.606	101
503.823	94
504.04	93
504.256	91
504.473	74
504.69	68
504.907	75
505.123	83
505.34	84
505.557	91
505.773	104
505.99	81
506.207	96
506.423	90
506.64	91
506.856	79
507.073	78
507.289	97
507.506	96
507.722	103
507.939	99
508.155	98
508.372	89
508.588	89
508.805	95
509.021	109
509.238	96
509.454	89
509.67	98
509.887	105
510.103	144
510.319	215
510.536	852
510.752	2751
510.968	738
511.184	171
511.401	123
511.617	95
511.833	96
512.049	96
512.265	74
512.481	84
512.698	73
512.914	86
513.13	84
513.346	97
513.562	83
513.778	97
513.994	81
514.21	90
514.426	107
514.642	152
514.858	142
515.074	187
515.29	542
515.506	1870
515.721	672
515.937	164
516.153	107
516.369	106
516.585	105
516.801	89
517.016	96
517.232	101
517.448	96
517.664	83
517.879	88
518.095	80
518.311	85
518.527	82
518.742	91
518.958	93
519.173	95
519.389	95
519.605	92
519.82	81
520.036	100
520.251	135
520.467	118
520.682	97
520.898	112
521.113	111
521.329	139
521.544	234
521.76	675
521.975	3006
522.19	1875
522.406	368
522.621	134
522.836	102
523.052	92
523.267	78
523.482	84
523.698	95
523.913	121
524.128	111
524.343	99
524.559	103
524.774	97
524.989	88
525.204	105
525.419	96
525.634	91
525.849	95
526.064	91
526.28	84
526.495	101
526.71	86
526.925	70
527.14	80
527.355	74
527.57	76
527.785	81
527.999	70
528.214	101
528.429	90
528.644	82
528.859	96
529.074	91
529.289	121
529.503	208
529.718	106
529.933	79
530.148	84
530.363	88
530.577	86
530.792	77
531.007	81
531.221	98
531.436	88
531.651	84
531.865	86
532.08	96
532.295	106
532.509	95
532.724	92
532.938	98
533.153	100
533.367	82
533.582	88
533.796	77
534.011	87
534.225	87
534.44	87
534.654	91
534.868	96
535.083	90
535.297	89
535.511	84
535.726	96
535.94	90
536.154	95
536.369	83
536.583	83
536.797	98
537.011	87
537.225	82
537.44	80
537.654	97
537.868	89
538.082	92
538.296	81
538.51	78
538.724	89
538.938	85
539.153	93
539.367	92
539.581	94
539.795	76
540.009	94
540.222	92
540.436	85
540.65	82
540.864	73
541.078	104
541.292	94
541.506	83
541.72	95
541.934	74
542.147	87
542.361	89
542.575	96
542.789	86
543.002	80
543.216	89
543.43	76
543.644	79
543.857	90
544.071	89
544.285	91
544.498	90
544.712	79
544.925	91
545.139	91
545.352	89
545.566	66
545.779	72
545.993	88
546.206	84
546.42	93
546.633	96
546.847	83
547.06	83
547.274	88
547.487	93
547.7	66
547.914	77
548.127	96
548.34	76
548.554	84
548.767	95
548.98	90
549.193	88
549.407	83
549.62	83
549.833	97
550.046	79
550.259	88
550.473	95
550.686	88
550.899	83
551.112	90
551.325	79
551.538	85
551.751	85
551.964	87
552.177	94
552.39	77
552.603	86
552.816	83
553.029	106
553.242	83
553.455	96
553.667	108
553.88	101
554.093	103
554.306	92
554.519	93
554.732	90
554.944	80
555.157	82
555.37	94
555.583	87
555.795	103
556.008	89
556.221	78
556.433	99
556.646	89
556.859	90
557.071	80
557.284	87
557.496	82
557.709	106
557.921	103
558.134	84
558.346	89
558.559	85
558.771	87
558.984	96
559.196	89
559.409	98
559.621	92
559.833	87
560.046	84
560.258	90
560.47	98
560.683	93
560.895	86
561.107	72
561.32	96
561.532	86
561.744	90
561.956	87
562.168	91
562.381	78
562.593	90
562.805	85
563.017	78
563.229	93
563.441	98
563.653	72
563.865	66
564.077	99
564.289	93
564.501	78
564.713	91
564.925	107
565.137	102
565.349	91
565.561	85
565.773	94
565.985	102
566.197	77
566.408	86
566.62	83
566.832	93
567.044	86
567.255	94
567.467	85
567.679	78
567.891	91
568.102	90
568.314	88
568.526	95
568.737	90
568.949	91
569.161	106
569.372	94
569.584	91
569.795	93
570.007	120
570.218	283
570.43	148
570.641	84
570.853	88
571.064	82
571.276	75
571.487	95
571.698	99
571.91	103
572.121	96
572.333	98
572.544	83
572.755	80
572.966	77
573.178	87
573.389	79
573.6	87
573.811	80
574.023	97
574.234	84
574.445	83
574.656	99
574.867	88
575.078	91
575.289	91
575.501	99
575.712	88
575.923	87
576.134	100
576.345	96
576.556	85
576.767	84
576.978	86
577.188	91
577.399	81
577.61	92
577.821	101
578.032	122
578.243	316
578.454	888
578.665	232
578.875	103
579.086	94
579.297	75
579.508	94
579.718	89
579.929	78
580.14	79
580.35	84
580.561	78
580.772	70
580.982	77
581.193	88
581.403	90
581.614	93
581.825	96
582.035	86
582.246	84
582.456	90
582.667	83
582.877	102
583.087	96
583.298	91
583.508	82
583.719	91
583.929	85
584.139	79
584.35	88
584.56	80
584.77	99
584.981	94
585.191	86
