Data from Circ_2006_H10_HRD10591_00035.txt Node
Date: Wed Jan 03 10:26:10 EST 2024
User: Yrep
Spectrometer: HR+D1059
Trigger mode: 1
Integration Time (sec): 1.000000E-1
Scans to average: 1
Electric dark correction enabled: true
Nonlinearity correction enabled: false
Boxcar width: 0
XAxis mode: Wavelengths
Number of Pixels in Spectrum: 2048
>>>>>Begin Spectral Data<<<<<
223.165	-17.38
223.4	-17.38
223.635	-17.38
223.869	-23.38
224.104	-18.38
224.338	-16.38
224.573	-14.38
224.808	-8.38
225.042	3.62
225.277	-10.38
225.511	11.62
225.746	1.62
225.98	-0.38
226.215	9.62
226.449	11.62
226.683	7.62
226.918	25.62
227.152	37.62
227.387	21.62
227.621	44.62
227.856	50.62
228.09	37.62
228.324	43.62
228.559	58.62
228.793	58.62
229.027	68.62
229.262	69.62
229.496	74.62
229.73	95.62
229.964	96.62
230.199	79.62
230.433	72.62
230.667	78.62
230.901	74.62
231.136	83.62
231.37	65.62
231.604	72.62
231.838	73.62
232.072	81.62
232.306	75.62
232.541	76.62
232.775	95.62
233.009	86.62
233.243	101.62
233.477	73.62
233.711	90.62
233.945	91.62
234.179	71.62
234.413	83.62
234.647	84.62
234.881	78.62
235.115	78.62
235.349	73.62
235.583	65.62
235.817	75.62
236.051	85.62
236.285	74.62
236.519	78.62
236.753	74.62
236.987	67.62
237.221	77.62
237.455	96.62
237.689	67.62
237.922	68.62
238.156	70.62
238.39	65.62
238.624	76.62
238.858	81.62
239.091	86.62
239.325	79.62
239.559	90.62
239.793	86.62
240.027	83.62
240.26	72.62
240.494	82.62
240.728	76.62
240.961	78.62
241.195	81.62
241.429	73.62
241.662	64.62
241.896	71.62
242.13	81.62
242.363	79.62
242.597	85.62
242.83	79.62
243.064	85.62
243.298	85.62
243.531	94.62
243.765	73.62
243.998	63.62
244.232	77.62
244.465	80.62
244.699	76.62
244.932	82.62
245.166	83.62
245.399	66.62
245.633	87.62
245.866	87.62
246.099	62.62
246.333	71.62
246.566	72.62
246.8	84.62
247.033	69.62
247.266	73.62
247.5	67.62
247.733	76.62
247.966	79.62
248.2	83.62
248.433	79.62
248.666	67.62
248.899	83.62
249.133	73.62
249.366	98.62
249.599	98.62
249.832	74.62
250.066	76.62
250.299	80.62
250.532	74.62
250.765	79.62
250.998	78.62
251.231	85.62
251.465	75.62
251.698	82.62
251.931	91.62
252.164	84.62
252.397	74.62
252.63	82.62
252.863	68.62
253.096	77.62
253.329	83.62
253.562	75.62
253.795	85.62
254.028	91.62
254.261	81.62
254.494	78.62
254.727	82.62
254.96	77.62
255.193	85.62
255.426	83.62
255.659	83.62
255.892	81.62
256.124	89.62
256.357	87.62
256.59	82.62
256.823	80.62
257.056	77.62
257.289	73.62
257.521	64.62
257.754	71.62
257.987	73.62
258.22	85.62
258.452	81.62
258.685	67.62
258.918	77.62
259.151	59.62
259.383	68.62
259.616	82.62
259.849	82.62
260.081	80.62
260.314	83.62
260.547	82.62
260.779	83.62
261.012	84.62
261.244	96.62
261.477	93.62
261.71	89.62
261.942	110.62
262.175	130.62
262.407	98.62
262.64	99.62
262.872	86.62
263.105	83.62
263.337	92.62
263.57	82.62
263.802	89.62
264.035	81.62
264.267	65.62
264.499	87.62
264.732	82.62
264.964	86.62
265.197	78.62
265.429	91.62
265.661	77.62
265.894	89.62
266.126	85.62
266.358	77.62
266.591	82.62
266.823	85.62
267.055	82.62
267.287	99.62
267.52	90.62
267.752	78.62
267.984	77.62
268.216	76.62
268.448	70.62
268.681	57.62
268.913	88.62
269.145	83.62
269.377	76.62
269.609	88.62
269.841	102.62
270.073	81.62
270.306	88.62
270.538	97.62
270.77	71.62
271.002	85.62
271.234	86.62
271.466	78.62
271.698	73.62
271.93	90.62
272.162	95.62
272.394	93.62
272.626	88.62
272.858	77.62
273.09	86.62
273.322	93.62
273.553	87.62
273.785	88.62
274.017	86.62
274.249	94.62
274.481	87.62
274.713	76.62
274.945	88.62
275.176	84.62
275.408	94.62
275.64	97.62
275.872	75.62
276.104	94.62
276.335	87.62
276.567	97.62
276.799	106.62
277.031	114.62
277.262	86.62
277.494	98.62
277.726	93.62
277.957	95.62
278.189	94.62
278.421	95.62
278.652	82.62
278.884	91.62
279.115	82.62
279.347	87.62
279.579	77.62
279.81	93.62
280.042	93.62
280.273	77.62
280.505	86.62
280.736	84.62
280.968	77.62
281.199	73.62
281.431	85.62
281.662	83.62
281.894	102.62
282.125	115.62
282.356	126.62
282.588	168.62
282.819	118.62
283.051	91.62
283.282	94.62
283.513	87.62
283.745	95.62
283.976	87.62
284.207	87.62
284.439	86.62
284.67	85.62
284.901	77.62
285.132	95.62
285.364	81.62
285.595	97.62
285.826	99.62
286.057	98.62
286.288	93.62
286.52	79.62
286.751	99.62
286.982	89.62
287.213	84.62
287.444	84.62
287.675	103.62
287.906	94.62
288.138	97.62
288.369	102.62
288.6	87.62
288.831	85.62
289.062	71.62
289.293	97.62
289.524	76.62
289.755	92.62
289.986	95.62
290.217	91.62
290.448	101.62
290.679	71.62
290.91	87.62
291.141	102.62
291.371	100.62
291.602	88.62
291.833	93.62
292.064	95.62
292.295	73.62
292.526	86.62
292.757	81.62
292.987	77.62
293.218	85.62
293.449	98.62
293.68	93.62
293.91	98.62
294.141	85.62
294.372	88.62
294.603	106.62
294.833	85.62
295.064	82.62
295.295	98.62
295.525	98.62
295.756	105.62
295.987	137.62
296.217	172.62
296.448	137.62
296.679	106.62
296.909	81.62
297.14	85.62
297.37	98.62
297.601	93.62
297.831	87.62
298.062	87.62
298.292	80.62
298.523	83.62
298.753	85.62
298.984	87.62
299.214	94.62
299.445	100.62
299.675	83.62
299.905	89.62
300.136	99.62
300.366	92.62
300.597	87.62
300.827	86.62
301.057	100.62
301.288	95.62
301.518	103.62
301.748	95.62
301.979	95.62
302.209	103.62
302.439	91.62
302.669	73.62
302.9	77.62
303.13	101.62
303.36	83.62
303.59	101.62
303.82	114.62
304.051	98.62
304.281	95.62
304.511	93.62
304.741	77.62
304.971	68.62
305.201	89.62
305.431	84.62
305.661	94.62
305.891	82.62
306.121	100.62
306.352	113.62
306.582	101.62
306.812	94.62
307.042	91.62
307.272	85.62
307.502	86.62
307.731	104.62
307.961	83.62
308.191	94.62
308.421	90.62
308.651	84.62
308.881	92.62
309.111	98.62
309.341	92.62
309.571	109.62
309.8	94.62
310.03	98.62
310.26	93.62
310.49	109.62
310.72	104.62
310.949	112.62
311.179	93.62
311.409	95.62
311.639	107.62
311.868	113.62
312.098	91.62
312.328	86.62
312.557	96.62
312.787	113.62
313.017	126.62
313.246	89.62
313.476	91.62
313.706	91.62
313.935	105.62
314.165	108.62
314.394	102.62
314.624	94.62
314.853	105.62
315.083	107.62
315.312	98.62
315.542	89.62
315.771	95.62
316.001	102.62
316.23	83.62
316.46	96.62
316.689	84.62
316.919	96.62
317.148	93.62
317.377	98.62
317.607	85.62
317.836	93.62
318.065	94.62
318.295	99.62
318.524	83.62
318.753	84.62
318.983	88.62
319.212	105.62
319.441	107.62
319.67	110.62
319.9	109.62
320.129	98.62
320.358	90.62
320.587	109.62
320.816	97.62
321.046	110.62
321.275	110.62
321.504	94.62
321.733	102.62
321.962	100.62
322.191	115.62
322.42	111.62
322.649	115.62
322.878	134.62
323.108	121.62
323.337	132.62
323.566	170.62
323.795	175.62
324.024	257.62
324.253	532.62
324.482	1141.62
324.71	2461.62
324.939	3254.62
325.168	1135.62
325.397	303.62
325.626	174.62
325.855	149.62
326.084	118.62
326.313	162.62
326.542	184.62
326.77	273.62
326.999	617.62
327.228	1324.62
327.457	2467.62
327.686	1910.62
327.914	488.62
328.143	234.62
328.372	189.62
328.6	149.62
328.829	133.62
329.058	141.62
329.287	139.62
329.515	116.62
329.744	113.62
329.972	110.62
330.201	121.62
330.43	118.62
330.658	141.62
330.887	171.62
331.115	142.62
331.344	114.62
331.572	114.62
331.801	105.62
332.03	106.62
332.258	97.62
332.486	95.62
332.715	99.62
332.943	85.62
333.172	101.62
333.4	104.62
333.629	102.62
333.857	126.62
334.085	129.62
334.314	110.62
334.542	128.62
334.771	121.62
334.999	93.62
335.227	107.62
335.455	93.62
335.684	111.62
335.912	89.62
336.14	91.62
336.369	92.62
336.597	95.62
336.825	99.62
337.053	98.62
337.281	95.62
337.51	98.62
337.738	100.62
337.966	95.62
338.194	104.62
338.422	103.62
338.65	82.62
338.878	100.62
339.106	85.62
339.334	105.62
339.562	89.62
339.79	104.62
340.018	97.62
340.246	93.62
340.474	83.62
340.702	91.62
340.93	112.62
341.158	100.62
341.386	101.62
341.614	99.62
341.842	102.62
342.07	93.62
342.298	86.62
342.526	99.62
342.754	98.62
342.981	92.62
343.209	93.62
343.437	94.62
343.665	101.62
343.893	91.62
344.12	96.62
344.348	92.62
344.576	77.62
344.804	85.62
345.031	101.62
345.259	101.62
345.487	94.62
345.714	104.62
345.942	78.62
346.17	96.62
346.397	97.62
346.625	100.62
346.853	83.62
347.08	91.62
347.308	100.62
347.535	105.62
347.763	94.62
347.99	110.62
348.218	109.62
348.445	113.62
348.673	99.62
348.9	100.62
349.128	86.62
349.355	103.62
349.583	85.62
349.81	94.62
350.037	98.62
350.265	86.62
350.492	90.62
350.72	102.62
350.947	111.62
351.174	101.62
351.402	116.62
351.629	100.62
351.856	101.62
352.083	101.62
352.311	102.62
352.538	112.62
352.765	108.62
352.992	115.62
353.22	119.62
353.447	111.62
353.674	105.62
353.901	93.62
354.128	95.62
354.355	97.62
354.583	96.62
354.81	103.62
355.037	89.62
355.264	102.62
355.491	92.62
355.718	96.62
355.945	88.62
356.172	95.62
356.399	96.62
356.626	99.62
356.853	96.62
357.08	91.62
357.307	91.62
357.534	93.62
357.761	92.62
357.988	89.62
358.215	91.62
358.441	90.62
358.668	89.62
358.895	95.62
359.122	115.62
359.349	86.62
359.576	101.62
359.802	116.62
360.029	129.62
360.256	126.62
360.483	105.62
360.709	95.62
360.936	93.62
361.163	115.62
361.39	106.62
361.616	101.62
361.843	85.62
362.07	95.62
362.296	105.62
362.523	109.62
362.749	106.62
362.976	101.62
363.203	94.62
363.429	85.62
363.656	87.62
363.882	102.62
364.109	95.62
364.335	92.62
364.562	80.62
364.788	103.62
365.015	89.62
365.241	100.62
365.468	120.62
365.694	104.62
365.92	98.62
366.147	98.62
366.373	94.62
366.599	93.62
366.826	92.62
367.052	95.62
367.278	92.62
367.505	100.62
367.731	92.62
367.957	94.62
368.184	89.62
368.41	103.62
368.636	128.62
368.862	135.62
369.089	123.62
369.315	94.62
369.541	91.62
369.767	99.62
369.993	94.62
370.219	86.62
370.445	91.62
370.672	89.62
370.898	89.62
371.124	85.62
371.35	98.62
371.576	93.62
371.802	76.62
372.028	79.62
372.254	83.62
372.48	86.62
372.706	81.62
372.932	107.62
373.158	85.62
373.384	100.62
373.61	89.62
373.835	90.62
374.061	98.62
374.287	88.62
374.513	87.62
374.739	77.62
374.965	97.62
375.191	90.62
375.416	82.62
375.642	92.62
375.868	89.62
376.094	88.62
376.319	81.62
376.545	85.62
376.771	85.62
376.997	88.62
377.222	87.62
377.448	101.62
377.674	90.62
377.899	103.62
378.125	88.62
378.35	86.62
378.576	100.62
378.802	83.62
379.027	86.62
379.253	98.62
379.478	79.62
379.704	75.62
379.929	93.62
380.155	108.62
380.38	87.62
380.606	95.62
380.831	99.62
381.057	102.62
381.282	103.62
381.507	98.62
381.733	102.62
381.958	84.62
382.184	97.62
382.409	92.62
382.634	116.62
382.86	82.62
383.085	108.62
383.31	101.62
383.535	108.62
383.761	94.62
383.986	97.62
384.211	108.62
384.436	109.62
384.662	99.62
384.887	91.62
385.112	106.62
385.337	98.62
385.562	104.62
385.787	105.62
386.013	115.62
386.238	124.62
386.463	104.62
386.688	114.62
386.913	112.62
387.138	105.62
387.363	105.62
387.588	90.62
387.813	94.62
388.038	116.62
388.263	114.62
388.488	117.62
388.713	106.62
388.938	94.62
389.163	81.62
389.387	92.62
389.612	108.62
389.837	82.62
390.062	94.62
390.287	82.62
390.512	96.62
390.736	89.62
390.961	93.62
391.186	87.62
391.411	72.62
391.636	87.62
391.86	80.62
392.085	91.62
392.31	92.62
392.534	93.62
392.759	95.62
392.984	87.62
393.208	85.62
393.433	86.62
393.658	77.62
393.882	85.62
394.107	91.62
394.331	98.62
394.556	83.62
394.78	83.62
395.005	105.62
395.229	81.62
395.454	93.62
395.678	95.62
395.903	97.62
396.127	98.62
396.352	84.62
396.576	95.62
396.801	99.62
397.025	94.62
397.249	83.62
397.474	95.62
397.698	92.62
397.922	82.62
398.147	80.62
398.371	94.62
398.595	85.62
398.82	90.62
399.044	85.62
399.268	71.62
399.492	83.62
399.717	94.62
399.941	95.62
400.165	94.62
400.389	99.62
400.613	91.62
400.837	93.62
401.062	89.62
401.286	93.62
401.51	76.62
401.734	87.62
401.958	110.62
402.182	142.62
402.406	182.62
402.63	140.62
402.854	92.62
403.078	87.62
403.302	95.62
403.526	89.62
403.75	71.62
403.974	98.62
404.198	85.62
404.422	91.62
404.645	92.62
404.869	91.62
405.093	86.62
405.317	104.62
405.541	114.62
405.765	109.62
405.988	116.62
406.212	200.62
406.436	255.62
406.66	177.62
406.883	110.62
407.107	90.62
407.331	92.62
407.555	102.62
407.778	87.62
408.002	100.62
408.226	95.62
408.449	86.62
408.673	93.62
408.896	108.62
409.12	105.62
409.344	97.62
409.567	101.62
409.791	103.62
410.014	104.62
410.238	100.62
410.461	84.62
410.685	98.62
410.908	95.62
411.132	108.62
411.355	100.62
411.578	84.62
411.802	92.62
412.025	83.62
412.249	89.62
412.472	89.62
412.695	101.62
412.919	90.62
413.142	89.62
413.365	97.62
413.589	87.62
413.812	77.62
414.035	95.62
414.258	72.62
414.482	97.62
414.705	89.62
414.928	85.62
415.151	93.62
415.374	91.62
415.597	102.62
415.821	104.62
416.044	99.62
416.267	89.62
416.49	90.62
416.713	90.62
416.936	94.62
417.159	91.62
417.382	95.62
417.605	88.62
417.828	98.62
418.051	94.62
418.274	85.62
418.497	68.62
418.72	83.62
418.943	85.62
419.166	95.62
419.389	87.62
419.611	85.62
419.834	92.62
420.057	96.62
420.28	83.62
420.503	84.62
420.726	86.62
420.948	97.62
421.171	92.62
421.394	93.62
421.617	101.62
421.839	98.62
422.062	84.62
422.285	93.62
422.507	92.62
422.73	103.62
422.953	94.62
423.175	102.62
423.398	99.62
423.621	97.62
423.843	83.62
424.066	86.62
424.288	83.62
424.511	81.62
424.733	107.62
424.956	106.62
425.178	96.62
425.401	104.62
425.623	108.62
425.846	95.62
426.068	80.62
426.291	97.62
426.513	99.62
426.735	94.62
426.958	111.62
427.18	116.62
427.402	150.62
427.625	221.62
427.847	158.62
428.069	109.62
428.292	90.62
428.514	93.62
428.736	86.62
428.958	94.62
429.181	86.62
429.403	78.62
429.625	85.62
429.847	94.62
430.069	96.62
430.292	93.62
430.514	94.62
430.736	98.62
430.958	100.62
431.18	93.62
431.402	94.62
431.624	101.62
431.846	82.62
432.068	99.62
432.29	92.62
432.512	83.62
432.734	96.62
432.956	103.62
433.178	116.62
433.4	122.62
433.622	86.62
433.844	95.62
434.066	93.62
434.287	84.62
434.509	99.62
434.731	94.62
434.953	94.62
435.175	80.62
435.397	87.62
435.618	101.62
435.84	107.62
436.062	124.62
436.284	97.62
436.505	111.62
436.727	122.62
436.949	113.62
437.17	99.62
437.392	82.62
437.614	90.62
437.835	125.62
438.057	132.62
438.278	122.62
438.5	105.62
438.721	130.62
438.943	97.62
439.165	76.62
439.386	94.62
439.608	96.62
439.829	105.62
440.05	148.62
440.272	164.62
440.493	112.62
440.715	93.62
440.936	80.62
441.158	99.62
441.379	87.62
441.6	102.62
441.822	105.62
442.043	105.62
442.264	102.62
442.486	105.62
442.707	98.62
442.928	105.62
443.149	154.62
443.371	155.62
443.592	135.62
443.813	107.62
444.034	126.62
444.255	93.62
444.476	84.62
444.698	86.62
444.919	109.62
445.14	133.62
445.361	146.62
445.582	137.62
445.803	161.62
446.024	153.62
446.245	151.62
446.466	139.62
446.687	91.62
446.908	95.62
447.129	98.62
447.35	76.62
447.571	78.62
447.792	90.62
448.013	110.62
448.234	113.62
448.455	100.62
448.675	116.62
448.896	128.62
449.117	102.62
449.338	111.62
449.559	137.62
449.779	141.62
450	91.62
450.221	93.62
450.442	82.62
450.662	97.62
450.883	120.62
451.104	133.62
451.324	103.62
451.545	88.62
451.766	78.62
451.986	73.62
452.207	85.62
452.428	102.62
452.648	86.62
452.869	125.62
453.089	110.62
453.31	121.62
453.53	103.62
453.751	96.62
453.971	118.62
454.192	111.62
454.412	85.62
454.633	78.62
454.853	93.62
455.073	106.62
455.294	89.62
455.514	111.62
455.734	86.62
455.955	73.62
456.175	77.62
456.395	87.62
456.616	71.62
456.836	91.62
457.056	84.62
457.276	83.62
457.497	82.62
457.717	82.62
457.937	83.62
458.157	100.62
458.377	91.62
458.598	108.62
458.818	175.62
459.038	196.62
459.258	132.62
459.478	90.62
459.698	101.62
459.918	74.62
460.138	83.62
460.358	91.62
460.578	83.62
460.798	118.62
461.018	107.62
461.238	85.62
461.458	84.62
461.678	82.62
461.898	97.62
462.118	84.62
462.338	82.62
462.558	92.62
462.777	72.62
462.997	87.62
463.217	91.62
463.437	101.62
463.657	79.62
463.876	83.62
464.096	80.62
464.316	91.62
464.536	89.62
464.755	82.62
464.975	122.62
465.195	211.62
465.414	195.62
465.634	108.62
465.854	87.62
466.073	86.62
466.293	101.62
466.512	86.62
466.732	86.62
466.951	82.62
467.171	87.62
467.391	104.62
467.61	115.62
467.829	93.62
468.049	102.62
468.268	94.62
468.488	103.62
468.707	98.62
468.927	90.62
469.146	92.62
469.365	87.62
469.585	88.62
469.804	103.62
470.023	101.62
470.243	89.62
470.462	110.62
470.681	117.62
470.901	87.62
471.12	85.62
471.339	85.62
471.558	86.62
471.777	91.62
471.997	85.62
472.216	113.62
472.435	127.62
472.654	113.62
472.873	100.62
473.092	95.62
473.311	83.62
473.53	81.62
473.749	83.62
473.968	101.62
474.187	108.62
474.406	110.62
474.625	91.62
474.844	93.62
475.063	88.62
475.282	92.62
475.501	84.62
475.72	93.62
475.939	92.62
476.158	83.62
476.377	95.62
476.596	86.62
476.814	92.62
477.033	89.62
477.252	95.62
477.471	88.62
477.69	91.62
477.908	81.62
478.127	85.62
478.346	91.62
478.564	87.62
478.783	94.62
479.002	99.62
479.22	78.62
479.439	86.62
479.658	110.62
479.876	92.62
480.095	93.62
480.313	87.62
480.532	93.62
480.751	86.62
480.969	107.62
481.188	172.62
481.406	120.62
481.624	89.62
481.843	97.62
482.061	98.62
482.28	83.62
482.498	90.62
482.717	85.62
482.935	83.62
483.153	94.62
483.372	98.62
483.59	86.62
483.808	88.62
484.027	93.62
484.245	97.62
484.463	92.62
484.681	93.62
484.9	90.62
485.118	109.62
485.336	93.62
485.554	100.62
485.772	123.62
485.99	108.62
486.209	106.62
486.427	104.62
486.645	101.62
486.863	117.62
487.081	100.62
487.299	92.62
487.517	92.62
487.735	86.62
487.953	83.62
488.171	90.62
488.389	96.62
488.607	96.62
488.825	80.62
489.043	83.62
489.261	74.62
489.479	81.62
489.696	94.62
489.914	102.62
490.132	73.62
490.35	97.62
490.568	86.62
490.786	93.62
491.003	84.62
491.221	85.62
491.439	96.62
491.657	79.62
491.874	98.62
492.092	80.62
492.31	93.62
492.527	95.62
492.745	98.62
492.963	90.62
493.18	102.62
493.398	73.62
493.615	88.62
493.833	93.62
494.05	86.62
494.268	99.62
494.485	98.62
494.703	97.62
494.92	91.62
495.138	87.62
495.355	77.62
495.573	85.62
495.79	93.62
496.008	92.62
496.225	85.62
496.442	93.62
496.66	92.62
496.877	79.62
497.094	93.62
497.312	90.62
497.529	108.62
497.746	92.62
497.963	94.62
498.181	75.62
498.398	99.62
498.615	117.62
498.832	118.62
499.049	87.62
499.267	101.62
499.484	96.62
499.701	91.62
499.918	97.62
500.135	87.62
500.352	90.62
500.569	95.62
500.786	94.62
501.003	91.62
501.22	106.62
501.437	98.62
501.654	101.62
501.871	123.62
502.088	81.62
502.305	87.62
502.522	100.62
502.739	89.62
502.956	75.62
503.172	99.62
503.389	91.62
503.606	110.62
503.823	107.62
504.04	86.62
504.256	105.62
504.473	103.62
504.69	91.62
504.907	100.62
505.123	78.62
505.34	107.62
505.557	104.62
505.773	85.62
505.99	79.62
506.207	85.62
506.423	86.62
506.64	82.62
506.856	83.62
507.073	90.62
507.289	91.62
507.506	101.62
507.722	117.62
507.939	113.62
508.155	97.62
508.372	103.62
508.588	107.62
508.805	89.62
509.021	89.62
509.238	126.62
509.454	101.62
509.67	102.62
509.887	109.62
510.103	161.62
510.319	239.62
510.536	975.62
510.752	3157.62
510.968	866.62
511.184	185.62
511.401	113.62
511.617	99.62
511.833	98.62
512.049	102.62
512.265	77.62
512.481	97.62
512.698	97.62
512.914	97.62
513.13	107.62
513.346	97.62
513.562	96.62
513.778	105.62
513.994	114.62
514.21	97.62
514.426	127.62
514.642	141.62
