Data from Circ_2006_H10_HRD10591_00062.txt Node
Date: Wed Jan 03 10:26:16 EST 2024
User: Yrep
Spectrometer: HR+D1059
Trigger mode: 1
Integration Time (sec): 1.000000E-1
Scans to average: 1
Electric dark correction enabled: true
Nonlinearity correction enabled: false
Boxcar width: 0
XAxis mode: Wavelengths
Number of Pixels in Spectrum: 2048
>>>>>Begin Spectral Data<<<<<
223.165	-8.12
223.4	-8.12
223.635	-8.12
223.869	-16.12
224.104	-19.12
224.338	-13.12
224.573	-25.12
224.808	-3.12
225.042	-0.12
225.277	-11.12
225.511	-3.12
225.746	8.88
225.98	2.88
226.215	8.88
226.449	2.88
226.683	16.88
226.918	25.88
227.152	32.88
227.387	29.88
227.621	40.88
227.856	43.88
228.09	53.88
228.324	46.88
228.559	59.88
228.793	56.88
229.027	68.88
229.262	74.88
229.496	90.88
229.73	86.88
229.964	76.88
230.199	77.88
230.433	71.88
230.667	101.88
230.901	69.88
231.136	72.88
231.37	73.88
231.604	80.88
231.838	84.88
232.072	74.88
232.306	83.88
232.541	85.88
232.775	76.88
233.009	77.88
233.243	85.88
233.477	81.88
233.711	74.88
233.945	78.88
234.179	71.88
234.413	73.88
234.647	76.88
234.881	75.88
235.115	61.88
235.349	80.88
235.583	78.88
235.817	71.88
236.051	81.88
236.285	69.88
236.519	70.88
236.753	72.88
236.987	83.88
237.221	70.88
237.455	76.88
237.689	79.88
237.922	78.88
238.156	79.88
238.39	71.88
238.624	82.88
238.858	76.88
239.091	73.88
239.325	80.88
239.559	85.88
239.793	76.88
240.027	68.88
240.26	68.88
240.494	85.88
240.728	80.88
240.961	82.88
241.195	68.88
241.429	80.88
241.662	78.88
241.896	80.88
242.13	73.88
242.363	78.88
242.597	68.88
242.83	74.88
243.064	77.88
243.298	67.88
243.531	75.88
243.765	83.88
243.998	74.88
244.232	59.88
244.465	75.88
244.699	81.88
244.932	81.88
245.166	83.88
245.399	83.88
245.633	76.88
245.866	80.88
246.099	67.88
246.333	75.88
246.566	78.88
246.8	63.88
247.033	73.88
247.266	76.88
247.5	90.88
247.733	83.88
247.966	59.88
248.2	84.88
248.433	73.88
248.666	74.88
248.899	84.88
249.133	89.88
249.366	104.88
249.599	95.88
249.832	68.88
250.066	67.88
250.299	82.88
250.532	80.88
250.765	78.88
250.998	77.88
251.231	88.88
251.465	78.88
251.698	83.88
251.931	68.88
252.164	76.88
252.397	80.88
252.63	75.88
252.863	79.88
253.096	82.88
253.329	83.88
253.562	81.88
253.795	79.88
254.028	86.88
254.261	74.88
254.494	82.88
254.727	79.88
254.96	80.88
255.193	70.88
255.426	73.88
255.659	83.88
255.892	64.88
256.124	75.88
256.357	86.88
256.59	59.88
256.823	82.88
257.056	70.88
257.289	83.88
257.521	90.88
257.754	87.88
257.987	80.88
258.22	83.88
258.452	82.88
258.685	56.88
258.918	88.88
259.151	81.88
259.383	78.88
259.616	98.88
259.849	91.88
260.081	91.88
260.314	65.88
260.547	79.88
260.779	91.88
261.012	77.88
261.244	83.88
261.477	88.88
261.71	83.88
261.942	107.88
262.175	121.88
262.407	82.88
262.64	79.88
262.872	69.88
263.105	83.88
263.337	91.88
263.57	78.88
263.802	92.88
264.035	82.88
264.267	52.88
264.499	66.88
264.732	91.88
264.964	76.88
265.197	78.88
265.429	85.88
265.661	80.88
265.894	88.88
266.126	86.88
266.358	75.88
266.591	82.88
266.823	84.88
267.055	68.88
267.287	81.88
267.52	86.88
267.752	87.88
267.984	70.88
268.216	78.88
268.448	84.88
268.681	84.88
268.913	82.88
269.145	86.88
269.377	83.88
269.609	78.88
269.841	77.88
270.073	94.88
270.306	79.88
270.538	81.88
270.77	67.88
271.002	78.88
271.234	92.88
271.466	79.88
271.698	96.88
271.93	84.88
272.162	70.88
272.394	86.88
272.626	83.88
272.858	76.88
273.09	88.88
273.322	70.88
273.553	84.88
273.785	78.88
274.017	83.88
274.249	76.88
274.481	89.88
274.713	75.88
274.945	62.88
275.176	83.88
275.408	80.88
275.64	89.88
275.872	81.88
276.104	76.88
276.335	86.88
276.567	105.88
276.799	98.88
277.031	98.88
277.262	89.88
277.494	88.88
277.726	82.88
277.957	85.88
278.189	74.88
278.421	76.88
278.652	76.88
278.884	93.88
279.115	92.88
279.347	81.88
279.579	90.88
279.81	80.88
280.042	94.88
280.273	84.88
280.505	86.88
280.736	79.88
280.968	106.88
281.199	86.88
281.431	84.88
281.662	94.88
281.894	97.88
282.125	108.88
282.356	114.88
282.588	154.88
282.819	120.88
283.051	103.88
283.282	101.88
283.513	89.88
283.745	91.88
283.976	90.88
284.207	100.88
284.439	85.88
284.67	77.88
284.901	87.88
285.132	78.88
285.364	85.88
285.595	95.88
285.826	79.88
286.057	84.88
286.288	85.88
286.52	70.88
286.751	85.88
286.982	104.88
287.213	85.88
287.444	95.88
287.675	93.88
287.906	92.88
288.138	106.88
288.369	89.88
288.6	92.88
288.831	73.88
289.062	98.88
289.293	92.88
289.524	71.88
289.755	74.88
289.986	83.88
290.217	80.88
290.448	96.88
290.679	91.88
290.91	73.88
291.141	81.88
291.371	92.88
291.602	81.88
291.833	88.88
292.064	81.88
292.295	86.88
292.526	84.88
292.757	90.88
292.987	86.88
293.218	82.88
293.449	84.88
293.68	86.88
293.91	69.88
294.141	82.88
294.372	81.88
294.603	93.88
294.833	82.88
295.064	99.88
295.295	98.88
295.525	89.88
295.756	92.88
295.987	141.88
296.217	152.88
296.448	128.88
296.679	99.88
296.909	88.88
297.14	83.88
297.37	102.88
297.601	93.88
297.831	86.88
298.062	76.88
298.292	76.88
298.523	85.88
298.753	75.88
298.984	91.88
299.214	105.88
299.445	94.88
299.675	88.88
299.905	97.88
300.136	94.88
300.366	85.88
300.597	90.88
300.827	92.88
301.057	97.88
301.288	103.88
301.518	86.88
301.748	92.88
301.979	112.88
302.209	83.88
302.439	92.88
302.669	83.88
302.9	108.88
303.13	88.88
303.36	96.88
303.59	104.88
303.82	105.88
304.051	82.88
304.281	90.88
304.511	102.88
304.741	90.88
304.971	82.88
305.201	84.88
305.431	84.88
305.661	104.88
305.891	107.88
306.121	90.88
306.352	109.88
306.582	106.88
306.812	101.88
307.042	107.88
307.272	92.88
307.502	92.88
307.731	105.88
307.961	98.88
308.191	94.88
308.421	101.88
308.651	94.88
308.881	94.88
309.111	93.88
309.341	95.88
309.571	98.88
309.8	96.88
310.03	106.88
310.26	79.88
310.49	77.88
310.72	91.88
310.949	101.88
311.179	113.88
311.409	94.88
311.639	99.88
311.868	98.88
312.098	89.88
312.328	98.88
312.557	85.88
312.787	118.88
313.017	104.88
313.246	106.88
313.476	98.88
313.706	79.88
313.935	91.88
314.165	107.88
314.394	97.88
314.624	89.88
314.853	90.88
315.083	90.88
315.312	89.88
315.542	92.88
315.771	81.88
316.001	99.88
316.23	93.88
316.46	81.88
316.689	90.88
316.919	105.88
317.148	102.88
317.377	93.88
317.607	91.88
317.836	96.88
318.065	92.88
318.295	102.88
318.524	91.88
318.753	84.88
318.983	80.88
319.212	93.88
319.441	111.88
319.67	104.88
319.9	89.88
320.129	99.88
320.358	104.88
320.587	110.88
320.816	109.88
321.046	98.88
321.275	102.88
321.504	104.88
321.733	86.88
321.962	91.88
322.191	79.88
322.42	101.88
322.649	114.88
322.878	128.88
323.108	103.88
323.337	137.88
323.566	137.88
323.795	165.88
324.024	229.88
324.253	458.88
324.482	1029.88
324.71	2099.88
324.939	2767.88
325.168	975.88
325.397	292.88
325.626	173.88
325.855	137.88
326.084	125.88
326.313	160.88
326.542	171.88
326.77	264.88
326.999	544.88
327.228	1184.88
327.457	2219.88
327.686	1703.88
327.914	448.88
328.143	225.88
328.372	171.88
328.6	127.88
328.829	126.88
329.058	132.88
329.287	131.88
329.515	112.88
329.744	102.88
329.972	111.88
330.201	145.88
330.43	142.88
330.658	143.88
330.887	160.88
331.115	145.88
331.344	102.88
331.572	99.88
331.801	100.88
332.03	105.88
332.258	101.88
332.486	104.88
332.715	95.88
332.943	95.88
333.172	91.88
333.4	95.88
333.629	108.88
333.857	104.88
334.085	107.88
334.314	106.88
334.542	131.88
334.771	130.88
334.999	110.88
335.227	94.88
335.455	95.88
335.684	96.88
335.912	86.88
336.14	95.88
336.369	93.88
336.597	85.88
336.825	101.88
337.053	95.88
337.281	99.88
337.51	75.88
337.738	97.88
337.966	78.88
338.194	98.88
338.422	99.88
338.65	97.88
338.878	90.88
339.106	77.88
339.334	92.88
339.562	99.88
339.79	107.88
340.018	82.88
340.246	102.88
340.474	106.88
340.702	90.88
340.93	93.88
341.158	93.88
341.386	83.88
341.614	95.88
341.842	91.88
342.07	89.88
342.298	97.88
342.526	100.88
342.754	94.88
342.981	94.88
343.209	83.88
343.437	86.88
343.665	92.88
343.893	77.88
344.12	91.88
344.348	84.88
344.576	99.88
344.804	104.88
345.031	100.88
345.259	101.88
345.487	88.88
345.714	102.88
345.942	110.88
346.17	82.88
346.397	86.88
346.625	94.88
346.853	104.88
347.08	100.88
347.308	94.88
347.535	90.88
347.763	113.88
347.99	92.88
348.218	95.88
348.445	101.88
348.673	105.88
348.9	101.88
349.128	90.88
349.355	90.88
349.583	89.88
349.81	83.88
350.037	97.88
350.265	81.88
350.492	108.88
350.72	92.88
350.947	99.88
351.174	110.88
351.402	113.88
351.629	98.88
351.856	97.88
352.083	97.88
352.311	109.88
352.538	99.88
352.765	106.88
352.992	127.88
353.22	117.88
353.447	112.88
353.674	96.88
353.901	92.88
354.128	99.88
354.355	89.88
354.583	78.88
354.81	101.88
355.037	105.88
355.264	97.88
355.491	90.88
355.718	94.88
355.945	91.88
356.172	100.88
356.399	84.88
356.626	97.88
356.853	107.88
357.08	96.88
357.307	89.88
357.534	106.88
357.761	105.88
357.988	88.88
358.215	113.88
358.441	90.88
358.668	68.88
358.895	86.88
359.122	71.88
359.349	89.88
359.576	89.88
359.802	105.88
360.029	120.88
360.256	124.88
360.483	115.88
360.709	95.88
360.936	90.88
361.163	93.88
361.39	99.88
361.616	110.88
361.843	93.88
362.07	102.88
362.296	89.88
362.523	107.88
362.749	89.88
362.976	83.88
363.203	90.88
363.429	86.88
363.656	94.88
363.882	91.88
364.109	91.88
364.335	103.88
364.562	83.88
364.788	91.88
365.015	93.88
365.241	104.88
365.468	97.88
365.694	105.88
365.92	93.88
366.147	82.88
366.373	76.88
366.599	96.88
366.826	86.88
367.052	90.88
367.278	84.88
367.505	84.88
367.731	86.88
367.957	92.88
368.184	90.88
368.41	94.88
368.636	105.88
368.862	124.88
369.089	113.88
369.315	90.88
369.541	87.88
369.767	94.88
369.993	97.88
370.219	102.88
370.445	85.88
370.672	94.88
370.898	91.88
371.124	92.88
371.35	92.88
371.576	81.88
371.802	79.88
372.028	81.88
372.254	83.88
372.48	92.88
372.706	86.88
372.932	100.88
373.158	86.88
373.384	101.88
373.61	82.88
373.835	90.88
374.061	94.88
374.287	90.88
374.513	79.88
374.739	83.88
374.965	78.88
375.191	80.88
375.416	85.88
375.642	90.88
375.868	97.88
376.094	96.88
376.319	83.88
376.545	86.88
376.771	88.88
376.997	81.88
377.222	84.88
377.448	94.88
377.674	98.88
377.899	90.88
378.125	85.88
378.35	86.88
378.576	87.88
378.802	84.88
379.027	85.88
379.253	101.88
379.478	82.88
379.704	83.88
379.929	93.88
380.155	89.88
380.38	99.88
380.606	93.88
380.831	88.88
381.057	85.88
381.282	98.88
381.507	88.88
381.733	94.88
381.958	93.88
382.184	101.88
382.409	94.88
382.634	107.88
382.86	98.88
383.085	103.88
383.31	104.88
383.535	89.88
383.761	94.88
383.986	96.88
384.211	97.88
384.436	83.88
384.662	100.88
384.887	95.88
385.112	85.88
385.337	101.88
385.562	96.88
385.787	95.88
386.013	115.88
386.238	93.88
386.463	99.88
386.688	105.88
386.913	96.88
387.138	111.88
387.363	101.88
387.588	97.88
387.813	94.88
388.038	99.88
388.263	109.88
388.488	94.88
388.713	100.88
388.938	88.88
389.163	79.88
389.387	99.88
389.612	97.88
389.837	88.88
390.062	89.88
390.287	82.88
390.512	87.88
390.736	86.88
390.961	90.88
391.186	109.88
391.411	87.88
391.636	112.88
391.86	91.88
392.085	96.88
392.31	96.88
392.534	99.88
392.759	96.88
392.984	74.88
393.208	69.88
393.433	89.88
393.658	85.88
393.882	74.88
394.107	92.88
394.331	74.88
394.556	84.88
394.78	90.88
395.005	99.88
395.229	64.88
395.454	88.88
395.678	86.88
395.903	81.88
396.127	89.88
396.352	90.88
396.576	86.88
396.801	94.88
397.025	90.88
397.249	94.88
397.474	94.88
397.698	81.88
397.922	86.88
398.147	87.88
398.371	94.88
398.595	76.88
398.82	83.88
399.044	94.88
399.268	73.88
399.492	85.88
399.717	84.88
399.941	85.88
400.165	91.88
400.389	99.88
400.613	85.88
400.837	93.88
401.062	78.88
401.286	96.88
401.51	79.88
401.734	86.88
401.958	102.88
402.182	130.88
402.406	166.88
402.63	124.88
402.854	100.88
403.078	97.88
403.302	88.88
403.526	90.88
403.75	94.88
403.974	93.88
404.198	67.88
404.422	85.88
404.645	83.88
404.869	82.88
405.093	101.88
405.317	101.88
405.541	103.88
405.765	94.88
405.988	121.88
406.212	184.88
406.436	243.88
406.66	159.88
406.883	107.88
407.107	92.88
407.331	100.88
407.555	96.88
407.778	86.88
408.002	99.88
408.226	95.88
408.449	90.88
408.673	93.88
408.896	93.88
409.12	91.88
409.344	88.88
409.567	88.88
409.791	78.88
410.014	85.88
410.238	90.88
410.461	96.88
410.685	96.88
410.908	88.88
411.132	104.88
411.355	96.88
411.578	87.88
411.802	86.88
412.025	84.88
412.249	94.88
412.472	92.88
412.695	107.88
412.919	86.88
413.142	90.88
413.365	76.88
413.589	84.88
413.812	101.88
414.035	84.88
414.258	88.88
414.482	96.88
414.705	86.88
414.928	93.88
415.151	89.88
415.374	84.88
415.597	97.88
415.821	100.88
416.044	81.88
416.267	94.88
416.49	89.88
416.713	82.88
416.936	91.88
417.159	93.88
417.382	88.88
417.605	79.88
417.828	90.88
418.051	86.88
418.274	85.88
418.497	92.88
418.72	99.88
418.943	78.88
419.166	93.88
419.389	97.88
419.611	101.88
419.834	80.88
420.057	79.88
420.28	81.88
420.503	84.88
420.726	86.88
420.948	91.88
421.171	84.88
421.394	91.88
421.617	99.88
421.839	75.88
422.062	106.88
422.285	79.88
422.507	94.88
422.73	102.88
422.953	99.88
423.175	96.88
423.398	93.88
423.621	84.88
423.843	77.88
424.066	75.88
424.288	84.88
424.511	97.88
424.733	91.88
424.956	104.88
425.178	106.88
425.401	102.88
425.623	116.88
425.846	88.88
426.068	91.88
426.291	83.88
426.513	82.88
426.735	88.88
426.958	89.88
427.18	99.88
427.402	121.88
427.625	168.88
427.847	154.88
428.069	117.88
428.292	76.88
428.514	78.88
428.736	72.88
428.958	96.88
429.181	84.88
429.403	92.88
429.625	83.88
429.847	91.88
430.069	99.88
430.292	84.88
430.514	86.88
430.736	79.88
430.958	93.88
431.18	90.88
431.402	79.88
431.624	91.88
431.846	83.88
432.068	83.88
432.29	99.88
432.512	88.88
432.734	70.88
432.956	89.88
433.178	93.88
433.4	93.88
433.622	87.88
433.844	85.88
434.066	84.88
434.287	86.88
434.509	82.88
434.731	86.88
434.953	100.88
435.175	92.88
435.397	78.88
435.618	90.88
435.84	103.88
436.062	133.88
436.284	114.88
436.505	107.88
436.727	88.88
436.949	87.88
437.17	80.88
437.392	93.88
437.614	96.88
437.835	103.88
438.057	116.88
438.278	107.88
438.5	102.88
438.721	117.88
438.943	94.88
439.165	85.88
439.386	88.88
439.608	95.88
439.829	111.88
440.05	139.88
440.272	145.88
440.493	93.88
440.715	90.88
440.936	84.88
441.158	92.88
441.379	88.88
441.6	98.88
441.822	95.88
442.043	86.88
442.264	93.88
442.486	104.88
442.707	103.88
442.928	111.88
443.149	148.88
443.371	120.88
443.592	124.88
443.813	112.88
444.034	110.88
444.255	91.88
444.476	84.88
444.698	87.88
444.919	99.88
445.14	113.88
445.361	109.88
445.582	121.88
445.803	147.88
446.024	154.88
446.245	132.88
446.466	105.88
446.687	89.88
446.908	97.88
447.129	83.88
447.35	75.88
447.571	91.88
447.792	83.88
448.013	94.88
448.234	102.88
448.455	90.88
448.675	105.88
448.896	115.88
449.117	101.88
449.338	111.88
449.559	135.88
449.779	124.88
450	98.88
450.221	82.88
450.442	71.88
450.662	96.88
450.883	121.88
451.104	96.88
451.324	114.88
451.545	96.88
451.766	82.88
451.986	97.88
452.207	84.88
452.428	90.88
452.648	115.88
452.869	113.88
453.089	113.88
453.31	112.88
453.53	86.88
453.751	86.88
453.971	92.88
454.192	97.88
454.412	88.88
454.633	77.88
454.853	88.88
455.073	84.88
455.294	84.88
455.514	103.88
455.734	84.88
455.955	89.88
456.175	83.88
456.395	75.88
456.616	78.88
456.836	72.88
457.056	82.88
457.276	78.88
457.497	92.88
457.717	83.88
457.937	93.88
458.157	74.88
458.377	89.88
458.598	124.88
458.818	170.88
459.038	171.88
459.258	131.88
459.478	86.88
459.698	81.88
459.918	85.88
460.138	62.88
460.358	81.88
460.578	94.88
460.798	96.88
461.018	92.88
461.238	85.88
461.458	76.88
461.678	70.88
461.898	75.88
462.118	88.88
462.338	81.88
462.558	92.88
462.777	85.88
462.997	82.88
463.217	89.88
463.437	86.88
463.657	87.88
463.876	82.88
464.096	83.88
464.316	85.88
464.536	79.88
464.755	94.88
464.975	115.88
465.195	175.88
465.414	175.88
465.634	86.88
465.854	94.88
466.073	84.88
466.293	77.88
466.512	82.88
466.732	69.88
466.951	98.88
467.171	103.88
467.391	87.88
467.61	96.88
467.829	90.88
468.049	82.88
468.268	97.88
468.488	91.88
468.707	91.88
468.927	88.88
469.146	79.88
469.365	80.88
469.585	90.88
469.804	83.88
470.023	103.88
470.243	106.88
470.462	86.88
470.681	110.88
470.901	90.88
471.12	81.88
471.339	69.88
471.558	92.88
471.777	80.88
471.997	100.88
472.216	115.88
472.435	163.88
472.654	93.88
472.873	96.88
473.092	74.88
473.311	69.88
473.53	81.88
473.749	84.88
473.968	90.88
474.187	92.88
474.406	87.88
474.625	76.88
474.844	99.88
475.063	94.88
475.282	93.88
475.501	84.88
475.72	95.88
475.939	80.88
476.158	83.88
476.377	92.88
476.596	83.88
476.814	92.88
477.033	99.88
477.252	86.88
477.471	84.88
477.69	89.88
477.908	85.88
478.127	91.88
478.346	76.88
478.564	90.88
478.783	91.88
479.002	89.88
479.22	82.88
479.439	99.88
479.658	99.88
479.876	99.88
480.095	104.88
480.313	98.88
480.532	82.88
480.751	91.88
480.969	106.88
481.188	220.88
481.406	155.88
481.624	108.88
481.843	100.88
482.061	80.88
482.28	83.88
482.498	76.88
482.717	88.88
482.935	86.88
483.153	77.88
483.372	85.88
483.59	86.88
483.808	88.88
484.027	78.88
484.245	93.88
484.463	94.88
484.681	96.88
484.9	85.88
485.118	82.88
485.336	81.88
485.554	88.88
485.772	95.88
485.99	97.88
486.209	98.88
486.427	96.88
486.645	106.88
486.863	117.88
487.081	100.88
487.299	97.88
487.517	97.88
487.735	92.88
487.953	83.88
488.171	104.88
488.389	84.88
488.607	105.88
488.825	94.88
489.043	95.88
489.261	92.88
489.479	92.88
489.696	97.88
489.914	83.88
490.132	68.88
490.35	94.88
490.568	88.88
490.786	93.88
491.003	93.88
491.221	92.88
491.439	89.88
491.657	84.88
491.874	92.88
492.092	80.88
492.31	87.88
492.527	85.88
492.745	81.88
492.963	95.88
493.18	85.88
493.398	91.88
493.615	98.88
493.833	95.88
494.05	85.88
494.268	80.88
494.485	80.88
494.703	74.88
494.92	86.88
495.138	83.88
495.355	87.88
495.573	80.88
495.79	98.88
496.008	91.88
496.225	81.88
496.442	81.88
496.66	86.88
496.877	94.88
497.094	77.88
497.312	94.88
497.529	85.88
497.746	110.88
497.963	73.88
498.181	89.88
498.398	94.88
498.615	104.88
498.832	94.88
499.049	102.88
499.267	101.88
499.484	82.88
499.701	88.88
499.918	90.88
500.135	84.88
500.352	83.88
500.569	86.88
500.786	87.88
501.003	86.88
501.22	94.88
501.437	84.88
501.654	91.88
501.871	106.88
502.088	91.88
502.305	83.88
502.522	91.88
502.739	86.88
502.956	84.88
503.172	96.88
503.389	100.88
503.606	102.88
503.823	89.88
504.04	88.88
504.256	92.88
504.473	101.88
504.69	72.88
504.907	79.88
505.123	86.88
505.34	93.88
505.557	78.88
505.773	91.88
505.99	97.88
506.207	88.88
506.423	85.88
506.64	80.88
506.856	100.88
507.073	106.88
507.289	100.88
507.506	86.88
507.722	113.88
507.939	109.88
508.155	90.88
508.372	89.88
508.588	94.88
508.805	104.88
509.021	96.88
509.238	100.88
509.454	91.88
509.67	105.88
509.887	117.88
510.103	138.88
510.319	229.88
510.536	864.88
510.752	2859.88
510.968	814.88
511.184	186.88
511.401	123.88
511.617	99.88
511.833	97.88
512.049	84.88
512.265	87.88
512.481	98.88
512.698	88.88
512.914	86.88
513.13	88.88
513.346	82.88
513.562	80.88
513.778	101.88
513.994	93.88
514.21	113.88
514.426	126.88
514.642	134.88
514.858	115.88
515.074	188.88
515.29	507.88
515.506	1780.88
515.721	660.88
515.937	161.88
