Data from Circ_2006_H10_HRD10591_00032.txt Node
Date: Wed Jan 03 10:26:10 EST 2024
User: Yrep
Spectrometer: HR+D1059
Trigger mode: 1
Integration Time (sec): 1.000000E-1
Scans to average: 1
Electric dark correction enabled: true
Nonlinearity correction enabled: false
Boxcar width: 0
XAxis mode: Wavelengths
Number of Pixels in Spectrum: 2048
>>>>>Begin Spectral Data<<<<<
223.165	-25.19
223.4	-25.19
223.635	-25.19
223.869	-33.19
224.104	-26.19
224.338	-26.19
224.573	-22.19
224.808	-19.19
225.042	-0.19
225.277	-2.19
225.511	6.81
225.746	13.81
225.98	-7.19
226.215	24.81
226.449	29.81
226.683	30.81
226.918	18.81
227.152	36.81
227.387	31.81
227.621	22.81
227.856	51.81
228.09	39.81
228.324	51.81
228.559	55.81
228.793	64.81
229.027	61.81
229.262	56.81
229.496	78.81
229.73	89.81
229.964	97.81
230.199	78.81
230.433	63.81
230.667	81.81
230.901	70.81
231.136	77.81
231.37	77.81
231.604	89.81
231.838	77.81
232.072	77.81
232.306	81.81
232.541	89.81
232.775	83.81
233.009	76.81
233.243	75.81
233.477	86.81
233.711	72.81
233.945	71.81
234.179	84.81
234.413	71.81
234.647	82.81
234.881	71.81
235.115	75.81
235.349	75.81
235.583	87.81
235.817	85.81
236.051	80.81
236.285	72.81
236.519	79.81
236.753	80.81
236.987	87.81
237.221	76.81
237.455	78.81
237.689	88.81
237.922	79.81
238.156	68.81
238.39	82.81
238.624	86.81
238.858	86.81
239.091	86.81
239.325	84.81
239.559	72.81
239.793	89.81
240.027	84.81
240.26	71.81
240.494	79.81
240.728	74.81
240.961	76.81
241.195	72.81
241.429	76.81
241.662	62.81
241.896	86.81
242.13	74.81
242.363	88.81
242.597	82.81
242.83	72.81
243.064	80.81
243.298	77.81
243.531	87.81
243.765	63.81
243.998	69.81
244.232	76.81
244.465	80.81
244.699	80.81
244.932	75.81
245.166	83.81
245.399	71.81
245.633	75.81
245.866	75.81
246.099	66.81
246.333	89.81
246.566	74.81
246.8	66.81
247.033	74.81
247.266	72.81
247.5	88.81
247.733	74.81
247.966	78.81
248.2	72.81
248.433	68.81
248.666	88.81
248.899	95.81
249.133	87.81
249.366	112.81
249.599	102.81
249.832	89.81
250.066	80.81
250.299	87.81
250.532	95.81
250.765	67.81
250.998	87.81
251.231	79.81
251.465	82.81
251.698	88.81
251.931	87.81
252.164	61.81
252.397	72.81
252.63	77.81
252.863	88.81
253.096	88.81
253.329	88.81
253.562	85.81
253.795	82.81
254.028	85.81
254.261	75.81
254.494	77.81
254.727	93.81
254.96	91.81
255.193	87.81
255.426	92.81
255.659	80.81
255.892	85.81
256.124	80.81
256.357	62.81
256.59	81.81
256.823	93.81
257.056	94.81
257.289	85.81
257.521	87.81
257.754	82.81
257.987	84.81
258.22	79.81
258.452	81.81
258.685	87.81
258.918	93.81
259.151	75.81
259.383	81.81
259.616	84.81
259.849	81.81
260.081	85.81
260.314	86.81
260.547	85.81
260.779	79.81
261.012	78.81
261.244	83.81
261.477	100.81
261.71	107.81
261.942	120.81
262.175	128.81
262.407	89.81
262.64	81.81
262.872	71.81
263.105	77.81
263.337	91.81
263.57	84.81
263.802	93.81
264.035	87.81
264.267	95.81
264.499	80.81
264.732	88.81
264.964	86.81
265.197	84.81
265.429	80.81
265.661	81.81
265.894	97.81
266.126	89.81
266.358	87.81
266.591	92.81
266.823	84.81
267.055	96.81
267.287	87.81
267.52	83.81
267.752	80.81
267.984	99.81
268.216	76.81
268.448	87.81
268.681	82.81
268.913	87.81
269.145	106.81
269.377	87.81
269.609	86.81
269.841	79.81
270.073	83.81
270.306	89.81
270.538	89.81
270.77	92.81
271.002	95.81
271.234	87.81
271.466	85.81
271.698	92.81
271.93	93.81
272.162	94.81
272.394	81.81
272.626	80.81
272.858	82.81
273.09	90.81
273.322	83.81
273.553	92.81
273.785	74.81
274.017	82.81
274.249	95.81
274.481	81.81
274.713	86.81
274.945	97.81
275.176	79.81
275.408	82.81
275.64	95.81
275.872	92.81
276.104	94.81
276.335	82.81
276.567	88.81
276.799	117.81
277.031	104.81
277.262	107.81
277.494	89.81
277.726	86.81
277.957	94.81
278.189	87.81
278.421	95.81
278.652	93.81
278.884	88.81
279.115	80.81
279.347	94.81
279.579	99.81
279.81	81.81
280.042	76.81
280.273	93.81
280.505	91.81
280.736	88.81
280.968	85.81
281.199	84.81
281.431	95.81
281.662	95.81
281.894	101.81
282.125	94.81
282.356	130.81
282.588	167.81
282.819	128.81
283.051	102.81
283.282	98.81
283.513	106.81
283.745	84.81
283.976	99.81
284.207	89.81
284.439	95.81
284.67	92.81
284.901	93.81
285.132	82.81
285.364	96.81
285.595	89.81
285.826	86.81
286.057	92.81
286.288	71.81
286.52	82.81
286.751	84.81
286.982	97.81
287.213	99.81
287.444	79.81
287.675	79.81
287.906	87.81
288.138	81.81
288.369	96.81
288.6	100.81
288.831	81.81
289.062	85.81
289.293	80.81
289.524	88.81
289.755	72.81
289.986	80.81
290.217	86.81
290.448	71.81
290.679	84.81
290.91	88.81
291.141	88.81
291.371	92.81
291.602	82.81
291.833	95.81
292.064	95.81
292.295	92.81
292.526	78.81
292.757	91.81
292.987	96.81
293.218	92.81
293.449	83.81
293.68	87.81
293.91	84.81
294.141	85.81
294.372	91.81
294.603	89.81
294.833	89.81
295.064	86.81
295.295	77.81
295.525	92.81
295.756	106.81
295.987	139.81
296.217	155.81
296.448	132.81
296.679	94.81
296.909	97.81
297.14	98.81
297.37	79.81
297.601	89.81
297.831	98.81
298.062	98.81
298.292	84.81
298.523	88.81
298.753	85.81
298.984	90.81
299.214	93.81
299.445	99.81
299.675	94.81
299.905	107.81
300.136	83.81
300.366	92.81
300.597	82.81
300.827	94.81
301.057	99.81
301.288	98.81
301.518	103.81
301.748	90.81
301.979	108.81
302.209	101.81
302.439	79.81
302.669	100.81
302.9	92.81
303.13	96.81
303.36	101.81
303.59	107.81
303.82	101.81
304.051	102.81
304.281	95.81
304.511	85.81
304.741	88.81
304.971	84.81
305.201	95.81
305.431	88.81
305.661	86.81
305.891	99.81
306.121	89.81
306.352	105.81
306.582	96.81
306.812	99.81
307.042	77.81
307.272	84.81
307.502	97.81
307.731	93.81
307.961	87.81
308.191	92.81
308.421	88.81
308.651	87.81
308.881	95.81
309.111	104.81
309.341	101.81
309.571	96.81
309.8	108.81
310.03	104.81
310.26	109.81
310.49	91.81
310.72	103.81
310.949	111.81
311.179	103.81
311.409	83.81
311.639	96.81
311.868	111.81
312.098	99.81
312.328	102.81
312.557	112.81
312.787	97.81
313.017	110.81
313.246	87.81
313.476	92.81
313.706	88.81
313.935	85.81
314.165	104.81
314.394	107.81
314.624	103.81
314.853	83.81
315.083	96.81
315.312	100.81
315.542	78.81
315.771	93.81
316.001	91.81
316.23	89.81
316.46	85.81
316.689	104.81
316.919	103.81
317.148	97.81
317.377	100.81
317.607	94.81
317.836	98.81
318.065	108.81
318.295	98.81
318.524	100.81
318.753	104.81
318.983	96.81
319.212	95.81
319.441	111.81
319.67	113.81
319.9	110.81
320.129	112.81
320.358	102.81
320.587	98.81
320.816	110.81
321.046	100.81
321.275	99.81
321.504	105.81
321.733	103.81
321.962	103.81
322.191	106.81
322.42	104.81
322.649	117.81
322.878	109.81
323.108	141.81
323.337	137.81
323.566	161.81
323.795	189.81
324.024	271.81
324.253	515.81
324.482	1156.81
324.71	2411.81
324.939	3144.81
325.168	1107.81
325.397	299.81
325.626	184.81
325.855	148.81
326.084	137.81
326.313	148.81
326.542	176.81
326.77	297.81
326.999	601.81
327.228	1281.81
327.457	2387.81
327.686	1861.81
327.914	481.81
328.143	236.81
328.372	168.81
328.6	155.81
328.829	134.81
329.058	144.81
329.287	142.81
329.515	143.81
329.744	107.81
329.972	109.81
330.201	109.81
330.43	125.81
330.658	141.81
330.887	152.81
331.115	133.81
331.344	109.81
331.572	105.81
331.801	110.81
332.03	107.81
332.258	112.81
332.486	93.81
332.715	102.81
332.943	94.81
333.172	96.81
333.4	114.81
333.629	110.81
333.857	124.81
334.085	119.81
334.314	110.81
334.542	116.81
334.771	117.81
334.999	107.81
335.227	100.81
335.455	97.81
335.684	108.81
335.912	102.81
336.14	117.81
336.369	111.81
336.597	97.81
336.825	113.81
337.053	78.81
337.281	92.81
337.51	86.81
337.738	104.81
337.966	93.81
338.194	92.81
338.422	107.81
338.65	95.81
338.878	99.81
339.106	93.81
339.334	101.81
339.562	80.81
339.79	96.81
340.018	93.81
340.246	89.81
340.474	100.81
340.702	87.81
340.93	78.81
341.158	96.81
341.386	105.81
341.614	101.81
341.842	92.81
342.07	98.81
342.298	91.81
342.526	96.81
342.754	88.81
342.981	96.81
343.209	91.81
343.437	98.81
343.665	93.81
343.893	105.81
344.12	97.81
344.348	97.81
344.576	102.81
344.804	92.81
345.031	93.81
345.259	97.81
345.487	90.81
345.714	100.81
345.942	96.81
346.17	102.81
346.397	88.81
346.625	95.81
346.853	99.81
347.08	99.81
347.308	94.81
347.535	95.81
347.763	93.81
347.99	103.81
348.218	109.81
348.445	111.81
348.673	96.81
348.9	84.81
349.128	111.81
349.355	108.81
349.583	101.81
349.81	89.81
350.037	113.81
350.265	93.81
350.492	93.81
350.72	105.81
350.947	108.81
351.174	120.81
351.402	118.81
351.629	112.81
351.856	100.81
352.083	110.81
352.311	119.81
352.538	117.81
352.765	127.81
352.992	124.81
353.22	135.81
353.447	107.81
353.674	104.81
353.901	99.81
354.128	100.81
354.355	107.81
354.583	99.81
354.81	109.81
355.037	103.81
355.264	102.81
355.491	108.81
355.718	87.81
355.945	97.81
356.172	102.81
356.399	102.81
356.626	87.81
356.853	91.81
357.08	103.81
357.307	112.81
357.534	106.81
357.761	94.81
357.988	104.81
358.215	79.81
358.441	102.81
358.668	93.81
358.895	99.81
359.122	94.81
359.349	82.81
359.576	90.81
359.802	101.81
360.029	121.81
360.256	125.81
360.483	101.81
360.709	100.81
360.936	104.81
361.163	99.81
361.39	114.81
361.616	102.81
361.843	87.81
362.07	107.81
362.296	108.81
362.523	83.81
362.749	110.81
362.976	103.81
363.203	89.81
363.429	90.81
363.656	102.81
363.882	93.81
364.109	84.81
364.335	91.81
364.562	98.81
364.788	91.81
365.015	97.81
365.241	101.81
365.468	120.81
365.694	112.81
365.92	117.81
366.147	91.81
366.373	104.81
366.599	93.81
366.826	84.81
367.052	88.81
367.278	95.81
367.505	92.81
367.731	92.81
367.957	94.81
368.184	98.81
368.41	98.81
368.636	108.81
368.862	125.81
369.089	116.81
369.315	108.81
369.541	97.81
369.767	90.81
369.993	88.81
370.219	87.81
370.445	88.81
370.672	85.81
370.898	84.81
371.124	93.81
371.35	82.81
371.576	95.81
371.802	92.81
372.028	98.81
372.254	85.81
372.48	88.81
372.706	95.81
372.932	81.81
373.158	90.81
373.384	81.81
373.61	98.81
373.835	95.81
374.061	93.81
374.287	90.81
374.513	94.81
374.739	84.81
374.965	86.81
375.191	76.81
375.416	92.81
375.642	92.81
375.868	96.81
376.094	100.81
376.319	85.81
376.545	92.81
376.771	91.81
376.997	93.81
377.222	101.81
377.448	96.81
377.674	93.81
377.899	99.81
378.125	83.81
378.35	92.81
378.576	111.81
378.802	80.81
379.027	83.81
379.253	96.81
379.478	115.81
379.704	99.81
379.929	110.81
380.155	98.81
380.38	100.81
380.606	106.81
380.831	113.81
381.057	86.81
381.282	115.81
381.507	92.81
381.733	93.81
381.958	91.81
382.184	101.81
382.409	95.81
382.634	109.81
382.86	113.81
383.085	108.81
383.31	100.81
383.535	123.81
383.761	90.81
383.986	102.81
384.211	92.81
384.436	101.81
384.662	103.81
384.887	117.81
385.112	110.81
385.337	116.81
385.562	112.81
385.787	113.81
386.013	110.81
386.238	128.81
386.463	101.81
386.688	110.81
386.913	105.81
387.138	113.81
387.363	112.81
387.588	106.81
387.813	105.81
388.038	107.81
388.263	112.81
388.488	102.81
388.713	92.81
388.938	89.81
389.163	85.81
389.387	96.81
389.612	88.81
389.837	97.81
390.062	99.81
390.287	100.81
390.512	94.81
390.736	103.81
390.961	84.81
391.186	88.81
391.411	88.81
391.636	100.81
391.86	96.81
392.085	90.81
392.31	99.81
392.534	88.81
392.759	83.81
392.984	108.81
393.208	111.81
393.433	93.81
393.658	102.81
393.882	95.81
394.107	91.81
394.331	96.81
394.556	84.81
394.78	91.81
395.005	83.81
395.229	95.81
395.454	85.81
395.678	72.81
395.903	88.81
396.127	100.81
396.352	110.81
396.576	97.81
396.801	78.81
397.025	86.81
397.249	92.81
397.474	77.81
397.698	87.81
397.922	93.81
398.147	88.81
398.371	86.81
398.595	89.81
398.82	95.81
399.044	99.81
399.268	86.81
399.492	97.81
399.717	97.81
399.941	93.81
400.165	100.81
400.389	102.81
400.613	85.81
400.837	84.81
401.062	85.81
401.286	103.81
401.51	94.81
401.734	94.81
401.958	102.81
402.182	136.81
402.406	169.81
402.63	140.81
402.854	107.81
403.078	94.81
403.302	85.81
403.526	95.81
403.75	93.81
403.974	94.81
404.198	101.81
404.422	93.81
404.645	86.81
404.869	98.81
405.093	96.81
405.317	117.81
405.541	122.81
405.765	104.81
405.988	123.81
406.212	203.81
406.436	272.81
406.66	168.81
406.883	115.81
407.107	100.81
407.331	103.81
407.555	115.81
407.778	109.81
408.002	82.81
408.226	92.81
408.449	85.81
408.673	88.81
408.896	97.81
409.12	102.81
409.344	86.81
409.567	93.81
409.791	95.81
410.014	111.81
410.238	89.81
410.461	81.81
410.685	114.81
410.908	101.81
411.132	109.81
411.355	102.81
411.578	95.81
411.802	92.81
412.025	95.81
412.249	95.81
412.472	68.81
412.695	99.81
412.919	85.81
413.142	104.81
413.365	89.81
413.589	86.81
413.812	84.81
414.035	87.81
414.258	87.81
414.482	86.81
414.705	96.81
414.928	80.81
415.151	94.81
415.374	97.81
415.597	88.81
415.821	85.81
416.044	107.81
416.267	95.81
416.49	93.81
416.713	97.81
416.936	97.81
417.159	97.81
417.382	83.81
417.605	86.81
417.828	98.81
418.051	93.81
418.274	72.81
418.497	87.81
418.72	80.81
418.943	88.81
419.166	89.81
419.389	95.81
419.611	87.81
419.834	87.81
420.057	86.81
420.28	95.81
420.503	101.81
420.726	89.81
420.948	85.81
421.171	101.81
421.394	98.81
421.617	95.81
421.839	93.81
422.062	81.81
422.285	96.81
422.507	105.81
422.73	113.81
422.953	90.81
423.175	96.81
423.398	94.81
423.621	87.81
423.843	96.81
424.066	101.81
424.288	76.81
424.511	90.81
424.733	92.81
424.956	112.81
425.178	104.81
425.401	105.81
425.623	116.81
425.846	95.81
426.068	97.81
426.291	100.81
426.513	98.81
426.735	103.81
426.958	88.81
427.18	104.81
427.402	160.81
427.625	208.81
427.847	173.81
428.069	119.81
428.292	95.81
428.514	85.81
428.736	90.81
428.958	95.81
429.181	90.81
429.403	100.81
429.625	98.81
429.847	94.81
430.069	100.81
430.292	101.81
430.514	87.81
430.736	91.81
430.958	91.81
431.18	74.81
431.402	88.81
431.624	79.81
431.846	90.81
432.068	99.81
432.29	80.81
432.512	83.81
432.734	96.81
432.956	98.81
433.178	112.81
433.4	119.81
433.622	96.81
433.844	98.81
434.066	92.81
434.287	100.81
434.509	92.81
434.731	89.81
434.953	82.81
435.175	82.81
435.397	96.81
435.618	101.81
435.84	110.81
436.062	133.81
436.284	125.81
436.505	105.81
436.727	104.81
436.949	99.81
437.17	83.81
437.392	93.81
437.614	93.81
437.835	107.81
438.057	127.81
438.278	128.81
438.5	114.81
438.721	131.81
438.943	117.81
439.165	104.81
439.386	87.81
439.608	94.81
439.829	110.81
440.05	149.81
440.272	170.81
440.493	117.81
440.715	80.81
440.936	97.81
441.158	97.81
441.379	92.81
441.6	103.81
441.822	75.81
442.043	100.81
442.264	109.81
442.486	124.81
442.707	106.81
442.928	121.81
443.149	145.81
443.371	160.81
443.592	115.81
443.813	119.81
444.034	123.81
444.255	99.81
444.476	89.81
444.698	85.81
444.919	87.81
445.14	109.81
445.361	146.81
445.582	135.81
445.803	169.81
446.024	153.81
446.245	153.81
446.466	115.81
446.687	107.81
446.908	75.81
447.129	81.81
447.35	87.81
447.571	101.81
447.792	110.81
448.013	104.81
448.234	108.81
448.455	121.81
448.675	117.81
448.896	123.81
449.117	117.81
449.338	88.81
449.559	148.81
449.779	162.81
450	109.81
450.221	94.81
450.442	91.81
450.662	93.81
450.883	97.81
451.104	119.81
451.324	103.81
451.545	95.81
451.766	92.81
451.986	106.81
452.207	85.81
452.428	102.81
452.648	95.81
452.869	120.81
453.089	120.81
453.31	121.81
453.53	100.81
453.751	103.81
453.971	105.81
454.192	108.81
454.412	104.81
454.633	96.81
454.853	94.81
455.073	89.81
455.294	99.81
455.514	99.81
455.734	96.81
455.955	107.81
456.175	81.81
456.395	97.81
456.616	88.81
456.836	69.81
457.056	76.81
457.276	84.81
457.497	89.81
457.717	87.81
457.937	100.81
458.157	100.81
458.377	86.81
458.598	103.81
458.818	172.81
459.038	184.81
459.258	119.81
459.478	93.81
459.698	85.81
459.918	93.81
460.138	84.81
460.358	86.81
460.578	103.81
460.798	97.81
461.018	87.81
461.238	89.81
461.458	95.81
461.678	92.81
461.898	95.81
462.118	83.81
462.338	83.81
462.558	87.81
462.777	83.81
462.997	90.81
463.217	84.81
463.437	98.81
463.657	89.81
463.876	69.81
464.096	84.81
464.316	89.81
464.536	90.81
464.755	111.81
464.975	119.81
465.195	197.81
465.414	194.81
465.634	99.81
465.854	88.81
466.073	96.81
466.293	89.81
466.512	85.81
466.732	82.81
466.951	89.81
467.171	102.81
467.391	109.81
467.61	101.81
467.829	93.81
468.049	106.81
468.268	96.81
468.488	80.81
468.707	91.81
468.927	85.81
469.146	88.81
469.365	103.81
469.585	89.81
469.804	105.81
470.023	109.81
470.243	90.81
470.462	110.81
470.681	116.81
470.901	90.81
471.12	81.81
471.339	96.81
471.558	89.81
471.777	98.81
471.997	98.81
472.216	103.81
472.435	144.81
472.654	97.81
472.873	87.81
473.092	78.81
473.311	86.81
473.53	85.81
473.749	94.81
473.968	104.81
474.187	112.81
474.406	102.81
474.625	107.81
474.844	87.81
475.063	73.81
475.282	77.81
475.501	90.81
475.72	97.81
475.939	93.81
476.158	90.81
476.377	94.81
476.596	81.81
476.814	98.81
477.033	99.81
477.252	100.81
477.471	88.81
477.69	103.81
477.908	90.81
478.127	85.81
478.346	101.81
478.564	88.81
478.783	97.81
479.002	109.81
479.22	105.81
479.439	105.81
479.658	116.81
479.876	100.81
480.095	88.81
480.313	100.81
480.532	104.81
480.751	93.81
480.969	97.81
481.188	169.81
481.406	142.81
481.624	106.81
481.843	93.81
482.061	90.81
482.28	94.81
482.498	99.81
482.717	96.81
482.935	103.81
483.153	81.81
483.372	104.81
483.59	93.81
483.808	104.81
484.027	102.81
484.245	116.81
484.463	98.81
484.681	90.81
484.9	89.81
485.118	102.81
485.336	107.81
485.554	109.81
485.772	118.81
485.99	120.81
486.209	123.81
486.427	101.81
486.645	110.81
486.863	118.81
487.081	98.81
487.299	96.81
487.517	88.81
487.735	100.81
487.953	96.81
488.171	89.81
488.389	101.81
488.607	116.81
488.825	88.81
489.043	99.81
489.261	105.81
489.479	108.81
489.696	98.81
489.914	89.81
490.132	95.81
490.35	78.81
490.568	81.81
490.786	91.81
491.003	99.81
491.221	84.81
491.439	100.81
491.657	109.81
491.874	78.81
492.092	93.81
492.31	89.81
492.527	83.81
492.745	104.81
492.963	93.81
493.18	84.81
493.398	109.81
493.615	110.81
493.833	98.81
494.05	84.81
494.268	90.81
494.485	85.81
494.703	95.81
494.92	89.81
495.138	101.81
495.355	98.81
495.573	84.81
495.79	83.81
496.008	101.81
496.225	95.81
496.442	85.81
496.66	85.81
496.877	90.81
497.094	90.81
497.312	94.81
497.529	94.81
497.746	105.81
497.963	91.81
498.181	109.81
498.398	111.81
498.615	118.81
498.832	117.81
499.049	99.81
499.267	88.81
499.484	89.81
499.701	75.81
499.918	101.81
500.135	89.81
500.352	78.81
500.569	88.81
500.786	82.81
501.003	87.81
501.22	92.81
501.437	112.81
501.654	112.81
501.871	113.81
502.088	97.81
502.305	82.81
502.522	89.81
502.739	92.81
502.956	77.81
503.172	86.81
503.389	112.81
503.606	103.81
503.823	115.81
504.04	104.81
504.256	95.81
504.473	103.81
504.69	104.81
504.907	95.81
505.123	83.81
505.34	97.81
505.557	83.81
505.773	90.81
505.99	94.81
506.207	96.81
506.423	85.81
506.64	99.81
506.856	91.81
507.073	85.81
507.289	97.81
507.506	96.81
507.722	113.81
507.939	136.81
508.155	90.81
508.372	96.81
508.588	92.81
508.805	95.81
509.021	103.81
509.238	91.81
509.454	88.81
509.67	106.81
509.887	105.81
510.103	145.81
510.319	231.81
510.536	881.81
510.752	3006.81
510.968	831.81
511.184	180.81
511.401	135.81
511.617	103.81
511.833	103.81
512.049	105.81
512.265	102.81
512.481	97.81
512.698	83.81
512.914	87.81
513.13	101.81
513.346	103.81
513.562	99.81
513.778	105.81
