Data from Circ_2006_H10_HRD10591_00055.txt Node
Date: Wed Jan 03 10:26:14 EST 2024
User: Yrep
Spectrometer: HR+D1059
Trigger mode: 1
Integration Time (sec): 1.000000E-1
Scans to average: 1
Electric dark correction enabled: true
Nonlinearity correction enabled: false
Boxcar width: 0
XAxis mode: Wavelengths
Number of Pixels in Spectrum: 2048
>>>>>Begin Spectral Data<<<<<
223.165	-20.69
223.4	-20.69
223.635	-20.69
223.869	-27.69
224.104	-20.69
224.338	-33.69
224.573	-0.69
224.808	-16.69
225.042	-2.69
225.277	-5.69
225.511	4.31
225.746	-1.69
225.98	-13.69
226.215	12.31
226.449	35.31
226.683	12.31
226.918	38.31
227.152	41.31
227.387	31.31
227.621	42.31
227.856	43.31
228.09	54.31
228.324	46.31
228.559	41.31
228.793	49.31
229.027	57.31
229.262	59.31
229.496	56.31
229.73	88.31
229.964	111.31
230.199	79.31
230.433	77.31
230.667	77.31
230.901	73.31
231.136	74.31
231.37	86.31
231.604	83.31
231.838	70.31
232.072	78.31
232.306	74.31
232.541	89.31
232.775	64.31
233.009	76.31
233.243	85.31
233.477	93.31
233.711	75.31
233.945	72.31
234.179	78.31
234.413	63.31
234.647	72.31
234.881	84.31
235.115	84.31
235.349	75.31
235.583	70.31
235.817	83.31
236.051	71.31
236.285	82.31
236.519	76.31
236.753	79.31
236.987	90.31
237.221	78.31
237.455	79.31
237.689	72.31
237.922	74.31
238.156	69.31
238.39	78.31
238.624	77.31
238.858	77.31
239.091	70.31
239.325	70.31
239.559	84.31
239.793	88.31
240.027	71.31
240.26	66.31
240.494	80.31
240.728	76.31
240.961	81.31
241.195	73.31
241.429	78.31
241.662	81.31
241.896	82.31
242.13	70.31
242.363	57.31
242.597	60.31
242.83	70.31
243.064	70.31
243.298	74.31
243.531	84.31
243.765	85.31
243.998	95.31
244.232	67.31
244.465	79.31
244.699	83.31
244.932	94.31
245.166	89.31
245.399	74.31
245.633	77.31
245.866	72.31
246.099	74.31
246.333	76.31
246.566	88.31
246.8	78.31
247.033	78.31
247.266	80.31
247.5	80.31
247.733	75.31
247.966	67.31
248.2	86.31
248.433	78.31
248.666	79.31
248.899	67.31
249.133	78.31
249.366	98.31
249.599	97.31
249.832	77.31
250.066	84.31
250.299	73.31
250.532	76.31
250.765	75.31
250.998	76.31
251.231	86.31
251.465	67.31
251.698	70.31
251.931	78.31
252.164	78.31
252.397	85.31
252.63	79.31
252.863	82.31
253.096	74.31
253.329	69.31
253.562	73.31
253.795	82.31
254.028	95.31
254.261	86.31
254.494	72.31
254.727	88.31
254.96	72.31
255.193	76.31
255.426	70.31
255.659	68.31
255.892	81.31
256.124	73.31
256.357	85.31
256.59	89.31
256.823	79.31
257.056	74.31
257.289	67.31
257.521	89.31
257.754	79.31
257.987	75.31
258.22	79.31
258.452	72.31
258.685	68.31
258.918	78.31
259.151	85.31
259.383	72.31
259.616	72.31
259.849	71.31
260.081	73.31
260.314	76.31
260.547	77.31
260.779	85.31
261.012	79.31
261.244	90.31
261.477	79.31
261.71	91.31
261.942	121.31
262.175	136.31
262.407	93.31
262.64	90.31
262.872	79.31
263.105	70.31
263.337	86.31
263.57	78.31
263.802	87.31
264.035	80.31
264.267	76.31
264.499	80.31
264.732	75.31
264.964	83.31
265.197	70.31
265.429	76.31
265.661	73.31
265.894	79.31
266.126	90.31
266.358	90.31
266.591	78.31
266.823	84.31
267.055	89.31
267.287	71.31
267.52	82.31
267.752	81.31
267.984	81.31
268.216	77.31
268.448	76.31
268.681	80.31
268.913	83.31
269.145	76.31
269.377	81.31
269.609	70.31
269.841	90.31
270.073	82.31
270.306	91.31
270.538	97.31
270.77	87.31
271.002	88.31
271.234	92.31
271.466	75.31
271.698	87.31
271.93	80.31
272.162	80.31
272.394	80.31
272.626	88.31
272.858	93.31
273.09	92.31
273.322	88.31
273.553	75.31
273.785	92.31
274.017	85.31
274.249	87.31
274.481	88.31
274.713	76.31
274.945	74.31
275.176	90.31
275.408	78.31
275.64	92.31
275.872	93.31
276.104	83.31
276.335	94.31
276.567	113.31
276.799	118.31
277.031	96.31
277.262	84.31
277.494	96.31
277.726	83.31
277.957	87.31
278.189	76.31
278.421	85.31
278.652	83.31
278.884	82.31
279.115	83.31
279.347	83.31
279.579	100.31
279.81	86.31
280.042	88.31
280.273	93.31
280.505	90.31
280.736	82.31
280.968	96.31
281.199	95.31
281.431	85.31
281.662	70.31
281.894	98.31
282.125	104.31
282.356	131.31
282.588	172.31
282.819	127.31
283.051	92.31
283.282	96.31
283.513	80.31
283.745	82.31
283.976	81.31
284.207	89.31
284.439	84.31
284.67	88.31
284.901	95.31
285.132	86.31
285.364	83.31
285.595	83.31
285.826	84.31
286.057	90.31
286.288	89.31
286.52	81.31
286.751	101.31
286.982	84.31
287.213	82.31
287.444	83.31
287.675	75.31
287.906	85.31
288.138	93.31
288.369	78.31
288.6	79.31
288.831	88.31
289.062	96.31
289.293	81.31
289.524	76.31
289.755	79.31
289.986	79.31
290.217	86.31
290.448	79.31
290.679	87.31
290.91	95.31
291.141	84.31
291.371	85.31
291.602	85.31
291.833	87.31
292.064	101.31
292.295	92.31
292.526	80.31
292.757	83.31
292.987	95.31
293.218	93.31
293.449	84.31
293.68	80.31
293.91	81.31
294.141	87.31
294.372	87.31
294.603	91.31
294.833	88.31
295.064	88.31
295.295	91.31
295.525	84.31
295.756	98.31
295.987	126.31
296.217	160.31
296.448	139.31
296.679	87.31
296.909	87.31
297.14	88.31
297.37	101.31
297.601	83.31
297.831	91.31
298.062	96.31
298.292	95.31
298.523	103.31
298.753	89.31
298.984	107.31
299.214	85.31
299.445	92.31
299.675	93.31
299.905	88.31
300.136	85.31
300.366	90.31
300.597	94.31
300.827	112.31
301.057	103.31
301.288	100.31
301.518	97.31
301.748	91.31
301.979	105.31
302.209	98.31
302.439	90.31
302.669	82.31
302.9	92.31
303.13	97.31
303.36	84.31
303.59	108.31
303.82	123.31
304.051	90.31
304.281	91.31
304.511	77.31
304.741	96.31
304.971	90.31
305.201	90.31
305.431	88.31
305.661	94.31
305.891	80.31
306.121	108.31
306.352	97.31
306.582	107.31
306.812	94.31
307.042	99.31
307.272	106.31
307.502	92.31
307.731	86.31
307.961	95.31
308.191	75.31
308.421	74.31
308.651	93.31
308.881	102.31
309.111	85.31
309.341	83.31
309.571	109.31
309.8	98.31
310.03	91.31
310.26	101.31
310.49	89.31
310.72	95.31
310.949	95.31
311.179	92.31
311.409	89.31
311.639	84.31
311.868	108.31
312.098	79.31
312.328	105.31
312.557	99.31
312.787	121.31
313.017	91.31
313.246	96.31
313.476	87.31
313.706	115.31
313.935	92.31
314.165	104.31
314.394	114.31
314.624	104.31
314.853	87.31
315.083	83.31
315.312	91.31
315.542	97.31
315.771	83.31
316.001	71.31
316.23	85.31
316.46	104.31
316.689	97.31
316.919	83.31
317.148	98.31
317.377	102.31
317.607	85.31
317.836	103.31
318.065	100.31
318.295	88.31
318.524	99.31
318.753	90.31
318.983	89.31
319.212	92.31
319.441	115.31
319.67	122.31
319.9	108.31
320.129	98.31
320.358	99.31
320.587	97.31
320.816	100.31
321.046	103.31
321.275	103.31
321.504	94.31
321.733	91.31
321.962	106.31
322.191	97.31
322.42	114.31
322.649	121.31
322.878	109.31
323.108	127.31
323.337	160.31
323.566	162.31
323.795	171.31
324.024	250.31
324.253	513.31
324.482	1175.31
324.71	2442.31
324.939	3220.31
325.168	1116.31
325.397	318.31
325.626	182.31
325.855	130.31
326.084	148.31
326.313	151.31
326.542	188.31
326.77	276.31
326.999	611.31
327.228	1338.31
327.457	2488.31
327.686	1842.31
327.914	472.31
328.143	234.31
328.372	169.31
328.6	145.31
328.829	136.31
329.058	154.31
329.287	168.31
329.515	120.31
329.744	102.31
329.972	122.31
330.201	124.31
330.43	165.31
330.658	145.31
330.887	165.31
331.115	138.31
331.344	110.31
331.572	114.31
331.801	99.31
332.03	109.31
332.258	97.31
332.486	102.31
332.715	95.31
332.943	97.31
333.172	123.31
333.4	104.31
333.629	122.31
333.857	130.31
334.085	128.31
334.314	120.31
334.542	145.31
334.771	142.31
334.999	98.31
335.227	97.31
335.455	115.31
335.684	92.31
335.912	85.31
336.14	99.31
336.369	96.31
336.597	114.31
336.825	103.31
337.053	87.31
337.281	93.31
337.51	79.31
337.738	82.31
337.966	84.31
338.194	81.31
338.422	111.31
338.65	97.31
338.878	113.31
339.106	82.31
339.334	93.31
339.562	93.31
339.79	105.31
340.018	96.31
340.246	94.31
340.474	100.31
340.702	100.31
340.93	91.31
341.158	103.31
341.386	98.31
341.614	82.31
341.842	97.31
342.07	84.31
342.298	92.31
342.526	84.31
342.754	81.31
342.981	80.31
343.209	92.31
343.437	92.31
343.665	89.31
343.893	99.31
344.12	94.31
344.348	103.31
344.576	92.31
344.804	74.31
345.031	92.31
345.259	83.31
345.487	78.31
345.714	95.31
345.942	103.31
346.17	76.31
346.397	94.31
346.625	83.31
346.853	85.31
347.08	68.31
347.308	97.31
347.535	102.31
347.763	107.31
347.99	101.31
348.218	100.31
348.445	105.31
348.673	114.31
348.9	87.31
349.128	79.31
349.355	89.31
349.583	99.31
349.81	98.31
350.037	91.31
350.265	87.31
350.492	86.31
350.72	93.31
350.947	92.31
351.174	102.31
351.402	122.31
351.629	102.31
351.856	87.31
352.083	98.31
352.311	108.31
352.538	102.31
352.765	105.31
352.992	128.31
353.22	120.31
353.447	113.31
353.674	103.31
353.901	91.31
354.128	107.31
354.355	92.31
354.583	90.31
354.81	96.31
355.037	93.31
355.264	85.31
355.491	93.31
355.718	92.31
355.945	80.31
356.172	95.31
356.399	95.31
356.626	98.31
356.853	89.31
357.08	87.31
357.307	93.31
357.534	77.31
357.761	99.31
357.988	89.31
358.215	90.31
358.441	88.31
358.668	98.31
358.895	83.31
359.122	86.31
359.349	83.31
359.576	92.31
359.802	104.31
360.029	110.31
360.256	113.31
360.483	96.31
360.709	88.31
360.936	101.31
361.163	86.31
361.39	95.31
361.616	90.31
361.843	81.31
362.07	87.31
362.296	99.31
362.523	93.31
362.749	77.31
362.976	91.31
363.203	98.31
363.429	92.31
363.656	91.31
363.882	110.31
364.109	94.31
364.335	85.31
364.562	86.31
364.788	99.31
365.015	94.31
365.241	110.31
365.468	118.31
365.694	109.31
365.92	100.31
366.147	86.31
366.373	93.31
366.599	89.31
366.826	70.31
367.052	99.31
367.278	99.31
367.505	86.31
367.731	84.31
367.957	93.31
368.184	90.31
368.41	96.31
368.636	108.31
368.862	121.31
369.089	101.31
369.315	103.31
369.541	88.31
369.767	84.31
369.993	77.31
370.219	92.31
370.445	71.31
370.672	87.31
370.898	104.31
371.124	91.31
371.35	83.31
371.576	98.31
371.802	98.31
372.028	87.31
372.254	82.31
372.48	75.31
372.706	78.31
372.932	86.31
373.158	80.31
373.384	84.31
373.61	96.31
373.835	84.31
374.061	82.31
374.287	93.31
374.513	82.31
374.739	93.31
374.965	91.31
375.191	94.31
375.416	93.31
375.642	79.31
375.868	98.31
376.094	81.31
376.319	87.31
376.545	81.31
376.771	75.31
376.997	96.31
377.222	91.31
377.448	107.31
377.674	98.31
377.899	99.31
378.125	78.31
378.35	82.31
378.576	97.31
378.802	92.31
379.027	80.31
379.253	94.31
379.478	86.31
379.704	96.31
379.929	73.31
380.155	105.31
380.38	80.31
380.606	94.31
380.831	83.31
381.057	94.31
381.282	87.31
381.507	100.31
381.733	102.31
381.958	90.31
382.184	93.31
382.409	104.31
382.634	96.31
382.86	99.31
383.085	104.31
383.31	112.31
383.535	106.31
383.761	102.31
383.986	99.31
384.211	97.31
384.436	94.31
384.662	109.31
384.887	96.31
385.112	93.31
385.337	110.31
385.562	102.31
385.787	113.31
386.013	100.31
386.238	111.31
386.463	87.31
386.688	111.31
386.913	90.31
387.138	96.31
387.363	97.31
387.588	101.31
387.813	84.31
388.038	102.31
388.263	104.31
388.488	104.31
388.713	102.31
388.938	100.31
389.163	87.31
389.387	78.31
389.612	91.31
389.837	81.31
390.062	90.31
390.287	86.31
390.512	106.31
390.736	80.31
390.961	89.31
391.186	90.31
391.411	98.31
391.636	93.31
391.86	73.31
392.085	74.31
392.31	70.31
392.534	81.31
392.759	93.31
392.984	79.31
393.208	72.31
393.433	95.31
393.658	89.31
393.882	75.31
394.107	75.31
394.331	106.31
394.556	79.31
394.78	104.31
395.005	81.31
395.229	78.31
395.454	80.31
395.678	93.31
395.903	79.31
396.127	79.31
396.352	82.31
396.576	93.31
396.801	96.31
397.025	93.31
397.249	71.31
397.474	83.31
397.698	83.31
397.922	78.31
398.147	90.31
398.371	79.31
398.595	79.31
398.82	84.31
399.044	82.31
399.268	90.31
399.492	86.31
399.717	84.31
399.941	85.31
400.165	82.31
400.389	104.31
400.613	81.31
400.837	96.31
401.062	86.31
401.286	79.31
401.51	60.31
401.734	91.31
401.958	91.31
402.182	135.31
402.406	169.31
402.63	148.31
402.854	91.31
403.078	91.31
403.302	84.31
403.526	79.31
403.75	90.31
403.974	64.31
404.198	83.31
404.422	72.31
404.645	79.31
404.869	98.31
405.093	95.31
405.317	100.31
405.541	99.31
405.765	102.31
405.988	126.31
406.212	195.31
406.436	276.31
406.66	164.31
406.883	105.31
407.107	97.31
407.331	100.31
407.555	96.31
407.778	89.31
408.002	97.31
408.226	89.31
408.449	80.31
408.673	102.31
408.896	110.31
409.12	97.31
409.344	91.31
409.567	91.31
409.791	100.31
410.014	95.31
410.238	97.31
410.461	82.31
410.685	95.31
410.908	92.31
411.132	102.31
411.355	98.31
411.578	91.31
411.802	81.31
412.025	82.31
412.249	78.31
412.472	89.31
412.695	90.31
412.919	90.31
413.142	81.31
413.365	73.31
413.589	87.31
413.812	86.31
414.035	75.31
414.258	91.31
414.482	88.31
414.705	76.31
414.928	92.31
415.151	81.31
415.374	101.31
415.597	78.31
415.821	97.31
416.044	91.31
416.267	85.31
416.49	87.31
416.713	89.31
416.936	80.31
417.159	89.31
417.382	89.31
417.605	77.31
417.828	108.31
418.051	96.31
418.274	90.31
418.497	84.31
418.72	89.31
418.943	103.31
419.166	102.31
419.389	99.31
419.611	87.31
419.834	90.31
420.057	93.31
420.28	80.31
420.503	84.31
420.726	68.31
420.948	88.31
421.171	91.31
421.394	91.31
421.617	91.31
421.839	81.31
422.062	84.31
422.285	93.31
422.507	101.31
422.73	105.31
422.953	91.31
423.175	91.31
423.398	80.31
423.621	78.31
423.843	76.31
424.066	80.31
424.288	83.31
424.511	99.31
424.733	104.31
424.956	85.31
425.178	96.31
425.401	107.31
425.623	100.31
425.846	80.31
426.068	96.31
426.291	91.31
426.513	85.31
426.735	74.31
426.958	89.31
427.18	101.31
427.402	157.31
427.625	191.31
427.847	152.31
428.069	124.31
428.292	91.31
428.514	82.31
428.736	70.31
428.958	79.31
429.181	82.31
429.403	79.31
429.625	88.31
429.847	93.31
430.069	100.31
430.292	86.31
430.514	82.31
430.736	88.31
430.958	84.31
431.18	77.31
431.402	79.31
431.624	79.31
431.846	93.31
432.068	80.31
432.29	89.31
432.512	83.31
432.734	97.31
432.956	95.31
433.178	97.31
433.4	92.31
433.622	92.31
433.844	91.31
434.066	91.31
434.287	84.31
434.509	86.31
434.731	88.31
434.953	78.31
435.175	93.31
435.397	80.31
435.618	94.31
435.84	113.31
436.062	146.31
436.284	124.31
436.505	97.31
436.727	99.31
436.949	82.31
437.17	95.31
437.392	81.31
437.614	90.31
437.835	122.31
438.057	131.31
438.278	119.31
438.5	98.31
438.721	125.31
438.943	99.31
439.165	92.31
439.386	78.31
439.608	91.31
439.829	89.31
440.05	137.31
440.272	162.31
440.493	102.31
440.715	85.31
440.936	94.31
441.158	83.31
441.379	96.31
441.6	81.31
441.822	84.31
442.043	78.31
442.264	113.31
442.486	91.31
442.707	94.31
442.928	115.31
443.149	147.31
443.371	148.31
443.592	107.31
443.813	111.31
444.034	136.31
444.255	93.31
444.476	76.31
444.698	100.31
444.919	87.31
445.14	118.31
445.361	115.31
445.582	138.31
445.803	150.31
446.024	158.31
446.245	168.31
446.466	108.31
446.687	86.31
446.908	90.31
447.129	79.31
447.35	83.31
447.571	96.31
447.792	81.31
448.013	102.31
448.234	94.31
448.455	99.31
448.675	118.31
448.896	134.31
449.117	93.31
449.338	113.31
449.559	143.31
449.779	134.31
450	88.31
450.221	85.31
450.442	83.31
450.662	90.31
450.883	109.31
451.104	110.31
451.324	87.31
451.545	77.31
451.766	89.31
451.986	103.31
452.207	87.31
452.428	82.31
452.648	111.31
452.869	100.31
453.089	118.31
453.31	130.31
453.53	94.31
453.751	91.31
453.971	96.31
454.192	116.31
454.412	96.31
454.633	96.31
454.853	80.31
455.073	81.31
455.294	82.31
455.514	102.31
455.734	88.31
455.955	78.31
456.175	81.31
456.395	78.31
456.616	85.31
456.836	81.31
457.056	76.31
457.276	82.31
457.497	95.31
457.717	77.31
457.937	77.31
458.157	79.31
458.377	92.31
458.598	118.31
458.818	179.31
459.038	166.31
459.258	116.31
459.478	84.31
459.698	81.31
459.918	85.31
460.138	71.31
460.358	90.31
460.578	86.31
460.798	83.31
461.018	92.31
461.238	84.31
461.458	84.31
461.678	95.31
461.898	76.31
462.118	85.31
462.338	91.31
462.558	90.31
462.777	70.31
462.997	89.31
463.217	70.31
463.437	82.31
463.657	105.31
463.876	88.31
464.096	91.31
464.316	87.31
464.536	87.31
464.755	98.31
464.975	112.31
465.195	201.31
465.414	190.31
465.634	110.31
465.854	96.31
466.073	84.31
466.293	84.31
466.512	76.31
466.732	86.31
466.951	82.31
467.171	96.31
467.391	102.31
467.61	110.31
467.829	108.31
468.049	102.31
468.268	91.31
468.488	82.31
468.707	94.31
468.927	94.31
469.146	97.31
469.365	78.31
469.585	91.31
469.804	104.31
470.023	95.31
470.243	87.31
470.462	97.31
470.681	119.31
470.901	86.31
471.12	83.31
471.339	90.31
471.558	78.31
471.777	93.31
471.997	95.31
472.216	112.31
472.435	167.31
472.654	91.31
472.873	80.31
473.092	82.31
473.311	83.31
473.53	80.31
473.749	79.31
473.968	100.31
474.187	108.31
474.406	110.31
474.625	67.31
474.844	84.31
475.063	82.31
475.282	83.31
475.501	79.31
475.72	86.31
475.939	88.31
476.158	73.31
476.377	93.31
476.596	90.31
476.814	102.31
477.033	92.31
477.252	86.31
477.471	81.31
477.69	75.31
477.908	67.31
478.127	71.31
478.346	81.31
478.564	83.31
478.783	114.31
479.002	91.31
479.22	90.31
479.439	102.31
479.658	114.31
479.876	94.31
480.095	94.31
480.313	91.31
480.532	87.31
480.751	106.31
480.969	119.31
481.188	246.31
481.406	177.31
481.624	99.31
481.843	89.31
482.061	92.31
482.28	79.31
482.498	65.31
482.717	80.31
482.935	75.31
483.153	90.31
483.372	95.31
483.59	88.31
483.808	93.31
484.027	92.31
484.245	81.31
484.463	98.31
484.681	93.31
484.9	102.31
485.118	84.31
485.336	112.31
485.554	84.31
485.772	98.31
485.99	102.31
486.209	100.31
486.427	103.31
486.645	104.31
486.863	111.31
487.081	98.31
487.299	95.31
487.517	103.31
487.735	102.31
487.953	107.31
488.171	98.31
488.389	79.31
488.607	101.31
488.825	80.31
489.043	82.31
489.261	70.31
489.479	92.31
489.696	87.31
489.914	84.31
490.132	84.31
490.35	97.31
490.568	80.31
490.786	101.31
491.003	88.31
491.221	89.31
491.439	93.31
491.657	87.31
491.874	90.31
492.092	94.31
492.31	81.31
492.527	82.31
492.745	80.31
492.963	86.31
493.18	103.31
493.398	89.31
493.615	99.31
493.833	80.31
494.05	90.31
494.268	93.31
494.485	87.31
494.703	92.31
494.92	98.31
495.138	78.31
495.355	78.31
495.573	98.31
495.79	87.31
496.008	75.31
496.225	100.31
496.442	98.31
496.66	83.31
496.877	82.31
497.094	98.31
497.312	85.31
497.529	79.31
497.746	94.31
497.963	83.31
498.181	92.31
498.398	91.31
498.615	106.31
498.832	106.31
499.049	90.31
499.267	81.31
499.484	83.31
499.701	96.31
499.918	105.31
500.135	79.31
500.352	90.31
500.569	103.31
500.786	87.31
501.003	82.31
501.22	84.31
501.437	88.31
501.654	77.31
501.871	98.31
502.088	84.31
502.305	79.31
502.522	103.31
502.739	102.31
502.956	75.31
503.172	86.31
503.389	103.31
503.606	104.31
503.823	104.31
504.04	89.31
504.256	84.31
504.473	83.31
504.69	77.31
504.907	89.31
505.123	97.31
505.34	96.31
505.557	89.31
505.773	81.31
505.99	82.31
506.207	80.31
506.423	84.31
506.64	84.31
506.856	103.31
507.073	91.31
507.289	105.31
507.506	88.31
507.722	121.31
507.939	120.31
508.155	93.31
508.372	88.31
508.588	89.31
508.805	99.31
509.021	114.31
509.238	106.31
509.454	90.31
509.67	92.31
509.887	110.31
510.103	152.31
510.319	259.31
510.536	940.31
510.752	3097.31
510.968	855.31
511.184	177.31
511.401	118.31
511.617	100.31
511.833	95.31
512.049	86.31
512.265	89.31
512.481	105.31
512.698	92.31
512.914	78.31
513.13	106.31
513.346	93.31
513.562	93.31
513.778	90.31
513.994	104.31
514.21	96.31
514.426	121.31
514.642	168.31
514.858	136.31
515.074	206.31
515.29	611.31
515.506	2176.31
