Data from Circ_2006_H10_HRD10591_00095.txt Node
Date: Wed Jan 03 10:26:22 EST 2024
User: Yrep
Spectrometer: HR+D1059
Trigger mode: 1
Integration Time (sec): 1.000000E-1
Scans to average: 1
Electric dark correction enabled: true
Nonlinearity correction enabled: false
Boxcar width: 0
XAxis mode: Wavelengths
Number of Pixels in Spectrum: 2048
>>>>>Begin Spectral Data<<<<<
223.165	2.38
223.4	2.38
223.635	2.38
223.869	-22.62
224.104	-3.62
224.338	-8.62
224.573	-12.62
224.808	-17.62
225.042	-29.62
225.277	-10.62
225.511	3.38
225.746	10.38
225.98	8.38
226.215	5.38
226.449	17.38
226.683	14.38
226.918	20.38
227.152	23.38
227.387	35.38
227.621	39.38
227.856	49.38
228.09	43.38
228.324	38.38
228.559	56.38
228.793	60.38
229.027	57.38
229.262	72.38
229.496	68.38
229.73	80.38
229.964	91.38
230.199	90.38
230.433	86.38
230.667	84.38
230.901	82.38
231.136	67.38
231.37	80.38
231.604	89.38
231.838	88.38
232.072	71.38
232.306	80.38
232.541	76.38
232.775	80.38
233.009	83.38
233.243	78.38
233.477	87.38
233.711	78.38
233.945	80.38
234.179	80.38
234.413	83.38
234.647	77.38
234.881	78.38
235.115	82.38
235.349	91.38
235.583	89.38
235.817	87.38
236.051	70.38
236.285	76.38
236.519	70.38
236.753	87.38
236.987	74.38
237.221	66.38
237.455	92.38
237.689	79.38
237.922	80.38
238.156	82.38
238.39	71.38
238.624	86.38
238.858	76.38
239.091	72.38
239.325	75.38
239.559	87.38
239.793	90.38
240.027	89.38
240.26	71.38
240.494	81.38
240.728	80.38
240.961	84.38
241.195	80.38
241.429	81.38
241.662	80.38
241.896	75.38
242.13	79.38
242.363	94.38
242.597	70.38
242.83	89.38
243.064	87.38
243.298	84.38
243.531	75.38
243.765	74.38
243.998	83.38
244.232	87.38
244.465	80.38
244.699	100.38
244.932	78.38
245.166	76.38
245.399	74.38
245.633	76.38
245.866	78.38
246.099	86.38
246.333	90.38
246.566	79.38
246.8	81.38
247.033	66.38
247.266	83.38
247.5	74.38
247.733	83.38
247.966	77.38
248.2	78.38
248.433	82.38
248.666	77.38
248.899	80.38
249.133	84.38
249.366	97.38
249.599	107.38
249.832	88.38
250.066	80.38
250.299	82.38
250.532	93.38
250.765	82.38
250.998	76.38
251.231	84.38
251.465	86.38
251.698	71.38
251.931	86.38
252.164	82.38
252.397	78.38
252.63	84.38
252.863	90.38
253.096	85.38
253.329	92.38
253.562	92.38
253.795	88.38
254.028	75.38
254.261	87.38
254.494	78.38
254.727	88.38
254.96	91.38
255.193	82.38
255.426	92.38
255.659	94.38
255.892	82.38
256.124	78.38
256.357	90.38
256.59	86.38
256.823	78.38
257.056	79.38
257.289	75.38
257.521	70.38
257.754	80.38
257.987	95.38
258.22	92.38
258.452	107.38
258.685	100.38
258.918	82.38
259.151	88.38
259.383	82.38
259.616	79.38
259.849	77.38
260.081	86.38
260.314	83.38
260.547	90.38
260.779	88.38
261.012	74.38
261.244	90.38
261.477	96.38
261.71	101.38
261.942	116.38
262.175	117.38
262.407	93.38
262.64	75.38
262.872	92.38
263.105	87.38
263.337	80.38
263.57	80.38
263.802	93.38
264.035	79.38
264.267	86.38
264.499	90.38
264.732	81.38
264.964	87.38
265.197	86.38
265.429	71.38
265.661	85.38
265.894	75.38
266.126	84.38
266.358	76.38
266.591	84.38
266.823	79.38
267.055	86.38
267.287	77.38
267.52	77.38
267.752	82.38
267.984	77.38
268.216	86.38
268.448	87.38
268.681	84.38
268.913	93.38
269.145	74.38
269.377	85.38
269.609	92.38
269.841	89.38
270.073	80.38
270.306	86.38
270.538	81.38
270.77	96.38
271.002	82.38
271.234	95.38
271.466	72.38
271.698	89.38
271.93	83.38
272.162	91.38
272.394	78.38
272.626	85.38
272.858	87.38
273.09	79.38
273.322	87.38
273.553	92.38
273.785	80.38
274.017	70.38
274.249	84.38
274.481	74.38
274.713	80.38
274.945	74.38
275.176	82.38
275.408	79.38
275.64	79.38
275.872	98.38
276.104	88.38
276.335	88.38
276.567	102.38
276.799	114.38
277.031	112.38
277.262	97.38
277.494	83.38
277.726	97.38
277.957	94.38
278.189	77.38
278.421	82.38
278.652	80.38
278.884	82.38
279.115	78.38
279.347	80.38
279.579	91.38
279.81	88.38
280.042	88.38
280.273	102.38
280.505	105.38
280.736	107.38
280.968	80.38
281.199	92.38
281.431	82.38
281.662	101.38
281.894	99.38
282.125	107.38
282.356	117.38
282.588	150.38
282.819	116.38
283.051	86.38
283.282	90.38
283.513	79.38
283.745	83.38
283.976	81.38
284.207	94.38
284.439	91.38
284.67	79.38
284.901	87.38
285.132	85.38
285.364	93.38
285.595	90.38
285.826	102.38
286.057	83.38
286.288	81.38
286.52	71.38
286.751	83.38
286.982	91.38
287.213	80.38
287.444	77.38
287.675	81.38
287.906	78.38
288.138	89.38
288.369	86.38
288.6	88.38
288.831	92.38
289.062	83.38
289.293	92.38
289.524	85.38
289.755	75.38
289.986	86.38
290.217	75.38
290.448	77.38
290.679	89.38
290.91	86.38
291.141	98.38
291.371	92.38
291.602	74.38
291.833	101.38
292.064	96.38
292.295	89.38
292.526	86.38
292.757	85.38
292.987	83.38
293.218	96.38
293.449	94.38
293.68	82.38
293.91	87.38
294.141	86.38
294.372	91.38
294.603	110.38
294.833	87.38
295.064	90.38
295.295	101.38
295.525	93.38
295.756	102.38
295.987	116.38
296.217	141.38
296.448	130.38
296.679	102.38
296.909	101.38
297.14	87.38
297.37	85.38
297.601	91.38
297.831	86.38
298.062	80.38
298.292	95.38
298.523	79.38
298.753	99.38
298.984	102.38
299.214	81.38
299.445	84.38
299.675	93.38
299.905	97.38
300.136	84.38
300.366	87.38
300.597	95.38
300.827	88.38
301.057	92.38
301.288	108.38
301.518	105.38
301.748	91.38
301.979	108.38
302.209	97.38
302.439	92.38
302.669	87.38
302.9	86.38
303.13	98.38
303.36	86.38
303.59	101.38
303.82	114.38
304.051	97.38
304.281	86.38
304.511	90.38
304.741	97.38
304.971	91.38
305.201	84.38
305.431	98.38
305.661	87.38
305.891	88.38
306.121	93.38
306.352	102.38
306.582	120.38
306.812	93.38
307.042	106.38
307.272	120.38
307.502	104.38
307.731	95.38
307.961	101.38
308.191	96.38
308.421	80.38
308.651	107.38
308.881	93.38
309.111	103.38
309.341	86.38
309.571	102.38
309.8	95.38
310.03	98.38
310.26	94.38
310.49	86.38
310.72	114.38
310.949	125.38
311.179	91.38
311.409	94.38
311.639	97.38
311.868	111.38
312.098	90.38
312.328	110.38
312.557	115.38
312.787	112.38
313.017	123.38
313.246	86.38
313.476	82.38
313.706	88.38
313.935	94.38
314.165	84.38
314.394	106.38
314.624	92.38
314.853	100.38
315.083	99.38
315.312	107.38
315.542	97.38
315.771	98.38
316.001	98.38
316.23	96.38
316.46	88.38
316.689	99.38
316.919	104.38
317.148	97.38
317.377	104.38
317.607	92.38
317.836	90.38
318.065	92.38
318.295	90.38
318.524	86.38
318.753	106.38
318.983	98.38
319.212	109.38
319.441	111.38
319.67	103.38
319.9	96.38
320.129	99.38
320.358	103.38
320.587	90.38
320.816	96.38
321.046	91.38
321.275	106.38
321.504	113.38
321.733	96.38
321.962	95.38
322.191	116.38
322.42	110.38
322.649	123.38
322.878	114.38
323.108	124.38
323.337	151.38
323.566	140.38
323.795	168.38
324.024	236.38
324.253	443.38
324.482	1009.38
324.71	2113.38
324.939	2809.38
325.168	992.38
325.397	297.38
325.626	164.38
325.855	150.38
326.084	126.38
326.313	147.38
326.542	176.38
326.77	263.38
326.999	529.38
327.228	1130.38
327.457	2102.38
327.686	1676.38
327.914	448.38
328.143	275.38
328.372	225.38
328.6	174.38
328.829	133.38
329.058	135.38
329.287	156.38
329.515	124.38
329.744	133.38
329.972	154.38
330.201	216.38
330.43	306.38
330.658	202.38
330.887	190.38
331.115	159.38
331.344	114.38
331.572	104.38
331.801	101.38
332.03	112.38
332.258	103.38
332.486	111.38
332.715	91.38
332.943	101.38
333.172	87.38
333.4	103.38
333.629	121.38
333.857	136.38
334.085	164.38
334.314	240.38
334.542	359.38
334.771	347.38
334.999	156.38
335.227	109.38
335.455	117.38
335.684	95.38
335.912	105.38
336.14	104.38
336.369	108.38
336.597	111.38
336.825	112.38
337.053	103.38
337.281	98.38
337.51	94.38
337.738	85.38
337.966	88.38
338.194	103.38
338.422	94.38
338.65	94.38
338.878	73.38
339.106	98.38
339.334	90.38
339.562	76.38
339.79	85.38
340.018	94.38
340.246	78.38
340.474	87.38
340.702	86.38
340.93	100.38
341.158	94.38
341.386	103.38
341.614	101.38
341.842	90.38
342.07	88.38
342.298	92.38
342.526	100.38
342.754	78.38
342.981	82.38
343.209	79.38
343.437	92.38
343.665	88.38
343.893	101.38
344.12	88.38
344.348	95.38
344.576	94.38
344.804	96.38
345.031	99.38
345.259	103.38
345.487	91.38
345.714	82.38
345.942	99.38
346.17	115.38
346.397	93.38
346.625	96.38
346.853	79.38
347.08	93.38
347.308	90.38
347.535	113.38
347.763	91.38
347.99	98.38
348.218	100.38
348.445	100.38
348.673	100.38
348.9	94.38
349.128	96.38
349.355	102.38
349.583	96.38
349.81	103.38
350.037	88.38
350.265	97.38
350.492	95.38
350.72	98.38
350.947	95.38
351.174	96.38
351.402	117.38
351.629	103.38
351.856	116.38
352.083	117.38
352.311	102.38
352.538	109.38
352.765	115.38
352.992	111.38
353.22	116.38
353.447	110.38
353.674	98.38
353.901	89.38
354.128	84.38
354.355	100.38
354.583	106.38
354.81	103.38
355.037	94.38
355.264	90.38
355.491	95.38
355.718	87.38
355.945	82.38
356.172	90.38
356.399	110.38
356.626	94.38
356.853	85.38
357.08	102.38
357.307	103.38
357.534	91.38
357.761	94.38
357.988	93.38
358.215	99.38
358.441	90.38
358.668	84.38
358.895	96.38
359.122	79.38
359.349	95.38
359.576	78.38
359.802	105.38
360.029	128.38
360.256	126.38
360.483	126.38
360.709	91.38
360.936	89.38
361.163	100.38
361.39	101.38
361.616	99.38
361.843	95.38
362.07	96.38
362.296	105.38
362.523	105.38
362.749	111.38
362.976	81.38
363.203	101.38
363.429	93.38
363.656	95.38
363.882	90.38
364.109	89.38
364.335	98.38
364.562	100.38
364.788	103.38
365.015	93.38
365.241	93.38
365.468	114.38
365.694	103.38
365.92	106.38
366.147	106.38
366.373	90.38
366.599	85.38
366.826	96.38
367.052	86.38
367.278	84.38
367.505	80.38
367.731	111.38
367.957	83.38
368.184	116.38
368.41	84.38
368.636	123.38
368.862	132.38
369.089	102.38
369.315	85.38
369.541	109.38
369.767	101.38
369.993	96.38
370.219	88.38
370.445	84.38
370.672	78.38
370.898	85.38
371.124	87.38
371.35	91.38
371.576	91.38
371.802	92.38
372.028	98.38
372.254	91.38
372.48	85.38
372.706	71.38
372.932	92.38
373.158	87.38
373.384	82.38
373.61	87.38
373.835	92.38
374.061	90.38
374.287	86.38
374.513	96.38
374.739	81.38
374.965	87.38
375.191	83.38
375.416	105.38
375.642	106.38
375.868	95.38
376.094	82.38
376.319	87.38
376.545	90.38
376.771	99.38
376.997	94.38
377.222	88.38
377.448	91.38
377.674	92.38
377.899	82.38
378.125	75.38
378.35	84.38
378.576	98.38
378.802	94.38
379.027	93.38
379.253	93.38
379.478	117.38
379.704	106.38
379.929	106.38
380.155	102.38
380.38	98.38
380.606	100.38
380.831	106.38
381.057	84.38
381.282	88.38
381.507	98.38
381.733	93.38
381.958	92.38
382.184	90.38
382.409	97.38
382.634	103.38
382.86	109.38
383.085	94.38
383.31	92.38
383.535	105.38
383.761	105.38
383.986	96.38
384.211	91.38
384.436	88.38
384.662	107.38
384.887	87.38
385.112	101.38
385.337	103.38
385.562	103.38
385.787	99.38
386.013	111.38
386.238	113.38
386.463	101.38
386.688	112.38
386.913	88.38
387.138	104.38
387.363	96.38
387.588	99.38
387.813	99.38
388.038	102.38
388.263	104.38
388.488	107.38
388.713	91.38
388.938	85.38
389.163	82.38
389.387	94.38
389.612	97.38
389.837	86.38
390.062	95.38
390.287	105.38
390.512	81.38
390.736	86.38
390.961	84.38
391.186	102.38
391.411	96.38
391.636	91.38
391.86	99.38
392.085	80.38
392.31	80.38
392.534	93.38
392.759	91.38
392.984	77.38
393.208	99.38
393.433	109.38
393.658	87.38
393.882	77.38
394.107	82.38
394.331	79.38
394.556	85.38
394.78	104.38
395.005	98.38
395.229	79.38
395.454	81.38
395.678	83.38
395.903	82.38
396.127	84.38
396.352	86.38
396.576	85.38
396.801	84.38
397.025	93.38
397.249	81.38
397.474	88.38
397.698	82.38
397.922	104.38
398.147	98.38
398.371	82.38
398.595	85.38
398.82	82.38
399.044	87.38
399.268	84.38
399.492	88.38
399.717	88.38
399.941	78.38
400.165	100.38
400.389	81.38
400.613	90.38
400.837	92.38
401.062	101.38
401.286	104.38
401.51	92.38
401.734	100.38
401.958	101.38
402.182	131.38
402.406	173.38
402.63	139.38
402.854	104.38
403.078	95.38
403.302	90.38
403.526	85.38
403.75	85.38
403.974	93.38
404.198	97.38
404.422	100.38
404.645	94.38
404.869	106.38
405.093	101.38
405.317	124.38
405.541	125.38
405.765	95.38
405.988	117.38
406.212	186.38
406.436	241.38
406.66	168.38
406.883	120.38
407.107	96.38
407.331	103.38
407.555	104.38
407.778	88.38
408.002	83.38
408.226	91.38
408.449	80.38
408.673	82.38
408.896	101.38
409.12	111.38
409.344	94.38
409.567	92.38
409.791	86.38
410.014	94.38
410.238	107.38
410.461	100.38
410.685	87.38
410.908	101.38
411.132	104.38
411.355	94.38
411.578	80.38
411.802	95.38
412.025	91.38
412.249	91.38
412.472	100.38
412.695	108.38
412.919	92.38
413.142	75.38
413.365	87.38
413.589	81.38
413.812	78.38
414.035	88.38
414.258	99.38
414.482	92.38
414.705	89.38
414.928	86.38
415.151	87.38
415.374	92.38
415.597	83.38
415.821	97.38
416.044	90.38
416.267	95.38
416.49	84.38
416.713	94.38
416.936	95.38
417.159	95.38
417.382	81.38
417.605	95.38
417.828	103.38
418.051	94.38
418.274	100.38
418.497	98.38
418.72	71.38
418.943	87.38
419.166	96.38
419.389	101.38
419.611	87.38
419.834	83.38
420.057	95.38
420.28	81.38
420.503	73.38
420.726	81.38
420.948	84.38
421.171	90.38
421.394	91.38
421.617	91.38
421.839	84.38
422.062	89.38
422.285	82.38
422.507	95.38
422.73	109.38
422.953	88.38
423.175	92.38
423.398	94.38
423.621	78.38
423.843	88.38
424.066	89.38
424.288	88.38
424.511	88.38
424.733	88.38
424.956	100.38
425.178	109.38
425.401	101.38
425.623	97.38
425.846	87.38
426.068	100.38
426.291	90.38
426.513	103.38
426.735	91.38
426.958	85.38
427.18	111.38
427.402	143.38
427.625	195.38
427.847	174.38
428.069	150.38
428.292	97.38
428.514	94.38
428.736	83.38
428.958	88.38
429.181	90.38
429.403	86.38
429.625	90.38
429.847	106.38
430.069	112.38
430.292	98.38
430.514	98.38
430.736	67.38
430.958	90.38
431.18	87.38
431.402	86.38
431.624	95.38
431.846	101.38
432.068	90.38
432.29	74.38
432.512	88.38
432.734	70.38
432.956	96.38
433.178	98.38
433.4	106.38
433.622	92.38
433.844	91.38
434.066	96.38
434.287	104.38
434.509	81.38
434.731	98.38
434.953	95.38
435.175	89.38
435.397	87.38
435.618	99.38
435.84	112.38
436.062	143.38
436.284	126.38
436.505	106.38
436.727	112.38
436.949	92.38
437.17	93.38
437.392	95.38
437.614	98.38
437.835	121.38
438.057	130.38
438.278	128.38
438.5	101.38
438.721	130.38
438.943	96.38
439.165	98.38
439.386	86.38
439.608	96.38
439.829	92.38
440.05	128.38
440.272	177.38
440.493	112.38
440.715	84.38
440.936	88.38
441.158	96.38
441.379	103.38
441.6	92.38
441.822	86.38
442.043	104.38
442.264	102.38
442.486	97.38
442.707	89.38
442.928	111.38
443.149	152.38
443.371	162.38
443.592	144.38
443.813	113.38
444.034	118.38
444.255	96.38
444.476	104.38
444.698	84.38
444.919	95.38
445.14	135.38
445.361	135.38
445.582	139.38
445.803	151.38
446.024	152.38
446.245	173.38
446.466	113.38
446.687	93.38
446.908	94.38
447.129	96.38
447.35	94.38
447.571	87.38
447.792	85.38
448.013	91.38
448.234	116.38
448.455	104.38
448.675	130.38
448.896	127.38
449.117	111.38
449.338	103.38
449.559	136.38
449.779	135.38
450	98.38
450.221	97.38
450.442	96.38
450.662	92.38
450.883	114.38
451.104	124.38
451.324	106.38
451.545	95.38
451.766	92.38
451.986	73.38
452.207	84.38
452.428	83.38
452.648	96.38
452.869	136.38
453.089	137.38
453.31	141.38
453.53	103.38
453.751	97.38
453.971	104.38
454.192	119.38
454.412	97.38
454.633	94.38
454.853	82.38
455.073	100.38
455.294	97.38
455.514	104.38
455.734	102.38
455.955	89.38
456.175	93.38
456.395	92.38
456.616	89.38
456.836	87.38
457.056	78.38
457.276	91.38
457.497	80.38
457.717	76.38
457.937	80.38
458.157	81.38
458.377	87.38
458.598	124.38
458.818	190.38
459.038	194.38
459.258	140.38
459.478	74.38
459.698	105.38
459.918	90.38
460.138	88.38
460.358	84.38
460.578	105.38
460.798	91.38
461.018	95.38
461.238	93.38
461.458	96.38
461.678	77.38
461.898	88.38
462.118	86.38
462.338	93.38
462.558	88.38
462.777	94.38
462.997	91.38
463.217	85.38
463.437	80.38
463.657	91.38
463.876	88.38
464.096	84.38
464.316	92.38
464.536	84.38
464.755	104.38
464.975	122.38
465.195	187.38
465.414	175.38
465.634	110.38
465.854	91.38
466.073	85.38
466.293	88.38
466.512	97.38
466.732	92.38
466.951	111.38
467.171	97.38
467.391	114.38
467.61	95.38
467.829	107.38
468.049	149.38
468.268	199.38
468.488	105.38
468.707	91.38
468.927	86.38
469.146	77.38
469.365	86.38
469.585	95.38
469.804	103.38
470.023	116.38
470.243	85.38
470.462	110.38
470.681	123.38
470.901	86.38
471.12	82.38
471.339	87.38
471.558	90.38
471.777	95.38
471.997	123.38
472.216	235.38
472.435	429.38
472.654	171.38
472.873	102.38
473.092	99.38
473.311	94.38
473.53	85.38
473.749	90.38
473.968	106.38
474.187	114.38
474.406	97.38
474.625	84.38
474.844	94.38
475.063	95.38
475.282	91.38
475.501	93.38
475.72	83.38
475.939	82.38
476.158	79.38
476.377	84.38
476.596	92.38
476.814	101.38
477.033	111.38
477.252	96.38
477.471	95.38
477.69	81.38
477.908	94.38
478.127	103.38
478.346	81.38
478.564	87.38
478.783	102.38
479.002	99.38
479.22	92.38
479.439	97.38
479.658	94.38
479.876	108.38
480.095	78.38
480.313	91.38
480.532	101.38
480.751	114.38
480.969	221.38
481.188	711.38
481.406	480.38
481.624	119.38
481.843	93.38
482.061	100.38
482.28	95.38
482.498	96.38
482.717	90.38
482.935	79.38
483.153	88.38
483.372	95.38
483.59	84.38
483.808	86.38
484.027	89.38
484.245	77.38
484.463	106.38
484.681	94.38
484.9	96.38
485.118	91.38
485.336	105.38
485.554	92.38
485.772	114.38
485.99	112.38
486.209	96.38
486.427	116.38
486.645	128.38
486.863	132.38
487.081	99.38
487.299	90.38
487.517	100.38
487.735	85.38
487.953	85.38
488.171	93.38
488.389	106.38
488.607	101.38
488.825	108.38
489.043	78.38
489.261	84.38
489.479	93.38
489.696	93.38
489.914	97.38
490.132	107.38
490.35	76.38
490.568	90.38
490.786	80.38
491.003	88.38
491.221	85.38
491.439	87.38
491.657	83.38
491.874	96.38
492.092	81.38
492.31	93.38
492.527	97.38
492.745	89.38
492.963	87.38
493.18	93.38
493.398	94.38
493.615	100.38
493.833	95.38
494.05	93.38
494.268	94.38
494.485	84.38
494.703	83.38
494.92	79.38
495.138	84.38
495.355	99.38
495.573	103.38
495.79	85.38
496.008	98.38
496.225	94.38
496.442	88.38
496.66	89.38
496.877	97.38
497.094	95.38
497.312	81.38
497.529	92.38
497.746	94.38
497.963	93.38
498.181	88.38
498.398	90.38
498.615	115.38
498.832	123.38
499.049	100.38
499.267	106.38
499.484	99.38
499.701	88.38
499.918	92.38
500.135	108.38
500.352	89.38
500.569	96.38
500.786	78.38
501.003	81.38
501.22	92.38
501.437	80.38
501.654	95.38
501.871	112.38
502.088	97.38
502.305	88.38
502.522	83.38
502.739	95.38
502.956	97.38
503.172	81.38
503.389	101.38
503.606	112.38
503.823	97.38
504.04	97.38
504.256	96.38
504.473	91.38
504.69	107.38
504.907	92.38
505.123	83.38
505.34	87.38
505.557	96.38
505.773	97.38
505.99	80.38
506.207	91.38
506.423	90.38
506.64	101.38
506.856	103.38
507.073	94.38
507.289	95.38
507.506	91.38
507.722	114.38
507.939	118.38
508.155	110.38
508.372	82.38
508.588	86.38
508.805	95.38
509.021	92.38
509.238	103.38
509.454	105.38
509.67	101.38
509.887	104.38
510.103	127.38
510.319	217.38
510.536	838.38
510.752	2799.38
510.968	778.38
511.184	188.38
511.401	129.38
511.617	95.38
511.833	95.38
512.049	95.38
512.265	92.38
512.481	95.38
512.698	89.38
512.914	76.38
513.13	76.38
513.346	100.38
513.562	95.38
513.778	96.38
513.994	109.38
514.21	123.38
514.426	116.38
514.642	140.38
