Data from Circ_2006_H10_HRD10591_00076.txt Node
Date: Wed Jan 03 10:26:19 EST 2024
User: Yrep
Spectrometer: HR+D1059
Trigger mode: 1
Integration Time (sec): 1.000000E-1
Scans to average: 1
Electric dark correction enabled: true
Nonlinearity correction enabled: false
Boxcar width: 0
XAxis mode: Wavelengths
Number of Pixels in Spectrum: 2048
>>>>>Begin Spectral Data<<<<<
223.165	-18.44
223.4	-18.44
223.635	-18.44
223.869	-24.44
224.104	-23.44
224.338	-3.44
224.573	-8.44
224.808	-15.44
225.042	-2.44
225.277	-20.44
225.511	-1.44
225.746	5.56
225.98	11.56
226.215	7.56
226.449	5.56
226.683	20.56
226.918	31.56
227.152	35.56
227.387	52.56
227.621	48.56
227.856	58.56
228.09	29.56
228.324	51.56
228.559	63.56
228.793	68.56
229.027	68.56
229.262	68.56
229.496	71.56
229.73	73.56
229.964	79.56
230.199	68.56
230.433	76.56
230.667	80.56
230.901	89.56
231.136	91.56
231.37	83.56
231.604	66.56
231.838	83.56
232.072	89.56
232.306	88.56
232.541	79.56
232.775	79.56
233.009	80.56
233.243	85.56
233.477	73.56
233.711	71.56
233.945	98.56
234.179	67.56
234.413	86.56
234.647	85.56
234.881	83.56
235.115	94.56
235.349	70.56
235.583	76.56
235.817	84.56
236.051	88.56
236.285	82.56
236.519	75.56
236.753	75.56
236.987	82.56
237.221	86.56
237.455	78.56
237.689	80.56
237.922	88.56
238.156	64.56
238.39	85.56
238.624	85.56
238.858	84.56
239.091	80.56
239.325	75.56
239.559	76.56
239.793	84.56
240.027	87.56
240.26	79.56
240.494	76.56
240.728	86.56
240.961	71.56
241.195	85.56
241.429	77.56
241.662	82.56
241.896	76.56
242.13	79.56
242.363	75.56
242.597	78.56
242.83	69.56
243.064	75.56
243.298	81.56
243.531	78.56
243.765	88.56
243.998	76.56
244.232	82.56
244.465	80.56
244.699	87.56
244.932	85.56
245.166	81.56
245.399	76.56
245.633	80.56
245.866	91.56
246.099	84.56
246.333	78.56
246.566	73.56
246.8	79.56
247.033	74.56
247.266	66.56
247.5	83.56
247.733	78.56
247.966	81.56
248.2	89.56
248.433	86.56
248.666	86.56
248.899	104.56
249.133	80.56
249.366	99.56
249.599	88.56
249.832	80.56
250.066	76.56
250.299	76.56
250.532	82.56
250.765	77.56
250.998	70.56
251.231	81.56
251.465	88.56
251.698	92.56
251.931	79.56
252.164	83.56
252.397	72.56
252.63	76.56
252.863	78.56
253.096	78.56
253.329	75.56
253.562	85.56
253.795	94.56
254.028	89.56
254.261	95.56
254.494	77.56
254.727	81.56
254.96	76.56
255.193	88.56
255.426	77.56
255.659	80.56
255.892	81.56
256.124	83.56
256.357	80.56
256.59	89.56
256.823	71.56
257.056	85.56
257.289	96.56
257.521	91.56
257.754	93.56
257.987	80.56
258.22	79.56
258.452	92.56
258.685	92.56
258.918	89.56
259.151	76.56
259.383	90.56
259.616	63.56
259.849	88.56
260.081	86.56
260.314	80.56
260.547	88.56
260.779	78.56
261.012	79.56
261.244	99.56
261.477	82.56
261.71	93.56
261.942	128.56
262.175	132.56
262.407	94.56
262.64	92.56
262.872	104.56
263.105	79.56
263.337	82.56
263.57	87.56
263.802	87.56
264.035	75.56
264.267	82.56
264.499	82.56
264.732	85.56
264.964	85.56
265.197	89.56
265.429	81.56
265.661	90.56
265.894	80.56
266.126	75.56
266.358	79.56
266.591	84.56
266.823	87.56
267.055	76.56
267.287	86.56
267.52	81.56
267.752	102.56
267.984	100.56
268.216	83.56
268.448	92.56
268.681	82.56
268.913	93.56
269.145	102.56
269.377	81.56
269.609	82.56
269.841	88.56
270.073	87.56
270.306	92.56
270.538	92.56
270.77	79.56
271.002	71.56
271.234	70.56
271.466	83.56
271.698	91.56
271.93	87.56
272.162	92.56
272.394	93.56
272.626	89.56
272.858	80.56
273.09	85.56
273.322	91.56
273.553	81.56
273.785	85.56
274.017	85.56
274.249	81.56
274.481	87.56
274.713	70.56
274.945	79.56
275.176	77.56
275.408	90.56
275.64	85.56
275.872	84.56
276.104	101.56
276.335	93.56
276.567	103.56
276.799	102.56
277.031	103.56
277.262	92.56
277.494	94.56
277.726	99.56
277.957	81.56
278.189	90.56
278.421	83.56
278.652	81.56
278.884	87.56
279.115	96.56
279.347	83.56
279.579	91.56
279.81	78.56
280.042	89.56
280.273	105.56
280.505	91.56
280.736	99.56
280.968	74.56
281.199	80.56
281.431	91.56
281.662	92.56
281.894	90.56
282.125	99.56
282.356	118.56
282.588	157.56
282.819	123.56
283.051	90.56
283.282	79.56
283.513	102.56
283.745	93.56
283.976	80.56
284.207	83.56
284.439	80.56
284.67	86.56
284.901	86.56
285.132	98.56
285.364	83.56
285.595	92.56
285.826	91.56
286.057	78.56
286.288	87.56
286.52	78.56
286.751	86.56
286.982	89.56
287.213	89.56
287.444	93.56
287.675	90.56
287.906	110.56
288.138	88.56
288.369	85.56
288.6	88.56
288.831	87.56
289.062	84.56
289.293	83.56
289.524	83.56
289.755	93.56
289.986	84.56
290.217	85.56
290.448	86.56
290.679	86.56
290.91	88.56
291.141	85.56
291.371	95.56
291.602	78.56
291.833	85.56
292.064	98.56
292.295	91.56
292.526	79.56
292.757	80.56
292.987	84.56
293.218	100.56
293.449	99.56
293.68	73.56
293.91	93.56
294.141	81.56
294.372	86.56
294.603	98.56
294.833	90.56
295.064	82.56
295.295	95.56
295.525	86.56
295.756	103.56
295.987	124.56
296.217	161.56
296.448	137.56
296.679	93.56
296.909	90.56
297.14	86.56
297.37	84.56
297.601	95.56
297.831	96.56
298.062	76.56
298.292	104.56
298.523	85.56
298.753	75.56
298.984	88.56
299.214	80.56
299.445	87.56
299.675	86.56
299.905	83.56
300.136	98.56
300.366	95.56
300.597	100.56
300.827	107.56
301.057	105.56
301.288	101.56
301.518	95.56
301.748	76.56
301.979	109.56
302.209	99.56
302.439	106.56
302.669	99.56
302.9	97.56
303.13	103.56
303.36	100.56
303.59	96.56
303.82	79.56
304.051	96.56
304.281	94.56
304.511	95.56
304.741	88.56
304.971	98.56
305.201	79.56
305.431	87.56
305.661	87.56
305.891	100.56
306.121	92.56
306.352	101.56
306.582	112.56
306.812	90.56
307.042	95.56
307.272	95.56
307.502	103.56
307.731	88.56
307.961	92.56
308.191	83.56
308.421	86.56
308.651	80.56
308.881	92.56
309.111	89.56
309.341	86.56
309.571	103.56
309.8	91.56
310.03	86.56
310.26	80.56
310.49	91.56
310.72	85.56
310.949	107.56
311.179	101.56
311.409	93.56
311.639	93.56
311.868	104.56
312.098	93.56
312.328	104.56
312.557	120.56
312.787	108.56
313.017	107.56
313.246	86.56
313.476	86.56
313.706	93.56
313.935	103.56
314.165	102.56
314.394	118.56
314.624	102.56
314.853	94.56
315.083	97.56
315.312	79.56
315.542	99.56
315.771	79.56
316.001	77.56
316.23	116.56
316.46	102.56
316.689	107.56
316.919	109.56
317.148	98.56
317.377	93.56
317.607	79.56
317.836	78.56
318.065	85.56
318.295	94.56
318.524	95.56
318.753	100.56
318.983	85.56
319.212	89.56
319.441	121.56
319.67	110.56
319.9	108.56
320.129	86.56
320.358	95.56
320.587	99.56
320.816	93.56
321.046	91.56
321.275	88.56
321.504	104.56
321.733	113.56
321.962	104.56
322.191	103.56
322.42	102.56
322.649	125.56
322.878	108.56
323.108	119.56
323.337	128.56
323.566	141.56
323.795	182.56
324.024	253.56
324.253	473.56
324.482	1027.56
324.71	2178.56
324.939	2908.56
325.168	1033.56
325.397	301.56
325.626	171.56
325.855	151.56
326.084	136.56
326.313	145.56
326.542	156.56
326.77	279.56
326.999	600.56
327.228	1246.56
327.457	2241.56
327.686	1725.56
327.914	461.56
328.143	236.56
328.372	192.56
328.6	148.56
328.829	145.56
329.058	144.56
329.287	135.56
329.515	121.56
329.744	114.56
329.972	121.56
330.201	160.56
330.43	200.56
330.658	144.56
330.887	174.56
331.115	132.56
331.344	99.56
331.572	101.56
331.801	89.56
332.03	103.56
332.258	105.56
332.486	89.56
332.715	94.56
332.943	92.56
333.172	100.56
333.4	104.56
333.629	88.56
333.857	124.56
334.085	147.56
334.314	163.56
334.542	199.56
334.771	195.56
334.999	124.56
335.227	90.56
335.455	97.56
335.684	109.56
335.912	99.56
336.14	108.56
336.369	114.56
336.597	106.56
336.825	101.56
337.053	94.56
337.281	87.56
337.51	97.56
337.738	98.56
337.966	90.56
338.194	102.56
338.422	97.56
338.65	93.56
338.878	97.56
339.106	101.56
339.334	96.56
339.562	89.56
339.79	91.56
340.018	88.56
340.246	90.56
340.474	98.56
340.702	103.56
340.93	88.56
341.158	95.56
341.386	85.56
341.614	106.56
341.842	104.56
342.07	97.56
342.298	100.56
342.526	104.56
342.754	96.56
342.981	94.56
343.209	93.56
343.437	91.56
343.665	96.56
343.893	87.56
344.12	82.56
344.348	95.56
344.576	88.56
344.804	90.56
345.031	90.56
345.259	93.56
345.487	94.56
345.714	94.56
345.942	97.56
346.17	87.56
346.397	92.56
346.625	95.56
346.853	103.56
347.08	97.56
347.308	93.56
347.535	87.56
347.763	104.56
347.99	102.56
348.218	106.56
348.445	101.56
348.673	107.56
348.9	83.56
349.128	79.56
349.355	84.56
349.583	94.56
349.81	94.56
350.037	93.56
350.265	100.56
350.492	101.56
350.72	100.56
350.947	109.56
351.174	109.56
351.402	114.56
351.629	109.56
351.856	105.56
352.083	114.56
352.311	104.56
352.538	117.56
352.765	98.56
352.992	108.56
353.22	103.56
353.447	112.56
353.674	112.56
353.901	113.56
354.128	94.56
354.355	101.56
354.583	85.56
354.81	96.56
355.037	100.56
355.264	105.56
355.491	84.56
355.718	86.56
355.945	98.56
356.172	103.56
356.399	105.56
356.626	98.56
356.853	94.56
357.08	88.56
357.307	84.56
357.534	89.56
357.761	99.56
357.988	90.56
358.215	112.56
358.441	82.56
358.668	88.56
358.895	86.56
359.122	112.56
359.349	94.56
359.576	95.56
359.802	104.56
360.029	118.56
360.256	121.56
360.483	99.56
360.709	92.56
360.936	81.56
361.163	88.56
361.39	107.56
361.616	94.56
361.843	104.56
362.07	91.56
362.296	108.56
362.523	99.56
362.749	115.56
362.976	103.56
363.203	96.56
363.429	76.56
363.656	100.56
363.882	85.56
364.109	99.56
364.335	93.56
364.562	90.56
364.788	86.56
365.015	98.56
365.241	110.56
365.468	114.56
365.694	107.56
365.92	103.56
366.147	92.56
366.373	89.56
366.599	91.56
366.826	96.56
367.052	95.56
367.278	93.56
367.505	106.56
367.731	95.56
367.957	88.56
368.184	101.56
368.41	81.56
368.636	115.56
368.862	119.56
369.089	101.56
369.315	90.56
369.541	95.56
369.767	102.56
369.993	103.56
370.219	96.56
370.445	80.56
370.672	94.56
370.898	100.56
371.124	80.56
371.35	88.56
371.576	85.56
371.802	93.56
372.028	81.56
372.254	89.56
372.48	91.56
372.706	92.56
372.932	97.56
373.158	89.56
373.384	89.56
373.61	94.56
373.835	105.56
374.061	103.56
374.287	83.56
374.513	95.56
374.739	97.56
374.965	85.56
375.191	88.56
375.416	78.56
375.642	102.56
375.868	90.56
376.094	88.56
376.319	85.56
376.545	87.56
376.771	88.56
376.997	84.56
377.222	86.56
377.448	108.56
377.674	86.56
377.899	85.56
378.125	92.56
378.35	83.56
378.576	102.56
378.802	86.56
379.027	95.56
379.253	99.56
379.478	101.56
379.704	95.56
379.929	103.56
380.155	80.56
380.38	79.56
380.606	107.56
380.831	106.56
381.057	101.56
381.282	93.56
381.507	89.56
381.733	108.56
381.958	103.56
382.184	92.56
382.409	93.56
382.634	111.56
382.86	104.56
383.085	102.56
383.31	99.56
383.535	110.56
383.761	104.56
383.986	108.56
384.211	108.56
384.436	98.56
384.662	109.56
384.887	90.56
385.112	100.56
385.337	103.56
385.562	110.56
385.787	103.56
386.013	99.56
386.238	112.56
386.463	111.56
386.688	108.56
386.913	107.56
387.138	94.56
387.363	104.56
387.588	90.56
387.813	111.56
388.038	105.56
388.263	121.56
388.488	113.56
388.713	105.56
388.938	87.56
389.163	101.56
389.387	94.56
389.612	97.56
389.837	87.56
390.062	88.56
390.287	95.56
390.512	83.56
390.736	95.56
390.961	94.56
391.186	95.56
391.411	91.56
391.636	104.56
391.86	98.56
392.085	88.56
392.31	85.56
392.534	95.56
392.759	93.56
392.984	92.56
393.208	89.56
393.433	95.56
393.658	104.56
393.882	92.56
394.107	87.56
394.331	93.56
394.556	91.56
394.78	82.56
395.005	89.56
395.229	92.56
395.454	86.56
395.678	84.56
395.903	89.56
396.127	82.56
396.352	86.56
396.576	88.56
396.801	102.56
397.025	97.56
397.249	85.56
397.474	95.56
397.698	84.56
397.922	89.56
398.147	81.56
398.371	78.56
398.595	85.56
398.82	75.56
399.044	88.56
399.268	100.56
399.492	95.56
399.717	90.56
399.941	85.56
400.165	94.56
400.389	98.56
400.613	84.56
400.837	94.56
401.062	89.56
401.286	95.56
401.51	100.56
401.734	72.56
401.958	97.56
402.182	141.56
402.406	181.56
402.63	121.56
402.854	101.56
403.078	83.56
403.302	91.56
403.526	90.56
403.75	81.56
403.974	74.56
404.198	89.56
404.422	97.56
404.645	96.56
404.869	100.56
405.093	106.56
405.317	112.56
405.541	104.56
405.765	103.56
405.988	106.56
406.212	190.56
406.436	275.56
406.66	167.56
406.883	103.56
407.107	97.56
407.331	84.56
407.555	108.56
407.778	117.56
408.002	92.56
408.226	85.56
408.449	83.56
408.673	86.56
408.896	104.56
409.12	107.56
409.344	88.56
409.567	90.56
409.791	89.56
410.014	102.56
410.238	84.56
410.461	89.56
410.685	99.56
410.908	107.56
411.132	102.56
411.355	91.56
411.578	104.56
411.802	100.56
412.025	108.56
412.249	98.56
412.472	107.56
412.695	99.56
412.919	108.56
413.142	93.56
413.365	97.56
413.589	76.56
413.812	84.56
414.035	74.56
414.258	87.56
414.482	88.56
414.705	104.56
414.928	111.56
415.151	99.56
415.374	88.56
415.597	91.56
415.821	99.56
416.044	84.56
416.267	104.56
416.49	70.56
416.713	87.56
416.936	93.56
417.159	87.56
417.382	82.56
417.605	89.56
417.828	92.56
418.051	96.56
418.274	89.56
418.497	84.56
418.72	79.56
418.943	84.56
419.166	83.56
419.389	75.56
419.611	88.56
419.834	91.56
420.057	96.56
420.28	94.56
420.503	95.56
420.726	87.56
420.948	91.56
421.171	97.56
421.394	105.56
421.617	87.56
421.839	93.56
422.062	81.56
422.285	84.56
422.507	81.56
422.73	90.56
422.953	103.56
423.175	96.56
423.398	86.56
423.621	95.56
423.843	93.56
424.066	85.56
424.288	97.56
424.511	82.56
424.733	107.56
424.956	102.56
425.178	101.56
425.401	110.56
425.623	94.56
425.846	96.56
426.068	99.56
426.291	90.56
426.513	93.56
426.735	84.56
426.958	67.56
427.18	114.56
427.402	142.56
427.625	190.56
427.847	168.56
428.069	136.56
428.292	102.56
428.514	101.56
428.736	77.56
428.958	87.56
429.181	77.56
429.403	80.56
429.625	88.56
429.847	94.56
430.069	98.56
430.292	90.56
430.514	78.56
430.736	84.56
430.958	77.56
431.18	88.56
431.402	90.56
431.624	83.56
431.846	91.56
432.068	80.56
432.29	94.56
432.512	86.56
432.734	83.56
432.956	87.56
433.178	101.56
433.4	104.56
433.622	97.56
433.844	80.56
434.066	89.56
434.287	79.56
434.509	80.56
434.731	94.56
434.953	95.56
435.175	90.56
435.397	96.56
435.618	86.56
435.84	108.56
436.062	118.56
436.284	141.56
436.505	99.56
436.727	99.56
436.949	82.56
437.17	92.56
437.392	91.56
437.614	80.56
437.835	107.56
438.057	116.56
438.278	112.56
438.5	90.56
438.721	125.56
438.943	106.56
439.165	97.56
439.386	81.56
439.608	91.56
439.829	102.56
440.05	135.56
440.272	163.56
440.493	114.56
440.715	95.56
440.936	82.56
441.158	85.56
441.379	89.56
441.6	88.56
441.822	100.56
442.043	82.56
442.264	117.56
442.486	101.56
442.707	88.56
442.928	124.56
443.149	132.56
443.371	147.56
443.592	112.56
443.813	115.56
444.034	107.56
444.255	95.56
444.476	89.56
444.698	91.56
444.919	89.56
445.14	136.56
445.361	133.56
445.582	132.56
445.803	161.56
446.024	146.56
446.245	138.56
446.466	114.56
446.687	92.56
446.908	89.56
447.129	95.56
447.35	100.56
447.571	89.56
447.792	94.56
448.013	100.56
448.234	123.56
448.455	109.56
448.675	116.56
448.896	117.56
449.117	104.56
449.338	99.56
449.559	147.56
449.779	130.56
450	100.56
450.221	92.56
450.442	95.56
450.662	83.56
450.883	97.56
451.104	106.56
451.324	95.56
451.545	80.56
451.766	71.56
451.986	99.56
452.207	91.56
452.428	104.56
452.648	119.56
452.869	110.56
453.089	112.56
453.31	117.56
453.53	99.56
453.751	81.56
453.971	109.56
454.192	119.56
454.412	96.56
454.633	82.56
454.853	96.56
455.073	92.56
455.294	86.56
455.514	99.56
455.734	100.56
455.955	87.56
456.175	90.56
456.395	84.56
456.616	96.56
456.836	89.56
457.056	76.56
457.276	71.56
457.497	85.56
457.717	97.56
457.937	88.56
458.157	88.56
458.377	98.56
458.598	104.56
458.818	150.56
459.038	181.56
459.258	105.56
459.478	78.56
459.698	96.56
459.918	98.56
460.138	73.56
460.358	86.56
460.578	82.56
460.798	73.56
461.018	79.56
461.238	79.56
461.458	86.56
461.678	88.56
461.898	87.56
462.118	76.56
462.338	78.56
462.558	97.56
462.777	95.56
462.997	75.56
463.217	83.56
463.437	79.56
463.657	79.56
463.876	71.56
464.096	92.56
464.316	91.56
464.536	99.56
464.755	97.56
464.975	113.56
465.195	193.56
465.414	169.56
465.634	97.56
465.854	92.56
466.073	85.56
466.293	91.56
466.512	99.56
466.732	87.56
466.951	88.56
467.171	89.56
467.391	104.56
467.61	98.56
467.829	106.56
468.049	103.56
468.268	133.56
468.488	102.56
468.707	96.56
468.927	80.56
469.146	98.56
469.365	89.56
469.585	88.56
469.804	104.56
470.023	100.56
470.243	82.56
470.462	110.56
470.681	111.56
470.901	92.56
471.12	89.56
471.339	88.56
471.558	92.56
471.777	92.56
471.997	112.56
472.216	159.56
472.435	262.56
472.654	128.56
472.873	103.56
473.092	78.56
473.311	95.56
473.53	87.56
473.749	94.56
473.968	83.56
474.187	94.56
474.406	93.56
474.625	68.56
474.844	79.56
475.063	87.56
475.282	83.56
475.501	95.56
475.72	101.56
475.939	80.56
476.158	91.56
476.377	84.56
476.596	89.56
476.814	102.56
477.033	98.56
477.252	110.56
477.471	94.56
477.69	86.56
477.908	93.56
478.127	91.56
478.346	95.56
478.564	92.56
478.783	92.56
479.002	103.56
479.22	95.56
479.439	99.56
479.658	108.56
479.876	107.56
480.095	96.56
480.313	95.56
480.532	110.56
480.751	107.56
480.969	156.56
481.188	379.56
481.406	287.56
481.624	104.56
481.843	93.56
482.061	94.56
482.28	90.56
482.498	84.56
482.717	81.56
482.935	86.56
483.153	72.56
483.372	91.56
483.59	88.56
483.808	86.56
484.027	88.56
484.245	97.56
484.463	94.56
484.681	103.56
484.9	80.56
485.118	88.56
485.336	96.56
485.554	94.56
485.772	89.56
485.99	107.56
486.209	112.56
486.427	114.56
486.645	101.56
486.863	110.56
487.081	101.56
487.299	92.56
487.517	110.56
487.735	98.56
487.953	82.56
488.171	106.56
488.389	94.56
488.607	91.56
488.825	100.56
489.043	88.56
489.261	86.56
489.479	82.56
489.696	84.56
489.914	89.56
490.132	98.56
490.35	102.56
490.568	96.56
490.786	99.56
491.003	79.56
491.221	79.56
491.439	99.56
491.657	72.56
491.874	89.56
492.092	88.56
492.31	92.56
492.527	89.56
492.745	96.56
492.963	84.56
493.18	97.56
493.398	97.56
493.615	98.56
493.833	93.56
494.05	90.56
494.268	96.56
494.485	104.56
494.703	94.56
494.92	100.56
495.138	97.56
495.355	101.56
495.573	80.56
495.79	85.56
496.008	110.56
496.225	87.56
496.442	92.56
496.66	99.56
496.877	90.56
497.094	89.56
497.312	85.56
497.529	94.56
497.746	83.56
497.963	101.56
498.181	87.56
498.398	99.56
498.615	109.56
498.832	97.56
499.049	90.56
499.267	94.56
499.484	86.56
499.701	98.56
499.918	94.56
500.135	95.56
500.352	87.56
500.569	103.56
500.786	94.56
501.003	92.56
501.22	96.56
501.437	85.56
501.654	98.56
501.871	131.56
502.088	89.56
502.305	94.56
502.522	97.56
502.739	94.56
502.956	104.56
503.172	92.56
503.389	104.56
503.606	112.56
503.823	103.56
504.04	97.56
504.256	100.56
504.473	93.56
504.69	94.56
504.907	94.56
505.123	91.56
505.34	75.56
505.557	75.56
505.773	94.56
505.99	78.56
506.207	93.56
506.423	88.56
506.64	93.56
506.856	82.56
507.073	92.56
507.289	103.56
507.506	97.56
507.722	128.56
507.939	123.56
508.155	87.56
508.372	79.56
508.588	95.56
508.805	104.56
509.021	121.56
509.238	107.56
509.454	111.56
509.67	101.56
509.887	114.56
510.103	144.56
510.319	229.56
510.536	907.56
510.752	2892.56
510.968	801.56
511.184	175.56
511.401	113.56
511.617	99.56
511.833	85.56
512.049	95.56
512.265	104.56
512.481	89.56
512.698	93.56
512.914	89.56
513.13	95.56
513.346	106.56
513.562	94.56
513.778	102.56
513.994	120.56
514.21	105.56
514.426	120.56
514.642	151.56
