Data from Circ_2006_H10_HRD10591_00064.txt Node
Date: Wed Jan 03 10:26:16 EST 2024
User: Yrep
Spectrometer: HR+D1059
Trigger mode: 1
Integration Time (sec): 1.000000E-1
Scans to average: 1
Electric dark correction enabled: true
Nonlinearity correction enabled: false
Boxcar width: 0
XAxis mode: Wavelengths
Number of Pixels in Spectrum: 2048
>>>>>Begin Spectral Data<<<<<
223.165	-19.19
223.4	-19.19
223.635	-19.19
223.869	-10.19
224.104	-25.19
224.338	-13.19
224.573	-9.19
224.808	-14.19
225.042	2.81
225.277	-2.19
225.511	-6.19
225.746	-0.19
225.98	5.81
226.215	1.81
226.449	23.81
226.683	18.81
226.918	19.81
227.152	26.81
227.387	30.81
227.621	38.81
227.856	50.81
228.09	40.81
228.324	48.81
228.559	62.81
228.793	50.81
229.027	85.81
229.262	68.81
229.496	82.81
229.73	91.81
229.964	75.81
230.199	59.81
230.433	77.81
230.667	80.81
230.901	76.81
231.136	78.81
231.37	76.81
231.604	79.81
231.838	70.81
232.072	72.81
232.306	76.81
232.541	77.81
232.775	84.81
233.009	80.81
233.243	60.81
233.477	95.81
233.711	64.81
233.945	71.81
234.179	77.81
234.413	84.81
234.647	79.81
234.881	77.81
235.115	80.81
235.349	73.81
235.583	74.81
235.817	77.81
236.051	88.81
236.285	68.81
236.519	83.81
236.753	80.81
236.987	67.81
237.221	78.81
237.455	84.81
237.689	74.81
237.922	78.81
238.156	75.81
238.39	79.81
238.624	76.81
238.858	89.81
239.091	72.81
239.325	85.81
239.559	86.81
239.793	73.81
240.027	83.81
240.26	83.81
240.494	72.81
240.728	76.81
240.961	69.81
241.195	74.81
241.429	85.81
241.662	67.81
241.896	63.81
242.13	73.81
242.363	75.81
242.597	74.81
242.83	77.81
243.064	72.81
243.298	87.81
243.531	83.81
243.765	73.81
243.998	70.81
244.232	86.81
244.465	79.81
244.699	83.81
244.932	70.81
245.166	76.81
245.399	71.81
245.633	62.81
245.866	69.81
246.099	79.81
246.333	77.81
246.566	73.81
246.8	84.81
247.033	64.81
247.266	73.81
247.5	63.81
247.733	62.81
247.966	87.81
248.2	76.81
248.433	80.81
248.666	86.81
248.899	91.81
249.133	81.81
249.366	106.81
249.599	97.81
249.832	76.81
250.066	85.81
250.299	81.81
250.532	89.81
250.765	83.81
250.998	92.81
251.231	80.81
251.465	84.81
251.698	86.81
251.931	76.81
252.164	82.81
252.397	75.81
252.63	79.81
252.863	79.81
253.096	79.81
253.329	78.81
253.562	81.81
253.795	82.81
254.028	68.81
254.261	64.81
254.494	82.81
254.727	70.81
254.96	76.81
255.193	81.81
255.426	85.81
255.659	77.81
255.892	90.81
256.124	81.81
256.357	88.81
256.59	80.81
256.823	77.81
257.056	71.81
257.289	88.81
257.521	84.81
257.754	66.81
257.987	76.81
258.22	88.81
258.452	78.81
258.685	67.81
258.918	76.81
259.151	83.81
259.383	72.81
259.616	74.81
259.849	76.81
260.081	75.81
260.314	79.81
260.547	77.81
260.779	79.81
261.012	74.81
261.244	72.81
261.477	91.81
261.71	92.81
261.942	113.81
262.175	139.81
262.407	81.81
262.64	74.81
262.872	80.81
263.105	85.81
263.337	82.81
263.57	95.81
263.802	90.81
264.035	65.81
264.267	79.81
264.499	68.81
264.732	81.81
264.964	83.81
265.197	79.81
265.429	87.81
265.661	82.81
265.894	79.81
266.126	75.81
266.358	77.81
266.591	95.81
266.823	80.81
267.055	81.81
267.287	73.81
267.52	100.81
267.752	90.81
267.984	73.81
268.216	81.81
268.448	101.81
268.681	87.81
268.913	90.81
269.145	82.81
269.377	91.81
269.609	76.81
269.841	80.81
270.073	90.81
270.306	87.81
270.538	74.81
270.77	79.81
271.002	85.81
271.234	84.81
271.466	86.81
271.698	89.81
271.93	82.81
272.162	95.81
272.394	86.81
272.626	82.81
272.858	94.81
273.09	92.81
273.322	89.81
273.553	84.81
273.785	83.81
274.017	74.81
274.249	81.81
274.481	74.81
274.713	81.81
274.945	95.81
275.176	91.81
275.408	84.81
275.64	89.81
275.872	82.81
276.104	83.81
276.335	84.81
276.567	104.81
276.799	113.81
277.031	109.81
277.262	93.81
277.494	91.81
277.726	86.81
277.957	88.81
278.189	90.81
278.421	78.81
278.652	73.81
278.884	80.81
279.115	81.81
279.347	81.81
279.579	79.81
279.81	92.81
280.042	99.81
280.273	84.81
280.505	88.81
280.736	77.81
280.968	95.81
281.199	90.81
281.431	85.81
281.662	95.81
281.894	88.81
282.125	118.81
282.356	140.81
282.588	161.81
282.819	114.81
283.051	79.81
283.282	85.81
283.513	90.81
283.745	85.81
283.976	69.81
284.207	81.81
284.439	79.81
284.67	90.81
284.901	92.81
285.132	93.81
285.364	82.81
285.595	92.81
285.826	89.81
286.057	94.81
286.288	82.81
286.52	84.81
286.751	82.81
286.982	85.81
287.213	76.81
287.444	80.81
287.675	86.81
287.906	78.81
288.138	80.81
288.369	82.81
288.6	85.81
288.831	91.81
289.062	81.81
289.293	92.81
289.524	76.81
289.755	89.81
289.986	90.81
290.217	79.81
290.448	77.81
290.679	89.81
290.91	80.81
291.141	62.81
291.371	93.81
291.602	70.81
291.833	86.81
292.064	98.81
292.295	87.81
292.526	94.81
292.757	75.81
292.987	86.81
293.218	86.81
293.449	95.81
293.68	78.81
293.91	86.81
294.141	78.81
294.372	81.81
294.603	98.81
294.833	88.81
295.064	70.81
295.295	85.81
295.525	86.81
295.756	102.81
295.987	121.81
296.217	163.81
296.448	135.81
296.679	91.81
296.909	88.81
297.14	83.81
297.37	96.81
297.601	95.81
297.831	86.81
298.062	102.81
298.292	100.81
298.523	85.81
298.753	99.81
298.984	75.81
299.214	89.81
299.445	87.81
299.675	90.81
299.905	93.81
300.136	97.81
300.366	104.81
300.597	82.81
300.827	98.81
301.057	99.81
301.288	112.81
301.518	93.81
301.748	81.81
301.979	118.81
302.209	76.81
302.439	86.81
302.669	93.81
302.9	92.81
303.13	89.81
303.36	90.81
303.59	105.81
303.82	116.81
304.051	101.81
304.281	88.81
304.511	92.81
304.741	80.81
304.971	86.81
305.201	92.81
305.431	85.81
305.661	96.81
305.891	92.81
306.121	99.81
306.352	101.81
306.582	93.81
306.812	90.81
307.042	87.81
307.272	97.81
307.502	99.81
307.731	79.81
307.961	76.81
308.191	97.81
308.421	84.81
308.651	77.81
308.881	89.81
309.111	93.81
309.341	102.81
309.571	95.81
309.8	89.81
310.03	92.81
310.26	101.81
310.49	85.81
310.72	100.81
310.949	125.81
311.179	104.81
311.409	92.81
311.639	90.81
311.868	96.81
312.098	100.81
312.328	101.81
312.557	108.81
312.787	102.81
313.017	107.81
313.246	98.81
313.476	86.81
313.706	94.81
313.935	101.81
314.165	116.81
314.394	102.81
314.624	108.81
314.853	101.81
315.083	80.81
315.312	89.81
315.542	90.81
315.771	101.81
316.001	95.81
316.23	87.81
316.46	95.81
316.689	102.81
316.919	101.81
317.148	112.81
317.377	108.81
317.607	109.81
317.836	100.81
318.065	79.81
318.295	85.81
318.524	83.81
318.753	88.81
318.983	83.81
319.212	98.81
319.441	117.81
319.67	108.81
319.9	105.81
320.129	84.81
320.358	91.81
320.587	99.81
320.816	95.81
321.046	107.81
321.275	89.81
321.504	94.81
321.733	102.81
321.962	90.81
322.191	95.81
322.42	104.81
322.649	136.81
322.878	118.81
323.108	134.81
323.337	125.81
323.566	142.81
323.795	179.81
324.024	260.81
324.253	496.81
324.482	1096.81
324.71	2318.81
324.939	3051.81
325.168	1088.81
325.397	304.81
325.626	160.81
325.855	132.81
326.084	123.81
326.313	142.81
326.542	172.81
326.77	299.81
326.999	584.81
327.228	1231.81
327.457	2244.81
327.686	1791.81
327.914	483.81
328.143	243.81
328.372	195.81
328.6	134.81
328.829	127.81
329.058	149.81
329.287	149.81
329.515	110.81
329.744	113.81
329.972	109.81
330.201	144.81
330.43	174.81
330.658	165.81
330.887	176.81
331.115	145.81
331.344	105.81
331.572	104.81
331.801	119.81
332.03	117.81
332.258	95.81
332.486	90.81
332.715	105.81
332.943	105.81
333.172	112.81
333.4	106.81
333.629	113.81
333.857	112.81
334.085	110.81
334.314	152.81
334.542	204.81
334.771	172.81
334.999	120.81
335.227	111.81
335.455	89.81
335.684	112.81
335.912	102.81
336.14	88.81
336.369	107.81
336.597	106.81
336.825	99.81
337.053	93.81
337.281	100.81
337.51	88.81
337.738	85.81
337.966	98.81
338.194	97.81
338.422	104.81
338.65	97.81
338.878	86.81
339.106	86.81
339.334	88.81
339.562	104.81
339.79	91.81
340.018	95.81
340.246	90.81
340.474	101.81
340.702	96.81
340.93	100.81
341.158	96.81
341.386	92.81
341.614	96.81
341.842	94.81
342.07	76.81
342.298	88.81
342.526	86.81
342.754	75.81
342.981	75.81
343.209	89.81
343.437	94.81
343.665	85.81
343.893	91.81
344.12	91.81
344.348	91.81
344.576	85.81
344.804	99.81
345.031	105.81
345.259	99.81
345.487	100.81
345.714	89.81
345.942	101.81
346.17	95.81
346.397	92.81
346.625	93.81
346.853	92.81
347.08	86.81
347.308	104.81
347.535	97.81
347.763	93.81
347.99	100.81
348.218	96.81
348.445	102.81
348.673	97.81
348.9	106.81
349.128	98.81
349.355	85.81
349.583	89.81
349.81	80.81
350.037	84.81
350.265	95.81
350.492	84.81
350.72	107.81
350.947	111.81
351.174	111.81
351.402	112.81
351.629	107.81
351.856	89.81
352.083	112.81
352.311	100.81
352.538	127.81
352.765	113.81
352.992	127.81
353.22	108.81
353.447	90.81
353.674	100.81
353.901	91.81
354.128	101.81
354.355	100.81
354.583	93.81
354.81	98.81
355.037	102.81
355.264	95.81
355.491	99.81
355.718	90.81
355.945	103.81
356.172	91.81
356.399	106.81
356.626	100.81
356.853	79.81
357.08	82.81
357.307	81.81
357.534	78.81
357.761	93.81
357.988	97.81
358.215	102.81
358.441	92.81
358.668	111.81
358.895	104.81
359.122	105.81
359.349	94.81
359.576	112.81
359.802	106.81
360.029	127.81
360.256	124.81
360.483	100.81
360.709	84.81
360.936	100.81
361.163	91.81
361.39	86.81
361.616	96.81
361.843	94.81
362.07	94.81
362.296	105.81
362.523	91.81
362.749	98.81
362.976	106.81
363.203	83.81
363.429	89.81
363.656	102.81
363.882	80.81
364.109	90.81
364.335	89.81
364.562	97.81
364.788	108.81
365.015	91.81
365.241	107.81
365.468	113.81
365.694	102.81
365.92	87.81
366.147	98.81
366.373	105.81
366.599	77.81
366.826	83.81
367.052	97.81
367.278	87.81
367.505	89.81
367.731	95.81
367.957	91.81
368.184	82.81
368.41	97.81
368.636	121.81
368.862	134.81
369.089	97.81
369.315	100.81
369.541	94.81
369.767	92.81
369.993	106.81
370.219	92.81
370.445	90.81
370.672	86.81
370.898	82.81
371.124	95.81
371.35	83.81
371.576	96.81
371.802	91.81
372.028	94.81
372.254	91.81
372.48	82.81
372.706	88.81
372.932	78.81
373.158	89.81
373.384	91.81
373.61	89.81
373.835	92.81
374.061	85.81
374.287	99.81
374.513	90.81
374.739	84.81
374.965	84.81
375.191	83.81
375.416	85.81
375.642	97.81
375.868	75.81
376.094	94.81
376.319	77.81
376.545	91.81
376.771	74.81
376.997	84.81
377.222	88.81
377.448	81.81
377.674	97.81
377.899	96.81
378.125	92.81
378.35	84.81
378.576	86.81
378.802	97.81
379.027	84.81
379.253	85.81
379.478	75.81
379.704	97.81
379.929	91.81
380.155	112.81
380.38	85.81
380.606	94.81
380.831	90.81
381.057	97.81
381.282	89.81
381.507	101.81
381.733	104.81
381.958	102.81
382.184	103.81
382.409	106.81
382.634	119.81
382.86	97.81
383.085	96.81
383.31	102.81
383.535	113.81
383.761	84.81
383.986	93.81
384.211	109.81
384.436	93.81
384.662	92.81
384.887	110.81
385.112	100.81
385.337	91.81
385.562	102.81
385.787	96.81
386.013	112.81
386.238	118.81
386.463	108.81
386.688	107.81
386.913	105.81
387.138	84.81
387.363	78.81
387.588	91.81
387.813	100.81
388.038	100.81
388.263	112.81
388.488	93.81
388.713	84.81
388.938	94.81
389.163	92.81
389.387	89.81
389.612	94.81
389.837	93.81
390.062	98.81
390.287	95.81
390.512	83.81
390.736	82.81
390.961	92.81
391.186	96.81
391.411	110.81
391.636	83.81
391.86	100.81
392.085	94.81
392.31	92.81
392.534	89.81
392.759	75.81
392.984	81.81
393.208	86.81
393.433	86.81
393.658	78.81
393.882	86.81
394.107	84.81
394.331	78.81
394.556	87.81
394.78	88.81
395.005	82.81
395.229	92.81
395.454	77.81
395.678	82.81
395.903	92.81
396.127	94.81
396.352	86.81
396.576	80.81
396.801	93.81
397.025	76.81
397.249	87.81
397.474	86.81
397.698	75.81
397.922	97.81
398.147	87.81
398.371	76.81
398.595	82.81
398.82	86.81
399.044	82.81
399.268	79.81
399.492	92.81
399.717	81.81
399.941	86.81
400.165	97.81
400.389	77.81
400.613	91.81
400.837	93.81
401.062	98.81
401.286	98.81
401.51	94.81
401.734	104.81
401.958	92.81
402.182	137.81
402.406	192.81
402.63	131.81
402.854	80.81
403.078	101.81
403.302	91.81
403.526	96.81
403.75	98.81
403.974	83.81
404.198	82.81
404.422	89.81
404.645	85.81
404.869	76.81
405.093	85.81
405.317	97.81
405.541	104.81
405.765	96.81
405.988	115.81
406.212	192.81
406.436	279.81
406.66	185.81
406.883	128.81
407.107	95.81
407.331	97.81
407.555	100.81
407.778	98.81
408.002	92.81
408.226	82.81
408.449	84.81
408.673	106.81
408.896	93.81
409.12	74.81
409.344	93.81
409.567	79.81
409.791	83.81
410.014	84.81
410.238	97.81
410.461	89.81
410.685	95.81
410.908	100.81
411.132	110.81
411.355	96.81
411.578	81.81
411.802	87.81
412.025	86.81
412.249	93.81
412.472	101.81
412.695	85.81
412.919	92.81
413.142	80.81
413.365	81.81
413.589	90.81
413.812	94.81
414.035	89.81
414.258	96.81
414.482	95.81
414.705	94.81
414.928	84.81
415.151	92.81
415.374	86.81
415.597	85.81
415.821	80.81
416.044	94.81
416.267	89.81
416.49	88.81
416.713	87.81
416.936	93.81
417.159	88.81
417.382	93.81
417.605	86.81
417.828	92.81
418.051	109.81
418.274	95.81
418.497	84.81
418.72	86.81
418.943	87.81
419.166	93.81
419.389	86.81
419.611	74.81
419.834	87.81
420.057	90.81
420.28	92.81
420.503	84.81
420.726	92.81
420.948	86.81
421.171	95.81
421.394	94.81
421.617	82.81
421.839	85.81
422.062	85.81
422.285	99.81
422.507	106.81
422.73	106.81
422.953	100.81
423.175	105.81
423.398	91.81
423.621	80.81
423.843	78.81
424.066	89.81
424.288	80.81
424.511	66.81
424.733	95.81
424.956	123.81
425.178	111.81
425.401	110.81
425.623	106.81
425.846	88.81
426.068	100.81
426.291	97.81
426.513	70.81
426.735	78.81
426.958	92.81
427.18	112.81
427.402	157.81
427.625	202.81
427.847	161.81
428.069	126.81
428.292	92.81
428.514	87.81
428.736	91.81
428.958	78.81
429.181	83.81
429.403	97.81
429.625	77.81
429.847	97.81
430.069	106.81
430.292	100.81
430.514	85.81
430.736	89.81
430.958	89.81
431.18	81.81
431.402	84.81
431.624	64.81
431.846	78.81
432.068	94.81
432.29	93.81
432.512	86.81
432.734	85.81
432.956	79.81
433.178	97.81
433.4	115.81
433.622	81.81
433.844	92.81
434.066	90.81
434.287	82.81
434.509	74.81
434.731	106.81
434.953	93.81
435.175	74.81
435.397	85.81
435.618	90.81
435.84	106.81
436.062	136.81
436.284	118.81
436.505	110.81
436.727	106.81
436.949	83.81
437.17	89.81
437.392	84.81
437.614	97.81
437.835	115.81
438.057	122.81
438.278	113.81
438.5	109.81
438.721	117.81
438.943	101.81
439.165	102.81
439.386	81.81
439.608	108.81
439.829	112.81
440.05	136.81
440.272	175.81
440.493	107.81
440.715	79.81
440.936	83.81
441.158	74.81
441.379	91.81
441.6	110.81
441.822	108.81
442.043	96.81
442.264	120.81
442.486	108.81
442.707	96.81
442.928	116.81
443.149	147.81
443.371	152.81
443.592	127.81
443.813	114.81
444.034	124.81
444.255	80.81
444.476	87.81
444.698	98.81
444.919	77.81
445.14	123.81
445.361	130.81
445.582	121.81
445.803	161.81
446.024	152.81
446.245	154.81
446.466	125.81
446.687	96.81
446.908	77.81
447.129	82.81
447.35	88.81
447.571	96.81
447.792	96.81
448.013	92.81
448.234	111.81
448.455	100.81
448.675	126.81
448.896	124.81
449.117	100.81
449.338	114.81
449.559	138.81
449.779	148.81
450	102.81
450.221	82.81
450.442	99.81
450.662	101.81
450.883	127.81
451.104	126.81
451.324	98.81
451.545	102.81
451.766	81.81
451.986	93.81
452.207	86.81
452.428	74.81
452.648	93.81
452.869	126.81
453.089	116.81
453.31	136.81
453.53	100.81
453.751	91.81
453.971	107.81
454.192	121.81
454.412	88.81
454.633	86.81
454.853	92.81
455.073	89.81
455.294	90.81
455.514	103.81
455.734	86.81
455.955	85.81
456.175	82.81
456.395	84.81
456.616	92.81
456.836	78.81
457.056	89.81
457.276	100.81
457.497	94.81
457.717	92.81
457.937	93.81
458.157	88.81
458.377	73.81
458.598	122.81
458.818	164.81
459.038	196.81
459.258	129.81
459.478	102.81
459.698	93.81
459.918	89.81
460.138	85.81
460.358	88.81
460.578	78.81
460.798	112.81
461.018	87.81
461.238	96.81
461.458	91.81
461.678	86.81
461.898	89.81
462.118	86.81
462.338	98.81
462.558	69.81
462.777	79.81
462.997	80.81
463.217	83.81
463.437	87.81
463.657	72.81
463.876	77.81
464.096	78.81
464.316	98.81
464.536	89.81
464.755	101.81
464.975	104.81
465.195	201.81
465.414	199.81
465.634	95.81
465.854	90.81
466.073	96.81
466.293	81.81
466.512	97.81
466.732	88.81
466.951	94.81
467.171	89.81
467.391	98.81
467.61	107.81
467.829	100.81
468.049	104.81
468.268	133.81
468.488	92.81
468.707	86.81
468.927	82.81
469.146	75.81
469.365	85.81
469.585	83.81
469.804	87.81
470.023	104.81
470.243	103.81
470.462	129.81
470.681	126.81
470.901	89.81
471.12	101.81
471.339	81.81
471.558	73.81
471.777	84.81
471.997	93.81
472.216	148.81
472.435	211.81
472.654	108.81
472.873	84.81
473.092	68.81
473.311	82.81
473.53	89.81
473.749	70.81
473.968	121.81
474.187	109.81
474.406	91.81
474.625	94.81
474.844	92.81
475.063	85.81
475.282	88.81
475.501	83.81
475.72	86.81
475.939	79.81
476.158	77.81
476.377	83.81
476.596	64.81
476.814	93.81
477.033	98.81
477.252	95.81
477.471	88.81
477.69	84.81
477.908	78.81
478.127	93.81
478.346	103.81
478.564	86.81
478.783	105.81
479.002	105.81
479.22	90.81
479.439	104.81
479.658	110.81
479.876	82.81
480.095	104.81
480.313	94.81
480.532	93.81
480.751	102.81
480.969	156.81
481.188	322.81
481.406	243.81
481.624	108.81
481.843	90.81
482.061	85.81
482.28	83.81
482.498	81.81
482.717	86.81
482.935	99.81
483.153	77.81
483.372	94.81
483.59	83.81
483.808	84.81
484.027	89.81
484.245	82.81
484.463	104.81
484.681	102.81
484.9	86.81
485.118	86.81
485.336	91.81
485.554	94.81
485.772	86.81
485.99	100.81
486.209	115.81
486.427	101.81
486.645	121.81
486.863	105.81
487.081	99.81
487.299	109.81
487.517	101.81
487.735	97.81
487.953	82.81
488.171	81.81
488.389	96.81
488.607	108.81
488.825	90.81
489.043	87.81
489.261	98.81
489.479	72.81
489.696	88.81
489.914	83.81
490.132	81.81
490.35	91.81
490.568	98.81
490.786	84.81
491.003	86.81
491.221	79.81
491.439	83.81
491.657	88.81
491.874	72.81
492.092	90.81
492.31	84.81
492.527	96.81
492.745	85.81
492.963	86.81
493.18	93.81
493.398	87.81
493.615	92.81
493.833	93.81
494.05	89.81
494.268	85.81
494.485	85.81
494.703	91.81
494.92	90.81
495.138	79.81
495.355	82.81
495.573	89.81
495.79	66.81
496.008	88.81
496.225	91.81
496.442	88.81
496.66	83.81
496.877	81.81
497.094	78.81
497.312	83.81
497.529	82.81
497.746	77.81
497.963	88.81
498.181	92.81
498.398	86.81
498.615	104.81
498.832	96.81
499.049	84.81
499.267	92.81
499.484	80.81
499.701	90.81
499.918	80.81
500.135	73.81
500.352	85.81
500.569	84.81
500.786	98.81
501.003	81.81
501.22	78.81
501.437	90.81
501.654	90.81
501.871	121.81
502.088	107.81
502.305	92.81
502.522	85.81
502.739	85.81
502.956	96.81
503.172	97.81
503.389	106.81
503.606	115.81
503.823	93.81
504.04	75.81
504.256	81.81
504.473	91.81
504.69	79.81
504.907	80.81
505.123	73.81
505.34	76.81
505.557	86.81
505.773	79.81
505.99	88.81
506.207	92.81
506.423	88.81
506.64	89.81
506.856	79.81
507.073	74.81
507.289	86.81
507.506	91.81
507.722	117.81
507.939	116.81
508.155	105.81
508.372	87.81
508.588	85.81
508.805	83.81
509.021	96.81
509.238	101.81
509.454	95.81
509.67	99.81
509.887	116.81
510.103	141.81
510.319	226.81
510.536	916.81
510.752	3188.81
510.968	854.81
511.184	174.81
511.401	138.81
511.617	100.81
511.833	78.81
512.049	88.81
512.265	94.81
512.481	82.81
512.698	92.81
512.914	92.81
513.13	99.81
513.346	78.81
513.562	88.81
513.778	91.81
513.994	102.81
514.21	103.81
514.426	125.81
514.642	160.81
514.858	147.81
515.074	219.81
