Data from Circ_2006_H10_HRD10591_00002.txt Node
Date: Wed Jan 03 10:26:04 EST 2024
User: Yrep
Spectrometer: HR+D1059
Trigger mode: 1
Integration Time (sec): 1.000000E-1
Scans to average: 1
Electric dark correction enabled: true
Nonlinearity correction enabled: false
Boxcar width: 0
XAxis mode: Wavelengths
Number of Pixels in Spectrum: 2048
>>>>>Begin Spectral Data<<<<<
223.165	-26.06
223.4	-26.06
223.635	-26.06
223.869	-31.06
224.104	-11.06
224.338	-15.06
224.573	-19.06
224.808	-10.06
225.042	-8.06
225.277	-10.06
225.511	0.94
225.746	4.94
225.98	-2.06
226.215	17.94
226.449	15.94
226.683	21.94
226.918	45.94
227.152	24.94
227.387	39.94
227.621	40.94
227.856	45.94
228.09	47.94
228.324	45.94
228.559	66.94
228.793	65.94
229.027	52.94
229.262	61.94
229.496	70.94
229.73	65.94
229.964	75.94
230.199	68.94
230.433	69.94
230.667	70.94
230.901	81.94
231.136	86.94
231.37	73.94
231.604	92.94
231.838	75.94
232.072	76.94
232.306	85.94
232.541	81.94
232.775	86.94
233.009	71.94
233.243	78.94
233.477	76.94
233.711	87.94
233.945	81.94
234.179	66.94
234.413	79.94
234.647	79.94
234.881	62.94
235.115	76.94
235.349	80.94
235.583	81.94
235.817	79.94
236.051	83.94
236.285	73.94
236.519	70.94
236.753	82.94
236.987	77.94
237.221	84.94
237.455	81.94
237.689	70.94
237.922	69.94
238.156	67.94
238.39	64.94
238.624	74.94
238.858	73.94
239.091	81.94
239.325	80.94
239.559	76.94
239.793	80.94
240.027	84.94
240.26	87.94
240.494	79.94
240.728	66.94
240.961	79.94
241.195	61.94
241.429	66.94
241.662	78.94
241.896	58.94
242.13	60.94
242.363	56.94
242.597	65.94
242.83	75.94
243.064	85.94
243.298	69.94
243.531	68.94
243.765	70.94
243.998	93.94
244.232	71.94
244.465	78.94
244.699	79.94
244.932	72.94
245.166	92.94
245.399	77.94
245.633	80.94
245.866	86.94
246.099	69.94
246.333	72.94
246.566	68.94
246.8	87.94
247.033	70.94
247.266	80.94
247.5	75.94
247.733	62.94
247.966	75.94
248.2	76.94
248.433	66.94
248.666	76.94
248.899	89.94
249.133	83.94
249.366	97.94
249.599	77.94
249.832	80.94
250.066	76.94
250.299	76.94
250.532	74.94
250.765	82.94
250.998	77.94
251.231	80.94
251.465	76.94
251.698	81.94
251.931	75.94
252.164	83.94
252.397	82.94
252.63	83.94
252.863	90.94
253.096	88.94
253.329	69.94
253.562	91.94
253.795	83.94
254.028	86.94
254.261	74.94
254.494	79.94
254.727	76.94
254.96	81.94
255.193	79.94
255.426	84.94
255.659	85.94
255.892	84.94
256.124	76.94
256.357	77.94
256.59	80.94
256.823	78.94
257.056	77.94
257.289	87.94
257.521	71.94
257.754	93.94
257.987	81.94
258.22	78.94
258.452	83.94
258.685	86.94
258.918	66.94
259.151	78.94
259.383	97.94
259.616	82.94
259.849	76.94
260.081	74.94
260.314	73.94
260.547	92.94
260.779	90.94
261.012	82.94
261.244	73.94
261.477	75.94
261.71	68.94
261.942	105.94
262.175	113.94
262.407	89.94
262.64	72.94
262.872	86.94
263.105	89.94
263.337	93.94
263.57	83.94
263.802	82.94
264.035	84.94
264.267	80.94
264.499	96.94
264.732	84.94
264.964	89.94
265.197	100.94
265.429	77.94
265.661	84.94
265.894	63.94
266.126	78.94
266.358	85.94
266.591	86.94
266.823	81.94
267.055	83.94
267.287	88.94
267.52	78.94
267.752	84.94
267.984	93.94
268.216	83.94
268.448	84.94
268.681	82.94
268.913	77.94
269.145	79.94
269.377	88.94
269.609	97.94
269.841	97.94
270.073	76.94
270.306	72.94
270.538	81.94
270.77	69.94
271.002	75.94
271.234	93.94
271.466	87.94
271.698	73.94
271.93	86.94
272.162	83.94
272.394	99.94
272.626	89.94
272.858	69.94
273.09	77.94
273.322	80.94
273.553	82.94
273.785	68.94
274.017	80.94
274.249	84.94
274.481	73.94
274.713	94.94
274.945	77.94
275.176	90.94
275.408	78.94
275.64	95.94
275.872	79.94
276.104	73.94
276.335	90.94
276.567	92.94
276.799	93.94
277.031	100.94
277.262	84.94
277.494	71.94
277.726	94.94
277.957	76.94
278.189	85.94
278.421	87.94
278.652	82.94
278.884	84.94
279.115	78.94
279.347	85.94
279.579	77.94
279.81	86.94
280.042	78.94
280.273	91.94
280.505	88.94
280.736	85.94
280.968	94.94
281.199	78.94
281.431	97.94
281.662	75.94
281.894	91.94
282.125	93.94
282.356	107.94
282.588	112.94
282.819	108.94
283.051	87.94
283.282	92.94
283.513	91.94
283.745	81.94
283.976	80.94
284.207	76.94
284.439	84.94
284.67	79.94
284.901	82.94
285.132	78.94
285.364	94.94
285.595	111.94
285.826	83.94
286.057	86.94
286.288	83.94
286.52	82.94
286.751	82.94
286.982	84.94
287.213	91.94
287.444	84.94
287.675	86.94
287.906	94.94
288.138	84.94
288.369	80.94
288.6	74.94
288.831	84.94
289.062	82.94
289.293	85.94
289.524	83.94
289.755	85.94
289.986	84.94
290.217	89.94
290.448	76.94
290.679	79.94
290.91	93.94
291.141	96.94
291.371	87.94
291.602	93.94
291.833	85.94
292.064	79.94
292.295	86.94
292.526	84.94
292.757	74.94
292.987	95.94
293.218	84.94
293.449	99.94
293.68	84.94
293.91	94.94
294.141	92.94
294.372	96.94
294.603	90.94
294.833	77.94
295.064	81.94
295.295	97.94
295.525	105.94
295.756	95.94
295.987	96.94
296.217	125.94
296.448	116.94
296.679	102.94
296.909	89.94
297.14	82.94
297.37	80.94
297.601	98.94
297.831	77.94
298.062	87.94
298.292	83.94
298.523	91.94
298.753	83.94
298.984	96.94
299.214	76.94
299.445	82.94
299.675	84.94
299.905	90.94
300.136	86.94
300.366	83.94
300.597	83.94
300.827	88.94
301.057	104.94
301.288	115.94
301.518	104.94
301.748	97.94
301.979	92.94
302.209	90.94
302.439	80.94
302.669	79.94
302.9	84.94
303.13	82.94
303.36	86.94
303.59	105.94
303.82	83.94
304.051	101.94
304.281	78.94
304.511	94.94
304.741	88.94
304.971	84.94
305.201	93.94
305.431	88.94
305.661	83.94
305.891	93.94
306.121	90.94
306.352	94.94
306.582	96.94
306.812	85.94
307.042	89.94
307.272	77.94
307.502	90.94
307.731	83.94
307.961	86.94
308.191	94.94
308.421	104.94
308.651	90.94
308.881	103.94
309.111	87.94
309.341	89.94
309.571	98.94
309.8	103.94
310.03	95.94
310.26	84.94
310.49	94.94
310.72	90.94
310.949	104.94
311.179	98.94
311.409	82.94
311.639	99.94
311.868	104.94
312.098	85.94
312.328	93.94
312.557	101.94
312.787	105.94
313.017	97.94
313.246	102.94
313.476	92.94
313.706	86.94
313.935	103.94
314.165	81.94
314.394	113.94
314.624	104.94
314.853	104.94
315.083	82.94
315.312	93.94
315.542	97.94
315.771	80.94
316.001	92.94
316.23	93.94
316.46	87.94
316.689	88.94
316.919	88.94
317.148	104.94
317.377	93.94
317.607	86.94
317.836	80.94
318.065	85.94
318.295	83.94
318.524	92.94
318.753	96.94
318.983	84.94
319.212	101.94
319.441	108.94
319.67	99.94
319.9	88.94
320.129	94.94
320.358	101.94
320.587	84.94
320.816	98.94
321.046	98.94
321.275	93.94
321.504	86.94
321.733	106.94
321.962	95.94
322.191	96.94
322.42	99.94
322.649	92.94
322.878	114.94
323.108	115.94
323.337	112.94
323.566	125.94
323.795	142.94
324.024	189.94
324.253	364.94
324.482	778.94
324.71	1564.94
324.939	2066.94
325.168	757.94
325.397	228.94
325.626	129.94
325.855	110.94
326.084	120.94
326.313	130.94
326.542	137.94
326.77	204.94
326.999	435.94
327.228	915.94
327.457	1633.94
327.686	1256.94
327.914	340.94
328.143	178.94
328.372	130.94
328.6	124.94
328.829	110.94
329.058	113.94
329.287	125.94
329.515	110.94
329.744	106.94
329.972	91.94
330.201	96.94
330.43	121.94
330.658	122.94
330.887	131.94
331.115	111.94
331.344	105.94
331.572	110.94
331.801	91.94
332.03	97.94
332.258	95.94
332.486	82.94
332.715	96.94
332.943	97.94
333.172	83.94
333.4	102.94
333.629	100.94
333.857	93.94
334.085	93.94
334.314	85.94
334.542	90.94
334.771	106.94
334.999	108.94
335.227	86.94
335.455	100.94
335.684	93.94
335.912	103.94
336.14	101.94
336.369	98.94
336.597	96.94
336.825	93.94
337.053	94.94
337.281	88.94
337.51	83.94
337.738	78.94
337.966	81.94
338.194	78.94
338.422	93.94
338.65	92.94
338.878	92.94
339.106	95.94
339.334	108.94
339.562	91.94
339.79	76.94
340.018	82.94
340.246	96.94
340.474	93.94
340.702	89.94
340.93	84.94
341.158	85.94
341.386	82.94
341.614	72.94
341.842	78.94
342.07	100.94
342.298	82.94
342.526	85.94
342.754	95.94
342.981	85.94
343.209	93.94
343.437	107.94
343.665	70.94
343.893	96.94
344.12	97.94
344.348	85.94
344.576	99.94
344.804	104.94
345.031	97.94
345.259	101.94
345.487	91.94
345.714	83.94
345.942	104.94
346.17	88.94
346.397	103.94
346.625	103.94
346.853	90.94
347.08	97.94
347.308	68.94
347.535	83.94
347.763	97.94
347.99	94.94
348.218	91.94
348.445	109.94
348.673	104.94
348.9	99.94
349.128	83.94
349.355	75.94
349.583	84.94
349.81	71.94
350.037	88.94
350.265	101.94
350.492	83.94
350.72	92.94
350.947	106.94
351.174	91.94
351.402	113.94
351.629	112.94
351.856	97.94
352.083	97.94
352.311	99.94
352.538	99.94
352.765	106.94
352.992	113.94
353.22	109.94
353.447	88.94
353.674	98.94
353.901	97.94
354.128	81.94
354.355	92.94
354.583	94.94
354.81	107.94
355.037	93.94
355.264	99.94
355.491	106.94
355.718	95.94
355.945	97.94
356.172	85.94
356.399	86.94
356.626	100.94
356.853	84.94
357.08	99.94
357.307	98.94
357.534	101.94
357.761	98.94
357.988	103.94
358.215	102.94
358.441	102.94
358.668	100.94
358.895	101.94
359.122	87.94
359.349	88.94
359.576	93.94
359.802	93.94
360.029	93.94
360.256	101.94
360.483	92.94
360.709	81.94
360.936	96.94
361.163	99.94
361.39	88.94
361.616	97.94
361.843	95.94
362.07	96.94
362.296	92.94
362.523	84.94
362.749	95.94
362.976	77.94
363.203	98.94
363.429	81.94
363.656	84.94
363.882	98.94
364.109	90.94
364.335	92.94
364.562	94.94
364.788	85.94
365.015	78.94
365.241	95.94
365.468	96.94
365.694	98.94
365.92	86.94
366.147	99.94
366.373	87.94
366.599	99.94
366.826	93.94
367.052	81.94
367.278	97.94
367.505	77.94
367.731	66.94
367.957	99.94
368.184	99.94
368.41	97.94
368.636	112.94
368.862	112.94
369.089	108.94
369.315	103.94
369.541	83.94
369.767	79.94
369.993	95.94
370.219	89.94
370.445	90.94
370.672	78.94
370.898	87.94
371.124	94.94
371.35	94.94
371.576	98.94
371.802	102.94
372.028	101.94
372.254	93.94
372.48	96.94
372.706	85.94
372.932	92.94
373.158	82.94
373.384	85.94
373.61	85.94
373.835	95.94
374.061	96.94
374.287	81.94
374.513	77.94
374.739	89.94
374.965	92.94
375.191	92.94
375.416	93.94
375.642	89.94
375.868	82.94
376.094	88.94
376.319	81.94
376.545	92.94
376.771	92.94
376.997	96.94
377.222	100.94
377.448	92.94
377.674	101.94
377.899	94.94
378.125	91.94
378.35	102.94
378.576	89.94
378.802	89.94
379.027	99.94
379.253	97.94
379.478	99.94
379.704	98.94
379.929	85.94
380.155	93.94
380.38	97.94
380.606	104.94
380.831	92.94
381.057	109.94
381.282	104.94
381.507	94.94
381.733	88.94
381.958	96.94
382.184	95.94
382.409	87.94
382.634	115.94
382.86	98.94
383.085	100.94
383.31	107.94
383.535	106.94
383.761	97.94
383.986	115.94
384.211	102.94
384.436	108.94
384.662	119.94
384.887	125.94
385.112	120.94
385.337	114.94
385.562	127.94
385.787	120.94
386.013	125.94
386.238	109.94
386.463	104.94
386.688	128.94
386.913	120.94
387.138	128.94
387.363	120.94
387.588	112.94
387.813	122.94
388.038	114.94
388.263	131.94
388.488	120.94
388.713	98.94
388.938	92.94
389.163	107.94
389.387	97.94
389.612	101.94
389.837	93.94
390.062	87.94
390.287	83.94
390.512	92.94
390.736	79.94
390.961	98.94
391.186	93.94
391.411	91.94
391.636	89.94
391.86	80.94
392.085	86.94
392.31	85.94
392.534	87.94
392.759	106.94
392.984	100.94
393.208	100.94
393.433	112.94
393.658	105.94
393.882	81.94
394.107	76.94
394.331	82.94
394.556	88.94
394.78	83.94
395.005	85.94
395.229	86.94
395.454	97.94
395.678	85.94
395.903	89.94
396.127	89.94
396.352	72.94
396.576	88.94
396.801	95.94
397.025	89.94
397.249	85.94
397.474	85.94
397.698	80.94
397.922	95.94
398.147	85.94
398.371	67.94
398.595	100.94
398.82	78.94
399.044	82.94
399.268	81.94
399.492	90.94
399.717	106.94
399.941	84.94
400.165	89.94
400.389	89.94
400.613	79.94
400.837	74.94
401.062	88.94
401.286	80.94
401.51	87.94
401.734	78.94
401.958	88.94
402.182	109.94
402.406	144.94
402.63	123.94
402.854	97.94
403.078	94.94
403.302	86.94
403.526	84.94
403.75	80.94
403.974	85.94
404.198	89.94
404.422	83.94
404.645	91.94
404.869	86.94
405.093	87.94
405.317	116.94
405.541	92.94
405.765	98.94
405.988	101.94
406.212	166.94
406.436	204.94
406.66	116.94
406.883	88.94
407.107	87.94
407.331	77.94
407.555	101.94
407.778	98.94
408.002	86.94
408.226	90.94
408.449	88.94
408.673	86.94
408.896	82.94
409.12	93.94
409.344	78.94
409.567	82.94
409.791	89.94
410.014	100.94
410.238	103.94
410.461	90.94
410.685	89.94
410.908	94.94
411.132	100.94
411.355	105.94
411.578	86.94
411.802	94.94
412.025	92.94
412.249	84.94
412.472	100.94
412.695	104.94
412.919	76.94
413.142	86.94
413.365	93.94
413.589	90.94
413.812	74.94
414.035	90.94
414.258	86.94
414.482	101.94
414.705	86.94
414.928	91.94
415.151	99.94
415.374	105.94
415.597	89.94
415.821	80.94
416.044	88.94
416.267	96.94
416.49	85.94
416.713	82.94
416.936	99.94
417.159	83.94
417.382	77.94
417.605	92.94
417.828	99.94
418.051	82.94
418.274	90.94
418.497	92.94
418.72	78.94
418.943	84.94
419.166	85.94
419.389	101.94
419.611	101.94
419.834	82.94
420.057	97.94
420.28	91.94
420.503	70.94
420.726	94.94
420.948	73.94
421.171	89.94
421.394	92.94
421.617	85.94
421.839	88.94
422.062	92.94
422.285	93.94
422.507	94.94
422.73	104.94
422.953	95.94
423.175	102.94
423.398	85.94
423.621	96.94
423.843	85.94
424.066	72.94
424.288	100.94
424.511	86.94
424.733	84.94
424.956	89.94
425.178	103.94
425.401	101.94
425.623	107.94
425.846	89.94
426.068	100.94
426.291	81.94
426.513	82.94
426.735	83.94
426.958	92.94
427.18	101.94
427.402	129.94
427.625	151.94
427.847	118.94
428.069	106.94
428.292	89.94
428.514	100.94
428.736	90.94
428.958	101.94
429.181	76.94
429.403	82.94
429.625	91.94
429.847	95.94
430.069	93.94
430.292	83.94
430.514	90.94
430.736	87.94
430.958	83.94
431.18	78.94
431.402	87.94
431.624	78.94
431.846	85.94
432.068	82.94
432.29	94.94
432.512	99.94
432.734	91.94
432.956	93.94
433.178	86.94
433.4	98.94
433.622	91.94
433.844	119.94
434.066	101.94
434.287	90.94
434.509	90.94
434.731	88.94
434.953	97.94
435.175	86.94
435.397	95.94
435.618	87.94
435.84	99.94
436.062	113.94
436.284	120.94
436.505	97.94
436.727	106.94
436.949	94.94
437.17	97.94
437.392	79.94
437.614	76.94
437.835	109.94
438.057	104.94
438.278	117.94
438.5	94.94
438.721	89.94
438.943	109.94
439.165	95.94
439.386	90.94
439.608	80.94
439.829	101.94
440.05	109.94
440.272	138.94
440.493	100.94
440.715	84.94
440.936	80.94
441.158	84.94
441.379	75.94
441.6	87.94
441.822	91.94
442.043	91.94
442.264	103.94
442.486	95.94
442.707	102.94
442.928	114.94
443.149	113.94
443.371	115.94
443.592	106.94
443.813	123.94
444.034	92.94
444.255	85.94
444.476	98.94
444.698	78.94
444.919	90.94
445.14	131.94
445.361	116.94
445.582	106.94
445.803	140.94
446.024	141.94
446.245	126.94
446.466	107.94
446.687	83.94
446.908	70.94
447.129	81.94
447.35	90.94
447.571	98.94
447.792	100.94
448.013	97.94
448.234	90.94
448.455	81.94
448.675	114.94
448.896	111.94
449.117	106.94
449.338	108.94
449.559	120.94
449.779	126.94
450	93.94
450.221	89.94
450.442	85.94
450.662	99.94
450.883	87.94
451.104	99.94
451.324	99.94
451.545	88.94
451.766	75.94
451.986	88.94
452.207	92.94
452.428	93.94
452.648	102.94
452.869	110.94
453.089	104.94
453.31	93.94
453.53	89.94
453.751	80.94
453.971	102.94
454.192	85.94
454.412	89.94
454.633	88.94
454.853	80.94
455.073	80.94
455.294	93.94
455.514	109.94
455.734	77.94
455.955	84.94
456.175	82.94
456.395	94.94
456.616	75.94
456.836	75.94
457.056	76.94
457.276	74.94
457.497	83.94
457.717	80.94
457.937	95.94
458.157	84.94
458.377	92.94
458.598	102.94
458.818	129.94
459.038	126.94
459.258	112.94
459.478	109.94
459.698	81.94
459.918	92.94
460.138	94.94
460.358	88.94
460.578	83.94
460.798	84.94
461.018	86.94
461.238	67.94
461.458	70.94
461.678	71.94
461.898	83.94
462.118	89.94
462.338	85.94
462.558	83.94
462.777	84.94
462.997	82.94
463.217	97.94
463.437	92.94
463.657	77.94
463.876	86.94
464.096	83.94
464.316	101.94
464.536	89.94
464.755	107.94
464.975	90.94
465.195	162.94
465.414	148.94
465.634	92.94
465.854	84.94
466.073	96.94
466.293	89.94
466.512	75.94
466.732	69.94
466.951	68.94
467.171	98.94
467.391	87.94
467.61	101.94
467.829	96.94
468.049	100.94
468.268	96.94
468.488	85.94
468.707	84.94
468.927	79.94
469.146	96.94
469.365	81.94
469.585	104.94
469.804	93.94
470.023	98.94
470.243	100.94
470.462	94.94
470.681	111.94
470.901	89.94
471.12	68.94
471.339	75.94
471.558	79.94
471.777	61.94
471.997	92.94
472.216	99.94
472.435	105.94
472.654	77.94
472.873	85.94
473.092	85.94
473.311	82.94
473.53	73.94
473.749	86.94
473.968	100.94
474.187	111.94
474.406	85.94
474.625	77.94
474.844	104.94
475.063	88.94
475.282	90.94
475.501	80.94
475.72	103.94
475.939	85.94
476.158	82.94
476.377	78.94
476.596	88.94
476.814	89.94
477.033	82.94
477.252	88.94
477.471	85.94
477.69	86.94
477.908	90.94
478.127	85.94
478.346	75.94
478.564	80.94
478.783	88.94
479.002	83.94
479.22	111.94
479.439	91.94
479.658	100.94
479.876	90.94
480.095	92.94
480.313	82.94
480.532	78.94
480.751	88.94
480.969	106.94
481.188	124.94
481.406	112.94
481.624	83.94
481.843	77.94
482.061	65.94
482.28	88.94
482.498	90.94
482.717	85.94
482.935	98.94
483.153	70.94
483.372	81.94
483.59	80.94
483.808	87.94
484.027	92.94
484.245	115.94
484.463	91.94
484.681	109.94
484.9	86.94
485.118	97.94
485.336	110.94
485.554	96.94
485.772	105.94
485.99	111.94
486.209	106.94
486.427	106.94
486.645	120.94
486.863	123.94
487.081	109.94
487.299	91.94
487.517	100.94
487.735	85.94
487.953	100.94
488.171	82.94
488.389	96.94
488.607	98.94
488.825	89.94
489.043	91.94
489.261	93.94
489.479	89.94
489.696	79.94
489.914	84.94
490.132	87.94
490.35	92.94
490.568	85.94
490.786	88.94
491.003	77.94
491.221	95.94
491.439	90.94
491.657	75.94
491.874	88.94
492.092	90.94
492.31	90.94
492.527	92.94
492.745	88.94
492.963	82.94
493.18	98.94
493.398	89.94
493.615	83.94
493.833	79.94
494.05	85.94
494.268	79.94
494.485	98.94
494.703	97.94
494.92	96.94
495.138	77.94
495.355	89.94
495.573	86.94
495.79	90.94
496.008	97.94
496.225	86.94
496.442	87.94
496.66	88.94
496.877	84.94
497.094	82.94
497.312	87.94
497.529	96.94
497.746	94.94
497.963	84.94
498.181	93.94
498.398	107.94
498.615	106.94
498.832	101.94
499.049	96.94
499.267	79.94
499.484	96.94
499.701	85.94
499.918	81.94
500.135	89.94
500.352	93.94
500.569	89.94
500.786	82.94
501.003	90.94
501.22	85.94
501.437	98.94
501.654	91.94
501.871	88.94
502.088	86.94
502.305	93.94
502.522	91.94
502.739	84.94
502.956	102.94
503.172	92.94
503.389	96.94
503.606	91.94
503.823	89.94
504.04	83.94
504.256	91.94
504.473	74.94
504.69	95.94
504.907	90.94
505.123	100.94
505.34	76.94
505.557	73.94
505.773	77.94
505.99	83.94
506.207	85.94
506.423	91.94
506.64	90.94
506.856	85.94
507.073	77.94
507.289	78.94
507.506	96.94
507.722	119.94
507.939	106.94
508.155	96.94
508.372	93.94
508.588	94.94
508.805	91.94
509.021	87.94
509.238	87.94
509.454	81.94
509.67	86.94
509.887	100.94
510.103	129.94
510.319	194.94
510.536	657.94
510.752	2086.94
510.968	586.94
511.184	141.94
511.401	117.94
511.617	99.94
511.833	100.94
512.049	106.94
512.265	88.94
512.481	90.94
512.698	86.94
512.914	93.94
513.13	94.94
513.346	84.94
513.562	85.94
513.778	89.94
513.994	97.94
514.21	97.94
514.426	125.94
514.642	135.94
514.858	110.94
515.074	146.94
515.29	386.94
515.506	1233.94
515.721	485.94
515.937	137.94
