Data from Circ_2006_H10_HRD10591_00054.txt Node
Date: Wed Jan 03 10:26:14 EST 2024
User: Yrep
Spectrometer: HR+D1059
Trigger mode: 1
Integration Time (sec): 1.000000E-1
Scans to average: 1
Electric dark correction enabled: true
Nonlinearity correction enabled: false
Boxcar width: 0
XAxis mode: Wavelengths
Number of Pixels in Spectrum: 2048
>>>>>Begin Spectral Data<<<<<
223.165	-1
223.4	-1
223.635	-1
223.869	-25
224.104	-9
224.338	-19
224.573	-12
224.808	-9
225.042	-8
225.277	-11
225.511	-8
225.746	-4
225.98	6
226.215	2
226.449	17
226.683	30
226.918	23
227.152	28
227.387	47
227.621	33
227.856	56
228.09	53
228.324	41
228.559	60
228.793	62
229.027	56
229.262	71
229.496	74
229.73	94
229.964	86
230.199	86
230.433	81
230.667	72
230.901	78
231.136	83
231.37	79
231.604	86
231.838	85
232.072	73
232.306	82
232.541	73
232.775	80
233.009	86
233.243	69
233.477	80
233.711	86
233.945	81
234.179	80
234.413	91
234.647	86
234.881	74
235.115	82
235.349	75
235.583	89
235.817	77
236.051	74
236.285	74
236.519	80
236.753	78
236.987	86
237.221	81
237.455	89
237.689	70
237.922	79
238.156	79
238.39	78
238.624	63
238.858	67
239.091	83
239.325	85
239.559	92
239.793	89
240.027	79
240.26	90
240.494	90
240.728	73
240.961	85
241.195	67
241.429	72
241.662	78
241.896	79
242.13	90
242.363	89
242.597	71
242.83	69
243.064	81
243.298	75
243.531	70
243.765	78
243.998	81
244.232	73
244.465	102
244.699	90
244.932	75
245.166	95
245.399	74
245.633	74
245.866	75
246.099	81
246.333	79
246.566	82
246.8	83
247.033	71
247.266	72
247.5	84
247.733	73
247.966	89
248.2	101
248.433	82
248.666	95
248.899	94
249.133	76
249.366	105
249.599	104
249.832	77
250.066	87
250.299	77
250.532	78
250.765	88
250.998	89
251.231	79
251.465	72
251.698	94
251.931	79
252.164	84
252.397	87
252.63	85
252.863	87
253.096	88
253.329	83
253.562	74
253.795	84
254.028	77
254.261	89
254.494	88
254.727	79
254.96	90
255.193	74
255.426	91
255.659	95
255.892	93
256.124	75
256.357	90
256.59	89
256.823	85
257.056	85
257.289	96
257.521	76
257.754	82
257.987	77
258.22	88
258.452	72
258.685	99
258.918	85
259.151	69
259.383	73
259.616	101
259.849	81
260.081	87
260.314	81
260.547	87
260.779	92
261.012	86
261.244	89
261.477	75
261.71	111
261.942	115
262.175	129
262.407	92
262.64	100
262.872	90
263.105	85
263.337	98
263.57	89
263.802	98
264.035	84
264.267	75
264.499	83
264.732	87
264.964	90
265.197	92
265.429	88
265.661	95
265.894	101
266.126	93
266.358	85
266.591	91
266.823	97
267.055	96
267.287	83
267.52	93
267.752	75
267.984	97
268.216	94
268.448	83
268.681	86
268.913	90
269.145	76
269.377	98
269.609	87
269.841	79
270.073	100
270.306	81
270.538	72
270.77	91
271.002	77
271.234	84
271.466	96
271.698	90
271.93	89
272.162	88
272.394	91
272.626	86
272.858	87
273.09	101
273.322	92
273.553	94
273.785	83
274.017	73
274.249	91
274.481	97
274.713	94
274.945	74
275.176	94
275.408	95
275.64	90
275.872	88
276.104	83
276.335	98
276.567	116
276.799	124
277.031	108
277.262	95
277.494	99
277.726	82
277.957	96
278.189	96
278.421	87
278.652	96
278.884	103
279.115	97
279.347	88
279.579	87
279.81	102
280.042	79
280.273	96
280.505	103
280.736	85
280.968	87
281.199	87
281.431	93
281.662	94
281.894	93
282.125	109
282.356	143
282.588	159
282.819	135
283.051	110
283.282	98
283.513	103
283.745	83
283.976	88
284.207	90
284.439	102
284.67	98
284.901	78
285.132	87
285.364	94
285.595	92
285.826	90
286.057	97
286.288	79
286.52	100
286.751	89
286.982	87
287.213	92
287.444	93
287.675	85
287.906	85
288.138	90
288.369	107
288.6	99
288.831	99
289.062	94
289.293	94
289.524	87
289.755	98
289.986	85
290.217	79
290.448	87
290.679	85
290.91	103
291.141	99
291.371	90
291.602	84
291.833	83
292.064	86
292.295	81
292.526	83
292.757	99
292.987	93
293.218	91
293.449	96
293.68	99
293.91	91
294.141	102
294.372	106
294.603	102
294.833	98
295.064	96
295.295	103
295.525	89
295.756	108
295.987	137
296.217	161
296.448	137
296.679	98
296.909	81
297.14	98
297.37	89
297.601	88
297.831	119
298.062	117
298.292	100
298.523	94
298.753	79
298.984	96
299.214	83
299.445	86
299.675	97
299.905	98
300.136	91
300.366	87
300.597	97
300.827	101
301.057	105
301.288	117
301.518	111
301.748	91
301.979	99
302.209	102
302.439	99
302.669	94
302.9	98
303.13	96
303.36	107
303.59	123
303.82	118
304.051	101
304.281	109
304.511	93
304.741	85
304.971	108
305.201	90
305.431	97
305.661	95
305.891	93
306.121	99
306.352	111
306.582	97
306.812	95
307.042	104
307.272	104
307.502	108
307.731	113
307.961	100
308.191	93
308.421	84
308.651	84
308.881	86
309.111	107
309.341	100
309.571	109
309.8	99
310.03	92
310.26	113
310.49	95
310.72	111
310.949	125
311.179	107
311.409	102
311.639	111
311.868	94
312.098	96
312.328	97
312.557	105
312.787	127
313.017	112
313.246	90
313.476	88
313.706	109
313.935	97
314.165	100
314.394	114
314.624	110
314.853	116
315.083	121
315.312	114
315.542	91
315.771	101
316.001	86
316.23	103
316.46	90
316.689	80
316.919	93
317.148	96
317.377	101
317.607	99
317.836	85
318.065	102
318.295	79
318.524	99
318.753	102
318.983	95
319.212	112
319.441	125
319.67	121
319.9	92
320.129	92
320.358	97
320.587	103
320.816	97
321.046	121
321.275	102
321.504	107
321.733	109
321.962	103
322.191	109
322.42	111
322.649	113
322.878	147
323.108	152
323.337	143
323.566	163
323.795	187
324.024	273
324.253	534
324.482	1176
324.71	2479
324.939	3187
325.168	1151
325.397	312
325.626	170
325.855	156
326.084	162
326.313	166
326.542	168
326.77	295
326.999	610
327.228	1356
327.457	2479
327.686	1878
327.914	499
328.143	249
328.372	191
328.6	140
328.829	150
329.058	133
329.287	149
329.515	119
329.744	104
329.972	119
330.201	131
330.43	145
330.658	155
330.887	169
331.115	137
331.344	108
331.572	125
331.801	114
332.03	107
332.258	107
332.486	101
332.715	102
332.943	107
333.172	95
333.4	112
333.629	111
333.857	127
334.085	121
334.314	127
334.542	161
334.771	156
334.999	104
335.227	99
335.455	100
335.684	99
335.912	94
336.14	101
336.369	109
336.597	118
336.825	103
337.053	88
337.281	101
337.51	96
337.738	103
337.966	113
338.194	103
338.422	107
338.65	86
338.878	112
339.106	94
339.334	93
339.562	107
339.79	88
340.018	86
340.246	109
340.474	98
340.702	106
340.93	87
341.158	98
341.386	99
341.614	93
341.842	86
342.07	90
342.298	109
342.526	93
342.754	97
342.981	112
343.209	86
343.437	110
343.665	103
343.893	102
344.12	90
344.348	93
344.576	91
344.804	98
345.031	104
345.259	121
345.487	111
345.714	113
345.942	99
346.17	96
346.397	92
346.625	97
346.853	111
347.08	111
347.308	118
347.535	96
347.763	103
347.99	103
348.218	119
348.445	114
348.673	119
348.9	113
349.128	111
349.355	98
349.583	88
349.81	91
350.037	102
350.265	102
350.492	108
350.72	95
350.947	113
351.174	106
351.402	111
351.629	104
351.856	113
352.083	115
352.311	115
352.538	122
352.765	131
352.992	127
353.22	113
353.447	110
353.674	114
353.901	106
354.128	91
354.355	92
354.583	102
354.81	125
355.037	101
355.264	100
355.491	95
355.718	86
355.945	103
356.172	108
356.399	91
356.626	90
356.853	115
357.08	112
357.307	106
357.534	110
357.761	99
357.988	91
358.215	116
358.441	89
358.668	98
358.895	96
359.122	82
359.349	105
359.576	79
359.802	112
360.029	126
360.256	133
360.483	117
360.709	103
360.936	101
361.163	96
361.39	97
361.616	102
361.843	102
362.07	86
362.296	83
362.523	106
362.749	89
362.976	98
363.203	91
363.429	91
363.656	91
363.882	102
364.109	90
364.335	89
364.562	105
364.788	93
365.015	105
365.241	118
365.468	123
365.694	118
365.92	111
366.147	94
366.373	103
366.599	86
366.826	111
367.052	95
367.278	97
367.505	99
367.731	110
367.957	101
368.184	95
368.41	125
368.636	120
368.862	125
369.089	120
369.315	103
369.541	98
369.767	91
369.993	96
370.219	112
370.445	105
370.672	92
370.898	96
371.124	97
371.35	99
371.576	94
371.802	84
372.028	102
372.254	89
372.48	100
372.706	88
372.932	105
373.158	99
373.384	99
373.61	99
373.835	98
374.061	96
374.287	89
374.513	93
374.739	81
374.965	100
375.191	93
375.416	104
375.642	100
375.868	105
376.094	88
376.319	85
376.545	89
376.771	84
376.997	108
377.222	97
377.448	101
377.674	92
377.899	111
378.125	88
378.35	84
378.576	85
378.802	93
379.027	85
379.253	98
379.478	108
379.704	98
379.929	92
380.155	95
380.38	88
380.606	89
380.831	98
381.057	102
381.282	110
381.507	79
381.733	94
381.958	95
382.184	102
382.409	111
382.634	105
382.86	100
383.085	119
383.31	122
383.535	114
383.761	103
383.986	111
384.211	98
384.436	109
384.662	113
384.887	95
385.112	111
385.337	105
385.562	121
385.787	108
386.013	118
386.238	131
386.463	111
386.688	105
386.913	126
387.138	110
387.363	97
387.588	99
387.813	104
388.038	109
388.263	117
388.488	111
388.713	101
388.938	104
389.163	97
389.387	114
389.612	94
389.837	98
390.062	94
390.287	95
390.512	100
390.736	103
390.961	83
391.186	88
391.411	103
391.636	99
391.86	81
392.085	90
392.31	87
392.534	87
392.759	95
392.984	93
393.208	88
393.433	91
393.658	98
393.882	80
394.107	91
394.331	104
394.556	90
394.78	101
395.005	83
395.229	86
395.454	102
395.678	94
395.903	112
396.127	101
396.352	87
396.576	89
396.801	93
397.025	101
397.249	85
397.474	104
397.698	94
397.922	85
398.147	94
398.371	85
398.595	84
398.82	93
399.044	90
399.268	101
399.492	90
399.717	104
399.941	96
400.165	70
400.389	92
400.613	86
400.837	97
401.062	94
401.286	97
401.51	97
401.734	111
401.958	108
402.182	136
402.406	193
402.63	141
402.854	101
403.078	90
403.302	97
403.526	83
403.75	101
403.974	85
404.198	96
404.422	95
404.645	80
404.869	97
405.093	98
405.317	98
405.541	109
405.765	113
405.988	155
406.212	201
406.436	270
406.66	169
406.883	106
407.107	98
407.331	105
407.555	109
407.778	101
408.002	108
408.226	100
408.449	98
408.673	87
408.896	96
409.12	102
409.344	79
409.567	90
409.791	106
410.014	106
410.238	109
410.461	100
410.685	108
410.908	100
411.132	107
411.355	99
411.578	97
411.802	97
412.025	94
412.249	89
412.472	97
412.695	112
412.919	96
413.142	98
413.365	84
413.589	87
413.812	82
414.035	97
414.258	103
414.482	96
414.705	101
414.928	84
415.151	90
415.374	99
415.597	95
415.821	96
416.044	96
416.267	98
416.49	94
416.713	99
416.936	89
417.159	103
417.382	98
417.605	85
417.828	91
418.051	79
418.274	104
418.497	102
418.72	90
418.943	91
419.166	91
419.389	80
419.611	85
419.834	95
420.057	98
420.28	82
420.503	95
420.726	93
420.948	97
421.171	90
421.394	92
421.617	90
421.839	103
422.062	91
422.285	109
422.507	97
422.73	102
422.953	93
423.175	88
423.398	97
423.621	99
423.843	98
424.066	99
424.288	93
424.511	99
424.733	101
424.956	101
425.178	103
425.401	105
425.623	108
425.846	93
426.068	96
426.291	102
426.513	94
426.735	86
426.958	97
427.18	115
427.402	155
427.625	216
427.847	155
428.069	128
428.292	101
428.514	115
428.736	91
428.958	94
429.181	97
429.403	89
429.625	88
429.847	111
430.069	102
430.292	111
430.514	89
430.736	102
430.958	100
431.18	89
431.402	98
431.624	82
431.846	98
432.068	86
432.29	95
432.512	105
432.734	88
432.956	98
433.178	102
433.4	116
433.622	111
433.844	104
434.066	90
434.287	82
434.509	90
434.731	93
434.953	98
435.175	90
435.397	90
435.618	117
435.84	114
436.062	121
436.284	118
436.505	102
436.727	103
436.949	98
437.17	97
437.392	87
437.614	95
437.835	108
438.057	144
438.278	119
438.5	139
438.721	139
438.943	112
439.165	93
439.386	92
439.608	105
439.829	114
440.05	146
440.272	153
440.493	112
440.715	97
440.936	89
441.158	102
441.379	94
441.6	98
441.822	101
442.043	104
442.264	123
442.486	121
442.707	99
442.928	118
443.149	152
443.371	151
443.592	131
443.813	127
444.034	100
444.255	88
444.476	78
444.698	89
444.919	101
445.14	135
445.361	151
445.582	118
445.803	167
446.024	173
446.245	154
446.466	119
446.687	97
446.908	94
447.129	89
447.35	93
447.571	98
447.792	108
448.013	101
448.234	129
448.455	111
448.675	115
448.896	130
449.117	108
449.338	121
449.559	144
449.779	151
450	107
450.221	94
450.442	98
450.662	104
450.883	116
451.104	134
451.324	91
451.545	98
451.766	79
451.986	91
452.207	94
452.428	91
452.648	112
452.869	108
453.089	132
453.31	131
453.53	97
453.751	103
453.971	108
454.192	139
454.412	93
454.633	81
454.853	80
455.073	83
455.294	89
455.514	108
455.734	86
455.955	100
456.175	101
456.395	90
456.616	84
456.836	78
457.056	98
457.276	90
457.497	102
457.717	108
457.937	87
458.157	98
458.377	106
458.598	123
458.818	190
459.038	195
459.258	121
459.478	89
459.698	103
459.918	92
460.138	95
460.358	86
460.578	85
460.798	96
461.018	95
461.238	87
461.458	89
461.678	82
461.898	81
462.118	93
462.338	96
462.558	90
462.777	84
462.997	87
463.217	84
463.437	74
463.657	84
463.876	101
464.096	101
464.316	102
464.536	103
464.755	91
464.975	135
465.195	228
465.414	210
465.634	107
465.854	96
466.073	91
466.293	101
466.512	112
466.732	86
466.951	101
467.171	91
467.391	102
467.61	87
467.829	112
468.049	86
468.268	106
468.488	83
468.707	94
468.927	88
469.146	86
469.365	94
469.585	101
469.804	110
470.023	109
470.243	104
470.462	122
470.681	134
470.901	94
471.12	93
471.339	78
471.558	83
471.777	86
471.997	94
472.216	123
472.435	150
472.654	101
472.873	88
473.092	86
473.311	82
473.53	106
473.749	96
473.968	95
474.187	126
474.406	100
474.625	88
474.844	96
475.063	81
475.282	98
475.501	103
475.72	94
475.939	96
476.158	85
476.377	80
476.596	87
476.814	86
477.033	94
477.252	94
477.471	103
477.69	88
477.908	96
478.127	82
478.346	95
478.564	84
478.783	100
479.002	109
479.22	87
479.439	116
479.658	110
479.876	109
480.095	96
480.313	93
480.532	93
480.751	107
480.969	117
481.188	236
481.406	182
481.624	103
481.843	87
482.061	93
482.28	101
482.498	99
482.717	94
482.935	97
483.153	90
483.372	95
483.59	97
483.808	95
484.027	101
484.245	95
484.463	97
484.681	113
484.9	101
485.118	104
485.336	95
485.554	109
485.772	89
485.99	96
486.209	112
486.427	110
486.645	110
486.863	135
487.081	125
487.299	105
487.517	116
487.735	89
487.953	94
488.171	91
488.389	96
488.607	98
488.825	98
489.043	93
489.261	99
489.479	106
489.696	95
489.914	84
490.132	88
490.35	99
490.568	81
490.786	109
491.003	95
491.221	79
491.439	98
491.657	94
491.874	101
492.092	97
492.31	97
492.527	101
492.745	99
492.963	91
493.18	99
493.398	102
493.615	105
493.833	89
494.05	90
494.268	102
494.485	96
494.703	87
494.92	99
495.138	89
495.355	94
495.573	103
495.79	94
496.008	95
496.225	94
496.442	80
496.66	96
496.877	98
497.094	91
497.312	93
497.529	84
497.746	89
497.963	96
498.181	104
498.398	85
498.615	112
498.832	102
499.049	97
499.267	85
499.484	90
499.701	90
499.918	94
500.135	98
500.352	90
500.569	73
500.786	82
501.003	90
501.22	90
501.437	102
501.654	94
501.871	115
502.088	106
502.305	102
502.522	118
502.739	98
502.956	95
503.172	97
503.389	98
503.606	104
503.823	113
504.04	94
504.256	99
504.473	107
504.69	84
504.907	94
505.123	87
505.34	98
505.557	97
505.773	100
505.99	105
506.207	99
506.423	90
506.64	99
506.856	91
507.073	111
507.289	101
507.506	110
507.722	132
507.939	118
508.155	107
508.372	94
508.588	83
508.805	99
509.021	109
509.238	103
509.454	118
509.67	112
509.887	102
510.103	150
510.319	269
510.536	1017
510.752	3322
510.968	898
511.184	172
511.401	117
511.617	110
511.833	89
512.049	88
512.265	109
512.481	97
512.698	103
512.914	104
513.13	106
513.346	89
513.562	106
513.778	107
513.994	96
514.21	105
514.426	148
514.642	173
514.858	158
515.074	223
515.29	666
515.506	2279
515.721	785
515.937	189
516.153	135
516.369	118
516.585	103
516.801	106
517.016	104
517.232	92
517.448	98
517.664	93
517.879	101
518.095	100
518.311	95
518.527	98
518.742	95
518.958	101
519.173	100
519.389	111
519.605	104
519.82	105
520.036	110
520.251	149
520.467	126
520.682	102
520.898	112
521.113	125
521.329	159
521.544	272
521.76	843
521.975	3822
522.19	2235
522.406	460
522.621	172
522.836	109
523.052	106
523.267	98
523.482	99
523.698	100
523.913	147
524.128	125
524.343	101
524.559	95
524.774	98
524.989	104
525.204	113
525.419	119
525.634	102
525.849	104
526.064	97
526.28	86
526.495	94
526.71	89
526.925	90
527.14	78
527.355	93
527.57	90
527.785	98
527.999	79
528.214	97
528.429	99
528.644	90
528.859	95
529.074	108
529.289	152
529.503	235
529.718	117
529.933	93
530.148	103
530.363	97
530.577	101
530.792	113
531.007	104
531.221	102
531.436	89
531.651	93
531.865	103
532.08	89
532.295	107
532.509	86
532.724	97
532.938	102
533.153	95
533.367	107
533.582	91
533.796	83
534.011	110
534.225	86
534.44	96
534.654	99
534.868	94
535.083	105
535.297	94
535.511	106
535.726	105
535.94	109
536.154	97
536.369	82
536.583	100
536.797	92
537.011	86
537.225	97
537.44	94
537.654	93
537.868	93
538.082	89
538.296	93
538.51	88
538.724	97
538.938	100
539.153	115
539.367	126
539.581	96
539.795	102
540.009	94
540.222	90
540.436	79
540.65	98
540.864	105
541.078	107
541.292	122
541.506	93
541.72	103
541.934	96
542.147	94
542.361	90
542.575	77
542.789	86
543.002	83
543.216	95
543.43	101
543.644	84
543.857	98
544.071	87
544.285	94
544.498	103
544.712	88
544.925	100
545.139	96
545.352	90
545.566	80
545.779	98
545.993	89
546.206	95
546.42	104
546.633	87
546.847	81
547.06	91
547.274	91
547.487	86
547.7	101
547.914	93
548.127	85
548.34	96
548.554	86
548.767	103
548.98	87
549.193	93
549.407	105
549.62	79
549.833	93
550.046	82
550.259	97
550.473	102
550.686	96
550.899	98
551.112	104
551.325	84
551.538	86
551.751	92
551.964	91
552.177	77
552.39	92
552.603	104
552.816	98
553.029	98
553.242	91
553.455	111
553.667	130
553.88	100
554.093	89
554.306	81
554.519	88
554.732	91
554.944	104
555.157	92
555.37	96
555.583	102
555.795	86
556.008	91
556.221	97
556.433	98
556.646	91
556.859	94
557.071	99
557.284	95
557.496	97
557.709	103
557.921	111
558.134	98
558.346	97
558.559	87
558.771	91
558.984	95
559.196	89
559.409	97
559.621	102
559.833	79
560.046	91
560.258	82
560.47	89
560.683	99
560.895	101
561.107	86
561.32	98
561.532	98
561.744	100
561.956	95
562.168	96
562.381	93
562.593	101
562.805	94
563.017	110
563.229	80
563.441	97
563.653	90
563.865	98
564.077	78
564.289	89
564.501	93
564.713	97
564.925	86
565.137	114
565.349	99
565.561	110
565.773	86
565.985	110
566.197	104
566.408	99
566.62	89
566.832	89
567.044	94
567.255	102
567.467	89
567.679	86
567.891	92
568.102	86
568.314	91
568.526	97
568.737	91
568.949	92
569.161	97
569.372	87
569.584	99
569.795	105
570.007	134
570.218	303
570.43	161
570.641	95
570.853	105
571.064	97
571.276	88
571.487	87
571.698	86
571.91	82
572.121	106
572.333	81
572.544	79
572.755	93
572.966	82
573.178	91
573.389	89
573.6	76
573.811	103
574.023	81
574.234	78
574.445	103
574.656	100
574.867	73
575.078	90
575.289	78
575.501	92
575.712	89
575.923	90
576.134	93
576.345	93
576.556	76
576.767	87
576.978	97
577.188	84
577.399	101
577.61	104
577.821	111
578.032	124
578.243	349
578.454	1000
578.665	260
578.875	102
579.086	98
579.297	94
579.508	102
579.718	88
