Data from Circ_2006_H10_HRD10591_00001.txt Node
Date: Wed Jan 03 10:26:04 EST 2024
User: Yrep
Spectrometer: HR+D1059
Trigger mode: 1
Integration Time (sec): 1.000000E-1
Scans to average: 1
Electric dark correction enabled: true
Nonlinearity correction enabled: false
Boxcar width: 0
XAxis mode: Wavelengths
Number of Pixels in Spectrum: 2048
>>>>>Begin Spectral Data<<<<<
223.165	-10.56
223.4	-10.56
223.635	-10.56
223.869	-22.56
224.104	-21.56
224.338	-9.56
224.573	-18.56
224.808	-0.56
225.042	-1.56
225.277	-17.56
225.511	2.44
225.746	-3.56
225.98	15.44
226.215	1.44
226.449	19.44
226.683	14.44
226.918	24.44
227.152	28.44
227.387	31.44
227.621	27.44
227.856	53.44
228.09	52.44
228.324	30.44
228.559	61.44
228.793	44.44
229.027	41.44
229.262	73.44
229.496	66.44
229.73	84.44
229.964	70.44
230.199	78.44
230.433	75.44
230.667	84.44
230.901	74.44
231.136	65.44
231.37	78.44
231.604	84.44
231.838	81.44
232.072	86.44
232.306	78.44
232.541	68.44
232.775	76.44
233.009	86.44
233.243	67.44
233.477	74.44
233.711	83.44
233.945	76.44
234.179	95.44
234.413	78.44
234.647	68.44
234.881	84.44
235.115	80.44
235.349	72.44
235.583	70.44
235.817	68.44
236.051	73.44
236.285	77.44
236.519	87.44
236.753	65.44
236.987	86.44
237.221	92.44
237.455	82.44
237.689	82.44
237.922	89.44
238.156	76.44
238.39	69.44
238.624	84.44
238.858	72.44
239.091	77.44
239.325	72.44
239.559	61.44
239.793	101.44
240.027	89.44
240.26	71.44
240.494	79.44
240.728	81.44
240.961	79.44
241.195	68.44
241.429	76.44
241.662	82.44
241.896	76.44
242.13	69.44
242.363	83.44
242.597	81.44
242.83	70.44
243.064	83.44
243.298	61.44
243.531	82.44
243.765	72.44
243.998	80.44
244.232	80.44
244.465	90.44
244.699	80.44
244.932	71.44
245.166	68.44
245.399	82.44
245.633	74.44
245.866	86.44
246.099	77.44
246.333	72.44
246.566	69.44
246.8	76.44
247.033	77.44
247.266	78.44
247.5	70.44
247.733	76.44
247.966	76.44
248.2	91.44
248.433	91.44
248.666	87.44
248.899	89.44
249.133	77.44
249.366	97.44
249.599	89.44
249.832	81.44
250.066	95.44
250.299	68.44
250.532	84.44
250.765	79.44
250.998	83.44
251.231	81.44
251.465	92.44
251.698	78.44
251.931	94.44
252.164	82.44
252.397	86.44
252.63	73.44
252.863	75.44
253.096	89.44
253.329	59.44
253.562	69.44
253.795	76.44
254.028	70.44
254.261	77.44
254.494	74.44
254.727	86.44
254.96	84.44
255.193	79.44
255.426	67.44
255.659	100.44
255.892	92.44
256.124	82.44
256.357	89.44
256.59	78.44
256.823	82.44
257.056	82.44
257.289	74.44
257.521	76.44
257.754	80.44
257.987	73.44
258.22	71.44
258.452	85.44
258.685	93.44
258.918	81.44
259.151	82.44
259.383	65.44
259.616	81.44
259.849	67.44
260.081	79.44
260.314	87.44
260.547	83.44
260.779	76.44
261.012	92.44
261.244	80.44
261.477	100.44
261.71	82.44
261.942	96.44
262.175	104.44
262.407	93.44
262.64	81.44
262.872	89.44
263.105	66.44
263.337	63.44
263.57	88.44
263.802	79.44
264.035	88.44
264.267	85.44
264.499	77.44
264.732	79.44
264.964	79.44
265.197	75.44
265.429	81.44
265.661	77.44
265.894	88.44
266.126	85.44
266.358	69.44
266.591	86.44
266.823	85.44
267.055	85.44
267.287	82.44
267.52	89.44
267.752	78.44
267.984	85.44
268.216	97.44
268.448	100.44
268.681	85.44
268.913	82.44
269.145	90.44
269.377	82.44
269.609	63.44
269.841	76.44
270.073	81.44
270.306	82.44
270.538	72.44
270.77	84.44
271.002	76.44
271.234	73.44
271.466	80.44
271.698	77.44
271.93	70.44
272.162	90.44
272.394	90.44
272.626	82.44
272.858	80.44
273.09	83.44
273.322	82.44
273.553	78.44
273.785	76.44
274.017	81.44
274.249	80.44
274.481	86.44
274.713	85.44
274.945	85.44
275.176	83.44
275.408	79.44
275.64	71.44
275.872	83.44
276.104	82.44
276.335	87.44
276.567	88.44
276.799	104.44
277.031	82.44
277.262	89.44
277.494	86.44
277.726	89.44
277.957	79.44
278.189	74.44
278.421	80.44
278.652	81.44
278.884	81.44
279.115	78.44
279.347	94.44
279.579	85.44
279.81	77.44
280.042	89.44
280.273	89.44
280.505	83.44
280.736	82.44
280.968	93.44
281.199	76.44
281.431	88.44
281.662	84.44
281.894	80.44
282.125	106.44
282.356	121.44
282.588	121.44
282.819	118.44
283.051	93.44
283.282	87.44
283.513	87.44
283.745	84.44
283.976	75.44
284.207	88.44
284.439	77.44
284.67	70.44
284.901	92.44
285.132	84.44
285.364	76.44
285.595	81.44
285.826	96.44
286.057	86.44
286.288	92.44
286.52	96.44
286.751	90.44
286.982	80.44
287.213	84.44
287.444	80.44
287.675	76.44
287.906	77.44
288.138	84.44
288.369	92.44
288.6	85.44
288.831	91.44
289.062	99.44
289.293	82.44
289.524	86.44
289.755	75.44
289.986	93.44
290.217	82.44
290.448	74.44
290.679	86.44
290.91	93.44
291.141	90.44
291.371	84.44
291.602	75.44
291.833	82.44
292.064	92.44
292.295	77.44
292.526	85.44
292.757	81.44
292.987	75.44
293.218	104.44
293.449	88.44
293.68	93.44
293.91	94.44
294.141	86.44
294.372	93.44
294.603	72.44
294.833	92.44
295.064	84.44
295.295	88.44
295.525	97.44
295.756	105.44
295.987	127.44
296.217	149.44
296.448	112.44
296.679	99.44
296.909	118.44
297.14	98.44
297.37	90.44
297.601	90.44
297.831	96.44
298.062	88.44
298.292	82.44
298.523	87.44
298.753	84.44
298.984	74.44
299.214	89.44
299.445	89.44
299.675	92.44
299.905	96.44
300.136	88.44
300.366	82.44
300.597	90.44
300.827	111.44
301.057	85.44
301.288	90.44
301.518	77.44
301.748	85.44
301.979	109.44
302.209	84.44
302.439	83.44
302.669	82.44
302.9	96.44
303.13	84.44
303.36	99.44
303.59	109.44
303.82	103.44
304.051	95.44
304.281	79.44
304.511	84.44
304.741	83.44
304.971	98.44
305.201	86.44
305.431	96.44
305.661	86.44
305.891	98.44
306.121	102.44
306.352	100.44
306.582	92.44
306.812	91.44
307.042	88.44
307.272	83.44
307.502	81.44
307.731	94.44
307.961	85.44
308.191	83.44
308.421	88.44
308.651	83.44
308.881	98.44
309.111	94.44
309.341	92.44
309.571	101.44
309.8	99.44
310.03	105.44
310.26	110.44
310.49	72.44
310.72	101.44
310.949	104.44
311.179	93.44
311.409	75.44
311.639	83.44
311.868	79.44
312.098	78.44
312.328	94.44
312.557	110.44
312.787	93.44
313.017	103.44
313.246	92.44
313.476	85.44
313.706	87.44
313.935	93.44
314.165	94.44
314.394	93.44
314.624	96.44
314.853	94.44
315.083	95.44
315.312	105.44
315.542	85.44
315.771	86.44
316.001	65.44
316.23	79.44
316.46	70.44
316.689	85.44
316.919	96.44
317.148	96.44
317.377	82.44
317.607	105.44
317.836	95.44
318.065	99.44
318.295	82.44
318.524	92.44
318.753	81.44
318.983	85.44
319.212	103.44
319.441	110.44
319.67	112.44
319.9	92.44
320.129	76.44
320.358	102.44
320.587	99.44
320.816	101.44
321.046	98.44
321.275	82.44
321.504	99.44
321.733	96.44
321.962	105.44
322.191	101.44
322.42	102.44
322.649	103.44
322.878	108.44
323.108	99.44
323.337	130.44
323.566	133.44
323.795	150.44
324.024	216.44
324.253	416.44
324.482	913.44
324.71	1832.44
324.939	2419.44
325.168	846.44
325.397	248.44
325.626	140.44
325.855	135.44
326.084	121.44
326.313	147.44
326.542	170.44
326.77	220.44
326.999	477.44
327.228	1006.44
327.457	1864.44
327.686	1489.44
327.914	378.44
328.143	187.44
328.372	142.44
328.6	131.44
328.829	115.44
329.058	117.44
329.287	111.44
329.515	109.44
329.744	103.44
329.972	93.44
330.201	99.44
330.43	109.44
330.658	120.44
330.887	141.44
331.115	116.44
331.344	101.44
331.572	95.44
331.801	101.44
332.03	107.44
332.258	108.44
332.486	109.44
332.715	99.44
332.943	86.44
333.172	85.44
333.4	98.44
333.629	103.44
333.857	98.44
334.085	120.44
334.314	112.44
334.542	95.44
334.771	104.44
334.999	90.44
335.227	86.44
335.455	92.44
335.684	102.44
335.912	104.44
336.14	100.44
336.369	91.44
336.597	95.44
336.825	99.44
337.053	104.44
337.281	99.44
337.51	84.44
337.738	92.44
337.966	74.44
338.194	97.44
338.422	106.44
338.65	90.44
338.878	88.44
339.106	92.44
339.334	89.44
339.562	90.44
339.79	92.44
340.018	80.44
340.246	94.44
340.474	106.44
340.702	81.44
340.93	90.44
341.158	97.44
341.386	90.44
341.614	114.44
341.842	109.44
342.07	92.44
342.298	95.44
342.526	76.44
342.754	94.44
342.981	83.44
343.209	91.44
343.437	107.44
343.665	89.44
343.893	77.44
344.12	91.44
344.348	81.44
344.576	85.44
344.804	93.44
345.031	99.44
345.259	86.44
345.487	89.44
345.714	92.44
345.942	97.44
346.17	86.44
346.397	83.44
346.625	90.44
346.853	89.44
347.08	90.44
347.308	95.44
347.535	89.44
347.763	91.44
347.99	91.44
348.218	98.44
348.445	97.44
348.673	92.44
348.9	91.44
349.128	95.44
349.355	97.44
349.583	86.44
349.81	96.44
350.037	92.44
350.265	101.44
350.492	90.44
350.72	113.44
350.947	92.44
351.174	110.44
351.402	105.44
351.629	106.44
351.856	104.44
352.083	105.44
352.311	92.44
352.538	104.44
352.765	105.44
352.992	122.44
353.22	112.44
353.447	107.44
353.674	90.44
353.901	77.44
354.128	92.44
354.355	81.44
354.583	102.44
354.81	83.44
355.037	83.44
355.264	85.44
355.491	93.44
355.718	99.44
355.945	91.44
356.172	91.44
356.399	91.44
356.626	97.44
356.853	92.44
357.08	91.44
357.307	82.44
357.534	99.44
357.761	106.44
357.988	104.44
358.215	105.44
358.441	106.44
358.668	108.44
358.895	97.44
359.122	94.44
359.349	94.44
359.576	91.44
359.802	99.44
360.029	102.44
360.256	98.44
360.483	92.44
360.709	91.44
360.936	85.44
361.163	70.44
361.39	101.44
361.616	88.44
361.843	82.44
362.07	78.44
362.296	92.44
362.523	88.44
362.749	86.44
362.976	96.44
363.203	86.44
363.429	88.44
363.656	92.44
363.882	98.44
364.109	93.44
364.335	96.44
364.562	81.44
364.788	86.44
365.015	88.44
365.241	99.44
365.468	130.44
365.694	116.44
365.92	94.44
366.147	105.44
366.373	102.44
366.599	91.44
366.826	82.44
367.052	81.44
367.278	90.44
367.505	85.44
367.731	90.44
367.957	91.44
368.184	93.44
368.41	103.44
368.636	111.44
368.862	112.44
369.089	101.44
369.315	91.44
369.541	97.44
369.767	81.44
369.993	85.44
370.219	92.44
370.445	83.44
370.672	96.44
370.898	82.44
371.124	92.44
371.35	78.44
371.576	83.44
371.802	70.44
372.028	82.44
372.254	80.44
372.48	96.44
372.706	85.44
372.932	76.44
373.158	88.44
373.384	77.44
373.61	97.44
373.835	88.44
374.061	93.44
374.287	89.44
374.513	92.44
374.739	87.44
374.965	97.44
375.191	76.44
375.416	88.44
375.642	89.44
375.868	96.44
376.094	99.44
376.319	85.44
376.545	92.44
376.771	85.44
376.997	82.44
377.222	92.44
377.448	89.44
377.674	92.44
377.899	82.44
378.125	92.44
378.35	92.44
378.576	90.44
378.802	85.44
379.027	87.44
379.253	88.44
379.478	96.44
379.704	113.44
379.929	98.44
380.155	91.44
380.38	90.44
380.606	102.44
380.831	99.44
381.057	116.44
381.282	122.44
381.507	128.44
381.733	89.44
381.958	109.44
382.184	104.44
382.409	106.44
382.634	103.44
382.86	113.44
383.085	101.44
383.31	118.44
383.535	124.44
383.761	114.44
383.986	93.44
384.211	99.44
384.436	108.44
384.662	108.44
384.887	124.44
385.112	129.44
385.337	117.44
385.562	120.44
385.787	124.44
386.013	114.44
386.238	140.44
386.463	125.44
386.688	122.44
386.913	109.44
387.138	110.44
387.363	108.44
387.588	116.44
387.813	110.44
388.038	112.44
388.263	140.44
388.488	130.44
388.713	106.44
388.938	92.44
389.163	96.44
389.387	94.44
389.612	103.44
389.837	74.44
390.062	92.44
390.287	88.44
390.512	92.44
390.736	83.44
390.961	98.44
391.186	91.44
391.411	82.44
391.636	79.44
391.86	90.44
392.085	83.44
392.31	90.44
392.534	83.44
392.759	74.44
392.984	83.44
393.208	92.44
393.433	100.44
393.658	92.44
393.882	93.44
394.107	85.44
394.331	67.44
394.556	89.44
394.78	82.44
395.005	84.44
395.229	74.44
395.454	93.44
395.678	81.44
395.903	94.44
396.127	98.44
396.352	89.44
396.576	91.44
396.801	101.44
397.025	94.44
397.249	89.44
397.474	81.44
397.698	64.44
397.922	92.44
398.147	83.44
398.371	81.44
398.595	88.44
398.82	83.44
399.044	81.44
399.268	88.44
399.492	104.44
399.717	92.44
399.941	76.44
400.165	89.44
400.389	81.44
400.613	90.44
400.837	88.44
401.062	77.44
401.286	79.44
401.51	99.44
401.734	79.44
401.958	104.44
402.182	108.44
402.406	136.44
402.63	120.44
402.854	106.44
403.078	91.44
403.302	97.44
403.526	73.44
403.75	82.44
403.974	85.44
404.198	94.44
404.422	89.44
404.645	81.44
404.869	89.44
405.093	105.44
405.317	96.44
405.541	84.44
405.765	82.44
405.988	106.44
406.212	169.44
406.436	213.44
406.66	140.44
406.883	100.44
407.107	100.44
407.331	95.44
407.555	96.44
407.778	102.44
408.002	92.44
408.226	95.44
408.449	99.44
408.673	99.44
408.896	85.44
409.12	99.44
409.344	84.44
409.567	78.44
409.791	95.44
410.014	101.44
410.238	91.44
410.461	91.44
410.685	86.44
410.908	91.44
411.132	110.44
411.355	99.44
411.578	86.44
411.802	80.44
412.025	97.44
412.249	101.44
412.472	86.44
412.695	96.44
412.919	80.44
413.142	75.44
413.365	89.44
413.589	86.44
413.812	90.44
414.035	102.44
414.258	97.44
414.482	94.44
414.705	86.44
414.928	93.44
415.151	96.44
415.374	102.44
415.597	102.44
415.821	92.44
416.044	99.44
416.267	90.44
416.49	84.44
416.713	94.44
416.936	77.44
417.159	84.44
417.382	92.44
417.605	86.44
417.828	85.44
418.051	75.44
418.274	97.44
418.497	91.44
418.72	80.44
418.943	84.44
419.166	89.44
419.389	90.44
419.611	81.44
419.834	83.44
420.057	78.44
420.28	88.44
420.503	72.44
420.726	73.44
420.948	77.44
421.171	96.44
421.394	97.44
421.617	96.44
421.839	81.44
422.062	80.44
422.285	82.44
422.507	83.44
422.73	112.44
422.953	83.44
423.175	98.44
423.398	92.44
423.621	90.44
423.843	86.44
424.066	91.44
424.288	96.44
424.511	78.44
424.733	92.44
424.956	102.44
425.178	106.44
425.401	94.44
425.623	107.44
425.846	84.44
426.068	116.44
426.291	86.44
426.513	83.44
426.735	93.44
426.958	82.44
427.18	97.44
427.402	131.44
427.625	164.44
427.847	117.44
428.069	104.44
428.292	89.44
428.514	78.44
428.736	90.44
428.958	99.44
429.181	86.44
429.403	78.44
429.625	93.44
429.847	96.44
430.069	94.44
430.292	64.44
430.514	66.44
430.736	91.44
430.958	94.44
431.18	78.44
431.402	85.44
431.624	83.44
431.846	89.44
432.068	91.44
432.29	92.44
432.512	85.44
432.734	87.44
432.956	97.44
433.178	102.44
433.4	102.44
433.622	93.44
433.844	95.44
434.066	78.44
434.287	96.44
434.509	98.44
434.731	91.44
434.953	94.44
435.175	100.44
435.397	79.44
435.618	96.44
435.84	101.44
436.062	116.44
436.284	110.44
436.505	91.44
436.727	116.44
436.949	98.44
437.17	76.44
437.392	72.44
437.614	86.44
437.835	108.44
438.057	109.44
438.278	104.44
438.5	106.44
438.721	123.44
438.943	106.44
439.165	88.44
439.386	82.44
439.608	93.44
439.829	118.44
440.05	93.44
440.272	144.44
440.493	100.44
440.715	85.44
440.936	85.44
441.158	95.44
441.379	91.44
441.6	86.44
441.822	87.44
442.043	98.44
442.264	104.44
442.486	99.44
442.707	89.44
442.928	90.44
443.149	126.44
443.371	120.44
443.592	103.44
443.813	103.44
444.034	99.44
444.255	74.44
444.476	78.44
444.698	81.44
444.919	88.44
445.14	136.44
445.361	106.44
445.582	117.44
445.803	139.44
446.024	123.44
446.245	144.44
446.466	114.44
446.687	92.44
446.908	91.44
447.129	96.44
447.35	93.44
447.571	94.44
447.792	94.44
448.013	100.44
448.234	98.44
448.455	102.44
448.675	125.44
448.896	123.44
449.117	92.44
449.338	107.44
449.559	129.44
449.779	137.44
450	89.44
450.221	108.44
450.442	87.44
450.662	92.44
450.883	90.44
451.104	108.44
451.324	90.44
451.545	77.44
451.766	82.44
451.986	82.44
452.207	92.44
452.428	89.44
452.648	101.44
452.869	104.44
453.089	112.44
453.31	115.44
453.53	82.44
453.751	89.44
453.971	84.44
454.192	120.44
454.412	98.44
454.633	92.44
454.853	84.44
455.073	83.44
455.294	90.44
455.514	78.44
455.734	83.44
455.955	88.44
456.175	84.44
456.395	85.44
456.616	85.44
456.836	83.44
457.056	69.44
457.276	84.44
457.497	79.44
457.717	78.44
457.937	85.44
458.157	81.44
458.377	82.44
458.598	114.44
458.818	139.44
459.038	144.44
459.258	107.44
459.478	85.44
459.698	74.44
459.918	85.44
460.138	73.44
460.358	71.44
460.578	96.44
460.798	92.44
461.018	86.44
461.238	79.44
461.458	83.44
461.678	80.44
461.898	83.44
462.118	100.44
462.338	92.44
462.558	91.44
462.777	87.44
462.997	77.44
463.217	84.44
463.437	77.44
463.657	82.44
463.876	97.44
464.096	85.44
464.316	102.44
464.536	90.44
464.755	89.44
464.975	106.44
465.195	152.44
465.414	139.44
465.634	105.44
465.854	86.44
466.073	80.44
466.293	82.44
466.512	90.44
466.732	91.44
466.951	90.44
467.171	88.44
467.391	101.44
467.61	93.44
467.829	97.44
468.049	80.44
468.268	86.44
468.488	74.44
468.707	85.44
468.927	77.44
469.146	75.44
469.365	83.44
469.585	78.44
469.804	91.44
470.023	96.44
470.243	92.44
470.462	93.44
470.681	105.44
470.901	95.44
471.12	94.44
471.339	108.44
471.558	94.44
471.777	86.44
471.997	92.44
472.216	92.44
472.435	86.44
472.654	78.44
472.873	87.44
473.092	68.44
473.311	92.44
473.53	86.44
473.749	85.44
473.968	90.44
474.187	91.44
474.406	86.44
474.625	74.44
474.844	78.44
475.063	80.44
475.282	100.44
475.501	86.44
475.72	90.44
475.939	73.44
476.158	85.44
476.377	89.44
476.596	85.44
476.814	88.44
477.033	86.44
477.252	90.44
477.471	100.44
477.69	86.44
477.908	88.44
478.127	91.44
478.346	84.44
478.564	94.44
478.783	79.44
479.002	80.44
479.22	85.44
479.439	98.44
479.658	104.44
479.876	101.44
480.095	101.44
480.313	94.44
480.532	77.44
480.751	91.44
480.969	90.44
481.188	121.44
481.406	109.44
481.624	78.44
481.843	91.44
482.061	90.44
482.28	80.44
482.498	99.44
482.717	81.44
482.935	81.44
483.153	68.44
483.372	78.44
483.59	97.44
483.808	99.44
484.027	92.44
484.245	102.44
484.463	84.44
484.681	83.44
484.9	88.44
485.118	106.44
485.336	99.44
485.554	101.44
485.772	96.44
485.99	107.44
486.209	115.44
486.427	113.44
486.645	112.44
486.863	118.44
487.081	98.44
487.299	106.44
487.517	99.44
487.735	105.44
487.953	101.44
488.171	92.44
488.389	94.44
488.607	93.44
488.825	104.44
489.043	89.44
489.261	106.44
489.479	80.44
489.696	86.44
489.914	90.44
490.132	94.44
490.35	92.44
490.568	99.44
490.786	86.44
491.003	94.44
491.221	89.44
491.439	81.44
491.657	92.44
491.874	97.44
492.092	90.44
492.31	100.44
492.527	81.44
492.745	83.44
492.963	96.44
493.18	83.44
493.398	95.44
493.615	83.44
493.833	101.44
494.05	101.44
494.268	82.44
494.485	91.44
494.703	91.44
494.92	93.44
495.138	77.44
495.355	67.44
495.573	97.44
495.79	92.44
496.008	90.44
496.225	100.44
496.442	85.44
496.66	85.44
496.877	90.44
497.094	88.44
497.312	84.44
497.529	75.44
497.746	83.44
497.963	89.44
498.181	103.44
498.398	92.44
498.615	93.44
498.832	94.44
499.049	88.44
499.267	76.44
499.484	88.44
499.701	86.44
499.918	99.44
500.135	89.44
500.352	86.44
500.569	89.44
500.786	98.44
501.003	95.44
501.22	78.44
501.437	83.44
501.654	97.44
501.871	110.44
502.088	100.44
502.305	93.44
502.522	83.44
502.739	92.44
502.956	86.44
503.172	92.44
503.389	95.44
503.606	105.44
503.823	86.44
504.04	94.44
504.256	86.44
504.473	89.44
504.69	87.44
504.907	80.44
505.123	86.44
505.34	101.44
505.557	90.44
505.773	84.44
505.99	73.44
506.207	83.44
506.423	84.44
506.64	90.44
506.856	84.44
507.073	94.44
507.289	96.44
507.506	97.44
507.722	104.44
507.939	102.44
508.155	101.44
508.372	93.44
508.588	79.44
508.805	91.44
509.021	92.44
509.238	109.44
509.454	82.44
509.67	88.44
509.887	117.44
510.103	145.44
510.319	197.44
510.536	690.44
510.752	2278.44
510.968	654.44
511.184	141.44
511.401	112.44
511.617	94.44
511.833	90.44
512.049	85.44
512.265	86.44
512.481	98.44
512.698	93.44
512.914	93.44
513.13	100.44
513.346	92.44
513.562	92.44
513.778	94.44
513.994	110.44
514.21	99.44
514.426	114.44
514.642	126.44
514.858	118.44
515.074	141.44
515.29	410.44
515.506	1365.44
515.721	495.44
515.937	148.44
