Data from Circ_2006_H10_HRD10591_00057.txt Node
Date: Wed Jan 03 10:26:15 EST 2024
User: Yrep
Spectrometer: HR+D1059
Trigger mode: 1
Integration Time (sec): 1.000000E-1
Scans to average: 1
Electric dark correction enabled: true
Nonlinearity correction enabled: false
Boxcar width: 0
XAxis mode: Wavelengths
Number of Pixels in Spectrum: 2048
>>>>>Begin Spectral Data<<<<<
223.165	-19.75
223.4	-19.75
223.635	-19.75
223.869	-2.75
224.104	-18.75
224.338	-8.75
224.573	1.25
224.808	-9.75
225.042	-13.75
225.277	-21.75
225.511	-4.75
225.746	-0.75
225.98	6.25
226.215	23.25
226.449	23.25
226.683	16.25
226.918	16.25
227.152	14.25
227.387	36.25
227.621	30.25
227.856	47.25
228.09	45.25
228.324	33.25
228.559	53.25
228.793	60.25
229.027	67.25
229.262	71.25
229.496	73.25
229.73	84.25
229.964	85.25
230.199	75.25
230.433	73.25
230.667	87.25
230.901	79.25
231.136	79.25
231.37	79.25
231.604	99.25
231.838	65.25
232.072	76.25
232.306	74.25
232.541	80.25
232.775	84.25
233.009	88.25
233.243	89.25
233.477	74.25
233.711	91.25
233.945	87.25
234.179	78.25
234.413	79.25
234.647	88.25
234.881	82.25
235.115	86.25
235.349	88.25
235.583	71.25
235.817	74.25
236.051	74.25
236.285	78.25
236.519	85.25
236.753	70.25
236.987	91.25
237.221	80.25
237.455	80.25
237.689	68.25
237.922	89.25
238.156	75.25
238.39	75.25
238.624	70.25
238.858	85.25
239.091	79.25
239.325	72.25
239.559	94.25
239.793	70.25
240.027	72.25
240.26	80.25
240.494	92.25
240.728	73.25
240.961	83.25
241.195	69.25
241.429	67.25
241.662	71.25
241.896	67.25
242.13	86.25
242.363	85.25
242.597	70.25
242.83	86.25
243.064	67.25
243.298	80.25
243.531	89.25
243.765	76.25
243.998	82.25
244.232	84.25
244.465	84.25
244.699	77.25
244.932	90.25
245.166	87.25
245.399	78.25
245.633	80.25
245.866	68.25
246.099	70.25
246.333	78.25
246.566	88.25
246.8	85.25
247.033	59.25
247.266	76.25
247.5	83.25
247.733	77.25
247.966	71.25
248.2	87.25
248.433	78.25
248.666	75.25
248.899	87.25
249.133	84.25
249.366	98.25
249.599	94.25
249.832	76.25
250.066	92.25
250.299	82.25
250.532	78.25
250.765	93.25
250.998	81.25
251.231	71.25
251.465	63.25
251.698	82.25
251.931	83.25
252.164	83.25
252.397	78.25
252.63	89.25
252.863	77.25
253.096	95.25
253.329	88.25
253.562	80.25
253.795	80.25
254.028	91.25
254.261	80.25
254.494	83.25
254.727	72.25
254.96	90.25
255.193	83.25
255.426	70.25
255.659	71.25
255.892	72.25
256.124	85.25
256.357	84.25
256.59	85.25
256.823	79.25
257.056	88.25
257.289	85.25
257.521	83.25
257.754	75.25
257.987	80.25
258.22	90.25
258.452	97.25
258.685	81.25
258.918	98.25
259.151	88.25
259.383	83.25
259.616	80.25
259.849	88.25
260.081	69.25
260.314	80.25
260.547	82.25
260.779	87.25
261.012	84.25
261.244	89.25
261.477	88.25
261.71	83.25
261.942	114.25
262.175	111.25
262.407	91.25
262.64	92.25
262.872	87.25
263.105	80.25
263.337	78.25
263.57	73.25
263.802	93.25
264.035	98.25
264.267	85.25
264.499	84.25
264.732	91.25
264.964	77.25
265.197	85.25
265.429	93.25
265.661	85.25
265.894	82.25
266.126	99.25
266.358	90.25
266.591	80.25
266.823	95.25
267.055	69.25
267.287	82.25
267.52	93.25
267.752	98.25
267.984	83.25
268.216	96.25
268.448	84.25
268.681	68.25
268.913	69.25
269.145	80.25
269.377	77.25
269.609	83.25
269.841	79.25
270.073	70.25
270.306	87.25
270.538	85.25
270.77	84.25
271.002	75.25
271.234	92.25
271.466	90.25
271.698	84.25
271.93	93.25
272.162	85.25
272.394	84.25
272.626	81.25
272.858	88.25
273.09	64.25
273.322	91.25
273.553	87.25
273.785	95.25
274.017	80.25
274.249	76.25
274.481	86.25
274.713	85.25
274.945	88.25
275.176	101.25
275.408	95.25
275.64	99.25
275.872	89.25
276.104	99.25
276.335	81.25
276.567	102.25
276.799	97.25
277.031	101.25
277.262	99.25
277.494	82.25
277.726	76.25
277.957	66.25
278.189	92.25
278.421	82.25
278.652	86.25
278.884	81.25
279.115	86.25
279.347	93.25
279.579	76.25
279.81	81.25
280.042	90.25
280.273	96.25
280.505	93.25
280.736	96.25
280.968	89.25
281.199	82.25
281.431	92.25
281.662	80.25
281.894	91.25
282.125	98.25
282.356	136.25
282.588	158.25
282.819	126.25
283.051	92.25
283.282	81.25
283.513	88.25
283.745	82.25
283.976	82.25
284.207	91.25
284.439	85.25
284.67	95.25
284.901	87.25
285.132	86.25
285.364	85.25
285.595	95.25
285.826	93.25
286.057	82.25
286.288	76.25
286.52	87.25
286.751	77.25
286.982	80.25
287.213	91.25
287.444	90.25
287.675	82.25
287.906	87.25
288.138	85.25
288.369	99.25
288.6	98.25
288.831	97.25
289.062	92.25
289.293	94.25
289.524	95.25
289.755	88.25
289.986	87.25
290.217	71.25
290.448	82.25
290.679	88.25
290.91	87.25
291.141	83.25
291.371	82.25
291.602	83.25
291.833	80.25
292.064	100.25
292.295	93.25
292.526	88.25
292.757	88.25
292.987	90.25
293.218	96.25
293.449	106.25
293.68	89.25
293.91	86.25
294.141	95.25
294.372	107.25
294.603	96.25
294.833	88.25
295.064	83.25
295.295	82.25
295.525	71.25
295.756	107.25
295.987	110.25
296.217	152.25
296.448	142.25
296.679	98.25
296.909	93.25
297.14	86.25
297.37	90.25
297.601	89.25
297.831	96.25
298.062	99.25
298.292	89.25
298.523	96.25
298.753	92.25
298.984	95.25
299.214	95.25
299.445	75.25
299.675	90.25
299.905	99.25
300.136	94.25
300.366	87.25
300.597	94.25
300.827	108.25
301.057	114.25
301.288	100.25
301.518	103.25
301.748	88.25
301.979	102.25
302.209	104.25
302.439	89.25
302.669	86.25
302.9	85.25
303.13	90.25
303.36	96.25
303.59	111.25
303.82	109.25
304.051	96.25
304.281	94.25
304.511	95.25
304.741	82.25
304.971	95.25
305.201	86.25
305.431	83.25
305.661	90.25
305.891	102.25
306.121	109.25
306.352	101.25
306.582	107.25
306.812	88.25
307.042	99.25
307.272	107.25
307.502	92.25
307.731	99.25
307.961	106.25
308.191	86.25
308.421	96.25
308.651	92.25
308.881	98.25
309.111	93.25
309.341	108.25
309.571	114.25
309.8	95.25
310.03	92.25
310.26	101.25
310.49	106.25
310.72	98.25
310.949	96.25
311.179	104.25
311.409	94.25
311.639	94.25
311.868	102.25
312.098	104.25
312.328	107.25
312.557	109.25
312.787	104.25
313.017	104.25
313.246	99.25
313.476	109.25
313.706	108.25
313.935	101.25
314.165	102.25
314.394	105.25
314.624	102.25
314.853	106.25
315.083	94.25
315.312	91.25
315.542	90.25
315.771	95.25
316.001	105.25
316.23	91.25
316.46	83.25
316.689	102.25
316.919	100.25
317.148	100.25
317.377	100.25
317.607	93.25
317.836	98.25
318.065	88.25
318.295	93.25
318.524	85.25
318.753	106.25
318.983	81.25
319.212	96.25
319.441	111.25
319.67	115.25
319.9	92.25
320.129	92.25
320.358	118.25
320.587	98.25
320.816	100.25
321.046	99.25
321.275	119.25
321.504	98.25
321.733	96.25
321.962	107.25
322.191	122.25
322.42	107.25
322.649	118.25
322.878	117.25
323.108	130.25
323.337	118.25
323.566	138.25
323.795	180.25
324.024	247.25
324.253	556.25
324.482	1174.25
324.71	2515.25
324.939	3280.25
325.168	1139.25
325.397	320.25
325.626	192.25
325.855	156.25
326.084	151.25
326.313	160.25
326.542	192.25
326.77	284.25
326.999	605.25
327.228	1364.25
327.457	2498.25
327.686	1904.25
327.914	491.25
328.143	253.25
328.372	191.25
328.6	149.25
328.829	125.25
329.058	142.25
329.287	148.25
329.515	130.25
329.744	125.25
329.972	123.25
330.201	147.25
330.43	180.25
330.658	163.25
330.887	163.25
331.115	131.25
331.344	109.25
331.572	112.25
331.801	118.25
332.03	108.25
332.258	103.25
332.486	108.25
332.715	103.25
332.943	96.25
333.172	110.25
333.4	106.25
333.629	115.25
333.857	127.25
334.085	136.25
334.314	138.25
334.542	171.25
334.771	172.25
334.999	116.25
335.227	104.25
335.455	110.25
335.684	92.25
335.912	104.25
336.14	109.25
336.369	90.25
336.597	94.25
336.825	104.25
337.053	93.25
337.281	94.25
337.51	98.25
337.738	90.25
337.966	112.25
338.194	113.25
338.422	95.25
338.65	111.25
338.878	101.25
339.106	87.25
339.334	94.25
339.562	77.25
339.79	88.25
340.018	97.25
340.246	102.25
340.474	89.25
340.702	94.25
340.93	96.25
341.158	92.25
341.386	92.25
341.614	106.25
341.842	103.25
342.07	96.25
342.298	94.25
342.526	93.25
342.754	106.25
342.981	97.25
343.209	102.25
343.437	88.25
343.665	97.25
343.893	98.25
344.12	96.25
344.348	95.25
344.576	87.25
344.804	97.25
345.031	106.25
345.259	107.25
345.487	97.25
345.714	84.25
345.942	94.25
346.17	88.25
346.397	97.25
346.625	109.25
346.853	108.25
347.08	99.25
347.308	79.25
347.535	94.25
347.763	118.25
347.99	99.25
348.218	108.25
348.445	109.25
348.673	99.25
348.9	89.25
349.128	96.25
349.355	107.25
349.583	83.25
349.81	96.25
350.037	98.25
350.265	92.25
350.492	96.25
350.72	109.25
350.947	99.25
351.174	113.25
351.402	114.25
351.629	122.25
351.856	103.25
352.083	119.25
352.311	116.25
352.538	110.25
352.765	109.25
352.992	101.25
353.22	120.25
353.447	115.25
353.674	114.25
353.901	118.25
354.128	107.25
354.355	102.25
354.583	95.25
354.81	108.25
355.037	110.25
355.264	95.25
355.491	115.25
355.718	99.25
355.945	108.25
356.172	104.25
356.399	100.25
356.626	92.25
356.853	102.25
357.08	91.25
357.307	115.25
357.534	100.25
357.761	109.25
357.988	98.25
358.215	99.25
358.441	83.25
358.668	70.25
358.895	87.25
359.122	89.25
359.349	90.25
359.576	94.25
359.802	103.25
360.029	128.25
360.256	129.25
360.483	109.25
360.709	88.25
360.936	93.25
361.163	105.25
361.39	102.25
361.616	97.25
361.843	103.25
362.07	99.25
362.296	98.25
362.523	96.25
362.749	80.25
362.976	103.25
363.203	91.25
363.429	98.25
363.656	89.25
363.882	102.25
364.109	83.25
364.335	101.25
364.562	93.25
364.788	82.25
365.015	86.25
365.241	110.25
365.468	118.25
365.694	118.25
365.92	110.25
366.147	98.25
366.373	99.25
366.599	96.25
366.826	97.25
367.052	87.25
367.278	78.25
367.505	94.25
367.731	96.25
367.957	114.25
368.184	105.25
368.41	93.25
368.636	115.25
368.862	120.25
369.089	114.25
369.315	92.25
369.541	90.25
369.767	88.25
369.993	96.25
370.219	104.25
370.445	80.25
370.672	87.25
370.898	85.25
371.124	80.25
371.35	85.25
371.576	90.25
371.802	83.25
372.028	85.25
372.254	88.25
372.48	82.25
372.706	85.25
372.932	81.25
373.158	94.25
373.384	92.25
373.61	109.25
373.835	88.25
374.061	83.25
374.287	107.25
374.513	95.25
374.739	84.25
374.965	83.25
375.191	95.25
375.416	89.25
375.642	100.25
375.868	99.25
376.094	86.25
376.319	98.25
376.545	93.25
376.771	90.25
376.997	100.25
377.222	92.25
377.448	93.25
377.674	88.25
377.899	89.25
378.125	80.25
378.35	103.25
378.576	99.25
378.802	82.25
379.027	91.25
379.253	98.25
379.478	80.25
379.704	95.25
379.929	107.25
380.155	87.25
380.38	91.25
380.606	79.25
380.831	96.25
381.057	103.25
381.282	102.25
381.507	97.25
381.733	95.25
381.958	100.25
382.184	101.25
382.409	91.25
382.634	108.25
382.86	115.25
383.085	110.25
383.31	101.25
383.535	106.25
383.761	108.25
383.986	94.25
384.211	103.25
384.436	100.25
384.662	109.25
384.887	104.25
385.112	91.25
385.337	107.25
385.562	96.25
385.787	104.25
386.013	120.25
386.238	109.25
386.463	124.25
386.688	126.25
386.913	93.25
387.138	104.25
387.363	105.25
387.588	97.25
387.813	97.25
388.038	114.25
388.263	106.25
388.488	98.25
388.713	101.25
388.938	96.25
389.163	91.25
389.387	103.25
389.612	88.25
389.837	97.25
390.062	102.25
390.287	90.25
390.512	78.25
390.736	83.25
390.961	97.25
391.186	93.25
391.411	98.25
391.636	93.25
391.86	88.25
392.085	95.25
392.31	89.25
392.534	99.25
392.759	82.25
392.984	95.25
393.208	88.25
393.433	93.25
393.658	92.25
393.882	91.25
394.107	87.25
394.331	91.25
394.556	76.25
394.78	81.25
395.005	89.25
395.229	91.25
395.454	90.25
395.678	93.25
395.903	86.25
396.127	88.25
396.352	90.25
396.576	88.25
396.801	84.25
397.025	94.25
397.249	92.25
397.474	94.25
397.698	95.25
397.922	85.25
398.147	85.25
398.371	81.25
398.595	89.25
398.82	86.25
399.044	84.25
399.268	84.25
399.492	86.25
399.717	85.25
399.941	102.25
400.165	109.25
400.389	98.25
400.613	78.25
400.837	103.25
401.062	90.25
401.286	93.25
401.51	100.25
401.734	94.25
401.958	112.25
402.182	126.25
402.406	204.25
402.63	149.25
402.854	106.25
403.078	100.25
403.302	87.25
403.526	92.25
403.75	92.25
403.974	101.25
404.198	92.25
404.422	96.25
404.645	89.25
404.869	88.25
405.093	105.25
405.317	87.25
405.541	108.25
405.765	113.25
405.988	140.25
406.212	216.25
406.436	281.25
406.66	182.25
406.883	114.25
407.107	107.25
407.331	98.25
407.555	111.25
407.778	104.25
408.002	107.25
408.226	104.25
408.449	89.25
408.673	96.25
408.896	94.25
409.12	95.25
409.344	101.25
409.567	87.25
409.791	91.25
410.014	91.25
410.238	92.25
410.461	102.25
410.685	81.25
410.908	106.25
411.132	104.25
411.355	111.25
411.578	86.25
411.802	91.25
412.025	82.25
412.249	88.25
412.472	88.25
412.695	94.25
412.919	98.25
413.142	81.25
413.365	107.25
413.589	86.25
413.812	81.25
414.035	82.25
414.258	93.25
414.482	86.25
414.705	88.25
414.928	92.25
415.151	99.25
415.374	103.25
415.597	73.25
415.821	87.25
416.044	98.25
416.267	81.25
416.49	109.25
416.713	85.25
416.936	98.25
417.159	84.25
417.382	82.25
417.605	101.25
417.828	101.25
418.051	100.25
418.274	98.25
418.497	85.25
418.72	84.25
418.943	90.25
419.166	80.25
419.389	96.25
419.611	91.25
419.834	83.25
420.057	90.25
420.28	88.25
420.503	96.25
420.726	86.25
420.948	95.25
421.171	96.25
421.394	93.25
421.617	102.25
421.839	93.25
422.062	93.25
422.285	99.25
422.507	82.25
422.73	106.25
422.953	102.25
423.175	89.25
423.398	86.25
423.621	81.25
423.843	89.25
424.066	88.25
424.288	103.25
424.511	98.25
424.733	101.25
424.956	106.25
425.178	111.25
425.401	120.25
425.623	110.25
425.846	87.25
426.068	94.25
426.291	88.25
426.513	96.25
426.735	89.25
426.958	97.25
427.18	107.25
427.402	157.25
427.625	211.25
427.847	152.25
428.069	124.25
428.292	110.25
428.514	107.25
428.736	83.25
428.958	95.25
429.181	93.25
429.403	101.25
429.625	95.25
429.847	97.25
430.069	108.25
430.292	98.25
430.514	94.25
430.736	82.25
430.958	94.25
431.18	94.25
431.402	86.25
431.624	90.25
431.846	86.25
432.068	84.25
432.29	90.25
432.512	94.25
432.734	110.25
432.956	103.25
433.178	105.25
433.4	104.25
433.622	88.25
433.844	80.25
434.066	103.25
434.287	94.25
434.509	92.25
434.731	85.25
434.953	99.25
435.175	97.25
435.397	90.25
435.618	107.25
435.84	110.25
436.062	133.25
436.284	132.25
436.505	106.25
436.727	99.25
436.949	104.25
437.17	95.25
437.392	98.25
437.614	104.25
437.835	113.25
438.057	134.25
438.278	125.25
438.5	105.25
438.721	122.25
438.943	95.25
439.165	101.25
439.386	100.25
439.608	97.25
439.829	118.25
440.05	120.25
440.272	171.25
440.493	123.25
440.715	90.25
440.936	86.25
441.158	92.25
441.379	87.25
441.6	106.25
441.822	90.25
442.043	83.25
442.264	123.25
442.486	112.25
442.707	100.25
442.928	111.25
443.149	164.25
443.371	157.25
443.592	110.25
443.813	122.25
444.034	119.25
444.255	80.25
444.476	91.25
444.698	92.25
444.919	92.25
445.14	140.25
445.361	131.25
445.582	131.25
445.803	148.25
446.024	140.25
446.245	149.25
446.466	115.25
446.687	85.25
446.908	110.25
447.129	96.25
447.35	96.25
447.571	97.25
447.792	92.25
448.013	106.25
448.234	129.25
448.455	105.25
448.675	125.25
448.896	122.25
449.117	110.25
449.338	105.25
449.559	146.25
449.779	145.25
450	99.25
450.221	102.25
450.442	107.25
450.662	98.25
450.883	119.25
451.104	128.25
451.324	99.25
451.545	88.25
451.766	69.25
451.986	92.25
452.207	80.25
452.428	88.25
452.648	110.25
452.869	126.25
453.089	116.25
453.31	130.25
453.53	120.25
453.751	96.25
453.971	101.25
454.192	120.25
454.412	85.25
454.633	89.25
454.853	98.25
455.073	91.25
455.294	91.25
455.514	90.25
455.734	87.25
455.955	92.25
456.175	74.25
456.395	87.25
456.616	78.25
456.836	80.25
457.056	82.25
457.276	91.25
457.497	79.25
457.717	93.25
457.937	86.25
458.157	86.25
458.377	94.25
458.598	125.25
458.818	181.25
459.038	181.25
459.258	133.25
459.478	100.25
459.698	94.25
459.918	74.25
460.138	101.25
460.358	102.25
460.578	82.25
460.798	98.25
461.018	95.25
461.238	82.25
461.458	84.25
461.678	76.25
461.898	84.25
462.118	90.25
462.338	78.25
462.558	101.25
462.777	76.25
462.997	99.25
463.217	86.25
463.437	78.25
463.657	85.25
463.876	90.25
464.096	79.25
464.316	88.25
464.536	98.25
464.755	78.25
464.975	120.25
465.195	198.25
465.414	192.25
465.634	109.25
465.854	88.25
466.073	93.25
466.293	84.25
466.512	85.25
466.732	94.25
466.951	82.25
467.171	85.25
467.391	112.25
467.61	117.25
467.829	92.25
468.049	117.25
468.268	121.25
468.488	85.25
468.707	73.25
468.927	87.25
469.146	86.25
469.365	89.25
469.585	97.25
469.804	102.25
470.023	103.25
470.243	82.25
470.462	108.25
470.681	144.25
470.901	106.25
471.12	90.25
471.339	83.25
471.558	96.25
471.777	80.25
471.997	93.25
472.216	148.25
472.435	186.25
472.654	114.25
472.873	100.25
473.092	85.25
473.311	87.25
473.53	84.25
473.749	103.25
473.968	103.25
474.187	107.25
474.406	100.25
474.625	71.25
474.844	92.25
475.063	89.25
475.282	100.25
475.501	88.25
475.72	87.25
475.939	85.25
476.158	89.25
476.377	94.25
476.596	80.25
476.814	99.25
477.033	100.25
477.252	87.25
477.471	95.25
477.69	92.25
477.908	88.25
478.127	94.25
478.346	98.25
478.564	95.25
478.783	103.25
479.002	106.25
479.22	94.25
479.439	105.25
479.658	126.25
479.876	91.25
480.095	81.25
480.313	94.25
480.532	98.25
480.751	85.25
480.969	133.25
481.188	293.25
481.406	213.25
481.624	112.25
481.843	80.25
482.061	91.25
482.28	92.25
482.498	90.25
482.717	86.25
482.935	101.25
483.153	95.25
483.372	88.25
483.59	82.25
483.808	80.25
484.027	65.25
484.245	108.25
484.463	91.25
484.681	108.25
484.9	94.25
485.118	120.25
485.336	101.25
485.554	104.25
485.772	94.25
485.99	103.25
486.209	118.25
486.427	107.25
486.645	111.25
486.863	127.25
487.081	112.25
487.299	101.25
487.517	91.25
487.735	84.25
487.953	86.25
488.171	101.25
488.389	76.25
488.607	119.25
488.825	94.25
489.043	84.25
489.261	96.25
489.479	91.25
489.696	93.25
489.914	97.25
490.132	84.25
490.35	98.25
490.568	92.25
490.786	85.25
491.003	86.25
491.221	87.25
491.439	91.25
491.657	106.25
491.874	84.25
492.092	86.25
492.31	87.25
492.527	96.25
492.745	98.25
492.963	83.25
493.18	84.25
493.398	72.25
493.615	101.25
493.833	84.25
494.05	96.25
494.268	97.25
494.485	115.25
494.703	99.25
494.92	99.25
495.138	90.25
495.355	72.25
495.573	89.25
495.79	92.25
496.008	90.25
496.225	98.25
496.442	100.25
496.66	93.25
496.877	80.25
497.094	85.25
497.312	83.25
497.529	85.25
497.746	93.25
497.963	85.25
498.181	90.25
498.398	98.25
498.615	114.25
498.832	105.25
499.049	96.25
499.267	83.25
499.484	88.25
499.701	91.25
499.918	97.25
500.135	77.25
500.352	90.25
500.569	82.25
500.786	91.25
501.003	95.25
501.22	91.25
501.437	80.25
501.654	100.25
501.871	117.25
502.088	95.25
502.305	103.25
502.522	98.25
502.739	86.25
502.956	90.25
503.172	91.25
503.389	107.25
503.606	111.25
503.823	116.25
504.04	76.25
504.256	104.25
504.473	87.25
504.69	84.25
504.907	88.25
505.123	94.25
505.34	90.25
505.557	93.25
505.773	84.25
505.99	108.25
506.207	93.25
506.423	82.25
506.64	92.25
506.856	98.25
507.073	93.25
507.289	111.25
507.506	94.25
507.722	139.25
507.939	114.25
508.155	99.25
508.372	91.25
508.588	96.25
508.805	103.25
509.021	107.25
509.238	107.25
509.454	96.25
509.67	107.25
509.887	99.25
510.103	138.25
510.319	243.25
510.536	972.25
510.752	3295.25
510.968	878.25
511.184	188.25
511.401	138.25
511.617	110.25
511.833	99.25
512.049	88.25
512.265	103.25
512.481	98.25
512.698	107.25
512.914	102.25
513.13	92.25
513.346	96.25
513.562	88.25
513.778	97.25
513.994	104.25
514.21	96.25
