Data from Circ_2006_H10_HRD10591_00042.txt Node
Date: Wed Jan 03 10:26:12 EST 2024
User: Yrep
Spectrometer: HR+D1059
Trigger mode: 1
Integration Time (sec): 1.000000E-1
Scans to average: 1
Electric dark correction enabled: true
Nonlinearity correction enabled: false
Boxcar width: 0
XAxis mode: Wavelengths
Number of Pixels in Spectrum: 2048
>>>>>Begin Spectral Data<<<<<
223.165	-17.62
223.4	-17.62
223.635	-17.62
223.869	-15.62
224.104	-34.62
224.338	-16.62
224.573	-20.62
224.808	-19.62
225.042	-0.62
225.277	-1.62
225.511	-0.62
225.746	1.38
225.98	4.38
226.215	11.38
226.449	20.38
226.683	17.38
226.918	30.38
227.152	42.38
227.387	56.38
227.621	34.38
227.856	41.38
228.09	39.38
228.324	59.38
228.559	52.38
228.793	60.38
229.027	60.38
229.262	63.38
229.496	80.38
229.73	88.38
229.964	94.38
230.199	77.38
230.433	62.38
230.667	75.38
230.901	87.38
231.136	94.38
231.37	72.38
231.604	82.38
231.838	82.38
232.072	93.38
232.306	74.38
232.541	77.38
232.775	92.38
233.009	79.38
233.243	91.38
233.477	72.38
233.711	88.38
233.945	87.38
234.179	83.38
234.413	85.38
234.647	78.38
234.881	72.38
235.115	88.38
235.349	74.38
235.583	81.38
235.817	70.38
236.051	58.38
236.285	63.38
236.519	83.38
236.753	67.38
236.987	74.38
237.221	85.38
237.455	86.38
237.689	87.38
237.922	77.38
238.156	78.38
238.39	69.38
238.624	63.38
238.858	82.38
239.091	78.38
239.325	85.38
239.559	91.38
239.793	82.38
240.027	83.38
240.26	75.38
240.494	69.38
240.728	76.38
240.961	79.38
241.195	77.38
241.429	84.38
241.662	80.38
241.896	83.38
242.13	67.38
242.363	80.38
242.597	71.38
242.83	60.38
243.064	89.38
243.298	74.38
243.531	80.38
243.765	85.38
243.998	71.38
244.232	74.38
244.465	78.38
244.699	80.38
244.932	62.38
245.166	76.38
245.399	74.38
245.633	72.38
245.866	74.38
246.099	67.38
246.333	80.38
246.566	73.38
246.8	86.38
247.033	70.38
247.266	74.38
247.5	83.38
247.733	75.38
247.966	66.38
248.2	78.38
248.433	62.38
248.666	78.38
248.899	71.38
249.133	79.38
249.366	103.38
249.599	101.38
249.832	80.38
250.066	89.38
250.299	76.38
250.532	76.38
250.765	74.38
250.998	76.38
251.231	85.38
251.465	81.38
251.698	83.38
251.931	65.38
252.164	82.38
252.397	82.38
252.63	83.38
252.863	84.38
253.096	94.38
253.329	83.38
253.562	92.38
253.795	51.38
254.028	83.38
254.261	78.38
254.494	78.38
254.727	85.38
254.96	78.38
255.193	81.38
255.426	83.38
255.659	76.38
255.892	66.38
256.124	82.38
256.357	81.38
256.59	78.38
256.823	84.38
257.056	90.38
257.289	79.38
257.521	78.38
257.754	81.38
257.987	79.38
258.22	87.38
258.452	72.38
258.685	74.38
258.918	80.38
259.151	85.38
259.383	68.38
259.616	86.38
259.849	78.38
260.081	75.38
260.314	84.38
260.547	74.38
260.779	88.38
261.012	80.38
261.244	76.38
261.477	96.38
261.71	100.38
261.942	114.38
262.175	126.38
262.407	91.38
262.64	88.38
262.872	75.38
263.105	81.38
263.337	85.38
263.57	93.38
263.802	76.38
264.035	94.38
264.267	78.38
264.499	79.38
264.732	88.38
264.964	74.38
265.197	86.38
265.429	80.38
265.661	73.38
265.894	78.38
266.126	89.38
266.358	90.38
266.591	83.38
266.823	76.38
267.055	85.38
267.287	72.38
267.52	79.38
267.752	86.38
267.984	85.38
268.216	90.38
268.448	73.38
268.681	90.38
268.913	77.38
269.145	80.38
269.377	92.38
269.609	89.38
269.841	95.38
270.073	81.38
270.306	77.38
270.538	74.38
270.77	85.38
271.002	79.38
271.234	95.38
271.466	82.38
271.698	78.38
271.93	84.38
272.162	82.38
272.394	85.38
272.626	95.38
272.858	90.38
273.09	80.38
273.322	78.38
273.553	83.38
273.785	72.38
274.017	71.38
274.249	85.38
274.481	89.38
274.713	101.38
274.945	77.38
275.176	82.38
275.408	92.38
275.64	92.38
275.872	89.38
276.104	89.38
276.335	75.38
276.567	101.38
276.799	115.38
277.031	95.38
277.262	93.38
277.494	97.38
277.726	97.38
277.957	94.38
278.189	81.38
278.421	74.38
278.652	89.38
278.884	84.38
279.115	96.38
279.347	84.38
279.579	83.38
279.81	81.38
280.042	76.38
280.273	86.38
280.505	95.38
280.736	88.38
280.968	102.38
281.199	93.38
281.431	87.38
281.662	98.38
281.894	82.38
282.125	113.38
282.356	136.38
282.588	147.38
282.819	113.38
283.051	86.38
283.282	71.38
283.513	83.38
283.745	67.38
283.976	84.38
284.207	81.38
284.439	99.38
284.67	80.38
284.901	94.38
285.132	100.38
285.364	87.38
285.595	106.38
285.826	96.38
286.057	86.38
286.288	66.38
286.52	93.38
286.751	72.38
286.982	102.38
287.213	100.38
287.444	81.38
287.675	92.38
287.906	101.38
288.138	78.38
288.369	88.38
288.6	86.38
288.831	90.38
289.062	90.38
289.293	78.38
289.524	85.38
289.755	91.38
289.986	77.38
290.217	86.38
290.448	84.38
290.679	94.38
290.91	95.38
291.141	98.38
291.371	89.38
291.602	94.38
291.833	86.38
292.064	83.38
292.295	82.38
292.526	73.38
292.757	82.38
292.987	82.38
293.218	82.38
293.449	79.38
293.68	90.38
293.91	85.38
294.141	93.38
294.372	95.38
294.603	81.38
294.833	82.38
295.064	88.38
295.295	82.38
295.525	83.38
295.756	104.38
295.987	124.38
296.217	172.38
296.448	131.38
296.679	88.38
296.909	91.38
297.14	85.38
297.37	91.38
297.601	73.38
297.831	92.38
298.062	81.38
298.292	88.38
298.523	91.38
298.753	104.38
298.984	82.38
299.214	81.38
299.445	91.38
299.675	102.38
299.905	95.38
300.136	92.38
300.366	91.38
300.597	86.38
300.827	106.38
301.057	96.38
301.288	107.38
301.518	107.38
301.748	91.38
301.979	104.38
302.209	93.38
302.439	85.38
302.669	96.38
302.9	84.38
303.13	97.38
303.36	96.38
303.59	97.38
303.82	89.38
304.051	85.38
304.281	83.38
304.511	81.38
304.741	76.38
304.971	68.38
305.201	83.38
305.431	85.38
305.661	98.38
305.891	96.38
306.121	98.38
306.352	115.38
306.582	94.38
306.812	95.38
307.042	90.38
307.272	85.38
307.502	91.38
307.731	94.38
307.961	86.38
308.191	82.38
308.421	83.38
308.651	100.38
308.881	96.38
309.111	92.38
309.341	92.38
309.571	108.38
309.8	109.38
310.03	96.38
310.26	84.38
310.49	94.38
310.72	102.38
310.949	133.38
311.179	120.38
311.409	94.38
311.639	92.38
311.868	90.38
312.098	93.38
312.328	84.38
312.557	101.38
312.787	116.38
313.017	104.38
313.246	102.38
313.476	90.38
313.706	96.38
313.935	102.38
314.165	99.38
314.394	109.38
314.624	108.38
314.853	96.38
315.083	88.38
315.312	89.38
315.542	80.38
315.771	90.38
316.001	83.38
316.23	90.38
316.46	85.38
316.689	95.38
316.919	92.38
317.148	104.38
317.377	100.38
317.607	106.38
317.836	84.38
318.065	83.38
318.295	102.38
318.524	88.38
318.753	86.38
318.983	94.38
319.212	119.38
319.441	121.38
319.67	102.38
319.9	93.38
320.129	88.38
320.358	101.38
320.587	92.38
320.816	96.38
321.046	109.38
321.275	100.38
321.504	100.38
321.733	107.38
321.962	110.38
322.191	102.38
322.42	98.38
322.649	109.38
322.878	126.38
323.108	140.38
323.337	135.38
323.566	145.38
323.795	185.38
324.024	243.38
324.253	552.38
324.482	1253.38
324.71	2560.38
324.939	3309.38
325.168	1139.38
325.397	322.38
325.626	176.38
325.855	151.38
326.084	154.38
326.313	134.38
326.542	195.38
326.77	297.38
326.999	638.38
327.228	1372.38
327.457	2538.38
327.686	1988.38
327.914	504.38
328.143	244.38
328.372	209.38
328.6	150.38
328.829	138.38
329.058	139.38
329.287	144.38
329.515	124.38
329.744	105.38
329.972	96.38
330.201	112.38
330.43	140.38
330.658	147.38
330.887	178.38
331.115	144.38
331.344	102.38
331.572	100.38
331.801	106.38
332.03	86.38
332.258	99.38
332.486	81.38
332.715	77.38
332.943	93.38
333.172	92.38
333.4	97.38
333.629	122.38
333.857	121.38
334.085	98.38
334.314	112.38
334.542	124.38
334.771	140.38
334.999	108.38
335.227	105.38
335.455	97.38
335.684	83.38
335.912	93.38
336.14	82.38
336.369	100.38
336.597	85.38
336.825	96.38
337.053	88.38
337.281	89.38
337.51	107.38
337.738	86.38
337.966	98.38
338.194	98.38
338.422	90.38
338.65	99.38
338.878	95.38
339.106	95.38
339.334	92.38
339.562	104.38
339.79	101.38
340.018	89.38
340.246	83.38
340.474	80.38
340.702	82.38
340.93	97.38
341.158	81.38
341.386	98.38
341.614	97.38
341.842	100.38
342.07	103.38
342.298	96.38
342.526	84.38
342.754	75.38
342.981	85.38
343.209	83.38
343.437	106.38
343.665	85.38
343.893	88.38
344.12	103.38
344.348	101.38
344.576	100.38
344.804	102.38
345.031	88.38
345.259	96.38
345.487	105.38
345.714	96.38
345.942	83.38
346.17	94.38
346.397	95.38
346.625	94.38
346.853	95.38
347.08	90.38
347.308	109.38
347.535	97.38
347.763	113.38
347.99	112.38
348.218	109.38
348.445	105.38
348.673	98.38
348.9	100.38
349.128	94.38
349.355	93.38
349.583	101.38
349.81	95.38
350.037	90.38
350.265	92.38
350.492	92.38
350.72	100.38
350.947	98.38
351.174	113.38
351.402	111.38
351.629	104.38
351.856	114.38
352.083	103.38
352.311	111.38
352.538	127.38
352.765	110.38
352.992	113.38
353.22	121.38
353.447	117.38
353.674	105.38
353.901	91.38
354.128	90.38
354.355	88.38
354.583	102.38
354.81	105.38
355.037	101.38
355.264	94.38
355.491	98.38
355.718	91.38
355.945	93.38
356.172	100.38
356.399	95.38
356.626	102.38
356.853	83.38
357.08	102.38
357.307	92.38
357.534	85.38
357.761	92.38
357.988	97.38
358.215	78.38
358.441	94.38
358.668	90.38
358.895	91.38
359.122	83.38
359.349	88.38
359.576	101.38
359.802	109.38
360.029	116.38
360.256	125.38
360.483	108.38
360.709	90.38
360.936	97.38
361.163	91.38
361.39	101.38
361.616	96.38
361.843	104.38
362.07	106.38
362.296	96.38
362.523	90.38
362.749	69.38
362.976	93.38
363.203	106.38
363.429	87.38
363.656	73.38
363.882	89.38
364.109	76.38
364.335	101.38
364.562	97.38
364.788	99.38
365.015	108.38
365.241	101.38
365.468	102.38
365.694	106.38
365.92	92.38
366.147	74.38
366.373	101.38
366.599	99.38
366.826	84.38
367.052	84.38
367.278	93.38
367.505	108.38
367.731	95.38
367.957	98.38
368.184	80.38
368.41	100.38
368.636	129.38
368.862	131.38
369.089	109.38
369.315	97.38
369.541	85.38
369.767	99.38
369.993	107.38
370.219	98.38
370.445	95.38
370.672	91.38
370.898	79.38
371.124	96.38
371.35	73.38
371.576	83.38
371.802	76.38
372.028	95.38
372.254	88.38
372.48	81.38
372.706	89.38
372.932	85.38
373.158	93.38
373.384	93.38
373.61	73.38
373.835	82.38
374.061	70.38
374.287	85.38
374.513	78.38
374.739	84.38
374.965	102.38
375.191	91.38
375.416	85.38
375.642	90.38
375.868	83.38
376.094	101.38
376.319	94.38
376.545	92.38
376.771	74.38
376.997	91.38
377.222	87.38
377.448	91.38
377.674	90.38
377.899	92.38
378.125	78.38
378.35	76.38
378.576	95.38
378.802	98.38
379.027	84.38
379.253	87.38
379.478	86.38
379.704	82.38
379.929	89.38
380.155	93.38
380.38	92.38
380.606	100.38
380.831	82.38
381.057	99.38
381.282	96.38
381.507	99.38
381.733	93.38
381.958	94.38
382.184	85.38
382.409	105.38
382.634	97.38
382.86	96.38
383.085	106.38
383.31	100.38
383.535	98.38
383.761	93.38
383.986	97.38
384.211	83.38
384.436	93.38
384.662	102.38
384.887	88.38
385.112	96.38
385.337	91.38
385.562	91.38
385.787	94.38
386.013	113.38
386.238	104.38
386.463	115.38
386.688	106.38
386.913	112.38
387.138	123.38
387.363	105.38
387.588	96.38
387.813	108.38
388.038	106.38
388.263	113.38
388.488	113.38
388.713	79.38
388.938	95.38
389.163	107.38
389.387	105.38
389.612	94.38
389.837	81.38
390.062	88.38
390.287	76.38
390.512	93.38
390.736	92.38
390.961	82.38
391.186	90.38
391.411	80.38
391.636	80.38
391.86	79.38
392.085	85.38
392.31	99.38
392.534	78.38
392.759	75.38
392.984	91.38
393.208	73.38
393.433	90.38
393.658	76.38
393.882	83.38
394.107	92.38
394.331	86.38
394.556	84.38
394.78	96.38
395.005	91.38
395.229	86.38
395.454	91.38
395.678	93.38
395.903	79.38
396.127	91.38
396.352	106.38
396.576	96.38
396.801	93.38
397.025	75.38
397.249	86.38
397.474	88.38
397.698	89.38
397.922	82.38
398.147	81.38
398.371	82.38
398.595	90.38
398.82	92.38
399.044	75.38
399.268	80.38
399.492	85.38
399.717	100.38
399.941	89.38
400.165	90.38
400.389	91.38
400.613	83.38
400.837	84.38
401.062	98.38
401.286	81.38
401.51	97.38
401.734	96.38
401.958	94.38
402.182	143.38
402.406	180.38
402.63	124.38
402.854	93.38
403.078	85.38
403.302	101.38
403.526	99.38
403.75	77.38
403.974	83.38
404.198	79.38
404.422	83.38
404.645	76.38
404.869	86.38
405.093	90.38
405.317	109.38
405.541	101.38
405.765	111.38
405.988	126.38
406.212	204.38
406.436	270.38
406.66	171.38
406.883	109.38
407.107	102.38
407.331	101.38
407.555	97.38
407.778	105.38
408.002	94.38
408.226	86.38
408.449	78.38
408.673	85.38
408.896	98.38
409.12	92.38
409.344	104.38
409.567	104.38
409.791	92.38
410.014	87.38
410.238	85.38
410.461	81.38
410.685	76.38
410.908	105.38
411.132	114.38
411.355	94.38
411.578	98.38
411.802	88.38
412.025	91.38
412.249	85.38
412.472	72.38
412.695	96.38
412.919	74.38
413.142	83.38
413.365	83.38
413.589	83.38
413.812	90.38
414.035	103.38
414.258	90.38
414.482	91.38
414.705	93.38
414.928	86.38
415.151	84.38
415.374	91.38
415.597	105.38
415.821	97.38
416.044	101.38
416.267	73.38
416.49	83.38
416.713	94.38
416.936	90.38
417.159	97.38
417.382	96.38
417.605	95.38
417.828	95.38
418.051	96.38
418.274	85.38
418.497	93.38
418.72	102.38
418.943	84.38
419.166	71.38
419.389	82.38
419.611	94.38
419.834	72.38
420.057	87.38
420.28	92.38
420.503	94.38
420.726	85.38
420.948	92.38
421.171	94.38
421.394	99.38
421.617	86.38
421.839	89.38
422.062	93.38
422.285	106.38
422.507	106.38
422.73	98.38
422.953	92.38
423.175	87.38
423.398	83.38
423.621	86.38
423.843	68.38
424.066	100.38
424.288	84.38
424.511	86.38
424.733	92.38
424.956	101.38
425.178	96.38
425.401	98.38
425.623	97.38
425.846	84.38
426.068	113.38
426.291	85.38
426.513	98.38
426.735	98.38
426.958	84.38
427.18	117.38
427.402	155.38
427.625	207.38
427.847	142.38
428.069	117.38
428.292	91.38
428.514	88.38
428.736	93.38
428.958	86.38
429.181	93.38
429.403	89.38
429.625	96.38
429.847	97.38
430.069	96.38
430.292	89.38
430.514	90.38
430.736	89.38
430.958	86.38
431.18	90.38
431.402	77.38
431.624	86.38
431.846	86.38
432.068	79.38
432.29	88.38
432.512	82.38
432.734	81.38
432.956	83.38
433.178	99.38
433.4	99.38
433.622	90.38
433.844	99.38
434.066	90.38
434.287	100.38
434.509	86.38
434.731	77.38
434.953	86.38
435.175	89.38
435.397	75.38
435.618	112.38
435.84	112.38
436.062	139.38
436.284	128.38
436.505	107.38
436.727	114.38
436.949	81.38
437.17	82.38
437.392	88.38
437.614	97.38
437.835	120.38
438.057	122.38
438.278	122.38
438.5	114.38
438.721	128.38
438.943	124.38
439.165	107.38
439.386	99.38
439.608	95.38
439.829	94.38
440.05	150.38
440.272	157.38
440.493	104.38
440.715	87.38
440.936	83.38
441.158	87.38
441.379	83.38
441.6	99.38
441.822	103.38
442.043	107.38
442.264	113.38
442.486	95.38
442.707	96.38
442.928	125.38
443.149	152.38
443.371	145.38
443.592	110.38
443.813	114.38
444.034	102.38
444.255	86.38
444.476	83.38
444.698	93.38
444.919	90.38
445.14	146.38
445.361	127.38
445.582	120.38
445.803	176.38
446.024	160.38
446.245	147.38
446.466	134.38
446.687	93.38
446.908	86.38
447.129	84.38
447.35	93.38
447.571	92.38
447.792	98.38
448.013	100.38
448.234	108.38
448.455	107.38
448.675	124.38
448.896	126.38
449.117	104.38
449.338	117.38
449.559	150.38
449.779	173.38
450	85.38
450.221	94.38
450.442	102.38
450.662	94.38
450.883	123.38
451.104	111.38
451.324	100.38
451.545	84.38
451.766	89.38
451.986	86.38
452.207	91.38
452.428	93.38
452.648	92.38
452.869	129.38
453.089	117.38
453.31	124.38
453.53	97.38
453.751	96.38
453.971	120.38
454.192	110.38
454.412	90.38
454.633	92.38
454.853	86.38
455.073	88.38
455.294	91.38
455.514	113.38
455.734	90.38
455.955	95.38
456.175	86.38
456.395	99.38
456.616	86.38
456.836	90.38
457.056	92.38
457.276	87.38
457.497	91.38
457.717	86.38
457.937	83.38
458.157	94.38
458.377	102.38
458.598	116.38
458.818	157.38
459.038	187.38
459.258	125.38
459.478	97.38
459.698	86.38
459.918	92.38
460.138	86.38
460.358	84.38
460.578	83.38
460.798	94.38
461.018	91.38
461.238	93.38
461.458	81.38
461.678	86.38
461.898	85.38
462.118	80.38
462.338	85.38
462.558	82.38
462.777	78.38
462.997	93.38
463.217	87.38
463.437	84.38
463.657	72.38
463.876	88.38
464.096	97.38
464.316	97.38
464.536	96.38
464.755	98.38
464.975	120.38
465.195	206.38
465.414	194.38
465.634	101.38
465.854	86.38
466.073	77.38
466.293	100.38
466.512	99.38
466.732	97.38
466.951	90.38
467.171	101.38
467.391	105.38
467.61	115.38
467.829	97.38
468.049	100.38
468.268	100.38
468.488	94.38
468.707	91.38
468.927	104.38
469.146	85.38
469.365	80.38
469.585	99.38
469.804	99.38
470.023	110.38
470.243	84.38
470.462	103.38
470.681	107.38
470.901	101.38
471.12	83.38
471.339	92.38
471.558	92.38
471.777	90.38
471.997	99.38
472.216	120.38
472.435	144.38
472.654	101.38
472.873	82.38
473.092	85.38
473.311	101.38
473.53	84.38
473.749	82.38
473.968	99.38
474.187	106.38
474.406	113.38
474.625	93.38
474.844	97.38
475.063	96.38
475.282	93.38
475.501	98.38
475.72	90.38
475.939	95.38
476.158	97.38
476.377	92.38
476.596	82.38
476.814	103.38
477.033	96.38
477.252	83.38
477.471	90.38
477.69	88.38
477.908	82.38
478.127	79.38
478.346	94.38
478.564	90.38
478.783	113.38
479.002	83.38
479.22	84.38
479.439	103.38
479.658	113.38
479.876	86.38
480.095	81.38
480.313	92.38
480.532	87.38
480.751	95.38
480.969	100.38
481.188	197.38
481.406	152.38
481.624	105.38
481.843	81.38
482.061	75.38
482.28	98.38
482.498	89.38
482.717	83.38
482.935	101.38
483.153	85.38
483.372	90.38
483.59	84.38
483.808	79.38
484.027	86.38
484.245	90.38
484.463	94.38
484.681	88.38
484.9	97.38
485.118	83.38
485.336	101.38
485.554	115.38
485.772	96.38
485.99	105.38
486.209	107.38
486.427	103.38
486.645	115.38
486.863	124.38
487.081	91.38
487.299	97.38
487.517	101.38
487.735	91.38
487.953	96.38
488.171	96.38
488.389	109.38
488.607	99.38
488.825	97.38
489.043	99.38
489.261	82.38
489.479	85.38
489.696	115.38
489.914	99.38
490.132	93.38
490.35	92.38
490.568	75.38
490.786	90.38
491.003	84.38
491.221	83.38
491.439	81.38
491.657	91.38
491.874	92.38
492.092	80.38
492.31	86.38
492.527	97.38
492.745	89.38
492.963	89.38
493.18	94.38
493.398	99.38
493.615	89.38
493.833	91.38
494.05	87.38
494.268	98.38
494.485	88.38
494.703	85.38
494.92	92.38
495.138	77.38
495.355	82.38
495.573	87.38
495.79	83.38
496.008	109.38
496.225	101.38
496.442	94.38
496.66	99.38
496.877	88.38
497.094	97.38
497.312	78.38
497.529	93.38
497.746	93.38
497.963	91.38
498.181	98.38
498.398	91.38
498.615	107.38
498.832	92.38
499.049	80.38
499.267	84.38
499.484	90.38
499.701	97.38
499.918	80.38
500.135	74.38
500.352	92.38
500.569	81.38
500.786	86.38
501.003	83.38
501.22	94.38
501.437	93.38
501.654	105.38
501.871	108.38
502.088	80.38
502.305	88.38
502.522	81.38
502.739	101.38
502.956	111.38
503.172	97.38
503.389	93.38
503.606	113.38
503.823	105.38
504.04	100.38
504.256	74.38
504.473	88.38
504.69	86.38
504.907	84.38
505.123	78.38
505.34	103.38
505.557	98.38
505.773	96.38
505.99	98.38
506.207	83.38
506.423	96.38
506.64	95.38
506.856	102.38
507.073	88.38
507.289	99.38
507.506	89.38
507.722	129.38
507.939	112.38
508.155	111.38
508.372	93.38
508.588	100.38
508.805	94.38
509.021	93.38
509.238	106.38
509.454	102.38
509.67	95.38
509.887	120.38
510.103	148.38
510.319	257.38
510.536	954.38
510.752	3120.38
510.968	856.38
511.184	171.38
511.401	130.38
511.617	105.38
511.833	101.38
512.049	92.38
512.265	92.38
512.481	95.38
512.698	83.38
512.914	95.38
513.13	89.38
513.346	100.38
513.562	99.38
513.778	88.38
513.994	107.38
514.21	120.38
514.426	126.38
514.642	157.38
514.858	140.38
515.074	206.38
