Data from Circ_2006_H10_HRD10591_00024.txt Node
Date: Wed Jan 03 10:26:08 EST 2024
User: Yrep
Spectrometer: HR+D1059
Trigger mode: 1
Integration Time (sec): 1.000000E-1
Scans to average: 1
Electric dark correction enabled: true
Nonlinearity correction enabled: false
Boxcar width: 0
XAxis mode: Wavelengths
Number of Pixels in Spectrum: 2048
>>>>>Begin Spectral Data<<<<<
223.165	-14
223.4	-14
223.635	-14
223.869	-14
224.104	-24
224.338	-23
224.573	-7
224.808	-26
225.042	-7
225.277	-13
225.511	-5
225.746	8
225.98	13
226.215	11
226.449	23
226.683	13
226.918	40
227.152	25
227.387	31
227.621	41
227.856	48
228.09	53
228.324	44
228.559	54
228.793	62
229.027	56
229.262	56
229.496	71
229.73	98
229.964	92
230.199	80
230.433	71
230.667	78
230.901	79
231.136	87
231.37	73
231.604	72
231.838	94
232.072	79
232.306	75
232.541	86
232.775	85
233.009	78
233.243	72
233.477	80
233.711	86
233.945	80
234.179	84
234.413	79
234.647	69
234.881	79
235.115	92
235.349	75
235.583	78
235.817	71
236.051	77
236.285	93
236.519	71
236.753	84
236.987	76
237.221	74
237.455	82
237.689	80
237.922	84
238.156	80
238.39	77
238.624	78
238.858	72
239.091	72
239.325	71
239.559	84
239.793	89
240.027	82
240.26	75
240.494	77
240.728	69
240.961	72
241.195	70
241.429	61
241.662	75
241.896	70
242.13	83
242.363	71
242.597	76
242.83	79
243.064	77
243.298	79
243.531	78
243.765	72
243.998	76
244.232	69
244.465	84
244.699	79
244.932	75
245.166	84
245.399	63
245.633	63
245.866	85
246.099	78
246.333	72
246.566	83
246.8	72
247.033	83
247.266	71
247.5	71
247.733	49
247.966	84
248.2	87
248.433	75
248.666	68
248.899	77
249.133	85
249.366	108
249.599	90
249.832	87
250.066	89
250.299	86
250.532	72
250.765	81
250.998	78
251.231	76
251.465	87
251.698	71
251.931	81
252.164	81
252.397	78
252.63	84
252.863	90
253.096	80
253.329	82
253.562	87
253.795	85
254.028	85
254.261	80
254.494	78
254.727	93
254.96	86
255.193	71
255.426	81
255.659	69
255.892	82
256.124	85
256.357	85
256.59	93
256.823	87
257.056	72
257.289	87
257.521	83
257.754	87
257.987	95
258.22	67
258.452	76
258.685	81
258.918	81
259.151	76
259.383	82
259.616	57
259.849	77
260.081	85
260.314	96
260.547	78
260.779	85
261.012	87
261.244	80
261.477	86
261.71	89
261.942	113
262.175	141
262.407	101
262.64	74
262.872	97
263.105	78
263.337	78
263.57	85
263.802	79
264.035	83
264.267	82
264.499	80
264.732	96
264.964	83
265.197	80
265.429	68
265.661	87
265.894	88
266.126	99
266.358	95
266.591	87
266.823	76
267.055	71
267.287	72
267.52	93
267.752	81
267.984	84
268.216	83
268.448	96
268.681	84
268.913	87
269.145	81
269.377	100
269.609	71
269.841	80
270.073	82
270.306	80
270.538	83
270.77	89
271.002	91
271.234	71
271.466	83
271.698	86
271.93	95
272.162	85
272.394	89
272.626	92
272.858	86
273.09	88
273.322	95
273.553	87
273.785	85
274.017	78
274.249	87
274.481	79
274.713	95
274.945	92
275.176	86
275.408	95
275.64	92
275.872	83
276.104	105
276.335	82
276.567	113
276.799	116
277.031	124
277.262	88
277.494	90
277.726	82
277.957	86
278.189	89
278.421	92
278.652	88
278.884	96
279.115	81
279.347	86
279.579	92
279.81	83
280.042	85
280.273	91
280.505	76
280.736	83
280.968	78
281.199	109
281.431	102
281.662	93
281.894	86
282.125	102
282.356	140
282.588	167
282.819	143
283.051	91
283.282	87
283.513	81
283.745	85
283.976	88
284.207	73
284.439	98
284.67	85
284.901	92
285.132	86
285.364	87
285.595	79
285.826	96
286.057	89
286.288	84
286.52	87
286.751	81
286.982	101
287.213	84
287.444	93
287.675	72
287.906	93
288.138	104
288.369	104
288.6	82
288.831	78
289.062	92
289.293	79
289.524	77
289.755	82
289.986	79
290.217	98
290.448	80
290.679	87
290.91	99
291.141	93
291.371	93
291.602	83
291.833	96
292.064	98
292.295	101
292.526	80
292.757	95
292.987	83
293.218	80
293.449	95
293.68	69
293.91	82
294.141	98
294.372	94
294.603	92
294.833	89
295.064	90
295.295	100
295.525	100
295.756	103
295.987	130
296.217	157
296.448	147
296.679	94
296.909	106
297.14	85
297.37	98
297.601	95
297.831	91
298.062	104
298.292	95
298.523	96
298.753	93
298.984	101
299.214	89
299.445	99
299.675	97
299.905	90
300.136	114
300.366	100
300.597	99
300.827	96
301.057	108
301.288	100
301.518	104
301.748	108
301.979	101
302.209	90
302.439	106
302.669	94
302.9	96
303.13	103
303.36	98
303.59	112
303.82	123
304.051	89
304.281	87
304.511	87
304.741	101
304.971	87
305.201	89
305.431	103
305.661	103
305.891	84
306.121	99
306.352	107
306.582	125
306.812	96
307.042	94
307.272	99
307.502	95
307.731	94
307.961	98
308.191	93
308.421	100
308.651	103
308.881	112
309.111	84
309.341	93
309.571	99
309.8	88
310.03	93
310.26	106
310.49	101
310.72	109
310.949	108
311.179	99
311.409	102
311.639	93
311.868	101
312.098	98
312.328	109
312.557	127
312.787	112
313.017	103
313.246	87
313.476	97
313.706	96
313.935	96
314.165	111
314.394	95
314.624	101
314.853	112
315.083	102
315.312	91
315.542	90
315.771	86
316.001	81
316.23	94
316.46	103
316.689	100
316.919	98
317.148	103
317.377	107
317.607	85
317.836	112
318.065	94
318.295	95
318.524	84
318.753	96
318.983	98
319.212	99
319.441	135
319.67	126
319.9	101
320.129	102
320.358	101
320.587	109
320.816	111
321.046	105
321.275	119
321.504	112
321.733	111
321.962	96
322.191	108
322.42	104
322.649	115
322.878	128
323.108	130
323.337	139
323.566	159
323.795	197
324.024	295
324.253	607
324.482	1331
324.71	2871
324.939	3764
325.168	1281
325.397	341
325.626	191
325.855	157
326.084	157
326.313	164
326.542	202
326.77	328
326.999	709
327.228	1527
327.457	2883
327.686	2173
327.914	553
328.143	255
328.372	200
328.6	147
328.829	163
329.058	157
329.287	154
329.515	137
329.744	100
329.972	117
330.201	121
330.43	144
330.658	168
330.887	171
331.115	140
331.344	112
331.572	107
331.801	110
332.03	111
332.258	108
332.486	114
332.715	99
332.943	91
333.172	86
333.4	108
333.629	113
333.857	119
334.085	109
334.314	115
334.542	117
334.771	129
334.999	111
335.227	109
335.455	111
335.684	102
335.912	112
336.14	101
336.369	93
336.597	109
336.825	96
337.053	110
337.281	91
337.51	81
337.738	100
337.966	106
338.194	113
338.422	100
338.65	104
338.878	98
339.106	79
339.334	96
339.562	88
339.79	108
340.018	96
340.246	107
340.474	106
340.702	97
340.93	103
341.158	108
341.386	108
341.614	110
341.842	103
342.07	97
342.298	104
342.526	101
342.754	81
342.981	86
343.209	79
343.437	115
343.665	106
343.893	101
344.12	97
344.348	96
344.576	85
344.804	95
345.031	102
345.259	106
345.487	99
345.714	102
345.942	99
346.17	106
346.397	98
346.625	97
346.853	98
347.08	92
347.308	107
347.535	106
347.763	105
347.99	103
348.218	119
348.445	110
348.673	106
348.9	102
349.128	88
349.355	92
349.583	89
349.81	84
350.037	96
350.265	96
350.492	98
350.72	101
350.947	100
351.174	115
351.402	116
351.629	96
351.856	94
352.083	109
352.311	108
352.538	121
352.765	130
352.992	118
353.22	104
353.447	120
353.674	105
353.901	101
354.128	101
354.355	103
354.583	105
354.81	82
355.037	107
355.264	94
355.491	95
355.718	96
355.945	90
356.172	107
356.399	88
356.626	95
356.853	96
357.08	92
357.307	86
357.534	87
357.761	112
357.988	102
358.215	92
358.441	95
358.668	97
358.895	95
359.122	91
359.349	85
359.576	112
359.802	110
360.029	139
360.256	120
360.483	106
360.709	92
360.936	91
361.163	98
361.39	100
361.616	99
361.843	100
362.07	95
362.296	100
362.523	83
362.749	92
362.976	89
363.203	87
363.429	82
363.656	88
363.882	101
364.109	99
364.335	96
364.562	90
364.788	95
365.015	93
365.241	89
365.468	114
365.694	104
365.92	103
366.147	93
366.373	89
366.599	88
366.826	100
367.052	93
367.278	87
367.505	87
367.731	91
367.957	110
368.184	99
368.41	81
368.636	120
368.862	135
369.089	104
369.315	104
369.541	89
369.767	81
369.993	98
370.219	103
370.445	85
370.672	65
370.898	84
371.124	93
371.35	105
371.576	103
371.802	85
372.028	103
372.254	100
372.48	87
372.706	100
372.932	94
373.158	94
373.384	90
373.61	107
373.835	93
374.061	92
374.287	91
374.513	83
374.739	88
374.965	101
375.191	88
375.416	95
375.642	88
375.868	95
376.094	83
376.319	90
376.545	84
376.771	91
376.997	89
377.222	96
377.448	97
377.674	89
377.899	94
378.125	79
378.35	87
378.576	96
378.802	94
379.027	97
379.253	94
379.478	103
379.704	102
379.929	104
380.155	92
380.38	95
380.606	101
380.831	96
381.057	108
381.282	101
381.507	90
381.733	109
381.958	94
382.184	103
382.409	98
382.634	124
382.86	102
383.085	93
383.31	114
383.535	113
383.761	104
383.986	97
384.211	108
384.436	108
384.662	103
384.887	105
385.112	107
385.337	117
385.562	116
385.787	119
386.013	105
386.238	136
386.463	118
386.688	130
386.913	112
387.138	122
387.363	121
387.588	105
387.813	100
388.038	122
388.263	110
388.488	110
388.713	92
388.938	107
389.163	93
389.387	101
389.612	112
389.837	114
390.062	83
390.287	89
390.512	81
390.736	96
390.961	104
391.186	80
391.411	90
391.636	96
391.86	91
392.085	91
392.31	86
392.534	97
392.759	96
392.984	95
393.208	102
393.433	90
393.658	101
393.882	95
394.107	83
394.331	91
394.556	87
394.78	96
395.005	95
395.229	86
395.454	87
395.678	78
395.903	77
396.127	96
396.352	89
396.576	87
396.801	101
397.025	107
397.249	93
397.474	91
397.698	96
397.922	88
398.147	86
398.371	94
398.595	95
398.82	98
399.044	78
399.268	110
399.492	86
399.717	94
399.941	98
400.165	93
400.389	93
400.613	98
400.837	84
401.062	93
401.286	97
401.51	97
401.734	103
401.958	102
402.182	150
402.406	204
402.63	136
402.854	102
403.078	96
403.302	92
403.526	89
403.75	85
403.974	87
404.198	97
404.422	84
404.645	92
404.869	103
405.093	102
405.317	106
405.541	108
405.765	114
405.988	138
406.212	200
406.436	287
406.66	183
406.883	112
407.107	107
407.331	111
407.555	114
407.778	108
408.002	76
408.226	86
408.449	94
408.673	103
408.896	98
409.12	79
409.344	94
409.567	79
409.791	89
410.014	94
410.238	100
410.461	88
410.685	102
410.908	102
411.132	124
411.355	102
411.578	89
411.802	96
412.025	97
412.249	92
412.472	101
412.695	112
412.919	97
413.142	88
413.365	82
413.589	77
413.812	88
414.035	93
414.258	100
414.482	77
414.705	83
414.928	98
415.151	97
415.374	80
415.597	93
415.821	91
416.044	87
416.267	97
416.49	92
416.713	100
416.936	95
417.159	93
417.382	82
417.605	79
417.828	94
418.051	107
418.274	103
418.497	91
418.72	96
418.943	84
419.166	81
419.389	91
419.611	85
419.834	109
420.057	92
420.28	97
420.503	87
420.726	87
420.948	97
421.171	96
421.394	94
421.617	84
421.839	106
422.062	94
422.285	102
422.507	102
422.73	118
422.953	105
423.175	97
423.398	96
423.621	104
423.843	87
424.066	81
424.288	79
424.511	97
424.733	107
424.956	114
425.178	98
425.401	108
425.623	102
425.846	95
426.068	117
426.291	103
426.513	100
426.735	98
426.958	111
427.18	112
427.402	174
427.625	217
427.847	168
428.069	124
428.292	95
428.514	95
428.736	87
428.958	88
429.181	84
429.403	84
429.625	84
429.847	97
430.069	96
430.292	87
430.514	96
430.736	83
430.958	89
431.18	80
431.402	84
431.624	90
431.846	91
432.068	86
432.29	92
432.512	84
432.734	94
432.956	84
433.178	104
433.4	99
433.622	92
433.844	94
434.066	96
434.287	91
434.509	97
434.731	105
434.953	79
435.175	80
435.397	100
435.618	105
435.84	116
436.062	145
436.284	125
436.505	104
436.727	108
436.949	95
437.17	109
437.392	98
437.614	99
437.835	125
438.057	158
438.278	132
438.5	116
438.721	142
438.943	110
439.165	88
439.386	95
439.608	102
439.829	107
440.05	147
440.272	190
440.493	104
440.715	96
440.936	87
441.158	96
441.379	93
441.6	104
441.822	99
442.043	94
442.264	109
442.486	101
442.707	112
442.928	117
443.149	134
443.371	140
443.592	128
443.813	140
444.034	132
444.255	87
444.476	93
444.698	83
444.919	94
445.14	144
445.361	143
445.582	132
445.803	179
446.024	145
446.245	151
446.466	135
446.687	99
446.908	92
447.129	112
447.35	104
447.571	87
447.792	94
448.013	108
448.234	112
448.455	112
448.675	125
448.896	130
449.117	100
449.338	100
449.559	148
449.779	153
450	83
450.221	101
450.442	91
450.662	100
450.883	120
451.104	129
451.324	106
451.545	89
451.766	91
451.986	73
452.207	99
452.428	92
452.648	108
452.869	136
453.089	135
453.31	145
453.53	101
453.751	97
453.971	110
454.192	110
454.412	120
454.633	102
454.853	94
455.073	96
455.294	95
455.514	120
455.734	100
455.955	96
456.175	91
456.395	95
456.616	83
456.836	81
457.056	87
457.276	95
457.497	83
457.717	107
457.937	92
458.157	80
458.377	95
458.598	127
458.818	185
459.038	211
459.258	118
459.478	99
459.698	91
459.918	79
460.138	80
460.358	96
460.578	90
460.798	87
461.018	104
461.238	78
461.458	103
461.678	79
461.898	91
462.118	92
462.338	106
462.558	94
462.777	96
462.997	83
463.217	94
463.437	76
463.657	80
463.876	89
464.096	97
464.316	102
464.536	107
464.755	96
464.975	125
465.195	236
465.414	218
465.634	109
465.854	96
466.073	82
466.293	99
466.512	92
466.732	76
466.951	93
467.171	90
467.391	95
467.61	120
467.829	109
468.049	104
468.268	110
468.488	96
468.707	97
468.927	84
469.146	87
469.365	88
469.585	103
469.804	102
470.023	87
470.243	89
470.462	103
470.681	139
470.901	89
471.12	89
471.339	97
471.558	87
471.777	88
471.997	87
472.216	117
472.435	138
472.654	102
472.873	75
473.092	93
473.311	91
473.53	90
473.749	81
473.968	93
474.187	111
474.406	102
474.625	77
474.844	96
475.063	93
475.282	113
475.501	98
475.72	103
475.939	92
476.158	92
476.377	89
476.596	95
476.814	91
477.033	91
477.252	88
477.471	95
477.69	97
477.908	100
478.127	84
478.346	85
478.564	84
478.783	93
479.002	102
479.22	97
479.439	115
479.658	105
479.876	94
480.095	93
480.313	108
480.532	95
480.751	87
480.969	115
481.188	177
481.406	135
481.624	104
481.843	85
482.061	105
482.28	101
482.498	91
482.717	97
482.935	105
483.153	86
483.372	93
483.59	72
483.808	104
484.027	88
484.245	101
484.463	84
484.681	101
484.9	92
485.118	95
485.336	92
485.554	102
485.772	102
485.99	114
486.209	101
486.427	99
486.645	131
486.863	117
487.081	116
487.299	95
487.517	99
487.735	103
487.953	102
488.171	95
488.389	99
488.607	109
488.825	83
489.043	95
489.261	99
489.479	78
489.696	101
489.914	84
490.132	81
490.35	93
490.568	96
490.786	97
491.003	95
491.221	83
491.439	85
491.657	91
491.874	108
492.092	76
492.31	103
492.527	82
492.745	96
492.963	88
493.18	87
493.398	99
493.615	104
493.833	94
494.05	90
494.268	92
494.485	91
494.703	84
494.92	92
495.138	87
495.355	100
495.573	84
495.79	93
496.008	94
496.225	98
496.442	88
496.66	104
496.877	95
497.094	71
497.312	99
497.529	86
497.746	94
497.963	88
498.181	86
498.398	105
498.615	123
498.832	113
499.049	91
499.267	97
499.484	80
499.701	99
499.918	89
500.135	79
500.352	88
500.569	87
500.786	96
501.003	72
501.22	94
501.437	99
501.654	108
501.871	117
502.088	119
502.305	95
502.522	108
502.739	107
502.956	82
503.172	93
503.389	100
503.606	117
503.823	111
504.04	94
504.256	89
504.473	102
504.69	99
504.907	80
505.123	91
505.34	95
505.557	106
505.773	108
505.99	94
506.207	91
506.423	80
506.64	89
506.856	95
507.073	107
507.289	94
507.506	108
507.722	144
507.939	131
508.155	107
508.372	91
508.588	97
508.805	96
509.021	104
509.238	108
509.454	103
509.67	112
509.887	114
510.103	159
510.319	245
510.536	991
510.752	3378
510.968	901
511.184	200
511.401	125
511.617	81
511.833	92
512.049	102
512.265	89
512.481	95
512.698	93
512.914	99
513.13	102
513.346	104
513.562	96
513.778	104
513.994	107
514.21	109
514.426	143
514.642	182
514.858	158
515.074	220
515.29	705
515.506	2355
515.721	827
515.937	214
516.153	139
516.369	97
516.585	123
516.801	96
517.016	102
517.232	101
517.448	95
517.664	96
517.879	96
518.095	109
518.311	91
518.527	97
518.742	96
518.958	96
519.173	106
519.389	101
519.605	92
519.82	100
520.036	100
520.251	136
520.467	130
520.682	125
520.898	127
521.113	142
521.329	171
521.544	284
521.76	873
521.975	3907
522.19	2304
522.406	465
522.621	153
522.836	96
523.052	99
523.267	111
523.482	104
523.698	110
523.913	140
524.128	127
524.343	108
524.559	106
524.774	85
524.989	102
525.204	110
525.419	115
525.634	88
525.849	104
526.064	89
526.28	100
526.495	102
526.71	97
526.925	78
527.14	83
527.355	82
527.57	90
527.785	100
527.999	91
528.214	100
528.429	99
528.644	105
528.859	81
529.074	105
529.289	157
529.503	240
529.718	111
529.933	95
530.148	82
530.363	89
530.577	89
530.792	86
531.007	89
531.221	97
531.436	102
531.651	95
531.865	85
532.08	89
532.295	92
532.509	96
532.724	102
532.938	97
533.153	78
533.367	81
533.582	106
533.796	90
534.011	87
534.225	99
534.44	106
534.654	87
534.868	86
535.083	93
535.297	100
535.511	103
535.726	114
535.94	103
536.154	103
536.369	91
536.583	80
536.797	103
537.011	90
537.225	93
537.44	96
537.654	90
537.868	95
538.082	78
538.296	91
538.51	90
538.724	82
538.938	105
539.153	104
539.367	120
539.581	91
539.795	89
540.009	92
540.222	81
540.436	85
540.65	96
540.864	92
541.078	112
541.292	103
541.506	108
541.72	94
541.934	92
542.147	95
542.361	92
542.575	91
542.789	99
543.002	92
543.216	97
543.43	96
543.644	89
543.857	86
544.071	102
544.285	95
544.498	88
544.712	82
544.925	100
545.139	97
545.352	85
545.566	97
545.779	76
545.993	91
546.206	96
546.42	108
546.633	99
546.847	97
547.06	83
547.274	77
547.487	93
547.7	91
547.914	87
548.127	88
548.34	84
548.554	95
548.767	85
548.98	92
549.193	94
549.407	92
549.62	98
549.833	97
550.046	96
550.259	94
550.473	95
550.686	86
550.899	87
551.112	78
551.325	82
551.538	86
551.751	95
551.964	98
552.177	99
552.39	85
552.603	79
552.816	90
553.029	99
553.242	92
553.455	99
553.667	110
553.88	118
554.093	81
554.306	96
554.519	89
554.732	95
554.944	97
555.157	90
555.37	94
555.583	96
555.795	91
556.008	101
556.221	99
556.433	101
556.646	97
556.859	93
557.071	104
557.284	107
557.496	93
557.709	89
557.921	77
558.134	79
558.346	81
558.559	87
558.771	84
558.984	93
559.196	98
559.409	91
559.621	89
559.833	92
560.046	103
560.258	93
560.47	85
560.683	84
560.895	86
561.107	96
561.32	95
561.532	92
561.744	78
561.956	88
562.168	95
562.381	91
562.593	83
562.805	89
563.017	87
563.229	93
563.441	96
563.653	90
563.865	97
564.077	97
564.289	89
564.501	89
564.713	83
564.925	104
565.137	108
565.349	100
565.561	82
565.773	94
565.985	92
566.197	88
566.408	85
566.62	75
566.832	88
567.044	99
567.255	107
567.467	86
567.679	91
567.891	85
568.102	82
568.314	104
568.526	84
568.737	110
568.949	89
569.161	89
569.372	76
569.584	85
569.795	86
570.007	125
570.218	313
570.43	173
570.641	104
570.853	82
571.064	102
571.276	89
571.487	92
571.698	83
571.91	93
572.121	93
572.333	86
572.544	80
572.755	100
572.966	94
573.178	87
573.389	101
573.6	97
573.811	75
574.023	106
574.234	93
574.445	78
574.656	79
574.867	79
575.078	82
575.289	89
575.501	97
575.712	86
575.923	92
576.134	82
576.345	101
576.556	87
576.767	104
576.978	92
577.188	103
577.399	93
577.61	106
577.821	102
578.032	133
578.243	368
578.454	1016
578.665	247
578.875	101
579.086	99
579.297	93
579.508	112
579.718	88
579.929	96
580.14	97
580.35	84
580.561	85
580.772	88
