Data from Circ_2006_H10_HRD10591_00079.txt Node
Date: Wed Jan 03 10:26:19 EST 2024
User: Yrep
Spectrometer: HR+D1059
Trigger mode: 1
Integration Time (sec): 1.000000E-1
Scans to average: 1
Electric dark correction enabled: true
Nonlinearity correction enabled: false
Boxcar width: 0
XAxis mode: Wavelengths
Number of Pixels in Spectrum: 2048
>>>>>Begin Spectral Data<<<<<
223.165	-17.94
223.4	-17.94
223.635	-17.94
223.869	-1.94
224.104	-18.94
224.338	-23.94
224.573	-14.94
224.808	-3.94
225.042	-6.94
225.277	-14.94
225.511	-5.94
225.746	-11.94
225.98	6.06
226.215	22.06
226.449	22.06
226.683	13.06
226.918	32.06
227.152	26.06
227.387	32.06
227.621	38.06
227.856	35.06
228.09	46.06
228.324	49.06
228.559	49.06
228.793	67.06
229.027	64.06
229.262	66.06
229.496	76.06
229.73	87.06
229.964	79.06
230.199	79.06
230.433	84.06
230.667	83.06
230.901	80.06
231.136	87.06
231.37	90.06
231.604	78.06
231.838	76.06
232.072	88.06
232.306	75.06
232.541	77.06
232.775	68.06
233.009	75.06
233.243	85.06
233.477	85.06
233.711	87.06
233.945	74.06
234.179	72.06
234.413	76.06
234.647	77.06
234.881	85.06
235.115	82.06
235.349	71.06
235.583	88.06
235.817	80.06
236.051	90.06
236.285	74.06
236.519	78.06
236.753	83.06
236.987	80.06
237.221	79.06
237.455	85.06
237.689	75.06
237.922	80.06
238.156	87.06
238.39	87.06
238.624	85.06
238.858	76.06
239.091	76.06
239.325	75.06
239.559	81.06
239.793	75.06
240.027	78.06
240.26	69.06
240.494	79.06
240.728	68.06
240.961	87.06
241.195	80.06
241.429	81.06
241.662	71.06
241.896	72.06
242.13	73.06
242.363	74.06
242.597	61.06
242.83	82.06
243.064	66.06
243.298	88.06
243.531	62.06
243.765	85.06
243.998	72.06
244.232	79.06
244.465	97.06
244.699	92.06
244.932	74.06
245.166	83.06
245.399	82.06
245.633	83.06
245.866	87.06
246.099	90.06
246.333	72.06
246.566	80.06
246.8	78.06
247.033	63.06
247.266	78.06
247.5	79.06
247.733	79.06
247.966	90.06
248.2	89.06
248.433	72.06
248.666	89.06
248.899	85.06
249.133	64.06
249.366	90.06
249.599	90.06
249.832	79.06
250.066	83.06
250.299	91.06
250.532	78.06
250.765	94.06
250.998	94.06
251.231	73.06
251.465	72.06
251.698	83.06
251.931	80.06
252.164	82.06
252.397	74.06
252.63	82.06
252.863	72.06
253.096	73.06
253.329	92.06
253.562	82.06
253.795	82.06
254.028	77.06
254.261	78.06
254.494	75.06
254.727	87.06
254.96	80.06
255.193	76.06
255.426	97.06
255.659	79.06
255.892	86.06
256.124	83.06
256.357	83.06
256.59	83.06
256.823	71.06
257.056	72.06
257.289	77.06
257.521	91.06
257.754	63.06
257.987	77.06
258.22	74.06
258.452	61.06
258.685	80.06
258.918	91.06
259.151	88.06
259.383	85.06
259.616	75.06
259.849	82.06
260.081	76.06
260.314	91.06
260.547	94.06
260.779	70.06
261.012	83.06
261.244	85.06
261.477	84.06
261.71	89.06
261.942	101.06
262.175	139.06
262.407	107.06
262.64	97.06
262.872	88.06
263.105	84.06
263.337	77.06
263.57	86.06
263.802	92.06
264.035	86.06
264.267	84.06
264.499	79.06
264.732	96.06
264.964	85.06
265.197	96.06
265.429	91.06
265.661	81.06
265.894	78.06
266.126	71.06
266.358	87.06
266.591	84.06
266.823	82.06
267.055	72.06
267.287	77.06
267.52	80.06
267.752	102.06
267.984	84.06
268.216	74.06
268.448	87.06
268.681	82.06
268.913	80.06
269.145	84.06
269.377	78.06
269.609	75.06
269.841	89.06
270.073	84.06
270.306	89.06
270.538	85.06
270.77	84.06
271.002	80.06
271.234	66.06
271.466	91.06
271.698	88.06
271.93	71.06
272.162	82.06
272.394	86.06
272.626	92.06
272.858	86.06
273.09	88.06
273.322	85.06
273.553	81.06
273.785	88.06
274.017	83.06
274.249	83.06
274.481	91.06
274.713	85.06
274.945	80.06
275.176	75.06
275.408	76.06
275.64	96.06
275.872	78.06
276.104	90.06
276.335	93.06
276.567	79.06
276.799	120.06
277.031	99.06
277.262	85.06
277.494	100.06
277.726	91.06
277.957	75.06
278.189	96.06
278.421	78.06
278.652	53.06
278.884	78.06
279.115	80.06
279.347	91.06
279.579	89.06
279.81	85.06
280.042	92.06
280.273	94.06
280.505	86.06
280.736	97.06
280.968	87.06
281.199	81.06
281.431	82.06
281.662	96.06
281.894	77.06
282.125	102.06
282.356	113.06
282.588	138.06
282.819	109.06
283.051	90.06
283.282	88.06
283.513	97.06
283.745	92.06
283.976	79.06
284.207	95.06
284.439	90.06
284.67	82.06
284.901	84.06
285.132	93.06
285.364	78.06
285.595	91.06
285.826	84.06
286.057	102.06
286.288	81.06
286.52	87.06
286.751	100.06
286.982	85.06
287.213	73.06
287.444	98.06
287.675	79.06
287.906	80.06
288.138	108.06
288.369	88.06
288.6	88.06
288.831	86.06
289.062	89.06
289.293	91.06
289.524	79.06
289.755	83.06
289.986	103.06
290.217	94.06
290.448	83.06
290.679	83.06
290.91	86.06
291.141	77.06
291.371	96.06
291.602	77.06
291.833	71.06
292.064	71.06
292.295	87.06
292.526	96.06
292.757	96.06
292.987	84.06
293.218	82.06
293.449	88.06
293.68	83.06
293.91	95.06
294.141	85.06
294.372	93.06
294.603	87.06
294.833	89.06
295.064	83.06
295.295	80.06
295.525	76.06
295.756	95.06
295.987	124.06
296.217	135.06
296.448	125.06
296.679	85.06
296.909	79.06
297.14	86.06
297.37	83.06
297.601	96.06
297.831	85.06
298.062	99.06
298.292	84.06
298.523	90.06
298.753	75.06
298.984	65.06
299.214	95.06
299.445	85.06
299.675	88.06
299.905	92.06
300.136	74.06
300.366	88.06
300.597	79.06
300.827	85.06
301.057	87.06
301.288	97.06
301.518	96.06
301.748	85.06
301.979	96.06
302.209	92.06
302.439	80.06
302.669	86.06
302.9	90.06
303.13	103.06
303.36	88.06
303.59	92.06
303.82	102.06
304.051	95.06
304.281	104.06
304.511	98.06
304.741	99.06
304.971	91.06
305.201	84.06
305.431	90.06
305.661	95.06
305.891	87.06
306.121	92.06
306.352	101.06
306.582	103.06
306.812	108.06
307.042	102.06
307.272	92.06
307.502	98.06
307.731	109.06
307.961	99.06
308.191	76.06
308.421	93.06
308.651	83.06
308.881	94.06
309.111	86.06
309.341	95.06
309.571	104.06
309.8	82.06
310.03	101.06
310.26	98.06
310.49	101.06
310.72	88.06
310.949	95.06
311.179	91.06
311.409	104.06
311.639	94.06
311.868	102.06
312.098	107.06
312.328	95.06
312.557	95.06
312.787	99.06
313.017	104.06
313.246	92.06
313.476	98.06
313.706	90.06
313.935	101.06
314.165	97.06
314.394	93.06
314.624	83.06
314.853	91.06
315.083	106.06
315.312	86.06
315.542	85.06
315.771	93.06
316.001	88.06
316.23	80.06
316.46	83.06
316.689	92.06
316.919	95.06
317.148	86.06
317.377	89.06
317.607	100.06
317.836	83.06
318.065	92.06
318.295	77.06
318.524	95.06
318.753	97.06
318.983	93.06
319.212	88.06
319.441	103.06
319.67	102.06
319.9	96.06
320.129	85.06
320.358	95.06
320.587	96.06
320.816	105.06
321.046	101.06
321.275	110.06
321.504	93.06
321.733	95.06
321.962	99.06
322.191	107.06
322.42	104.06
322.649	106.06
322.878	109.06
323.108	116.06
323.337	145.06
323.566	143.06
323.795	155.06
324.024	211.06
324.253	438.06
324.482	933.06
324.71	1939.06
324.939	2571.06
325.168	905.06
325.397	261.06
325.626	154.06
325.855	122.06
326.084	123.06
326.313	148.06
326.542	167.06
326.77	270.06
326.999	531.06
327.228	1088.06
327.457	2005.06
327.686	1586.06
327.914	420.06
328.143	215.06
328.372	170.06
328.6	131.06
328.829	124.06
329.058	130.06
329.287	117.06
329.515	113.06
329.744	110.06
329.972	119.06
330.201	158.06
330.43	163.06
330.658	140.06
330.887	146.06
331.115	120.06
331.344	99.06
331.572	113.06
331.801	106.06
332.03	101.06
332.258	99.06
332.486	86.06
332.715	90.06
332.943	88.06
333.172	95.06
333.4	98.06
333.629	112.06
333.857	108.06
334.085	108.06
334.314	153.06
334.542	193.06
334.771	175.06
334.999	111.06
335.227	104.06
335.455	92.06
335.684	106.06
335.912	104.06
336.14	115.06
336.369	105.06
336.597	87.06
336.825	98.06
337.053	90.06
337.281	105.06
337.51	102.06
337.738	90.06
337.966	87.06
338.194	101.06
338.422	95.06
338.65	86.06
338.878	95.06
339.106	91.06
339.334	95.06
339.562	99.06
339.79	84.06
340.018	90.06
340.246	83.06
340.474	89.06
340.702	98.06
340.93	92.06
341.158	91.06
341.386	98.06
341.614	102.06
341.842	84.06
342.07	75.06
342.298	93.06
342.526	82.06
342.754	84.06
342.981	80.06
343.209	103.06
343.437	100.06
343.665	109.06
343.893	98.06
344.12	100.06
344.348	71.06
344.576	88.06
344.804	96.06
345.031	103.06
345.259	86.06
345.487	86.06
345.714	103.06
345.942	88.06
346.17	96.06
346.397	92.06
346.625	76.06
346.853	92.06
347.08	87.06
347.308	95.06
347.535	85.06
347.763	110.06
347.99	110.06
348.218	103.06
348.445	103.06
348.673	99.06
348.9	96.06
349.128	106.06
349.355	92.06
349.583	84.06
349.81	104.06
350.037	94.06
350.265	96.06
350.492	92.06
350.72	86.06
350.947	92.06
351.174	102.06
351.402	112.06
351.629	97.06
351.856	104.06
352.083	96.06
352.311	97.06
352.538	112.06
352.765	126.06
352.992	136.06
353.22	107.06
353.447	101.06
353.674	103.06
353.901	99.06
354.128	101.06
354.355	90.06
354.583	120.06
354.81	105.06
355.037	105.06
355.264	80.06
355.491	97.06
355.718	88.06
355.945	102.06
356.172	96.06
356.399	94.06
356.626	85.06
356.853	97.06
357.08	102.06
357.307	89.06
357.534	98.06
357.761	94.06
357.988	103.06
358.215	76.06
358.441	94.06
358.668	95.06
358.895	102.06
359.122	94.06
359.349	85.06
359.576	93.06
359.802	87.06
360.029	106.06
360.256	103.06
360.483	95.06
360.709	79.06
360.936	109.06
361.163	85.06
361.39	98.06
361.616	103.06
361.843	78.06
362.07	86.06
362.296	93.06
362.523	102.06
362.749	92.06
362.976	78.06
363.203	95.06
363.429	85.06
363.656	90.06
363.882	89.06
364.109	80.06
364.335	98.06
364.562	101.06
364.788	74.06
365.015	91.06
365.241	104.06
365.468	106.06
365.694	104.06
365.92	96.06
366.147	97.06
366.373	86.06
366.599	96.06
366.826	102.06
367.052	89.06
367.278	90.06
367.505	90.06
367.731	81.06
367.957	94.06
368.184	93.06
368.41	97.06
368.636	109.06
368.862	123.06
369.089	114.06
369.315	82.06
369.541	94.06
369.767	85.06
369.993	93.06
370.219	90.06
370.445	76.06
370.672	96.06
370.898	97.06
371.124	109.06
371.35	96.06
371.576	86.06
371.802	94.06
372.028	91.06
372.254	104.06
372.48	87.06
372.706	87.06
372.932	103.06
373.158	82.06
373.384	85.06
373.61	95.06
373.835	82.06
374.061	94.06
374.287	81.06
374.513	88.06
374.739	91.06
374.965	86.06
375.191	91.06
375.416	103.06
375.642	88.06
375.868	106.06
376.094	84.06
376.319	99.06
376.545	66.06
376.771	95.06
376.997	81.06
377.222	94.06
377.448	104.06
377.674	95.06
377.899	103.06
378.125	81.06
378.35	90.06
378.576	99.06
378.802	95.06
379.027	88.06
379.253	99.06
379.478	82.06
379.704	94.06
379.929	86.06
380.155	94.06
380.38	75.06
380.606	99.06
380.831	91.06
381.057	102.06
381.282	89.06
381.507	113.06
381.733	112.06
381.958	97.06
382.184	86.06
382.409	118.06
382.634	104.06
382.86	100.06
383.085	98.06
383.31	101.06
383.535	98.06
383.761	100.06
383.986	118.06
384.211	103.06
384.436	103.06
384.662	101.06
384.887	92.06
385.112	87.06
385.337	103.06
385.562	95.06
385.787	102.06
386.013	111.06
386.238	120.06
386.463	99.06
386.688	105.06
386.913	97.06
387.138	105.06
387.363	104.06
387.588	95.06
387.813	93.06
388.038	112.06
388.263	117.06
388.488	116.06
388.713	94.06
388.938	96.06
389.163	107.06
389.387	83.06
389.612	97.06
389.837	102.06
390.062	96.06
390.287	84.06
390.512	88.06
390.736	96.06
390.961	93.06
391.186	101.06
391.411	89.06
391.636	94.06
391.86	88.06
392.085	90.06
392.31	83.06
392.534	71.06
392.759	95.06
392.984	94.06
393.208	87.06
393.433	98.06
393.658	94.06
393.882	81.06
394.107	86.06
394.331	85.06
394.556	79.06
394.78	99.06
395.005	72.06
395.229	78.06
395.454	74.06
395.678	91.06
395.903	83.06
396.127	97.06
396.352	87.06
396.576	89.06
396.801	80.06
397.025	75.06
397.249	70.06
397.474	91.06
397.698	89.06
397.922	76.06
398.147	87.06
398.371	104.06
398.595	70.06
398.82	90.06
399.044	91.06
399.268	76.06
399.492	88.06
399.717	99.06
399.941	85.06
400.165	100.06
400.389	92.06
400.613	95.06
400.837	98.06
401.062	87.06
401.286	88.06
401.51	97.06
401.734	90.06
401.958	114.06
402.182	127.06
402.406	166.06
402.63	115.06
402.854	101.06
403.078	85.06
403.302	66.06
403.526	96.06
403.75	84.06
403.974	87.06
404.198	83.06
404.422	77.06
404.645	88.06
404.869	95.06
405.093	94.06
405.317	112.06
405.541	104.06
405.765	115.06
405.988	126.06
406.212	188.06
406.436	245.06
406.66	151.06
406.883	96.06
407.107	91.06
407.331	98.06
407.555	96.06
407.778	112.06
408.002	86.06
408.226	88.06
408.449	97.06
408.673	87.06
408.896	93.06
409.12	89.06
409.344	87.06
409.567	103.06
409.791	99.06
410.014	98.06
410.238	81.06
410.461	100.06
410.685	97.06
410.908	88.06
411.132	94.06
411.355	98.06
411.578	87.06
411.802	107.06
412.025	103.06
412.249	92.06
412.472	99.06
412.695	109.06
412.919	93.06
413.142	94.06
413.365	79.06
413.589	97.06
413.812	94.06
414.035	90.06
414.258	74.06
414.482	76.06
414.705	93.06
414.928	94.06
415.151	94.06
415.374	99.06
415.597	88.06
415.821	76.06
416.044	80.06
416.267	78.06
416.49	86.06
416.713	77.06
416.936	83.06
417.159	110.06
417.382	78.06
417.605	92.06
417.828	90.06
418.051	93.06
418.274	102.06
418.497	78.06
418.72	93.06
418.943	109.06
419.166	88.06
419.389	85.06
419.611	90.06
419.834	86.06
420.057	93.06
420.28	78.06
420.503	95.06
420.726	88.06
420.948	79.06
421.171	111.06
421.394	108.06
421.617	102.06
421.839	85.06
422.062	96.06
422.285	94.06
422.507	104.06
422.73	104.06
422.953	91.06
423.175	69.06
423.398	84.06
423.621	86.06
423.843	87.06
424.066	86.06
424.288	96.06
424.511	101.06
424.733	95.06
424.956	116.06
425.178	90.06
425.401	103.06
425.623	101.06
425.846	86.06
426.068	92.06
426.291	87.06
426.513	80.06
426.735	90.06
426.958	99.06
427.18	105.06
427.402	128.06
427.625	175.06
427.847	147.06
428.069	117.06
428.292	85.06
428.514	96.06
428.736	80.06
428.958	103.06
429.181	88.06
429.403	101.06
429.625	74.06
429.847	105.06
430.069	108.06
430.292	97.06
430.514	98.06
430.736	82.06
430.958	93.06
431.18	83.06
431.402	86.06
431.624	80.06
431.846	97.06
432.068	92.06
432.29	95.06
432.512	93.06
432.734	90.06
432.956	90.06
433.178	109.06
433.4	102.06
433.622	86.06
433.844	84.06
434.066	83.06
434.287	85.06
434.509	93.06
434.731	95.06
434.953	91.06
435.175	97.06
435.397	86.06
435.618	89.06
435.84	97.06
436.062	126.06
436.284	119.06
436.505	111.06
436.727	104.06
436.949	91.06
437.17	96.06
437.392	95.06
437.614	98.06
437.835	95.06
438.057	112.06
438.278	120.06
438.5	102.06
438.721	122.06
438.943	109.06
439.165	86.06
439.386	94.06
439.608	79.06
439.829	93.06
440.05	124.06
440.272	146.06
440.493	102.06
440.715	96.06
440.936	91.06
441.158	87.06
441.379	95.06
441.6	101.06
441.822	95.06
442.043	90.06
442.264	102.06
442.486	101.06
442.707	103.06
442.928	95.06
443.149	144.06
443.371	133.06
443.592	113.06
443.813	122.06
444.034	106.06
444.255	79.06
444.476	74.06
444.698	80.06
444.919	83.06
445.14	106.06
445.361	124.06
445.582	121.06
445.803	145.06
446.024	127.06
446.245	139.06
446.466	109.06
446.687	106.06
446.908	92.06
447.129	85.06
447.35	94.06
447.571	108.06
447.792	86.06
448.013	112.06
448.234	107.06
448.455	99.06
448.675	96.06
448.896	111.06
449.117	75.06
449.338	116.06
449.559	148.06
449.779	142.06
450	116.06
450.221	79.06
450.442	93.06
450.662	89.06
450.883	116.06
451.104	120.06
451.324	94.06
451.545	80.06
451.766	86.06
451.986	103.06
452.207	92.06
452.428	87.06
452.648	102.06
452.869	121.06
453.089	118.06
453.31	118.06
453.53	98.06
453.751	109.06
453.971	98.06
454.192	116.06
454.412	87.06
454.633	78.06
454.853	82.06
455.073	93.06
455.294	94.06
455.514	104.06
455.734	100.06
455.955	87.06
456.175	75.06
456.395	94.06
456.616	99.06
456.836	79.06
457.056	83.06
457.276	86.06
457.497	96.06
457.717	90.06
457.937	85.06
458.157	88.06
458.377	87.06
458.598	108.06
458.818	154.06
459.038	156.06
459.258	118.06
459.478	85.06
459.698	96.06
459.918	92.06
460.138	89.06
460.358	92.06
460.578	93.06
460.798	96.06
461.018	94.06
461.238	86.06
461.458	79.06
461.678	75.06
461.898	85.06
462.118	98.06
462.338	83.06
462.558	82.06
462.777	82.06
462.997	80.06
463.217	87.06
463.437	78.06
463.657	87.06
463.876	95.06
464.096	85.06
464.316	90.06
464.536	98.06
464.755	88.06
464.975	118.06
465.195	166.06
465.414	166.06
465.634	111.06
465.854	83.06
466.073	87.06
466.293	85.06
466.512	102.06
466.732	100.06
466.951	93.06
467.171	92.06
467.391	96.06
467.61	113.06
467.829	99.06
468.049	124.06
468.268	124.06
468.488	88.06
468.707	92.06
468.927	81.06
469.146	88.06
469.365	87.06
469.585	101.06
469.804	100.06
470.023	100.06
470.243	104.06
470.462	109.06
470.681	104.06
470.901	81.06
471.12	95.06
471.339	89.06
471.558	83.06
471.777	88.06
471.997	84.06
472.216	167.06
472.435	229.06
472.654	123.06
472.873	87.06
473.092	82.06
473.311	96.06
473.53	82.06
473.749	99.06
473.968	88.06
474.187	99.06
474.406	111.06
474.625	84.06
474.844	74.06
475.063	77.06
475.282	81.06
475.501	90.06
475.72	107.06
475.939	89.06
476.158	90.06
476.377	88.06
476.596	90.06
476.814	86.06
477.033	99.06
477.252	83.06
477.471	96.06
477.69	96.06
477.908	90.06
478.127	90.06
478.346	87.06
478.564	78.06
478.783	86.06
479.002	103.06
479.22	105.06
479.439	95.06
479.658	110.06
479.876	107.06
480.095	93.06
480.313	107.06
480.532	94.06
480.751	91.06
480.969	158.06
481.188	346.06
481.406	223.06
481.624	106.06
481.843	87.06
482.061	96.06
482.28	97.06
482.498	85.06
482.717	80.06
482.935	92.06
483.153	87.06
483.372	96.06
483.59	92.06
483.808	99.06
484.027	88.06
484.245	99.06
484.463	104.06
484.681	102.06
484.9	98.06
485.118	98.06
485.336	117.06
485.554	109.06
485.772	97.06
485.99	117.06
486.209	112.06
486.427	94.06
486.645	106.06
486.863	119.06
487.081	100.06
487.299	103.06
487.517	94.06
487.735	106.06
487.953	84.06
488.171	87.06
488.389	103.06
488.607	85.06
488.825	86.06
489.043	90.06
489.261	100.06
489.479	86.06
489.696	85.06
489.914	98.06
490.132	92.06
490.35	95.06
490.568	104.06
490.786	106.06
491.003	88.06
491.221	88.06
491.439	95.06
491.657	103.06
491.874	105.06
492.092	85.06
492.31	88.06
492.527	91.06
492.745	98.06
492.963	86.06
493.18	84.06
493.398	86.06
493.615	102.06
493.833	97.06
494.05	93.06
494.268	108.06
494.485	95.06
494.703	90.06
494.92	75.06
495.138	94.06
495.355	94.06
495.573	85.06
495.79	96.06
496.008	105.06
496.225	99.06
496.442	94.06
496.66	98.06
496.877	82.06
497.094	89.06
497.312	86.06
497.529	99.06
497.746	102.06
497.963	75.06
498.181	92.06
498.398	99.06
498.615	107.06
498.832	106.06
499.049	92.06
499.267	86.06
499.484	82.06
499.701	79.06
499.918	71.06
500.135	85.06
500.352	98.06
500.569	98.06
500.786	102.06
501.003	97.06
501.22	93.06
501.437	88.06
501.654	87.06
501.871	107.06
502.088	78.06
502.305	71.06
502.522	92.06
502.739	95.06
502.956	97.06
503.172	105.06
503.389	106.06
503.606	104.06
503.823	97.06
504.04	90.06
504.256	93.06
504.473	86.06
504.69	82.06
504.907	90.06
505.123	99.06
505.34	93.06
505.557	84.06
505.773	92.06
505.99	80.06
506.207	85.06
506.423	104.06
506.64	85.06
506.856	92.06
507.073	102.06
507.289	77.06
507.506	88.06
507.722	123.06
507.939	115.06
508.155	102.06
508.372	93.06
508.588	92.06
508.805	95.06
509.021	96.06
509.238	92.06
509.454	89.06
509.67	97.06
509.887	133.06
510.103	126.06
510.319	221.06
510.536	793.06
510.752	2606.06
510.968	707.06
511.184	162.06
511.401	107.06
511.617	98.06
511.833	94.06
512.049	83.06
512.265	99.06
512.481	91.06
512.698	99.06
512.914	79.06
513.13	77.06
513.346	75.06
513.562	92.06
513.778	97.06
513.994	99.06
514.21	99.06
514.426	122.06
514.642	130.06
514.858	136.06
515.074	167.06
