Data from Circ_2006_H10_HRD10591_00031.txt Node
Date: Wed Jan 03 10:26:10 EST 2024
User: Yrep
Spectrometer: HR+D1059
Trigger mode: 1
Integration Time (sec): 1.000000E-1
Scans to average: 1
Electric dark correction enabled: true
Nonlinearity correction enabled: false
Boxcar width: 0
XAxis mode: Wavelengths
Number of Pixels in Spectrum: 2048
>>>>>Begin Spectral Data<<<<<
223.165	-6.75
223.4	-6.75
223.635	-6.75
223.869	-19.75
224.104	-22.75
224.338	-29.75
224.573	-8.75
224.808	-18.75
225.042	-17.75
225.277	-8.75
225.511	6.25
225.746	14.25
225.98	18.25
226.215	4.25
226.449	18.25
226.683	25.25
226.918	11.25
227.152	35.25
227.387	30.25
227.621	38.25
227.856	26.25
228.09	54.25
228.324	37.25
228.559	57.25
228.793	57.25
229.027	72.25
229.262	63.25
229.496	72.25
229.73	92.25
229.964	96.25
230.199	67.25
230.433	76.25
230.667	82.25
230.901	76.25
231.136	74.25
231.37	73.25
231.604	78.25
231.838	78.25
232.072	65.25
232.306	75.25
232.541	66.25
232.775	67.25
233.009	91.25
233.243	78.25
233.477	85.25
233.711	88.25
233.945	83.25
234.179	75.25
234.413	73.25
234.647	73.25
234.881	78.25
235.115	71.25
235.349	81.25
235.583	66.25
235.817	76.25
236.051	61.25
236.285	65.25
236.519	93.25
236.753	73.25
236.987	60.25
237.221	85.25
237.455	76.25
237.689	76.25
237.922	76.25
238.156	88.25
238.39	68.25
238.624	76.25
238.858	79.25
239.091	76.25
239.325	70.25
239.559	83.25
239.793	92.25
240.027	80.25
240.26	64.25
240.494	64.25
240.728	76.25
240.961	66.25
241.195	70.25
241.429	61.25
241.662	70.25
241.896	80.25
242.13	76.25
242.363	80.25
242.597	66.25
242.83	81.25
243.064	65.25
243.298	82.25
243.531	88.25
243.765	63.25
243.998	75.25
244.232	73.25
244.465	78.25
244.699	77.25
244.932	63.25
245.166	81.25
245.399	70.25
245.633	58.25
245.866	70.25
246.099	76.25
246.333	76.25
246.566	75.25
246.8	76.25
247.033	71.25
247.266	66.25
247.5	80.25
247.733	76.25
247.966	75.25
248.2	80.25
248.433	75.25
248.666	84.25
248.899	80.25
249.133	75.25
249.366	88.25
249.599	89.25
249.832	75.25
250.066	79.25
250.299	74.25
250.532	68.25
250.765	72.25
250.998	64.25
251.231	72.25
251.465	84.25
251.698	79.25
251.931	84.25
252.164	82.25
252.397	73.25
252.63	72.25
252.863	80.25
253.096	76.25
253.329	77.25
253.562	71.25
253.795	77.25
254.028	88.25
254.261	82.25
254.494	78.25
254.727	92.25
254.96	74.25
255.193	68.25
255.426	78.25
255.659	80.25
255.892	83.25
256.124	80.25
256.357	79.25
256.59	91.25
256.823	95.25
257.056	86.25
257.289	72.25
257.521	76.25
257.754	81.25
257.987	83.25
258.22	77.25
258.452	76.25
258.685	74.25
258.918	81.25
259.151	69.25
259.383	83.25
259.616	88.25
259.849	75.25
260.081	78.25
260.314	82.25
260.547	89.25
260.779	80.25
261.012	90.25
261.244	85.25
261.477	83.25
261.71	95.25
261.942	123.25
262.175	131.25
262.407	79.25
262.64	84.25
262.872	88.25
263.105	73.25
263.337	75.25
263.57	79.25
263.802	81.25
264.035	87.25
264.267	70.25
264.499	84.25
264.732	92.25
264.964	83.25
265.197	81.25
265.429	73.25
265.661	73.25
265.894	95.25
266.126	80.25
266.358	97.25
266.591	79.25
266.823	78.25
267.055	83.25
267.287	81.25
267.52	67.25
267.752	83.25
267.984	88.25
268.216	97.25
268.448	81.25
268.681	89.25
268.913	92.25
269.145	64.25
269.377	72.25
269.609	84.25
269.841	74.25
270.073	75.25
270.306	76.25
270.538	78.25
270.77	74.25
271.002	74.25
271.234	66.25
271.466	90.25
271.698	79.25
271.93	73.25
272.162	88.25
272.394	95.25
272.626	74.25
272.858	69.25
273.09	79.25
273.322	76.25
273.553	80.25
273.785	94.25
274.017	65.25
274.249	60.25
274.481	94.25
274.713	86.25
274.945	90.25
275.176	82.25
275.408	89.25
275.64	79.25
275.872	71.25
276.104	96.25
276.335	102.25
276.567	96.25
276.799	114.25
277.031	110.25
277.262	89.25
277.494	70.25
277.726	84.25
277.957	83.25
278.189	83.25
278.421	81.25
278.652	89.25
278.884	72.25
279.115	83.25
279.347	84.25
279.579	84.25
279.81	77.25
280.042	89.25
280.273	86.25
280.505	87.25
280.736	94.25
280.968	82.25
281.199	70.25
281.431	81.25
281.662	71.25
281.894	85.25
282.125	106.25
282.356	124.25
282.588	162.25
282.819	127.25
283.051	89.25
283.282	69.25
283.513	97.25
283.745	84.25
283.976	83.25
284.207	75.25
284.439	83.25
284.67	84.25
284.901	82.25
285.132	87.25
285.364	91.25
285.595	84.25
285.826	82.25
286.057	80.25
286.288	81.25
286.52	76.25
286.751	70.25
286.982	74.25
287.213	83.25
287.444	74.25
287.675	82.25
287.906	88.25
288.138	66.25
288.369	92.25
288.6	100.25
288.831	92.25
289.062	87.25
289.293	84.25
289.524	79.25
289.755	88.25
289.986	84.25
290.217	81.25
290.448	74.25
290.679	87.25
290.91	81.25
291.141	69.25
291.371	76.25
291.602	83.25
291.833	95.25
292.064	87.25
292.295	88.25
292.526	91.25
292.757	71.25
292.987	102.25
293.218	91.25
293.449	85.25
293.68	99.25
293.91	91.25
294.141	89.25
294.372	91.25
294.603	87.25
294.833	81.25
295.064	91.25
295.295	93.25
295.525	91.25
295.756	103.25
295.987	117.25
296.217	158.25
296.448	141.25
296.679	82.25
296.909	88.25
297.14	73.25
297.37	80.25
297.601	87.25
297.831	90.25
298.062	75.25
298.292	87.25
298.523	90.25
298.753	93.25
298.984	86.25
299.214	83.25
299.445	98.25
299.675	81.25
299.905	114.25
300.136	75.25
300.366	90.25
300.597	96.25
300.827	91.25
301.057	93.25
301.288	118.25
301.518	79.25
301.748	83.25
301.979	112.25
302.209	103.25
302.439	84.25
302.669	91.25
302.9	91.25
303.13	108.25
303.36	83.25
303.59	90.25
303.82	109.25
304.051	91.25
304.281	104.25
304.511	91.25
304.741	77.25
304.971	90.25
305.201	82.25
305.431	93.25
305.661	78.25
305.891	94.25
306.121	110.25
306.352	111.25
306.582	84.25
306.812	90.25
307.042	85.25
307.272	83.25
307.502	99.25
307.731	96.25
307.961	101.25
308.191	76.25
308.421	92.25
308.651	85.25
308.881	83.25
309.111	97.25
309.341	84.25
309.571	111.25
309.8	90.25
310.03	97.25
310.26	105.25
310.49	104.25
310.72	98.25
310.949	120.25
311.179	94.25
311.409	90.25
311.639	91.25
311.868	102.25
312.098	94.25
312.328	97.25
312.557	114.25
312.787	112.25
313.017	105.25
313.246	99.25
313.476	90.25
313.706	96.25
313.935	99.25
314.165	115.25
314.394	105.25
314.624	96.25
314.853	91.25
315.083	88.25
315.312	79.25
315.542	82.25
315.771	93.25
316.001	86.25
316.23	101.25
316.46	94.25
316.689	96.25
316.919	78.25
317.148	87.25
317.377	83.25
317.607	72.25
317.836	91.25
318.065	96.25
318.295	96.25
318.524	98.25
318.753	90.25
318.983	88.25
319.212	99.25
319.441	104.25
319.67	93.25
319.9	103.25
320.129	91.25
320.358	96.25
320.587	106.25
320.816	108.25
321.046	101.25
321.275	97.25
321.504	82.25
321.733	100.25
321.962	80.25
322.191	91.25
322.42	100.25
322.649	120.25
322.878	109.25
323.108	142.25
323.337	134.25
323.566	140.25
323.795	164.25
324.024	244.25
324.253	545.25
324.482	1233.25
324.71	2620.25
324.939	3371.25
325.168	1173.25
325.397	328.25
325.626	184.25
325.855	158.25
326.084	147.25
326.313	146.25
326.542	192.25
326.77	305.25
326.999	661.25
327.228	1402.25
327.457	2611.25
327.686	1986.25
327.914	495.25
328.143	246.25
328.372	174.25
328.6	143.25
328.829	150.25
329.058	151.25
329.287	145.25
329.515	134.25
329.744	105.25
329.972	120.25
330.201	120.25
330.43	126.25
330.658	133.25
330.887	174.25
331.115	127.25
331.344	99.25
331.572	105.25
331.801	119.25
332.03	107.25
332.258	110.25
332.486	108.25
332.715	93.25
332.943	99.25
333.172	95.25
333.4	104.25
333.629	123.25
333.857	119.25
334.085	114.25
334.314	120.25
334.542	122.25
334.771	95.25
334.999	85.25
335.227	92.25
335.455	92.25
335.684	98.25
335.912	86.25
336.14	107.25
336.369	84.25
336.597	99.25
336.825	100.25
337.053	92.25
337.281	94.25
337.51	90.25
337.738	98.25
337.966	80.25
338.194	101.25
338.422	88.25
338.65	108.25
338.878	89.25
339.106	78.25
339.334	71.25
339.562	88.25
339.79	87.25
340.018	92.25
340.246	100.25
340.474	85.25
340.702	86.25
340.93	82.25
341.158	98.25
341.386	89.25
341.614	101.25
341.842	103.25
342.07	87.25
342.298	82.25
342.526	92.25
342.754	89.25
342.981	86.25
343.209	97.25
343.437	97.25
343.665	79.25
343.893	92.25
344.12	82.25
344.348	73.25
344.576	82.25
344.804	93.25
345.031	96.25
345.259	100.25
345.487	97.25
345.714	96.25
345.942	106.25
346.17	96.25
346.397	93.25
346.625	97.25
346.853	84.25
347.08	93.25
347.308	102.25
347.535	106.25
347.763	99.25
347.99	100.25
348.218	102.25
348.445	92.25
348.673	103.25
348.9	105.25
349.128	95.25
349.355	78.25
349.583	94.25
349.81	98.25
350.037	80.25
350.265	86.25
350.492	89.25
350.72	88.25
350.947	100.25
351.174	110.25
351.402	107.25
351.629	120.25
351.856	110.25
352.083	113.25
352.311	95.25
352.538	117.25
352.765	119.25
352.992	106.25
353.22	125.25
353.447	96.25
353.674	89.25
353.901	92.25
354.128	100.25
354.355	89.25
354.583	90.25
354.81	88.25
355.037	103.25
355.264	102.25
355.491	84.25
355.718	90.25
355.945	92.25
356.172	98.25
356.399	74.25
356.626	87.25
356.853	92.25
357.08	87.25
357.307	89.25
357.534	94.25
357.761	92.25
357.988	83.25
358.215	91.25
358.441	75.25
358.668	87.25
358.895	96.25
359.122	94.25
359.349	97.25
359.576	107.25
359.802	96.25
360.029	112.25
360.256	120.25
360.483	97.25
360.709	74.25
360.936	89.25
361.163	93.25
361.39	96.25
361.616	90.25
361.843	91.25
362.07	96.25
362.296	99.25
362.523	76.25
362.749	83.25
362.976	107.25
363.203	98.25
363.429	78.25
363.656	87.25
363.882	97.25
364.109	73.25
364.335	86.25
364.562	93.25
364.788	82.25
365.015	93.25
365.241	98.25
365.468	114.25
365.694	108.25
365.92	93.25
366.147	86.25
366.373	82.25
366.599	78.25
366.826	86.25
367.052	88.25
367.278	96.25
367.505	74.25
367.731	96.25
367.957	89.25
368.184	106.25
368.41	98.25
368.636	104.25
368.862	125.25
369.089	114.25
369.315	114.25
369.541	86.25
369.767	92.25
369.993	91.25
370.219	92.25
370.445	95.25
370.672	96.25
370.898	73.25
371.124	80.25
371.35	88.25
371.576	104.25
371.802	88.25
372.028	75.25
372.254	90.25
372.48	82.25
372.706	74.25
372.932	89.25
373.158	82.25
373.384	86.25
373.61	96.25
373.835	79.25
374.061	78.25
374.287	75.25
374.513	95.25
374.739	103.25
374.965	88.25
375.191	80.25
375.416	99.25
375.642	97.25
375.868	95.25
376.094	82.25
376.319	88.25
376.545	95.25
376.771	95.25
376.997	79.25
377.222	90.25
377.448	107.25
377.674	78.25
377.899	80.25
378.125	81.25
378.35	84.25
378.576	83.25
378.802	94.25
379.027	67.25
379.253	93.25
379.478	96.25
379.704	85.25
379.929	87.25
380.155	94.25
380.38	95.25
380.606	105.25
380.831	97.25
381.057	93.25
381.282	100.25
381.507	90.25
381.733	92.25
381.958	89.25
382.184	104.25
382.409	113.25
382.634	101.25
382.86	104.25
383.085	97.25
383.31	110.25
383.535	105.25
383.761	96.25
383.986	99.25
384.211	100.25
384.436	102.25
384.662	96.25
384.887	104.25
385.112	104.25
385.337	107.25
385.562	112.25
385.787	103.25
386.013	129.25
386.238	109.25
386.463	112.25
386.688	121.25
386.913	103.25
387.138	101.25
387.363	95.25
387.588	96.25
387.813	104.25
388.038	108.25
388.263	106.25
388.488	121.25
388.713	90.25
388.938	80.25
389.163	94.25
389.387	93.25
389.612	86.25
389.837	92.25
390.062	104.25
390.287	85.25
390.512	91.25
390.736	76.25
390.961	88.25
391.186	98.25
391.411	88.25
391.636	84.25
391.86	89.25
392.085	90.25
392.31	90.25
392.534	73.25
392.759	83.25
392.984	76.25
393.208	81.25
393.433	84.25
393.658	81.25
393.882	79.25
394.107	93.25
394.331	102.25
394.556	92.25
394.78	77.25
395.005	83.25
395.229	98.25
395.454	88.25
395.678	93.25
395.903	78.25
396.127	80.25
396.352	90.25
396.576	90.25
396.801	90.25
397.025	68.25
397.249	83.25
397.474	91.25
397.698	91.25
397.922	94.25
398.147	80.25
398.371	74.25
398.595	81.25
398.82	84.25
399.044	82.25
399.268	76.25
399.492	76.25
399.717	84.25
399.941	90.25
400.165	91.25
400.389	73.25
400.613	85.25
400.837	82.25
401.062	86.25
401.286	81.25
401.51	80.25
401.734	92.25
401.958	107.25
402.182	130.25
402.406	168.25
402.63	128.25
402.854	87.25
403.078	69.25
403.302	82.25
403.526	94.25
403.75	79.25
403.974	81.25
404.198	70.25
404.422	87.25
404.645	77.25
404.869	82.25
405.093	111.25
405.317	87.25
405.541	110.25
405.765	93.25
405.988	122.25
406.212	201.25
406.436	284.25
406.66	175.25
406.883	92.25
407.107	103.25
407.331	102.25
407.555	102.25
407.778	98.25
408.002	85.25
408.226	94.25
408.449	80.25
408.673	91.25
408.896	86.25
409.12	108.25
409.344	85.25
409.567	94.25
409.791	89.25
410.014	79.25
410.238	83.25
410.461	102.25
410.685	90.25
410.908	84.25
411.132	93.25
411.355	110.25
411.578	101.25
411.802	78.25
412.025	96.25
412.249	84.25
412.472	82.25
412.695	80.25
412.919	79.25
413.142	78.25
413.365	84.25
413.589	91.25
413.812	100.25
414.035	89.25
414.258	90.25
414.482	100.25
414.705	95.25
414.928	81.25
415.151	90.25
415.374	81.25
415.597	94.25
415.821	95.25
416.044	93.25
416.267	83.25
416.49	80.25
416.713	89.25
416.936	82.25
417.159	98.25
417.382	76.25
417.605	87.25
417.828	78.25
418.051	91.25
418.274	92.25
418.497	85.25
418.72	89.25
418.943	84.25
419.166	92.25
419.389	93.25
419.611	84.25
419.834	93.25
420.057	93.25
420.28	99.25
420.503	98.25
420.726	93.25
420.948	83.25
421.171	95.25
421.394	96.25
421.617	87.25
421.839	90.25
422.062	92.25
422.285	100.25
422.507	93.25
422.73	119.25
422.953	87.25
423.175	86.25
423.398	82.25
423.621	90.25
423.843	85.25
424.066	87.25
424.288	79.25
424.511	96.25
424.733	107.25
424.956	107.25
425.178	104.25
425.401	90.25
425.623	95.25
425.846	92.25
426.068	98.25
426.291	92.25
426.513	95.25
426.735	77.25
426.958	83.25
427.18	120.25
427.402	146.25
427.625	194.25
427.847	137.25
428.069	108.25
428.292	88.25
428.514	91.25
428.736	80.25
428.958	84.25
429.181	92.25
429.403	85.25
429.625	89.25
429.847	97.25
430.069	102.25
430.292	89.25
430.514	86.25
430.736	79.25
430.958	90.25
431.18	91.25
431.402	80.25
431.624	81.25
431.846	79.25
432.068	85.25
432.29	82.25
432.512	82.25
432.734	79.25
432.956	82.25
433.178	99.25
433.4	106.25
433.622	91.25
433.844	88.25
434.066	94.25
434.287	101.25
434.509	90.25
434.731	92.25
434.953	93.25
435.175	89.25
435.397	95.25
435.618	98.25
435.84	114.25
436.062	136.25
436.284	152.25
436.505	118.25
436.727	118.25
436.949	95.25
437.17	97.25
437.392	101.25
437.614	99.25
437.835	109.25
438.057	135.25
438.278	124.25
438.5	95.25
438.721	123.25
438.943	107.25
439.165	82.25
439.386	83.25
439.608	92.25
439.829	118.25
440.05	136.25
440.272	160.25
440.493	102.25
440.715	80.25
440.936	84.25
441.158	83.25
441.379	74.25
441.6	89.25
441.822	105.25
442.043	89.25
442.264	109.25
442.486	111.25
442.707	95.25
442.928	116.25
443.149	145.25
443.371	142.25
443.592	113.25
443.813	105.25
444.034	110.25
444.255	86.25
444.476	83.25
444.698	82.25
444.919	72.25
445.14	134.25
445.361	133.25
445.582	125.25
445.803	153.25
446.024	154.25
446.245	158.25
446.466	111.25
446.687	93.25
446.908	88.25
447.129	82.25
447.35	90.25
447.571	86.25
447.792	87.25
448.013	103.25
448.234	111.25
448.455	99.25
448.675	98.25
448.896	127.25
449.117	98.25
449.338	119.25
449.559	144.25
449.779	162.25
450	98.25
450.221	92.25
450.442	91.25
450.662	109.25
450.883	123.25
451.104	113.25
451.324	98.25
451.545	89.25
451.766	83.25
451.986	97.25
452.207	93.25
452.428	88.25
452.648	95.25
452.869	132.25
453.089	110.25
453.31	125.25
453.53	95.25
453.751	84.25
453.971	107.25
454.192	113.25
454.412	89.25
454.633	77.25
454.853	84.25
455.073	91.25
455.294	81.25
455.514	90.25
455.734	90.25
455.955	75.25
456.175	99.25
456.395	75.25
456.616	78.25
456.836	76.25
457.056	77.25
457.276	80.25
457.497	84.25
457.717	100.25
457.937	95.25
458.157	99.25
458.377	82.25
458.598	120.25
458.818	179.25
459.038	192.25
459.258	127.25
459.478	88.25
459.698	81.25
459.918	80.25
460.138	78.25
460.358	90.25
460.578	87.25
460.798	86.25
461.018	95.25
461.238	82.25
461.458	95.25
461.678	77.25
461.898	99.25
462.118	94.25
462.338	87.25
462.558	66.25
462.777	79.25
462.997	90.25
463.217	70.25
463.437	90.25
463.657	102.25
463.876	69.25
464.096	88.25
464.316	98.25
464.536	88.25
464.755	96.25
464.975	102.25
465.195	201.25
465.414	200.25
465.634	84.25
465.854	88.25
466.073	70.25
466.293	78.25
466.512	72.25
466.732	78.25
466.951	86.25
467.171	83.25
467.391	97.25
467.61	104.25
467.829	93.25
468.049	97.25
468.268	96.25
468.488	89.25
468.707	79.25
468.927	85.25
469.146	88.25
469.365	105.25
469.585	88.25
469.804	96.25
470.023	97.25
470.243	89.25
470.462	100.25
470.681	98.25
470.901	96.25
471.12	88.25
471.339	92.25
471.558	82.25
471.777	87.25
471.997	67.25
472.216	108.25
472.435	112.25
472.654	99.25
472.873	95.25
473.092	86.25
473.311	89.25
473.53	89.25
473.749	88.25
473.968	98.25
474.187	108.25
474.406	80.25
474.625	90.25
474.844	92.25
475.063	82.25
475.282	83.25
475.501	92.25
475.72	91.25
475.939	84.25
476.158	92.25
476.377	88.25
476.596	90.25
476.814	99.25
477.033	83.25
477.252	92.25
477.471	84.25
477.69	82.25
477.908	96.25
478.127	92.25
478.346	96.25
478.564	82.25
478.783	88.25
479.002	98.25
479.22	90.25
479.439	104.25
479.658	92.25
479.876	90.25
480.095	89.25
480.313	93.25
480.532	106.25
480.751	84.25
480.969	104.25
481.188	163.25
481.406	134.25
481.624	109.25
481.843	82.25
482.061	86.25
482.28	99.25
482.498	79.25
482.717	80.25
482.935	90.25
483.153	95.25
483.372	84.25
483.59	90.25
483.808	95.25
484.027	79.25
484.245	87.25
484.463	83.25
484.681	92.25
484.9	80.25
485.118	99.25
485.336	100.25
485.554	98.25
485.772	107.25
485.99	101.25
486.209	105.25
486.427	109.25
486.645	115.25
486.863	118.25
487.081	97.25
487.299	80.25
487.517	93.25
487.735	80.25
487.953	81.25
488.171	104.25
488.389	112.25
488.607	104.25
488.825	83.25
489.043	80.25
489.261	94.25
489.479	87.25
489.696	78.25
489.914	102.25
490.132	82.25
490.35	98.25
490.568	79.25
490.786	87.25
491.003	83.25
491.221	82.25
491.439	93.25
491.657	81.25
491.874	89.25
492.092	90.25
492.31	98.25
492.527	76.25
492.745	89.25
492.963	88.25
493.18	88.25
493.398	92.25
493.615	91.25
493.833	90.25
494.05	87.25
494.268	97.25
494.485	89.25
494.703	81.25
494.92	89.25
495.138	87.25
495.355	68.25
495.573	90.25
495.79	91.25
496.008	85.25
496.225	84.25
496.442	85.25
496.66	90.25
496.877	98.25
497.094	93.25
497.312	97.25
497.529	81.25
497.746	88.25
497.963	86.25
498.181	82.25
498.398	102.25
498.615	137.25
498.832	114.25
499.049	93.25
499.267	86.25
499.484	93.25
499.701	92.25
499.918	81.25
500.135	85.25
500.352	91.25
500.569	94.25
500.786	87.25
501.003	92.25
501.22	92.25
501.437	82.25
501.654	98.25
501.871	100.25
502.088	103.25
502.305	90.25
502.522	92.25
502.739	84.25
502.956	91.25
503.172	89.25
503.389	91.25
503.606	101.25
503.823	84.25
504.04	87.25
504.256	92.25
504.473	94.25
504.69	91.25
504.907	92.25
505.123	95.25
505.34	97.25
505.557	85.25
505.773	91.25
505.99	88.25
506.207	80.25
506.423	93.25
506.64	84.25
506.856	89.25
507.073	95.25
507.289	92.25
507.506	99.25
507.722	119.25
507.939	122.25
508.155	94.25
508.372	90.25
508.588	94.25
508.805	90.25
509.021	106.25
509.238	91.25
509.454	96.25
509.67	103.25
509.887	101.25
510.103	139.25
510.319	258.25
510.536	958.25
510.752	3145.25
510.968	853.25
511.184	175.25
511.401	118.25
511.617	112.25
511.833	98.25
512.049	84.25
512.265	101.25
512.481	102.25
512.698	96.25
512.914	99.25
513.13	94.25
513.346	96.25
513.562	91.25
513.778	91.25
513.994	105.25
514.21	118.25
514.426	137.25
514.642	157.25
514.858	145.25
515.074	207.25
515.29	616.25
515.506	2131.25
515.721	771.25
