Data from Circ_2006_H10_HRD10591_00048.txt Node
Date: Wed Jan 03 10:26:13 EST 2024
User: Yrep
Spectrometer: HR+D1059
Trigger mode: 1
Integration Time (sec): 1.000000E-1
Scans to average: 1
Electric dark correction enabled: true
Nonlinearity correction enabled: false
Boxcar width: 0
XAxis mode: Wavelengths
Number of Pixels in Spectrum: 2048
>>>>>Begin Spectral Data<<<<<
223.165	-23.31
223.4	-23.31
223.635	-23.31
223.869	-21.31
224.104	-27.31
224.338	-20.31
224.573	-16.31
224.808	-10.31
225.042	-8.31
225.277	-9.31
225.511	-9.31
225.746	0.69
225.98	8.69
226.215	17.69
226.449	20.69
226.683	27.69
226.918	34.69
227.152	35.69
227.387	38.69
227.621	46.69
227.856	43.69
228.09	47.69
228.324	51.69
228.559	59.69
228.793	53.69
229.027	63.69
229.262	62.69
229.496	82.69
229.73	96.69
229.964	82.69
230.199	74.69
230.433	80.69
230.667	74.69
230.901	79.69
231.136	93.69
231.37	75.69
231.604	80.69
231.838	64.69
232.072	76.69
232.306	79.69
232.541	85.69
232.775	81.69
233.009	84.69
233.243	85.69
233.477	76.69
233.711	71.69
233.945	84.69
234.179	76.69
234.413	84.69
234.647	87.69
234.881	81.69
235.115	78.69
235.349	83.69
235.583	87.69
235.817	81.69
236.051	82.69
236.285	77.69
236.519	87.69
236.753	81.69
236.987	81.69
237.221	103.69
237.455	83.69
237.689	73.69
237.922	67.69
238.156	76.69
238.39	77.69
238.624	75.69
238.858	83.69
239.091	59.69
239.325	82.69
239.559	67.69
239.793	75.69
240.027	73.69
240.26	71.69
240.494	80.69
240.728	87.69
240.961	78.69
241.195	83.69
241.429	77.69
241.662	71.69
241.896	76.69
242.13	83.69
242.363	78.69
242.597	68.69
242.83	97.69
243.064	75.69
243.298	77.69
243.531	75.69
243.765	74.69
243.998	75.69
244.232	83.69
244.465	90.69
244.699	80.69
244.932	71.69
245.166	65.69
245.399	72.69
245.633	87.69
245.866	86.69
246.099	101.69
246.333	75.69
246.566	62.69
246.8	74.69
247.033	79.69
247.266	81.69
247.5	69.69
247.733	58.69
247.966	63.69
248.2	81.69
248.433	83.69
248.666	72.69
248.899	84.69
249.133	95.69
249.366	88.69
249.599	112.69
249.832	94.69
250.066	78.69
250.299	86.69
250.532	79.69
250.765	82.69
250.998	76.69
251.231	73.69
251.465	74.69
251.698	69.69
251.931	72.69
252.164	75.69
252.397	89.69
252.63	81.69
252.863	79.69
253.096	73.69
253.329	88.69
253.562	78.69
253.795	82.69
254.028	82.69
254.261	78.69
254.494	75.69
254.727	88.69
254.96	81.69
255.193	71.69
255.426	70.69
255.659	81.69
255.892	79.69
256.124	86.69
256.357	81.69
256.59	88.69
256.823	96.69
257.056	98.69
257.289	98.69
257.521	99.69
257.754	77.69
257.987	74.69
258.22	78.69
258.452	74.69
258.685	67.69
258.918	85.69
259.151	83.69
259.383	87.69
259.616	78.69
259.849	79.69
260.081	81.69
260.314	86.69
260.547	87.69
260.779	86.69
261.012	82.69
261.244	102.69
261.477	85.69
261.71	91.69
261.942	107.69
262.175	125.69
262.407	94.69
262.64	90.69
262.872	81.69
263.105	76.69
263.337	83.69
263.57	82.69
263.802	82.69
264.035	86.69
264.267	76.69
264.499	77.69
264.732	94.69
264.964	89.69
265.197	87.69
265.429	74.69
265.661	74.69
265.894	72.69
266.126	83.69
266.358	89.69
266.591	83.69
266.823	89.69
267.055	90.69
267.287	95.69
267.52	87.69
267.752	88.69
267.984	87.69
268.216	80.69
268.448	72.69
268.681	88.69
268.913	99.69
269.145	66.69
269.377	79.69
269.609	84.69
269.841	88.69
270.073	79.69
270.306	90.69
270.538	84.69
270.77	81.69
271.002	96.69
271.234	87.69
271.466	82.69
271.698	78.69
271.93	90.69
272.162	79.69
272.394	89.69
272.626	91.69
272.858	84.69
273.09	88.69
273.322	82.69
273.553	85.69
273.785	82.69
274.017	84.69
274.249	77.69
274.481	86.69
274.713	76.69
274.945	95.69
275.176	76.69
275.408	84.69
275.64	86.69
275.872	71.69
276.104	80.69
276.335	99.69
276.567	110.69
276.799	114.69
277.031	92.69
277.262	103.69
277.494	69.69
277.726	84.69
277.957	100.69
278.189	81.69
278.421	74.69
278.652	81.69
278.884	99.69
279.115	86.69
279.347	82.69
279.579	85.69
279.81	97.69
280.042	81.69
280.273	78.69
280.505	100.69
280.736	86.69
280.968	93.69
281.199	79.69
281.431	85.69
281.662	81.69
281.894	100.69
282.125	72.69
282.356	118.69
282.588	163.69
282.819	113.69
283.051	90.69
283.282	84.69
283.513	98.69
283.745	81.69
283.976	94.69
284.207	72.69
284.439	89.69
284.67	79.69
284.901	92.69
285.132	103.69
285.364	99.69
285.595	96.69
285.826	98.69
286.057	95.69
286.288	76.69
286.52	87.69
286.751	76.69
286.982	92.69
287.213	79.69
287.444	85.69
287.675	105.69
287.906	98.69
288.138	100.69
288.369	88.69
288.6	92.69
288.831	101.69
289.062	89.69
289.293	77.69
289.524	95.69
289.755	93.69
289.986	88.69
290.217	86.69
290.448	84.69
290.679	90.69
290.91	92.69
291.141	82.69
291.371	85.69
291.602	80.69
291.833	86.69
292.064	74.69
292.295	86.69
292.526	86.69
292.757	95.69
292.987	93.69
293.218	93.69
293.449	88.69
293.68	85.69
293.91	87.69
294.141	101.69
294.372	84.69
294.603	83.69
294.833	90.69
295.064	87.69
295.295	86.69
295.525	90.69
295.756	107.69
295.987	135.69
296.217	142.69
296.448	134.69
296.679	95.69
296.909	97.69
297.14	86.69
297.37	95.69
297.601	84.69
297.831	92.69
298.062	84.69
298.292	87.69
298.523	95.69
298.753	94.69
298.984	94.69
299.214	79.69
299.445	80.69
299.675	94.69
299.905	94.69
300.136	90.69
300.366	95.69
300.597	86.69
300.827	102.69
301.057	101.69
301.288	116.69
301.518	108.69
301.748	90.69
301.979	91.69
302.209	94.69
302.439	88.69
302.669	80.69
302.9	110.69
303.13	97.69
303.36	98.69
303.59	90.69
303.82	123.69
304.051	106.69
304.281	107.69
304.511	99.69
304.741	88.69
304.971	88.69
305.201	86.69
305.431	87.69
305.661	88.69
305.891	79.69
306.121	93.69
306.352	105.69
306.582	117.69
306.812	88.69
307.042	86.69
307.272	98.69
307.502	109.69
307.731	81.69
307.961	98.69
308.191	95.69
308.421	87.69
308.651	94.69
308.881	88.69
309.111	92.69
309.341	103.69
309.571	99.69
309.8	94.69
310.03	102.69
310.26	97.69
310.49	90.69
310.72	95.69
310.949	107.69
311.179	116.69
311.409	108.69
311.639	88.69
311.868	99.69
312.098	87.69
312.328	87.69
312.557	97.69
312.787	111.69
313.017	108.69
313.246	97.69
313.476	99.69
313.706	90.69
313.935	114.69
314.165	109.69
314.394	109.69
314.624	95.69
314.853	92.69
315.083	99.69
315.312	97.69
315.542	88.69
315.771	86.69
316.001	99.69
316.23	82.69
316.46	96.69
316.689	84.69
316.919	94.69
317.148	98.69
317.377	93.69
317.607	111.69
317.836	105.69
318.065	106.69
318.295	91.69
318.524	69.69
318.753	99.69
318.983	103.69
319.212	112.69
319.441	128.69
319.67	115.69
319.9	99.69
320.129	95.69
320.358	102.69
320.587	91.69
320.816	108.69
321.046	100.69
321.275	108.69
321.504	91.69
321.733	92.69
321.962	98.69
322.191	118.69
322.42	122.69
322.649	115.69
322.878	118.69
323.108	118.69
323.337	140.69
323.566	150.69
323.795	192.69
324.024	265.69
324.253	575.69
324.482	1254.69
324.71	2640.69
324.939	3382.69
325.168	1168.69
325.397	304.69
325.626	184.69
325.855	144.69
326.084	148.69
326.313	151.69
326.542	178.69
326.77	304.69
326.999	672.69
327.228	1388.69
327.457	2612.69
327.686	2019.69
327.914	498.69
328.143	248.69
328.372	167.69
328.6	141.69
328.829	137.69
329.058	147.69
329.287	142.69
329.515	124.69
329.744	110.69
329.972	103.69
330.201	114.69
330.43	143.69
330.658	126.69
330.887	163.69
331.115	160.69
331.344	109.69
331.572	106.69
331.801	103.69
332.03	108.69
332.258	88.69
332.486	95.69
332.715	105.69
332.943	94.69
333.172	100.69
333.4	105.69
333.629	119.69
333.857	122.69
334.085	131.69
334.314	105.69
334.542	146.69
334.771	123.69
334.999	90.69
335.227	100.69
335.455	105.69
335.684	101.69
335.912	92.69
336.14	102.69
336.369	119.69
336.597	118.69
336.825	104.69
337.053	99.69
337.281	90.69
337.51	90.69
337.738	100.69
337.966	97.69
338.194	107.69
338.422	87.69
338.65	101.69
338.878	93.69
339.106	101.69
339.334	95.69
339.562	84.69
339.79	88.69
340.018	82.69
340.246	94.69
340.474	94.69
340.702	98.69
340.93	97.69
341.158	88.69
341.386	98.69
341.614	112.69
341.842	106.69
342.07	104.69
342.298	95.69
342.526	85.69
342.754	93.69
342.981	91.69
343.209	103.69
343.437	113.69
343.665	94.69
343.893	89.69
344.12	78.69
344.348	90.69
344.576	97.69
344.804	103.69
345.031	95.69
345.259	105.69
345.487	98.69
345.714	94.69
345.942	89.69
346.17	85.69
346.397	99.69
346.625	108.69
346.853	99.69
347.08	88.69
347.308	80.69
347.535	103.69
347.763	107.69
347.99	99.69
348.218	110.69
348.445	111.69
348.673	105.69
348.9	107.69
349.128	90.69
349.355	101.69
349.583	86.69
349.81	94.69
350.037	93.69
350.265	104.69
350.492	87.69
350.72	100.69
350.947	107.69
351.174	116.69
351.402	112.69
351.629	98.69
351.856	101.69
352.083	92.69
352.311	106.69
352.538	124.69
352.765	122.69
352.992	123.69
353.22	112.69
353.447	100.69
353.674	103.69
353.901	95.69
354.128	108.69
354.355	110.69
354.583	111.69
354.81	93.69
355.037	89.69
355.264	101.69
355.491	93.69
355.718	81.69
355.945	93.69
356.172	98.69
356.399	102.69
356.626	91.69
356.853	87.69
357.08	106.69
357.307	89.69
357.534	99.69
357.761	86.69
357.988	86.69
358.215	80.69
358.441	71.69
358.668	92.69
358.895	112.69
359.122	101.69
359.349	80.69
359.576	93.69
359.802	103.69
360.029	128.69
360.256	109.69
360.483	103.69
360.709	85.69
360.936	102.69
361.163	90.69
361.39	100.69
361.616	106.69
361.843	95.69
362.07	98.69
362.296	104.69
362.523	90.69
362.749	91.69
362.976	109.69
363.203	90.69
363.429	80.69
363.656	82.69
363.882	86.69
364.109	96.69
364.335	106.69
364.562	110.69
364.788	98.69
365.015	98.69
365.241	108.69
365.468	113.69
365.694	106.69
365.92	108.69
366.147	100.69
366.373	88.69
366.599	103.69
366.826	87.69
367.052	88.69
367.278	99.69
367.505	82.69
367.731	98.69
367.957	99.69
368.184	95.69
368.41	111.69
368.636	124.69
368.862	130.69
369.089	111.69
369.315	101.69
369.541	95.69
369.767	90.69
369.993	94.69
370.219	106.69
370.445	89.69
370.672	91.69
370.898	90.69
371.124	93.69
371.35	100.69
371.576	91.69
371.802	92.69
372.028	77.69
372.254	94.69
372.48	90.69
372.706	87.69
372.932	82.69
373.158	94.69
373.384	98.69
373.61	84.69
373.835	92.69
374.061	101.69
374.287	108.69
374.513	98.69
374.739	98.69
374.965	84.69
375.191	94.69
375.416	83.69
375.642	97.69
375.868	87.69
376.094	99.69
376.319	103.69
376.545	75.69
376.771	85.69
376.997	88.69
377.222	83.69
377.448	90.69
377.674	80.69
377.899	98.69
378.125	101.69
378.35	94.69
378.576	95.69
378.802	91.69
379.027	104.69
379.253	97.69
379.478	93.69
379.704	86.69
379.929	103.69
380.155	85.69
380.38	109.69
380.606	107.69
380.831	92.69
381.057	102.69
381.282	106.69
381.507	92.69
381.733	85.69
381.958	103.69
382.184	117.69
382.409	104.69
382.634	105.69
382.86	93.69
383.085	111.69
383.31	95.69
383.535	94.69
383.761	104.69
383.986	100.69
384.211	106.69
384.436	97.69
384.662	101.69
384.887	119.69
385.112	106.69
385.337	97.69
385.562	112.69
385.787	103.69
386.013	109.69
386.238	124.69
386.463	104.69
386.688	118.69
386.913	99.69
387.138	119.69
387.363	105.69
387.588	107.69
387.813	89.69
388.038	116.69
388.263	112.69
388.488	119.69
388.713	93.69
388.938	91.69
389.163	95.69
389.387	104.69
389.612	84.69
389.837	87.69
390.062	88.69
390.287	102.69
390.512	87.69
390.736	95.69
390.961	104.69
391.186	100.69
391.411	93.69
391.636	94.69
391.86	111.69
392.085	94.69
392.31	91.69
392.534	86.69
392.759	87.69
392.984	82.69
393.208	102.69
393.433	87.69
393.658	84.69
393.882	85.69
394.107	85.69
394.331	84.69
394.556	90.69
394.78	90.69
395.005	102.69
395.229	83.69
395.454	86.69
395.678	94.69
395.903	86.69
396.127	88.69
396.352	83.69
396.576	81.69
396.801	102.69
397.025	94.69
397.249	79.69
397.474	94.69
397.698	88.69
397.922	90.69
398.147	101.69
398.371	84.69
398.595	94.69
398.82	90.69
399.044	84.69
399.268	94.69
399.492	72.69
399.717	105.69
399.941	109.69
400.165	102.69
400.389	101.69
400.613	87.69
400.837	91.69
401.062	93.69
401.286	76.69
401.51	83.69
401.734	100.69
401.958	102.69
402.182	132.69
402.406	186.69
402.63	144.69
402.854	90.69
403.078	98.69
403.302	92.69
403.526	87.69
403.75	103.69
403.974	85.69
404.198	81.69
404.422	87.69
404.645	96.69
404.869	84.69
405.093	78.69
405.317	104.69
405.541	96.69
405.765	98.69
405.988	124.69
406.212	194.69
406.436	268.69
406.66	172.69
406.883	122.69
407.107	98.69
407.331	110.69
407.555	109.69
407.778	113.69
408.002	105.69
408.226	97.69
408.449	84.69
408.673	89.69
408.896	93.69
409.12	99.69
409.344	87.69
409.567	78.69
409.791	78.69
410.014	98.69
410.238	100.69
410.461	100.69
410.685	110.69
410.908	102.69
411.132	103.69
411.355	101.69
411.578	102.69
411.802	92.69
412.025	103.69
412.249	81.69
412.472	89.69
412.695	80.69
412.919	75.69
413.142	101.69
413.365	87.69
413.589	94.69
413.812	86.69
414.035	101.69
414.258	83.69
414.482	80.69
414.705	95.69
414.928	82.69
415.151	86.69
415.374	85.69
415.597	80.69
415.821	63.69
416.044	98.69
416.267	94.69
416.49	79.69
416.713	76.69
416.936	106.69
417.159	94.69
417.382	93.69
417.605	96.69
417.828	94.69
418.051	120.69
418.274	99.69
418.497	86.69
418.72	77.69
418.943	94.69
419.166	99.69
419.389	76.69
419.611	87.69
419.834	85.69
420.057	78.69
420.28	90.69
420.503	93.69
420.726	86.69
420.948	97.69
421.171	88.69
421.394	84.69
421.617	92.69
421.839	99.69
422.062	90.69
422.285	102.69
422.507	103.69
422.73	97.69
422.953	98.69
423.175	90.69
423.398	79.69
423.621	88.69
423.843	104.69
424.066	94.69
424.288	99.69
424.511	94.69
424.733	101.69
424.956	112.69
425.178	108.69
425.401	84.69
425.623	95.69
425.846	89.69
426.068	92.69
426.291	93.69
426.513	102.69
426.735	90.69
426.958	106.69
427.18	102.69
427.402	134.69
427.625	188.69
427.847	142.69
428.069	117.69
428.292	94.69
428.514	87.69
428.736	84.69
428.958	79.69
429.181	88.69
429.403	93.69
429.625	90.69
429.847	83.69
430.069	109.69
430.292	98.69
430.514	83.69
430.736	89.69
430.958	94.69
431.18	90.69
431.402	87.69
431.624	90.69
431.846	94.69
432.068	93.69
432.29	98.69
432.512	97.69
432.734	100.69
432.956	84.69
433.178	110.69
433.4	117.69
433.622	111.69
433.844	103.69
434.066	94.69
434.287	92.69
434.509	96.69
434.731	98.69
434.953	83.69
435.175	98.69
435.397	91.69
435.618	102.69
435.84	115.69
436.062	152.69
436.284	128.69
436.505	102.69
436.727	121.69
436.949	94.69
437.17	89.69
437.392	88.69
437.614	95.69
437.835	114.69
438.057	127.69
438.278	102.69
438.5	101.69
438.721	124.69
438.943	111.69
439.165	84.69
439.386	84.69
439.608	89.69
439.829	117.69
440.05	143.69
440.272	157.69
440.493	92.69
440.715	93.69
440.936	85.69
441.158	93.69
441.379	90.69
441.6	100.69
441.822	86.69
442.043	102.69
442.264	108.69
442.486	93.69
442.707	100.69
442.928	106.69
443.149	137.69
443.371	136.69
443.592	104.69
443.813	125.69
444.034	106.69
444.255	84.69
444.476	75.69
444.698	93.69
444.919	97.69
445.14	124.69
445.361	122.69
445.582	117.69
445.803	154.69
446.024	156.69
446.245	142.69
446.466	109.69
446.687	99.69
446.908	83.69
447.129	94.69
447.35	94.69
447.571	97.69
447.792	81.69
448.013	98.69
448.234	111.69
448.455	93.69
448.675	124.69
448.896	124.69
449.117	108.69
449.338	114.69
449.559	136.69
449.779	144.69
450	92.69
450.221	104.69
450.442	98.69
450.662	86.69
450.883	117.69
451.104	132.69
451.324	96.69
451.545	87.69
451.766	92.69
451.986	92.69
452.207	81.69
452.428	71.69
452.648	95.69
452.869	120.69
453.089	104.69
453.31	124.69
453.53	98.69
453.751	104.69
453.971	104.69
454.192	131.69
454.412	87.69
454.633	96.69
454.853	82.69
455.073	96.69
455.294	97.69
455.514	98.69
455.734	86.69
455.955	80.69
456.175	82.69
456.395	91.69
456.616	99.69
456.836	83.69
457.056	79.69
457.276	94.69
457.497	80.69
457.717	73.69
457.937	83.69
458.157	92.69
458.377	95.69
458.598	109.69
458.818	169.69
459.038	195.69
459.258	119.69
459.478	93.69
459.698	86.69
459.918	97.69
460.138	102.69
460.358	86.69
460.578	90.69
460.798	85.69
461.018	94.69
461.238	86.69
461.458	92.69
461.678	96.69
461.898	89.69
462.118	92.69
462.338	96.69
462.558	84.69
462.777	100.69
462.997	82.69
463.217	84.69
463.437	82.69
463.657	85.69
463.876	82.69
464.096	84.69
464.316	91.69
464.536	106.69
464.755	95.69
464.975	123.69
465.195	196.69
465.414	172.69
465.634	99.69
465.854	73.69
466.073	88.69
466.293	104.69
466.512	86.69
466.732	86.69
466.951	104.69
467.171	92.69
467.391	102.69
467.61	97.69
467.829	81.69
468.049	104.69
468.268	108.69
468.488	95.69
468.707	84.69
468.927	71.69
469.146	94.69
469.365	88.69
469.585	80.69
469.804	97.69
470.023	101.69
470.243	97.69
470.462	107.69
470.681	108.69
470.901	97.69
471.12	84.69
471.339	73.69
471.558	88.69
471.777	95.69
471.997	81.69
472.216	116.69
472.435	136.69
472.654	95.69
472.873	86.69
473.092	80.69
473.311	81.69
473.53	98.69
473.749	89.69
473.968	95.69
474.187	99.69
474.406	92.69
474.625	74.69
474.844	83.69
475.063	83.69
475.282	79.69
475.501	86.69
475.72	97.69
475.939	69.69
476.158	98.69
476.377	72.69
476.596	82.69
476.814	92.69
477.033	98.69
477.252	83.69
477.471	82.69
477.69	86.69
477.908	87.69
478.127	79.69
478.346	79.69
478.564	67.69
478.783	103.69
479.002	85.69
479.22	111.69
479.439	96.69
479.658	110.69
479.876	106.69
480.095	98.69
480.313	115.69
480.532	87.69
480.751	90.69
480.969	105.69
481.188	185.69
481.406	155.69
481.624	103.69
481.843	99.69
482.061	91.69
482.28	95.69
482.498	102.69
482.717	100.69
482.935	95.69
483.153	96.69
483.372	102.69
483.59	95.69
483.808	78.69
484.027	88.69
484.245	88.69
484.463	103.69
484.681	89.69
484.9	91.69
485.118	86.69
485.336	90.69
485.554	97.69
485.772	95.69
485.99	84.69
486.209	107.69
486.427	100.69
486.645	113.69
486.863	115.69
487.081	107.69
487.299	94.69
487.517	95.69
487.735	82.69
487.953	102.69
488.171	94.69
488.389	93.69
488.607	108.69
488.825	93.69
489.043	93.69
489.261	85.69
489.479	91.69
489.696	82.69
489.914	93.69
490.132	82.69
490.35	85.69
490.568	92.69
490.786	94.69
491.003	93.69
491.221	97.69
491.439	83.69
491.657	103.69
491.874	96.69
492.092	88.69
492.31	88.69
492.527	88.69
492.745	77.69
492.963	86.69
493.18	88.69
493.398	96.69
493.615	101.69
493.833	95.69
494.05	94.69
494.268	87.69
494.485	93.69
494.703	92.69
494.92	80.69
495.138	84.69
495.355	86.69
495.573	83.69
495.79	94.69
496.008	94.69
496.225	81.69
496.442	79.69
496.66	90.69
496.877	92.69
497.094	97.69
497.312	98.69
497.529	79.69
497.746	105.69
497.963	96.69
498.181	87.69
498.398	99.69
498.615	116.69
498.832	100.69
499.049	98.69
499.267	96.69
499.484	84.69
499.701	95.69
499.918	94.69
500.135	90.69
500.352	93.69
500.569	87.69
500.786	82.69
501.003	86.69
501.22	80.69
501.437	86.69
501.654	99.69
501.871	122.69
502.088	95.69
502.305	89.69
502.522	89.69
502.739	93.69
502.956	76.69
503.172	86.69
503.389	97.69
503.606	106.69
503.823	77.69
504.04	98.69
504.256	72.69
504.473	101.69
504.69	92.69
504.907	93.69
505.123	79.69
505.34	80.69
505.557	93.69
505.773	97.69
505.99	87.69
506.207	94.69
506.423	87.69
506.64	93.69
506.856	84.69
507.073	96.69
507.289	90.69
507.506	95.69
507.722	116.69
507.939	125.69
508.155	116.69
508.372	102.69
508.588	80.69
508.805	87.69
509.021	89.69
509.238	93.69
509.454	107.69
509.67	109.69
509.887	114.69
510.103	138.69
510.319	239.69
510.536	934.69
510.752	3054.69
510.968	830.69
511.184	170.69
511.401	119.69
511.617	112.69
511.833	87.69
512.049	97.69
512.265	96.69
512.481	92.69
512.698	99.69
512.914	91.69
513.13	99.69
513.346	86.69
513.562	95.69
513.778	111.69
513.994	99.69
514.21	101.69
514.426	134.69
