Data from Circ_2006_H10_HRD10591_00049.txt Node
Date: Wed Jan 03 10:26:13 EST 2024
User: Yrep
Spectrometer: HR+D1059
Trigger mode: 1
Integration Time (sec): 1.000000E-1
Scans to average: 1
Electric dark correction enabled: true
Nonlinearity correction enabled: false
Boxcar width: 0
XAxis mode: Wavelengths
Number of Pixels in Spectrum: 2048
>>>>>Begin Spectral Data<<<<<
223.165	-16.31
223.4	-16.31
223.635	-16.31
223.869	-17.31
224.104	-6.31
224.338	-16.31
224.573	-10.31
224.808	-27.31
225.042	-14.31
225.277	-15.31
225.511	-7.31
225.746	11.69
225.98	2.69
226.215	22.69
226.449	12.69
226.683	25.69
226.918	23.69
227.152	31.69
227.387	37.69
227.621	33.69
227.856	41.69
228.09	48.69
228.324	42.69
228.559	44.69
228.793	63.69
229.027	55.69
229.262	51.69
229.496	65.69
229.73	77.69
229.964	92.69
230.199	76.69
230.433	77.69
230.667	80.69
230.901	77.69
231.136	61.69
231.37	73.69
231.604	80.69
231.838	75.69
232.072	72.69
232.306	88.69
232.541	86.69
232.775	72.69
233.009	79.69
233.243	67.69
233.477	71.69
233.711	76.69
233.945	72.69
234.179	70.69
234.413	75.69
234.647	66.69
234.881	64.69
235.115	67.69
235.349	68.69
235.583	77.69
235.817	80.69
236.051	74.69
236.285	68.69
236.519	84.69
236.753	65.69
236.987	60.69
237.221	84.69
237.455	88.69
237.689	80.69
237.922	81.69
238.156	76.69
238.39	78.69
238.624	76.69
238.858	67.69
239.091	72.69
239.325	76.69
239.559	74.69
239.793	73.69
240.027	86.69
240.26	77.69
240.494	69.69
240.728	82.69
240.961	68.69
241.195	65.69
241.429	77.69
241.662	72.69
241.896	79.69
242.13	61.69
242.363	73.69
242.597	81.69
242.83	63.69
243.064	69.69
243.298	72.69
243.531	89.69
243.765	82.69
243.998	82.69
244.232	80.69
244.465	80.69
244.699	77.69
244.932	74.69
245.166	68.69
245.399	67.69
245.633	71.69
245.866	69.69
246.099	69.69
246.333	61.69
246.566	76.69
246.8	82.69
247.033	67.69
247.266	56.69
247.5	76.69
247.733	63.69
247.966	81.69
248.2	81.69
248.433	77.69
248.666	70.69
248.899	79.69
249.133	93.69
249.366	82.69
249.599	89.69
249.832	75.69
250.066	70.69
250.299	82.69
250.532	79.69
250.765	86.69
250.998	85.69
251.231	77.69
251.465	74.69
251.698	72.69
251.931	80.69
252.164	72.69
252.397	78.69
252.63	83.69
252.863	85.69
253.096	77.69
253.329	79.69
253.562	69.69
253.795	77.69
254.028	74.69
254.261	72.69
254.494	83.69
254.727	87.69
254.96	79.69
255.193	68.69
255.426	83.69
255.659	74.69
255.892	73.69
256.124	71.69
256.357	69.69
256.59	73.69
256.823	87.69
257.056	80.69
257.289	71.69
257.521	69.69
257.754	71.69
257.987	84.69
258.22	82.69
258.452	74.69
258.685	89.69
258.918	83.69
259.151	69.69
259.383	86.69
259.616	77.69
259.849	80.69
260.081	91.69
260.314	75.69
260.547	84.69
260.779	93.69
261.012	82.69
261.244	87.69
261.477	76.69
261.71	103.69
261.942	123.69
262.175	131.69
262.407	99.69
262.64	71.69
262.872	77.69
263.105	80.69
263.337	90.69
263.57	77.69
263.802	79.69
264.035	80.69
264.267	70.69
264.499	71.69
264.732	71.69
264.964	73.69
265.197	77.69
265.429	74.69
265.661	83.69
265.894	91.69
266.126	80.69
266.358	79.69
266.591	86.69
266.823	83.69
267.055	84.69
267.287	73.69
267.52	81.69
267.752	83.69
267.984	82.69
268.216	72.69
268.448	83.69
268.681	86.69
268.913	92.69
269.145	83.69
269.377	79.69
269.609	79.69
269.841	81.69
270.073	92.69
270.306	77.69
270.538	86.69
270.77	75.69
271.002	88.69
271.234	77.69
271.466	74.69
271.698	90.69
271.93	70.69
272.162	83.69
272.394	82.69
272.626	74.69
272.858	75.69
273.09	73.69
273.322	73.69
273.553	76.69
273.785	72.69
274.017	72.69
274.249	87.69
274.481	85.69
274.713	69.69
274.945	85.69
275.176	70.69
275.408	83.69
275.64	91.69
275.872	81.69
276.104	88.69
276.335	74.69
276.567	110.69
276.799	139.69
277.031	115.69
277.262	94.69
277.494	86.69
277.726	93.69
277.957	93.69
278.189	67.69
278.421	80.69
278.652	87.69
278.884	87.69
279.115	83.69
279.347	86.69
279.579	74.69
279.81	95.69
280.042	90.69
280.273	75.69
280.505	86.69
280.736	81.69
280.968	90.69
281.199	77.69
281.431	65.69
281.662	81.69
281.894	94.69
282.125	106.69
282.356	138.69
282.588	165.69
282.819	124.69
283.051	91.69
283.282	68.69
283.513	84.69
283.745	89.69
283.976	77.69
284.207	69.69
284.439	71.69
284.67	83.69
284.901	82.69
285.132	89.69
285.364	90.69
285.595	72.69
285.826	73.69
286.057	80.69
286.288	83.69
286.52	85.69
286.751	74.69
286.982	76.69
287.213	84.69
287.444	87.69
287.675	75.69
287.906	81.69
288.138	89.69
288.369	107.69
288.6	86.69
288.831	82.69
289.062	78.69
289.293	79.69
289.524	89.69
289.755	90.69
289.986	92.69
290.217	106.69
290.448	90.69
290.679	89.69
290.91	74.69
291.141	73.69
291.371	94.69
291.602	96.69
291.833	89.69
292.064	90.69
292.295	74.69
292.526	80.69
292.757	86.69
292.987	91.69
293.218	92.69
293.449	88.69
293.68	82.69
293.91	84.69
294.141	89.69
294.372	87.69
294.603	90.69
294.833	83.69
295.064	90.69
295.295	87.69
295.525	93.69
295.756	85.69
295.987	129.69
296.217	162.69
296.448	142.69
296.679	93.69
296.909	82.69
297.14	91.69
297.37	85.69
297.601	77.69
297.831	79.69
298.062	76.69
298.292	92.69
298.523	88.69
298.753	78.69
298.984	88.69
299.214	78.69
299.445	93.69
299.675	93.69
299.905	90.69
300.136	95.69
300.366	73.69
300.597	92.69
300.827	103.69
301.057	108.69
301.288	122.69
301.518	100.69
301.748	77.69
301.979	89.69
302.209	89.69
302.439	82.69
302.669	79.69
302.9	75.69
303.13	75.69
303.36	90.69
303.59	107.69
303.82	102.69
304.051	96.69
304.281	78.69
304.511	94.69
304.741	102.69
304.971	74.69
305.201	82.69
305.431	79.69
305.661	88.69
305.891	81.69
306.121	98.69
306.352	104.69
306.582	105.69
306.812	95.69
307.042	89.69
307.272	81.69
307.502	101.69
307.731	110.69
307.961	88.69
308.191	80.69
308.421	82.69
308.651	89.69
308.881	97.69
309.111	93.69
309.341	83.69
309.571	101.69
309.8	91.69
310.03	97.69
310.26	92.69
310.49	106.69
310.72	103.69
310.949	106.69
311.179	121.69
311.409	97.69
311.639	97.69
311.868	112.69
312.098	95.69
312.328	102.69
312.557	103.69
312.787	108.69
313.017	108.69
313.246	90.69
313.476	79.69
313.706	102.69
313.935	103.69
314.165	114.69
314.394	108.69
314.624	100.69
314.853	109.69
315.083	88.69
315.312	91.69
315.542	90.69
315.771	85.69
316.001	86.69
316.23	82.69
316.46	90.69
316.689	90.69
316.919	87.69
317.148	100.69
317.377	101.69
317.607	103.69
317.836	98.69
318.065	72.69
318.295	82.69
318.524	80.69
318.753	94.69
318.983	101.69
319.212	99.69
319.441	116.69
319.67	109.69
319.9	92.69
320.129	100.69
320.358	99.69
320.587	87.69
320.816	98.69
321.046	115.69
321.275	106.69
321.504	97.69
321.733	99.69
321.962	115.69
322.191	108.69
322.42	102.69
322.649	122.69
322.878	128.69
323.108	138.69
323.337	137.69
323.566	160.69
323.795	200.69
324.024	266.69
324.253	591.69
324.482	1339.69
324.71	2821.69
324.939	3659.69
325.168	1253.69
325.397	351.69
325.626	173.69
325.855	157.69
326.084	151.69
326.313	169.69
326.542	188.69
326.77	312.69
326.999	706.69
327.228	1509.69
327.457	2791.69
327.686	2144.69
327.914	549.69
328.143	263.69
328.372	188.69
328.6	153.69
328.829	122.69
329.058	168.69
329.287	150.69
329.515	118.69
329.744	102.69
329.972	100.69
330.201	141.69
330.43	152.69
330.658	149.69
330.887	195.69
331.115	137.69
331.344	101.69
331.572	114.69
331.801	113.69
332.03	99.69
332.258	99.69
332.486	81.69
332.715	89.69
332.943	94.69
333.172	94.69
333.4	103.69
333.629	109.69
333.857	113.69
334.085	111.69
334.314	121.69
334.542	133.69
334.771	144.69
334.999	113.69
335.227	82.69
335.455	85.69
335.684	99.69
335.912	101.69
336.14	97.69
336.369	97.69
336.597	93.69
336.825	101.69
337.053	76.69
337.281	97.69
337.51	92.69
337.738	95.69
337.966	94.69
338.194	99.69
338.422	93.69
338.65	95.69
338.878	90.69
339.106	79.69
339.334	89.69
339.562	85.69
339.79	88.69
340.018	102.69
340.246	93.69
340.474	85.69
340.702	87.69
340.93	86.69
341.158	85.69
341.386	104.69
341.614	99.69
341.842	94.69
342.07	94.69
342.298	92.69
342.526	82.69
342.754	87.69
342.981	83.69
343.209	74.69
343.437	89.69
343.665	94.69
343.893	85.69
344.12	97.69
344.348	86.69
344.576	97.69
344.804	93.69
345.031	103.69
345.259	107.69
345.487	103.69
345.714	105.69
345.942	108.69
346.17	88.69
346.397	93.69
346.625	80.69
346.853	73.69
347.08	98.69
347.308	104.69
347.535	101.69
347.763	97.69
347.99	108.69
348.218	100.69
348.445	106.69
348.673	93.69
348.9	92.69
349.128	101.69
349.355	107.69
349.583	91.69
349.81	97.69
350.037	101.69
350.265	85.69
350.492	93.69
350.72	98.69
350.947	99.69
351.174	101.69
351.402	105.69
351.629	112.69
351.856	90.69
352.083	106.69
352.311	103.69
352.538	117.69
352.765	121.69
352.992	133.69
353.22	119.69
353.447	104.69
353.674	88.69
353.901	86.69
354.128	100.69
354.355	89.69
354.583	105.69
354.81	93.69
355.037	87.69
355.264	86.69
355.491	93.69
355.718	75.69
355.945	96.69
356.172	86.69
356.399	81.69
356.626	87.69
356.853	92.69
357.08	74.69
357.307	92.69
357.534	84.69
357.761	91.69
357.988	98.69
358.215	95.69
358.441	87.69
358.668	84.69
358.895	93.69
359.122	92.69
359.349	82.69
359.576	92.69
359.802	101.69
360.029	139.69
360.256	117.69
360.483	109.69
360.709	93.69
360.936	99.69
361.163	104.69
361.39	103.69
361.616	113.69
361.843	103.69
362.07	95.69
362.296	97.69
362.523	93.69
362.749	90.69
362.976	101.69
363.203	98.69
363.429	91.69
363.656	88.69
363.882	86.69
364.109	80.69
364.335	89.69
364.562	89.69
364.788	76.69
365.015	93.69
365.241	104.69
365.468	115.69
365.694	100.69
365.92	90.69
366.147	87.69
366.373	89.69
366.599	76.69
366.826	99.69
367.052	89.69
367.278	102.69
367.505	81.69
367.731	87.69
367.957	81.69
368.184	77.69
368.41	88.69
368.636	113.69
368.862	123.69
369.089	118.69
369.315	106.69
369.541	85.69
369.767	89.69
369.993	93.69
370.219	79.69
370.445	105.69
370.672	89.69
370.898	94.69
371.124	93.69
371.35	84.69
371.576	88.69
371.802	88.69
372.028	95.69
372.254	82.69
372.48	86.69
372.706	85.69
372.932	80.69
373.158	86.69
373.384	90.69
373.61	86.69
373.835	86.69
374.061	88.69
374.287	95.69
374.513	95.69
374.739	88.69
374.965	92.69
375.191	83.69
375.416	84.69
375.642	89.69
375.868	95.69
376.094	88.69
376.319	85.69
376.545	97.69
376.771	93.69
376.997	74.69
377.222	89.69
377.448	72.69
377.674	89.69
377.899	87.69
378.125	101.69
378.35	96.69
378.576	98.69
378.802	82.69
379.027	74.69
379.253	88.69
379.478	87.69
379.704	90.69
379.929	86.69
380.155	83.69
380.38	97.69
380.606	91.69
380.831	83.69
381.057	94.69
381.282	92.69
381.507	82.69
381.733	104.69
381.958	81.69
382.184	105.69
382.409	95.69
382.634	103.69
382.86	102.69
383.085	88.69
383.31	89.69
383.535	100.69
383.761	103.69
383.986	108.69
384.211	92.69
384.436	98.69
384.662	95.69
384.887	109.69
385.112	109.69
385.337	93.69
385.562	96.69
385.787	93.69
386.013	105.69
386.238	127.69
386.463	135.69
386.688	115.69
386.913	112.69
387.138	102.69
387.363	97.69
387.588	95.69
387.813	97.69
388.038	106.69
388.263	108.69
388.488	107.69
388.713	88.69
388.938	78.69
389.163	91.69
389.387	94.69
389.612	91.69
389.837	80.69
390.062	85.69
390.287	90.69
390.512	88.69
390.736	97.69
390.961	88.69
391.186	83.69
391.411	86.69
391.636	82.69
391.86	76.69
392.085	93.69
392.31	83.69
392.534	79.69
392.759	91.69
392.984	74.69
393.208	81.69
393.433	87.69
393.658	75.69
393.882	76.69
394.107	93.69
394.331	74.69
394.556	76.69
394.78	81.69
395.005	87.69
395.229	90.69
395.454	92.69
395.678	86.69
395.903	91.69
396.127	94.69
396.352	75.69
396.576	94.69
396.801	82.69
397.025	72.69
397.249	92.69
397.474	85.69
397.698	80.69
397.922	95.69
398.147	77.69
398.371	81.69
398.595	89.69
398.82	83.69
399.044	80.69
399.268	84.69
399.492	74.69
399.717	102.69
399.941	93.69
400.165	88.69
400.389	93.69
400.613	89.69
400.837	79.69
401.062	106.69
401.286	85.69
401.51	91.69
401.734	98.69
401.958	104.69
402.182	153.69
402.406	168.69
402.63	138.69
402.854	94.69
403.078	97.69
403.302	74.69
403.526	88.69
403.75	86.69
403.974	80.69
404.198	89.69
404.422	76.69
404.645	81.69
404.869	89.69
405.093	89.69
405.317	108.69
405.541	99.69
405.765	121.69
405.988	127.69
406.212	233.69
406.436	307.69
406.66	181.69
406.883	115.69
407.107	106.69
407.331	104.69
407.555	123.69
407.778	110.69
408.002	87.69
408.226	91.69
408.449	89.69
408.673	77.69
408.896	89.69
409.12	93.69
409.344	83.69
409.567	99.69
409.791	90.69
410.014	98.69
410.238	91.69
410.461	79.69
410.685	89.69
410.908	107.69
411.132	98.69
411.355	91.69
411.578	96.69
411.802	102.69
412.025	83.69
412.249	104.69
412.472	82.69
412.695	103.69
412.919	66.69
413.142	89.69
413.365	89.69
413.589	88.69
413.812	90.69
414.035	74.69
414.258	90.69
414.482	82.69
414.705	83.69
414.928	87.69
415.151	89.69
415.374	86.69
415.597	87.69
415.821	85.69
416.044	90.69
416.267	72.69
416.49	81.69
416.713	86.69
416.936	103.69
417.159	90.69
417.382	74.69
417.605	82.69
417.828	81.69
418.051	79.69
418.274	78.69
418.497	87.69
418.72	86.69
418.943	97.69
419.166	81.69
419.389	91.69
419.611	82.69
419.834	86.69
420.057	87.69
420.28	84.69
420.503	83.69
420.726	85.69
420.948	83.69
421.171	105.69
421.394	91.69
421.617	75.69
421.839	82.69
422.062	87.69
422.285	79.69
422.507	82.69
422.73	104.69
422.953	89.69
423.175	80.69
423.398	89.69
423.621	81.69
423.843	79.69
424.066	91.69
424.288	94.69
424.511	87.69
424.733	92.69
424.956	107.69
425.178	104.69
425.401	93.69
425.623	104.69
425.846	86.69
426.068	94.69
426.291	86.69
426.513	76.69
426.735	80.69
426.958	87.69
427.18	113.69
427.402	162.69
427.625	220.69
427.847	169.69
428.069	101.69
428.292	86.69
428.514	93.69
428.736	82.69
428.958	82.69
429.181	81.69
429.403	89.69
429.625	89.69
429.847	95.69
430.069	121.69
430.292	99.69
430.514	84.69
430.736	87.69
430.958	87.69
431.18	75.69
431.402	95.69
431.624	83.69
431.846	77.69
432.068	85.69
432.29	82.69
432.512	79.69
432.734	85.69
432.956	95.69
433.178	97.69
433.4	113.69
433.622	100.69
433.844	77.69
434.066	88.69
434.287	90.69
434.509	83.69
434.731	79.69
434.953	82.69
435.175	86.69
435.397	93.69
435.618	83.69
435.84	119.69
436.062	137.69
436.284	118.69
436.505	110.69
436.727	107.69
436.949	105.69
437.17	74.69
437.392	89.69
437.614	87.69
437.835	116.69
438.057	131.69
438.278	122.69
438.5	110.69
438.721	117.69
438.943	109.69
439.165	82.69
439.386	88.69
439.608	101.69
439.829	117.69
440.05	140.69
440.272	173.69
440.493	110.69
440.715	91.69
440.936	80.69
441.158	82.69
441.379	90.69
441.6	87.69
441.822	87.69
442.043	99.69
442.264	106.69
442.486	126.69
442.707	92.69
442.928	120.69
443.149	141.69
443.371	158.69
443.592	112.69
443.813	128.69
444.034	122.69
444.255	89.69
444.476	107.69
444.698	87.69
444.919	94.69
445.14	131.69
445.361	124.69
445.582	137.69
445.803	157.69
446.024	179.69
446.245	156.69
446.466	128.69
446.687	86.69
446.908	86.69
447.129	94.69
447.35	78.69
447.571	86.69
447.792	98.69
448.013	100.69
448.234	103.69
448.455	117.69
448.675	116.69
448.896	143.69
449.117	104.69
449.338	118.69
449.559	131.69
449.779	141.69
450	103.69
450.221	67.69
450.442	88.69
450.662	99.69
450.883	121.69
451.104	135.69
451.324	103.69
451.545	97.69
451.766	78.69
451.986	84.69
452.207	79.69
452.428	100.69
452.648	96.69
452.869	123.69
453.089	117.69
453.31	131.69
453.53	105.69
453.751	86.69
453.971	123.69
454.192	121.69
454.412	106.69
454.633	77.69
454.853	95.69
455.073	94.69
455.294	85.69
455.514	97.69
455.734	105.69
455.955	95.69
456.175	87.69
456.395	84.69
456.616	87.69
456.836	80.69
457.056	89.69
457.276	74.69
457.497	84.69
457.717	77.69
457.937	79.69
458.157	76.69
458.377	101.69
458.598	132.69
458.818	192.69
459.038	210.69
459.258	138.69
459.478	105.69
459.698	82.69
459.918	101.69
460.138	75.69
460.358	82.69
460.578	83.69
460.798	89.69
461.018	75.69
461.238	89.69
461.458	95.69
461.678	77.69
461.898	84.69
462.118	77.69
462.338	84.69
462.558	65.69
462.777	78.69
462.997	78.69
463.217	73.69
463.437	83.69
463.657	82.69
463.876	70.69
464.096	84.69
464.316	93.69
464.536	98.69
464.755	84.69
464.975	106.69
465.195	204.69
465.414	217.69
465.634	105.69
465.854	88.69
466.073	83.69
466.293	81.69
466.512	96.69
466.732	90.69
466.951	90.69
467.171	89.69
467.391	106.69
467.61	110.69
467.829	106.69
468.049	103.69
468.268	99.69
468.488	73.69
468.707	82.69
468.927	77.69
469.146	73.69
469.365	86.69
469.585	89.69
469.804	88.69
470.023	85.69
470.243	84.69
470.462	108.69
470.681	108.69
470.901	101.69
471.12	87.69
471.339	74.69
471.558	86.69
471.777	82.69
471.997	84.69
472.216	112.69
472.435	161.69
472.654	95.69
472.873	98.69
473.092	89.69
473.311	82.69
473.53	83.69
473.749	90.69
473.968	96.69
474.187	99.69
474.406	105.69
474.625	99.69
474.844	85.69
475.063	63.69
475.282	94.69
475.501	90.69
475.72	79.69
475.939	80.69
476.158	78.69
476.377	80.69
476.596	95.69
476.814	92.69
477.033	101.69
477.252	95.69
477.471	82.69
477.69	93.69
477.908	78.69
478.127	86.69
478.346	84.69
478.564	91.69
478.783	89.69
479.002	95.69
479.22	94.69
479.439	96.69
479.658	115.69
479.876	98.69
480.095	83.69
480.313	86.69
480.532	87.69
480.751	90.69
480.969	128.69
481.188	234.69
481.406	170.69
481.624	87.69
481.843	69.69
482.061	76.69
482.28	92.69
482.498	80.69
482.717	85.69
482.935	88.69
483.153	82.69
483.372	84.69
483.59	89.69
483.808	84.69
484.027	82.69
484.245	87.69
484.463	105.69
484.681	93.69
484.9	98.69
485.118	97.69
485.336	101.69
485.554	100.69
485.772	98.69
485.99	105.69
486.209	94.69
486.427	99.69
486.645	135.69
486.863	119.69
487.081	112.69
487.299	90.69
487.517	94.69
487.735	90.69
487.953	93.69
488.171	89.69
488.389	106.69
488.607	97.69
488.825	91.69
489.043	82.69
489.261	94.69
489.479	81.69
489.696	82.69
489.914	73.69
490.132	98.69
490.35	94.69
490.568	91.69
490.786	75.69
491.003	84.69
491.221	84.69
491.439	77.69
491.657	82.69
491.874	95.69
492.092	88.69
492.31	94.69
492.527	86.69
492.745	83.69
492.963	72.69
493.18	87.69
493.398	89.69
493.615	101.69
493.833	95.69
494.05	76.69
494.268	91.69
494.485	81.69
494.703	89.69
494.92	85.69
495.138	93.69
495.355	85.69
495.573	102.69
495.79	89.69
496.008	89.69
496.225	100.69
496.442	80.69
496.66	82.69
496.877	78.69
497.094	85.69
497.312	90.69
497.529	80.69
497.746	88.69
497.963	94.69
498.181	101.69
498.398	86.69
498.615	126.69
498.832	99.69
499.049	94.69
499.267	93.69
499.484	87.69
499.701	97.69
499.918	84.69
500.135	81.69
500.352	73.69
500.569	74.69
500.786	80.69
501.003	97.69
501.22	81.69
501.437	78.69
501.654	96.69
501.871	112.69
502.088	92.69
502.305	90.69
502.522	91.69
502.739	83.69
502.956	85.69
503.172	89.69
503.389	92.69
503.606	103.69
503.823	94.69
504.04	89.69
504.256	94.69
504.473	86.69
504.69	76.69
504.907	104.69
505.123	89.69
505.34	82.69
505.557	85.69
505.773	81.69
505.99	79.69
506.207	92.69
506.423	75.69
506.64	73.69
506.856	89.69
507.073	72.69
507.289	95.69
507.506	103.69
507.722	120.69
507.939	113.69
508.155	86.69
508.372	81.69
508.588	91.69
508.805	98.69
509.021	108.69
509.238	93.69
509.454	84.69
509.67	86.69
509.887	120.69
510.103	153.69
510.319	253.69
510.536	1051.69
510.752	3469.69
510.968	928.69
511.184	175.69
511.401	111.69
511.617	99.69
511.833	95.69
512.049	103.69
512.265	94.69
512.481	74.69
512.698	88.69
512.914	90.69
513.13	98.69
513.346	99.69
513.562	112.69
513.778	101.69
513.994	110.69
514.21	99.69
514.426	135.69
514.642	169.69
514.858	141.69
515.074	208.69
515.29	726.69
