Data from Circ_2006_H10_HRD10591_00081.txt Node
Date: Wed Jan 03 10:26:20 EST 2024
User: Yrep
Spectrometer: HR+D1059
Trigger mode: 1
Integration Time (sec): 1.000000E-1
Scans to average: 1
Electric dark correction enabled: true
Nonlinearity correction enabled: false
Boxcar width: 0
XAxis mode: Wavelengths
Number of Pixels in Spectrum: 2048
>>>>>Begin Spectral Data<<<<<
223.165	-22.31
223.4	-22.31
223.635	-22.31
223.869	-27.31
224.104	-3.31
224.338	-33.31
224.573	-17.31
224.808	13.69
225.042	-15.31
225.277	-5.31
225.511	-1.31
225.746	9.69
225.98	-5.31
226.215	26.69
226.449	4.69
226.683	26.69
226.918	25.69
227.152	23.69
227.387	39.69
227.621	28.69
227.856	38.69
228.09	45.69
228.324	52.69
228.559	52.69
228.793	69.69
229.027	64.69
229.262	53.69
229.496	74.69
229.73	76.69
229.964	97.69
230.199	86.69
230.433	66.69
230.667	68.69
230.901	73.69
231.136	77.69
231.37	80.69
231.604	79.69
231.838	75.69
232.072	78.69
232.306	84.69
232.541	83.69
232.775	81.69
233.009	65.69
233.243	72.69
233.477	86.69
233.711	84.69
233.945	69.69
234.179	80.69
234.413	99.69
234.647	76.69
234.881	80.69
235.115	74.69
235.349	86.69
235.583	86.69
235.817	78.69
236.051	77.69
236.285	81.69
236.519	77.69
236.753	71.69
236.987	90.69
237.221	66.69
237.455	77.69
237.689	77.69
237.922	66.69
238.156	78.69
238.39	62.69
238.624	83.69
238.858	74.69
239.091	62.69
239.325	73.69
239.559	94.69
239.793	88.69
240.027	69.69
240.26	81.69
240.494	64.69
240.728	82.69
240.961	74.69
241.195	77.69
241.429	80.69
241.662	79.69
241.896	65.69
242.13	69.69
242.363	68.69
242.597	80.69
242.83	84.69
243.064	74.69
243.298	64.69
243.531	79.69
243.765	69.69
243.998	69.69
244.232	80.69
244.465	100.69
244.699	72.69
244.932	72.69
245.166	79.69
245.399	91.69
245.633	92.69
245.866	67.69
246.099	85.69
246.333	88.69
246.566	76.69
246.8	76.69
247.033	86.69
247.266	83.69
247.5	79.69
247.733	77.69
247.966	78.69
248.2	78.69
248.433	83.69
248.666	73.69
248.899	78.69
249.133	82.69
249.366	95.69
249.599	102.69
249.832	74.69
250.066	84.69
250.299	86.69
250.532	79.69
250.765	69.69
250.998	69.69
251.231	65.69
251.465	68.69
251.698	86.69
251.931	73.69
252.164	83.69
252.397	87.69
252.63	84.69
252.863	86.69
253.096	76.69
253.329	74.69
253.562	78.69
253.795	82.69
254.028	78.69
254.261	77.69
254.494	77.69
254.727	89.69
254.96	83.69
255.193	86.69
255.426	84.69
255.659	90.69
255.892	76.69
256.124	73.69
256.357	72.69
256.59	83.69
256.823	86.69
257.056	78.69
257.289	78.69
257.521	73.69
257.754	92.69
257.987	88.69
258.22	95.69
258.452	90.69
258.685	80.69
258.918	81.69
259.151	77.69
259.383	95.69
259.616	78.69
259.849	82.69
260.081	87.69
260.314	70.69
260.547	78.69
260.779	75.69
261.012	98.69
261.244	82.69
261.477	86.69
261.71	94.69
261.942	104.69
262.175	120.69
262.407	94.69
262.64	82.69
262.872	85.69
263.105	83.69
263.337	87.69
263.57	93.69
263.802	85.69
264.035	97.69
264.267	87.69
264.499	65.69
264.732	84.69
264.964	83.69
265.197	84.69
265.429	92.69
265.661	93.69
265.894	87.69
266.126	77.69
266.358	89.69
266.591	85.69
266.823	76.69
267.055	75.69
267.287	89.69
267.52	84.69
267.752	77.69
267.984	84.69
268.216	77.69
268.448	85.69
268.681	77.69
268.913	68.69
269.145	80.69
269.377	84.69
269.609	84.69
269.841	77.69
270.073	84.69
270.306	62.69
270.538	76.69
270.77	79.69
271.002	82.69
271.234	83.69
271.466	96.69
271.698	76.69
271.93	81.69
272.162	83.69
272.394	95.69
272.626	73.69
272.858	85.69
273.09	90.69
273.322	78.69
273.553	75.69
273.785	76.69
274.017	85.69
274.249	80.69
274.481	78.69
274.713	94.69
274.945	81.69
275.176	82.69
275.408	77.69
275.64	83.69
275.872	71.69
276.104	93.69
276.335	76.69
276.567	106.69
276.799	125.69
277.031	112.69
277.262	86.69
277.494	98.69
277.726	97.69
277.957	79.69
278.189	72.69
278.421	85.69
278.652	92.69
278.884	78.69
279.115	86.69
279.347	85.69
279.579	88.69
279.81	87.69
280.042	104.69
280.273	92.69
280.505	89.69
280.736	87.69
280.968	97.69
281.199	93.69
281.431	78.69
281.662	81.69
281.894	78.69
282.125	95.69
282.356	108.69
282.588	154.69
282.819	113.69
283.051	92.69
283.282	92.69
283.513	99.69
283.745	74.69
283.976	82.69
284.207	88.69
284.439	75.69
284.67	94.69
284.901	79.69
285.132	79.69
285.364	83.69
285.595	87.69
285.826	73.69
286.057	103.69
286.288	89.69
286.52	92.69
286.751	81.69
286.982	76.69
287.213	96.69
287.444	82.69
287.675	97.69
287.906	85.69
288.138	97.69
288.369	91.69
288.6	90.69
288.831	90.69
289.062	89.69
289.293	86.69
289.524	94.69
289.755	95.69
289.986	90.69
290.217	99.69
290.448	85.69
290.679	83.69
290.91	86.69
291.141	95.69
291.371	85.69
291.602	90.69
291.833	96.69
292.064	84.69
292.295	66.69
292.526	88.69
292.757	98.69
292.987	89.69
293.218	94.69
293.449	82.69
293.68	93.69
293.91	81.69
294.141	76.69
294.372	70.69
294.603	86.69
294.833	85.69
295.064	83.69
295.295	84.69
295.525	68.69
295.756	100.69
295.987	127.69
296.217	166.69
296.448	126.69
296.679	98.69
296.909	93.69
297.14	92.69
297.37	91.69
297.601	80.69
297.831	85.69
298.062	75.69
298.292	87.69
298.523	89.69
298.753	79.69
298.984	92.69
299.214	94.69
299.445	84.69
299.675	99.69
299.905	80.69
300.136	93.69
300.366	81.69
300.597	75.69
300.827	92.69
301.057	95.69
301.288	102.69
301.518	85.69
301.748	93.69
301.979	94.69
302.209	85.69
302.439	86.69
302.669	76.69
302.9	89.69
303.13	111.69
303.36	99.69
303.59	107.69
303.82	123.69
304.051	91.69
304.281	84.69
304.511	84.69
304.741	80.69
304.971	80.69
305.201	96.69
305.431	84.69
305.661	85.69
305.891	96.69
306.121	99.69
306.352	107.69
306.582	110.69
306.812	124.69
307.042	94.69
307.272	87.69
307.502	86.69
307.731	89.69
307.961	82.69
308.191	84.69
308.421	86.69
308.651	108.69
308.881	97.69
309.111	85.69
309.341	98.69
309.571	105.69
309.8	95.69
310.03	88.69
310.26	101.69
310.49	97.69
310.72	92.69
310.949	102.69
311.179	99.69
311.409	88.69
311.639	96.69
311.868	92.69
312.098	96.69
312.328	93.69
312.557	112.69
312.787	128.69
313.017	117.69
313.246	95.69
313.476	88.69
313.706	99.69
313.935	86.69
314.165	102.69
314.394	107.69
314.624	99.69
314.853	94.69
315.083	91.69
315.312	96.69
315.542	74.69
315.771	88.69
316.001	96.69
316.23	108.69
316.46	78.69
316.689	88.69
316.919	96.69
317.148	93.69
317.377	107.69
317.607	108.69
317.836	85.69
318.065	89.69
318.295	83.69
318.524	98.69
318.753	92.69
318.983	96.69
319.212	97.69
319.441	109.69
319.67	98.69
319.9	104.69
320.129	99.69
320.358	91.69
320.587	95.69
320.816	104.69
321.046	95.69
321.275	98.69
321.504	94.69
321.733	94.69
321.962	95.69
322.191	92.69
322.42	112.69
322.649	121.69
322.878	124.69
323.108	122.69
323.337	133.69
323.566	130.69
323.795	169.69
324.024	217.69
324.253	469.69
324.482	998.69
324.71	2137.69
324.939	2762.69
325.168	1026.69
325.397	268.69
325.626	158.69
325.855	143.69
326.084	120.69
326.313	133.69
326.542	173.69
326.77	268.69
326.999	547.69
327.228	1172.69
327.457	2129.69
327.686	1658.69
327.914	435.69
328.143	227.69
328.372	189.69
328.6	141.69
328.829	129.69
329.058	145.69
329.287	131.69
329.515	110.69
329.744	120.69
329.972	133.69
330.201	169.69
330.43	185.69
330.658	151.69
330.887	163.69
331.115	122.69
331.344	95.69
331.572	104.69
331.801	110.69
332.03	111.69
332.258	89.69
332.486	83.69
332.715	107.69
332.943	96.69
333.172	89.69
333.4	110.69
333.629	107.69
333.857	114.69
334.085	142.69
334.314	150.69
334.542	208.69
334.771	205.69
334.999	113.69
335.227	97.69
335.455	101.69
335.684	83.69
335.912	107.69
336.14	107.69
336.369	97.69
336.597	109.69
336.825	115.69
337.053	84.69
337.281	95.69
337.51	102.69
337.738	90.69
337.966	92.69
338.194	100.69
338.422	104.69
338.65	94.69
338.878	81.69
339.106	93.69
339.334	89.69
339.562	89.69
339.79	100.69
340.018	86.69
340.246	82.69
340.474	108.69
340.702	85.69
340.93	94.69
341.158	100.69
341.386	101.69
341.614	111.69
341.842	99.69
342.07	94.69
342.298	95.69
342.526	83.69
342.754	94.69
342.981	85.69
343.209	84.69
343.437	93.69
343.665	92.69
343.893	98.69
344.12	83.69
344.348	87.69
344.576	93.69
344.804	92.69
345.031	86.69
345.259	98.69
345.487	95.69
345.714	109.69
345.942	92.69
346.17	86.69
346.397	99.69
346.625	93.69
346.853	90.69
347.08	98.69
347.308	108.69
347.535	109.69
347.763	96.69
347.99	90.69
348.218	92.69
348.445	97.69
348.673	106.69
348.9	96.69
349.128	102.69
349.355	101.69
349.583	84.69
349.81	97.69
350.037	100.69
350.265	110.69
350.492	87.69
350.72	110.69
350.947	106.69
351.174	111.69
351.402	122.69
351.629	109.69
351.856	98.69
352.083	98.69
352.311	108.69
352.538	113.69
352.765	114.69
352.992	129.69
353.22	120.69
353.447	94.69
353.674	88.69
353.901	102.69
354.128	101.69
354.355	100.69
354.583	98.69
354.81	86.69
355.037	97.69
355.264	85.69
355.491	95.69
355.718	90.69
355.945	91.69
356.172	99.69
356.399	101.69
356.626	104.69
356.853	74.69
357.08	90.69
357.307	96.69
357.534	96.69
357.761	92.69
357.988	96.69
358.215	88.69
358.441	95.69
358.668	83.69
358.895	93.69
359.122	96.69
359.349	93.69
359.576	99.69
359.802	99.69
360.029	108.69
360.256	97.69
360.483	109.69
360.709	92.69
360.936	92.69
361.163	88.69
361.39	101.69
361.616	88.69
361.843	89.69
362.07	100.69
362.296	86.69
362.523	88.69
362.749	101.69
362.976	96.69
363.203	82.69
363.429	90.69
363.656	88.69
363.882	92.69
364.109	97.69
364.335	92.69
364.562	104.69
364.788	94.69
365.015	93.69
365.241	107.69
365.468	107.69
365.694	108.69
365.92	96.69
366.147	96.69
366.373	88.69
366.599	91.69
366.826	98.69
367.052	90.69
367.278	94.69
367.505	89.69
367.731	95.69
367.957	86.69
368.184	97.69
368.41	101.69
368.636	99.69
368.862	114.69
369.089	122.69
369.315	102.69
369.541	82.69
369.767	86.69
369.993	91.69
370.219	82.69
370.445	73.69
370.672	86.69
370.898	88.69
371.124	102.69
371.35	79.69
371.576	80.69
371.802	89.69
372.028	90.69
372.254	93.69
372.48	80.69
372.706	91.69
372.932	90.69
373.158	85.69
373.384	80.69
373.61	82.69
373.835	83.69
374.061	90.69
374.287	84.69
374.513	96.69
374.739	97.69
374.965	90.69
375.191	87.69
375.416	96.69
375.642	90.69
375.868	92.69
376.094	88.69
376.319	92.69
376.545	97.69
376.771	92.69
376.997	88.69
377.222	96.69
377.448	93.69
377.674	88.69
377.899	85.69
378.125	81.69
378.35	92.69
378.576	84.69
378.802	101.69
379.027	89.69
379.253	105.69
379.478	83.69
379.704	101.69
379.929	83.69
380.155	99.69
380.38	86.69
380.606	96.69
380.831	114.69
381.057	81.69
381.282	87.69
381.507	90.69
381.733	117.69
381.958	100.69
382.184	102.69
382.409	96.69
382.634	89.69
382.86	95.69
383.085	95.69
383.31	97.69
383.535	104.69
383.761	104.69
383.986	94.69
384.211	111.69
384.436	108.69
384.662	95.69
384.887	105.69
385.112	88.69
385.337	105.69
385.562	99.69
385.787	102.69
386.013	111.69
386.238	106.69
386.463	94.69
386.688	107.69
386.913	105.69
387.138	101.69
387.363	108.69
387.588	96.69
387.813	92.69
388.038	99.69
388.263	96.69
388.488	108.69
388.713	104.69
388.938	91.69
389.163	113.69
389.387	102.69
389.612	96.69
389.837	95.69
390.062	94.69
390.287	93.69
390.512	103.69
390.736	83.69
390.961	96.69
391.186	82.69
391.411	89.69
391.636	94.69
391.86	94.69
392.085	86.69
392.31	83.69
392.534	77.69
392.759	88.69
392.984	76.69
393.208	80.69
393.433	88.69
393.658	86.69
393.882	86.69
394.107	90.69
394.331	84.69
394.556	86.69
394.78	92.69
395.005	90.69
395.229	71.69
395.454	80.69
395.678	94.69
395.903	92.69
396.127	90.69
396.352	91.69
396.576	82.69
396.801	88.69
397.025	81.69
397.249	80.69
397.474	87.69
397.698	71.69
397.922	98.69
398.147	89.69
398.371	86.69
398.595	91.69
398.82	78.69
399.044	89.69
399.268	75.69
399.492	94.69
399.717	85.69
399.941	82.69
400.165	91.69
400.389	84.69
400.613	85.69
400.837	74.69
401.062	83.69
401.286	88.69
401.51	84.69
401.734	84.69
401.958	93.69
402.182	134.69
402.406	164.69
402.63	123.69
402.854	125.69
403.078	76.69
403.302	88.69
403.526	74.69
403.75	84.69
403.974	86.69
404.198	91.69
404.422	76.69
404.645	81.69
404.869	92.69
405.093	111.69
405.317	109.69
405.541	112.69
405.765	104.69
405.988	124.69
406.212	190.69
406.436	280.69
406.66	171.69
406.883	109.69
407.107	89.69
407.331	102.69
407.555	97.69
407.778	84.69
408.002	83.69
408.226	91.69
408.449	86.69
408.673	108.69
408.896	98.69
409.12	90.69
409.344	84.69
409.567	89.69
409.791	88.69
410.014	92.69
410.238	94.69
410.461	81.69
410.685	78.69
410.908	106.69
411.132	103.69
411.355	95.69
411.578	93.69
411.802	87.69
412.025	85.69
412.249	92.69
412.472	93.69
412.695	99.69
412.919	105.69
413.142	81.69
413.365	84.69
413.589	84.69
413.812	91.69
414.035	95.69
414.258	80.69
414.482	84.69
414.705	90.69
414.928	96.69
415.151	99.69
415.374	90.69
415.597	80.69
415.821	73.69
416.044	95.69
416.267	83.69
416.49	86.69
416.713	95.69
416.936	84.69
417.159	90.69
417.382	80.69
417.605	74.69
417.828	84.69
418.051	86.69
418.274	98.69
418.497	82.69
418.72	73.69
418.943	72.69
419.166	85.69
419.389	87.69
419.611	106.69
419.834	91.69
420.057	81.69
420.28	82.69
420.503	96.69
420.726	103.69
420.948	84.69
421.171	93.69
421.394	89.69
421.617	80.69
421.839	92.69
422.062	88.69
422.285	96.69
422.507	100.69
422.73	107.69
422.953	92.69
423.175	90.69
423.398	75.69
423.621	93.69
423.843	99.69
424.066	85.69
424.288	82.69
424.511	88.69
424.733	83.69
424.956	87.69
425.178	92.69
425.401	98.69
425.623	101.69
425.846	100.69
426.068	88.69
426.291	92.69
426.513	101.69
426.735	79.69
426.958	88.69
427.18	114.69
427.402	140.69
427.625	186.69
427.847	140.69
428.069	131.69
428.292	99.69
428.514	88.69
428.736	93.69
428.958	83.69
429.181	81.69
429.403	81.69
429.625	83.69
429.847	103.69
430.069	99.69
430.292	74.69
430.514	100.69
430.736	88.69
430.958	90.69
431.18	94.69
431.402	78.69
431.624	98.69
431.846	74.69
432.068	85.69
432.29	86.69
432.512	74.69
432.734	94.69
432.956	86.69
433.178	108.69
433.4	112.69
433.622	91.69
433.844	90.69
434.066	83.69
434.287	95.69
434.509	84.69
434.731	84.69
434.953	76.69
435.175	84.69
435.397	72.69
435.618	73.69
435.84	102.69
436.062	125.69
436.284	133.69
436.505	111.69
436.727	91.69
436.949	84.69
437.17	73.69
437.392	90.69
437.614	82.69
437.835	102.69
438.057	124.69
438.278	113.69
438.5	102.69
438.721	128.69
438.943	96.69
439.165	81.69
439.386	80.69
439.608	98.69
439.829	105.69
440.05	139.69
440.272	148.69
440.493	92.69
440.715	86.69
440.936	80.69
441.158	83.69
441.379	83.69
441.6	97.69
441.822	101.69
442.043	109.69
442.264	120.69
442.486	84.69
442.707	98.69
442.928	104.69
443.149	144.69
443.371	125.69
443.592	107.69
443.813	108.69
444.034	118.69
444.255	104.69
444.476	87.69
444.698	81.69
444.919	91.69
445.14	125.69
445.361	116.69
445.582	111.69
445.803	138.69
446.024	148.69
446.245	136.69
446.466	100.69
446.687	85.69
446.908	88.69
447.129	90.69
447.35	102.69
447.571	96.69
447.792	84.69
448.013	85.69
448.234	106.69
448.455	106.69
448.675	113.69
448.896	120.69
449.117	95.69
449.338	97.69
449.559	122.69
449.779	120.69
450	92.69
450.221	96.69
450.442	93.69
450.662	92.69
450.883	114.69
451.104	117.69
451.324	93.69
451.545	86.69
451.766	85.69
451.986	82.69
452.207	91.69
452.428	96.69
452.648	96.69
452.869	114.69
453.089	104.69
453.31	125.69
453.53	97.69
453.751	90.69
453.971	114.69
454.192	101.69
454.412	77.69
454.633	93.69
454.853	89.69
455.073	99.69
455.294	97.69
455.514	91.69
455.734	83.69
455.955	90.69
456.175	68.69
456.395	78.69
456.616	81.69
456.836	87.69
457.056	94.69
457.276	87.69
457.497	74.69
457.717	72.69
457.937	92.69
458.157	93.69
458.377	94.69
458.598	95.69
458.818	169.69
459.038	174.69
459.258	122.69
459.478	93.69
459.698	89.69
459.918	80.69
460.138	96.69
460.358	64.69
460.578	85.69
460.798	80.69
461.018	81.69
461.238	80.69
461.458	87.69
461.678	89.69
461.898	85.69
462.118	86.69
462.338	97.69
462.558	89.69
462.777	81.69
462.997	88.69
463.217	82.69
463.437	85.69
463.657	80.69
463.876	83.69
464.096	95.69
464.316	99.69
464.536	106.69
464.755	100.69
464.975	106.69
465.195	184.69
465.414	168.69
465.634	91.69
465.854	97.69
466.073	72.69
466.293	85.69
466.512	82.69
466.732	96.69
466.951	89.69
467.171	94.69
467.391	111.69
467.61	103.69
467.829	100.69
468.049	118.69
468.268	136.69
468.488	104.69
468.707	99.69
468.927	82.69
469.146	78.69
469.365	91.69
469.585	76.69
469.804	86.69
470.023	108.69
470.243	86.69
470.462	109.69
470.681	113.69
470.901	101.69
471.12	88.69
471.339	72.69
471.558	89.69
471.777	103.69
471.997	109.69
472.216	162.69
472.435	262.69
472.654	114.69
472.873	94.69
473.092	83.69
473.311	90.69
473.53	68.69
473.749	95.69
473.968	85.69
474.187	95.69
474.406	104.69
474.625	80.69
474.844	88.69
475.063	83.69
475.282	77.69
475.501	83.69
475.72	82.69
475.939	70.69
476.158	81.69
476.377	88.69
476.596	89.69
476.814	97.69
477.033	94.69
477.252	85.69
477.471	90.69
477.69	96.69
477.908	95.69
478.127	91.69
478.346	107.69
478.564	84.69
478.783	84.69
479.002	88.69
479.22	76.69
479.439	104.69
479.658	105.69
479.876	102.69
480.095	91.69
480.313	86.69
480.532	89.69
480.751	99.69
480.969	160.69
481.188	426.69
481.406	290.69
481.624	116.69
481.843	93.69
482.061	97.69
482.28	85.69
482.498	90.69
482.717	91.69
482.935	86.69
483.153	83.69
483.372	83.69
483.59	95.69
483.808	79.69
484.027	95.69
484.245	78.69
484.463	86.69
484.681	95.69
484.9	89.69
485.118	92.69
485.336	93.69
485.554	86.69
485.772	110.69
485.99	90.69
486.209	109.69
486.427	110.69
486.645	111.69
486.863	107.69
487.081	107.69
487.299	92.69
487.517	100.69
487.735	100.69
487.953	92.69
488.171	97.69
488.389	88.69
488.607	98.69
488.825	85.69
489.043	76.69
489.261	102.69
489.479	92.69
489.696	90.69
489.914	79.69
490.132	84.69
490.35	82.69
490.568	93.69
490.786	85.69
491.003	97.69
491.221	77.69
491.439	82.69
491.657	89.69
491.874	82.69
492.092	82.69
492.31	73.69
492.527	80.69
492.745	85.69
492.963	86.69
493.18	85.69
493.398	96.69
493.615	90.69
493.833	99.69
494.05	87.69
494.268	81.69
494.485	86.69
494.703	84.69
494.92	96.69
495.138	94.69
495.355	99.69
495.573	99.69
495.79	66.69
496.008	96.69
496.225	76.69
496.442	83.69
496.66	96.69
496.877	89.69
497.094	80.69
497.312	95.69
497.529	98.69
497.746	88.69
497.963	98.69
498.181	98.69
498.398	99.69
498.615	116.69
498.832	108.69
499.049	91.69
499.267	97.69
499.484	89.69
499.701	92.69
499.918	86.69
500.135	85.69
500.352	97.69
500.569	85.69
500.786	95.69
501.003	94.69
501.22	85.69
501.437	81.69
501.654	98.69
501.871	116.69
502.088	96.69
502.305	97.69
502.522	78.69
502.739	85.69
502.956	93.69
503.172	83.69
503.389	92.69
503.606	108.69
503.823	93.69
504.04	75.69
504.256	90.69
504.473	84.69
504.69	94.69
504.907	86.69
505.123	79.69
505.34	83.69
505.557	92.69
505.773	91.69
505.99	84.69
506.207	94.69
506.423	81.69
506.64	83.69
506.856	84.69
507.073	108.69
507.289	79.69
507.506	92.69
507.722	118.69
507.939	105.69
508.155	93.69
508.372	88.69
508.588	88.69
508.805	98.69
509.021	86.69
509.238	96.69
509.454	98.69
509.67	100.69
509.887	99.69
510.103	144.69
510.319	233.69
510.536	882.69
510.752	2946.69
510.968	814.69
511.184	158.69
511.401	126.69
511.617	95.69
511.833	101.69
512.049	87.69
512.265	94.69
512.481	89.69
512.698	98.69
512.914	91.69
513.13	84.69
513.346	85.69
513.562	96.69
513.778	84.69
513.994	101.69
514.21	110.69
514.426	126.69
514.642	148.69
514.858	141.69
515.074	198.69
515.29	544.69
515.506	1953.69
515.721	722.69
