Data from Circ_2006_H10_HRD10591_00039.txt Node
Date: Wed Jan 03 10:26:11 EST 2024
User: Yrep
Spectrometer: HR+D1059
Trigger mode: 1
Integration Time (sec): 1.000000E-1
Scans to average: 1
Electric dark correction enabled: true
Nonlinearity correction enabled: false
Boxcar width: 0
XAxis mode: Wavelengths
Number of Pixels in Spectrum: 2048
>>>>>Begin Spectral Data<<<<<
223.165	-4.06
223.4	-4.06
223.635	-4.06
223.869	-12.06
224.104	-28.06
224.338	-28.06
224.573	-18.06
224.808	-13.06
225.042	-13.06
225.277	-22.06
225.511	3.94
225.746	9.94
225.98	26.94
226.215	7.94
226.449	3.94
226.683	22.94
226.918	32.94
227.152	29.94
227.387	28.94
227.621	44.94
227.856	47.94
228.09	36.94
228.324	42.94
228.559	51.94
228.793	62.94
229.027	63.94
229.262	68.94
229.496	87.94
229.73	101.94
229.964	84.94
230.199	74.94
230.433	65.94
230.667	80.94
230.901	69.94
231.136	80.94
231.37	64.94
231.604	82.94
231.838	76.94
232.072	76.94
232.306	80.94
232.541	90.94
232.775	76.94
233.009	75.94
233.243	84.94
233.477	73.94
233.711	88.94
233.945	85.94
234.179	82.94
234.413	72.94
234.647	75.94
234.881	90.94
235.115	79.94
235.349	73.94
235.583	79.94
235.817	68.94
236.051	84.94
236.285	90.94
236.519	107.94
236.753	71.94
236.987	72.94
237.221	90.94
237.455	92.94
237.689	86.94
237.922	68.94
238.156	79.94
238.39	90.94
238.624	60.94
238.858	76.94
239.091	69.94
239.325	84.94
239.559	95.94
239.793	84.94
240.027	86.94
240.26	84.94
240.494	78.94
240.728	70.94
240.961	69.94
241.195	77.94
241.429	75.94
241.662	61.94
241.896	81.94
242.13	80.94
242.363	77.94
242.597	84.94
242.83	64.94
243.064	69.94
243.298	69.94
243.531	72.94
243.765	68.94
243.998	86.94
244.232	81.94
244.465	92.94
244.699	85.94
244.932	81.94
245.166	79.94
245.399	89.94
245.633	77.94
245.866	84.94
246.099	86.94
246.333	86.94
246.566	81.94
246.8	73.94
247.033	80.94
247.266	77.94
247.5	85.94
247.733	77.94
247.966	65.94
248.2	75.94
248.433	83.94
248.666	60.94
248.899	88.94
249.133	93.94
249.366	94.94
249.599	91.94
249.832	107.94
250.066	76.94
250.299	73.94
250.532	82.94
250.765	97.94
250.998	72.94
251.231	72.94
251.465	81.94
251.698	88.94
251.931	85.94
252.164	80.94
252.397	65.94
252.63	83.94
252.863	71.94
253.096	78.94
253.329	84.94
253.562	78.94
253.795	78.94
254.028	72.94
254.261	83.94
254.494	84.94
254.727	81.94
254.96	76.94
255.193	76.94
255.426	80.94
255.659	83.94
255.892	91.94
256.124	93.94
256.357	66.94
256.59	89.94
256.823	88.94
257.056	89.94
257.289	81.94
257.521	89.94
257.754	83.94
257.987	74.94
258.22	86.94
258.452	90.94
258.685	68.94
258.918	70.94
259.151	76.94
259.383	80.94
259.616	82.94
259.849	75.94
260.081	87.94
260.314	97.94
260.547	80.94
260.779	77.94
261.012	103.94
261.244	83.94
261.477	91.94
261.71	106.94
261.942	142.94
262.175	134.94
262.407	109.94
262.64	92.94
262.872	75.94
263.105	78.94
263.337	96.94
263.57	80.94
263.802	94.94
264.035	77.94
264.267	76.94
264.499	87.94
264.732	80.94
264.964	85.94
265.197	89.94
265.429	96.94
265.661	66.94
265.894	80.94
266.126	86.94
266.358	93.94
266.591	80.94
266.823	85.94
267.055	82.94
267.287	82.94
267.52	90.94
267.752	92.94
267.984	84.94
268.216	77.94
268.448	74.94
268.681	87.94
268.913	77.94
269.145	82.94
269.377	93.94
269.609	86.94
269.841	74.94
270.073	93.94
270.306	86.94
270.538	77.94
270.77	84.94
271.002	80.94
271.234	87.94
271.466	85.94
271.698	85.94
271.93	86.94
272.162	81.94
272.394	68.94
272.626	82.94
272.858	76.94
273.09	80.94
273.322	92.94
273.553	89.94
273.785	89.94
274.017	81.94
274.249	77.94
274.481	81.94
274.713	91.94
274.945	80.94
275.176	92.94
275.408	87.94
275.64	86.94
275.872	73.94
276.104	101.94
276.335	83.94
276.567	100.94
276.799	128.94
277.031	99.94
277.262	96.94
277.494	90.94
277.726	85.94
277.957	105.94
278.189	94.94
278.421	92.94
278.652	89.94
278.884	81.94
279.115	78.94
279.347	86.94
279.579	92.94
279.81	83.94
280.042	90.94
280.273	100.94
280.505	85.94
280.736	82.94
280.968	91.94
281.199	81.94
281.431	79.94
281.662	92.94
281.894	109.94
282.125	92.94
282.356	153.94
282.588	180.94
282.819	136.94
283.051	96.94
283.282	95.94
283.513	94.94
283.745	94.94
283.976	89.94
284.207	95.94
284.439	91.94
284.67	93.94
284.901	80.94
285.132	84.94
285.364	78.94
285.595	87.94
285.826	69.94
286.057	95.94
286.288	82.94
286.52	100.94
286.751	91.94
286.982	96.94
287.213	73.94
287.444	82.94
287.675	94.94
287.906	90.94
288.138	99.94
288.369	88.94
288.6	95.94
288.831	82.94
289.062	80.94
289.293	85.94
289.524	92.94
289.755	92.94
289.986	85.94
290.217	99.94
290.448	81.94
290.679	94.94
290.91	91.94
291.141	90.94
291.371	91.94
291.602	90.94
291.833	91.94
292.064	91.94
292.295	79.94
292.526	78.94
292.757	75.94
292.987	87.94
293.218	82.94
293.449	79.94
293.68	102.94
293.91	87.94
294.141	91.94
294.372	76.94
294.603	99.94
294.833	89.94
295.064	80.94
295.295	97.94
295.525	89.94
295.756	110.94
295.987	125.94
296.217	172.94
296.448	140.94
296.679	105.94
296.909	90.94
297.14	90.94
297.37	89.94
297.601	92.94
297.831	88.94
298.062	86.94
298.292	73.94
298.523	106.94
298.753	87.94
298.984	87.94
299.214	89.94
299.445	98.94
299.675	117.94
299.905	92.94
300.136	95.94
300.366	85.94
300.597	86.94
300.827	98.94
301.057	113.94
301.288	115.94
301.518	94.94
301.748	89.94
301.979	119.94
302.209	108.94
302.439	99.94
302.669	92.94
302.9	88.94
303.13	99.94
303.36	112.94
303.59	124.94
303.82	132.94
304.051	104.94
304.281	94.94
304.511	93.94
304.741	103.94
304.971	98.94
305.201	106.94
305.431	94.94
305.661	84.94
305.891	96.94
306.121	98.94
306.352	116.94
306.582	122.94
306.812	88.94
307.042	88.94
307.272	94.94
307.502	112.94
307.731	104.94
307.961	83.94
308.191	90.94
308.421	82.94
308.651	96.94
308.881	102.94
309.111	110.94
309.341	100.94
309.571	110.94
309.8	99.94
310.03	116.94
310.26	103.94
310.49	116.94
310.72	125.94
310.949	131.94
311.179	100.94
311.409	111.94
311.639	100.94
311.868	106.94
312.098	113.94
312.328	112.94
312.557	106.94
312.787	139.94
313.017	104.94
313.246	101.94
313.476	89.94
313.706	101.94
313.935	91.94
314.165	105.94
314.394	105.94
314.624	103.94
314.853	92.94
315.083	98.94
315.312	101.94
315.542	97.94
315.771	107.94
316.001	89.94
316.23	90.94
316.46	90.94
316.689	86.94
316.919	95.94
317.148	105.94
317.377	109.94
317.607	113.94
317.836	106.94
318.065	87.94
318.295	81.94
318.524	99.94
318.753	93.94
318.983	99.94
319.212	94.94
319.441	113.94
319.67	117.94
319.9	106.94
320.129	105.94
320.358	110.94
320.587	99.94
320.816	100.94
321.046	109.94
321.275	100.94
321.504	106.94
321.733	113.94
321.962	110.94
322.191	113.94
322.42	105.94
322.649	130.94
322.878	149.94
323.108	137.94
323.337	158.94
323.566	178.94
323.795	209.94
324.024	300.94
324.253	665.94
324.482	1495.94
324.71	3176.94
324.939	4189.94
325.168	1442.94
325.397	381.94
325.626	223.94
325.855	168.94
326.084	150.94
326.313	165.94
326.542	186.94
326.77	367.94
326.999	755.94
327.228	1691.94
327.457	3132.94
327.686	2372.94
327.914	586.94
328.143	293.94
328.372	211.94
328.6	161.94
328.829	156.94
329.058	196.94
329.287	185.94
329.515	113.94
329.744	115.94
329.972	104.94
330.201	124.94
330.43	153.94
330.658	173.94
330.887	204.94
331.115	164.94
331.344	116.94
331.572	107.94
331.801	128.94
332.03	120.94
332.258	104.94
332.486	89.94
332.715	91.94
332.943	96.94
333.172	90.94
333.4	111.94
333.629	119.94
333.857	138.94
334.085	135.94
334.314	113.94
334.542	158.94
334.771	150.94
334.999	105.94
335.227	105.94
335.455	93.94
335.684	110.94
335.912	102.94
336.14	100.94
336.369	97.94
336.597	114.94
336.825	107.94
337.053	99.94
337.281	93.94
337.51	106.94
337.738	97.94
337.966	100.94
338.194	97.94
338.422	109.94
338.65	101.94
338.878	103.94
339.106	90.94
339.334	90.94
339.562	83.94
339.79	87.94
340.018	92.94
340.246	99.94
340.474	105.94
340.702	95.94
340.93	99.94
341.158	115.94
341.386	107.94
341.614	112.94
341.842	83.94
342.07	86.94
342.298	94.94
342.526	82.94
342.754	91.94
342.981	104.94
343.209	86.94
343.437	85.94
343.665	82.94
343.893	78.94
344.12	90.94
344.348	97.94
344.576	106.94
344.804	108.94
345.031	105.94
345.259	111.94
345.487	98.94
345.714	105.94
345.942	110.94
346.17	80.94
346.397	89.94
346.625	83.94
346.853	96.94
347.08	112.94
347.308	114.94
347.535	99.94
347.763	101.94
347.99	97.94
348.218	115.94
348.445	129.94
348.673	112.94
348.9	101.94
349.128	94.94
349.355	90.94
349.583	112.94
349.81	99.94
350.037	93.94
350.265	88.94
350.492	92.94
350.72	101.94
350.947	92.94
351.174	132.94
351.402	125.94
351.629	110.94
351.856	110.94
352.083	121.94
352.311	128.94
352.538	141.94
352.765	132.94
352.992	124.94
353.22	119.94
353.447	116.94
353.674	100.94
353.901	93.94
354.128	90.94
354.355	101.94
354.583	99.94
354.81	90.94
355.037	96.94
355.264	88.94
355.491	96.94
355.718	86.94
355.945	98.94
356.172	102.94
356.399	91.94
356.626	87.94
356.853	98.94
357.08	80.94
357.307	96.94
357.534	100.94
357.761	88.94
357.988	97.94
358.215	98.94
358.441	87.94
358.668	110.94
358.895	80.94
359.122	96.94
359.349	94.94
359.576	98.94
359.802	103.94
360.029	118.94
360.256	130.94
360.483	113.94
360.709	105.94
360.936	103.94
361.163	113.94
361.39	102.94
361.616	98.94
361.843	104.94
362.07	123.94
362.296	113.94
362.523	105.94
362.749	89.94
362.976	97.94
363.203	101.94
363.429	103.94
363.656	103.94
363.882	96.94
364.109	94.94
364.335	97.94
364.562	111.94
364.788	96.94
365.015	100.94
365.241	113.94
365.468	115.94
365.694	122.94
365.92	101.94
366.147	82.94
366.373	82.94
366.599	83.94
366.826	83.94
367.052	58.94
367.278	88.94
367.505	98.94
367.731	90.94
367.957	99.94
368.184	103.94
368.41	113.94
368.636	127.94
368.862	144.94
369.089	154.94
369.315	111.94
369.541	109.94
369.767	79.94
369.993	81.94
370.219	103.94
370.445	89.94
370.672	95.94
370.898	104.94
371.124	89.94
371.35	93.94
371.576	81.94
371.802	91.94
372.028	90.94
372.254	93.94
372.48	72.94
372.706	74.94
372.932	94.94
373.158	95.94
373.384	94.94
373.61	84.94
373.835	83.94
374.061	98.94
374.287	101.94
374.513	97.94
374.739	82.94
374.965	94.94
375.191	97.94
375.416	99.94
375.642	90.94
375.868	91.94
376.094	87.94
376.319	101.94
376.545	92.94
376.771	102.94
376.997	88.94
377.222	89.94
377.448	85.94
377.674	104.94
377.899	101.94
378.125	83.94
378.35	80.94
378.576	81.94
378.802	85.94
379.027	90.94
379.253	88.94
379.478	88.94
379.704	106.94
379.929	92.94
380.155	100.94
380.38	101.94
380.606	95.94
380.831	102.94
381.057	112.94
381.282	92.94
381.507	112.94
381.733	102.94
381.958	92.94
382.184	89.94
382.409	115.94
382.634	113.94
382.86	102.94
383.085	100.94
383.31	87.94
383.535	90.94
383.761	93.94
383.986	100.94
384.211	91.94
384.436	95.94
384.662	100.94
384.887	101.94
385.112	97.94
385.337	101.94
385.562	112.94
385.787	96.94
386.013	109.94
386.238	126.94
386.463	113.94
386.688	111.94
386.913	96.94
387.138	109.94
387.363	111.94
387.588	102.94
387.813	98.94
388.038	100.94
388.263	117.94
388.488	117.94
388.713	97.94
388.938	90.94
389.163	91.94
389.387	102.94
389.612	105.94
389.837	86.94
390.062	85.94
390.287	98.94
390.512	80.94
390.736	88.94
390.961	74.94
391.186	81.94
391.411	109.94
391.636	79.94
391.86	87.94
392.085	83.94
392.31	91.94
392.534	91.94
392.759	89.94
392.984	83.94
393.208	74.94
393.433	96.94
393.658	96.94
393.882	96.94
394.107	90.94
394.331	77.94
394.556	92.94
394.78	89.94
395.005	92.94
395.229	88.94
395.454	81.94
395.678	102.94
395.903	92.94
396.127	90.94
396.352	89.94
396.576	85.94
396.801	97.94
397.025	91.94
397.249	81.94
397.474	93.94
397.698	84.94
397.922	99.94
398.147	72.94
398.371	85.94
398.595	86.94
398.82	77.94
399.044	91.94
399.268	73.94
399.492	106.94
399.717	84.94
399.941	97.94
400.165	94.94
400.389	94.94
400.613	88.94
400.837	79.94
401.062	96.94
401.286	100.94
401.51	83.94
401.734	93.94
401.958	114.94
402.182	148.94
402.406	224.94
402.63	154.94
402.854	94.94
403.078	90.94
403.302	77.94
403.526	106.94
403.75	90.94
403.974	92.94
404.198	85.94
404.422	91.94
404.645	90.94
404.869	92.94
405.093	83.94
405.317	120.94
405.541	108.94
405.765	108.94
405.988	147.94
406.212	239.94
406.436	365.94
406.66	224.94
406.883	122.94
407.107	92.94
407.331	99.94
407.555	105.94
407.778	104.94
408.002	108.94
408.226	95.94
408.449	84.94
408.673	82.94
408.896	96.94
409.12	98.94
409.344	92.94
409.567	90.94
409.791	103.94
410.014	104.94
410.238	100.94
410.461	90.94
410.685	93.94
410.908	98.94
411.132	115.94
411.355	112.94
411.578	96.94
411.802	86.94
412.025	92.94
412.249	95.94
412.472	79.94
412.695	88.94
412.919	91.94
413.142	99.94
413.365	96.94
413.589	85.94
413.812	95.94
414.035	101.94
414.258	91.94
414.482	101.94
414.705	83.94
414.928	81.94
415.151	88.94
415.374	98.94
415.597	100.94
415.821	92.94
416.044	84.94
416.267	86.94
416.49	94.94
416.713	96.94
416.936	85.94
417.159	96.94
417.382	101.94
417.605	97.94
417.828	92.94
418.051	95.94
418.274	84.94
418.497	83.94
418.72	85.94
418.943	99.94
419.166	87.94
419.389	98.94
419.611	91.94
419.834	93.94
420.057	89.94
420.28	102.94
420.503	80.94
420.726	88.94
420.948	97.94
421.171	84.94
421.394	96.94
421.617	98.94
421.839	84.94
422.062	76.94
422.285	89.94
422.507	97.94
422.73	104.94
422.953	107.94
423.175	92.94
423.398	85.94
423.621	97.94
423.843	93.94
424.066	91.94
424.288	90.94
424.511	99.94
424.733	95.94
424.956	108.94
425.178	105.94
425.401	124.94
425.623	115.94
425.846	98.94
426.068	85.94
426.291	88.94
426.513	95.94
426.735	97.94
426.958	109.94
427.18	117.94
427.402	168.94
427.625	241.94
427.847	174.94
428.069	113.94
428.292	84.94
428.514	86.94
428.736	81.94
428.958	78.94
429.181	87.94
429.403	92.94
429.625	88.94
429.847	100.94
430.069	83.94
430.292	89.94
430.514	71.94
430.736	83.94
430.958	89.94
431.18	81.94
431.402	75.94
431.624	82.94
431.846	80.94
432.068	78.94
432.29	91.94
432.512	85.94
432.734	85.94
432.956	97.94
433.178	104.94
433.4	112.94
433.622	83.94
433.844	97.94
434.066	86.94
434.287	77.94
434.509	95.94
434.731	85.94
434.953	91.94
435.175	93.94
435.397	85.94
435.618	101.94
435.84	127.94
436.062	147.94
436.284	129.94
436.505	105.94
436.727	121.94
436.949	97.94
437.17	91.94
437.392	98.94
437.614	92.94
437.835	136.94
438.057	148.94
438.278	125.94
438.5	123.94
438.721	132.94
438.943	106.94
439.165	94.94
439.386	80.94
439.608	94.94
439.829	96.94
440.05	166.94
440.272	181.94
440.493	118.94
440.715	98.94
440.936	105.94
441.158	93.94
441.379	98.94
441.6	83.94
441.822	93.94
442.043	104.94
442.264	123.94
442.486	103.94
442.707	104.94
442.928	123.94
443.149	173.94
443.371	170.94
443.592	130.94
443.813	133.94
444.034	124.94
444.255	99.94
444.476	98.94
444.698	93.94
444.919	89.94
445.14	130.94
445.361	141.94
445.582	137.94
445.803	184.94
446.024	167.94
446.245	185.94
446.466	126.94
446.687	94.94
446.908	96.94
447.129	84.94
447.35	86.94
447.571	96.94
447.792	99.94
448.013	108.94
448.234	133.94
448.455	113.94
448.675	134.94
448.896	132.94
449.117	98.94
449.338	112.94
449.559	156.94
449.779	149.94
450	106.94
450.221	87.94
450.442	101.94
450.662	103.94
450.883	149.94
451.104	142.94
451.324	105.94
451.545	89.94
451.766	93.94
451.986	87.94
452.207	96.94
452.428	100.94
452.648	122.94
452.869	141.94
453.089	135.94
453.31	142.94
453.53	101.94
453.751	86.94
453.971	138.94
454.192	136.94
454.412	86.94
454.633	80.94
454.853	84.94
455.073	92.94
455.294	97.94
455.514	97.94
455.734	101.94
455.955	85.94
456.175	89.94
456.395	87.94
456.616	81.94
456.836	86.94
457.056	90.94
457.276	76.94
457.497	101.94
457.717	92.94
457.937	89.94
458.157	105.94
458.377	84.94
458.598	109.94
458.818	208.94
459.038	240.94
459.258	155.94
459.478	102.94
459.698	88.94
459.918	90.94
460.138	97.94
460.358	82.94
460.578	92.94
460.798	93.94
461.018	94.94
461.238	96.94
461.458	75.94
461.678	80.94
461.898	85.94
462.118	83.94
462.338	91.94
462.558	86.94
462.777	85.94
462.997	86.94
463.217	84.94
463.437	85.94
463.657	92.94
463.876	97.94
464.096	89.94
464.316	108.94
464.536	108.94
464.755	98.94
464.975	138.94
465.195	242.94
465.414	233.94
465.634	104.94
465.854	100.94
466.073	77.94
466.293	81.94
466.512	99.94
466.732	90.94
466.951	83.94
467.171	112.94
467.391	91.94
467.61	112.94
467.829	96.94
468.049	99.94
468.268	96.94
468.488	92.94
468.707	96.94
468.927	86.94
469.146	85.94
469.365	106.94
469.585	85.94
469.804	101.94
470.023	109.94
470.243	91.94
470.462	119.94
470.681	142.94
470.901	104.94
471.12	92.94
471.339	76.94
471.558	90.94
471.777	92.94
471.997	96.94
472.216	114.94
472.435	162.94
472.654	88.94
472.873	89.94
473.092	98.94
473.311	71.94
473.53	96.94
473.749	90.94
473.968	82.94
474.187	108.94
474.406	104.94
474.625	94.94
474.844	85.94
475.063	76.94
475.282	92.94
475.501	76.94
475.72	108.94
475.939	89.94
476.158	92.94
476.377	93.94
476.596	90.94
476.814	98.94
477.033	94.94
477.252	102.94
477.471	89.94
477.69	86.94
477.908	88.94
478.127	104.94
478.346	77.94
478.564	89.94
478.783	104.94
479.002	115.94
479.22	77.94
479.439	97.94
479.658	113.94
479.876	96.94
480.095	81.94
480.313	95.94
480.532	96.94
480.751	84.94
480.969	136.94
481.188	226.94
481.406	148.94
481.624	95.94
481.843	91.94
482.061	79.94
482.28	85.94
482.498	101.94
482.717	87.94
482.935	92.94
483.153	89.94
483.372	84.94
483.59	94.94
483.808	86.94
484.027	86.94
484.245	87.94
484.463	111.94
484.681	97.94
484.9	84.94
485.118	106.94
485.336	95.94
485.554	85.94
485.772	95.94
485.99	108.94
486.209	96.94
486.427	113.94
486.645	126.94
486.863	138.94
487.081	108.94
487.299	104.94
487.517	91.94
487.735	95.94
487.953	85.94
488.171	92.94
488.389	111.94
488.607	102.94
488.825	85.94
489.043	88.94
489.261	94.94
489.479	94.94
489.696	93.94
489.914	101.94
490.132	97.94
490.35	79.94
490.568	85.94
490.786	85.94
491.003	93.94
491.221	89.94
491.439	86.94
491.657	99.94
491.874	106.94
492.092	96.94
492.31	89.94
492.527	83.94
492.745	96.94
492.963	108.94
493.18	85.94
493.398	85.94
493.615	90.94
493.833	98.94
494.05	98.94
494.268	89.94
494.485	89.94
494.703	76.94
494.92	81.94
495.138	81.94
495.355	96.94
495.573	89.94
495.79	85.94
496.008	86.94
496.225	88.94
496.442	102.94
496.66	100.94
496.877	81.94
497.094	88.94
497.312	88.94
497.529	88.94
497.746	93.94
497.963	80.94
498.181	92.94
498.398	88.94
498.615	117.94
498.832	112.94
499.049	96.94
499.267	115.94
499.484	87.94
499.701	83.94
499.918	90.94
500.135	71.94
500.352	76.94
500.569	92.94
500.786	96.94
501.003	85.94
501.22	90.94
501.437	86.94
501.654	109.94
501.871	128.94
502.088	107.94
502.305	90.94
502.522	84.94
502.739	94.94
502.956	103.94
503.172	94.94
503.389	104.94
503.606	114.94
503.823	109.94
504.04	86.94
504.256	86.94
504.473	82.94
504.69	90.94
504.907	101.94
505.123	104.94
505.34	98.94
505.557	109.94
505.773	91.94
505.99	72.94
506.207	89.94
506.423	99.94
506.64	83.94
506.856	90.94
507.073	99.94
507.289	102.94
507.506	116.94
507.722	138.94
507.939	140.94
508.155	90.94
508.372	101.94
508.588	98.94
508.805	108.94
509.021	113.94
509.238	97.94
509.454	108.94
509.67	113.94
509.887	132.94
510.103	156.94
510.319	294.94
510.536	1183.94
510.752	4040.94
510.968	1046.94
511.184	204.94
511.401	132.94
511.617	88.94
511.833	94.94
512.049	95.94
512.265	78.94
512.481	91.94
512.698	100.94
512.914	81.94
513.13	87.94
513.346	83.94
513.562	106.94
513.778	104.94
513.994	115.94
