Data from Circ_2006_H10_HRD10591_00097.txt Node
Date: Wed Jan 03 10:26:23 EST 2024
User: Yrep
Spectrometer: HR+D1059
Trigger mode: 1
Integration Time (sec): 1.000000E-1
Scans to average: 1
Electric dark correction enabled: true
Nonlinearity correction enabled: false
Boxcar width: 0
XAxis mode: Wavelengths
Number of Pixels in Spectrum: 2048
>>>>>Begin Spectral Data<<<<<
223.165	-30.44
223.4	-30.44
223.635	-30.44
223.869	-14.44
224.104	-24.44
224.338	-1.44
224.573	-17.44
224.808	-7.44
225.042	-11.44
225.277	-9.44
225.511	-16.44
225.746	-11.44
225.98	7.56
226.215	21.56
226.449	31.56
226.683	20.56
226.918	24.56
227.152	38.56
227.387	38.56
227.621	31.56
227.856	51.56
228.09	48.56
228.324	50.56
228.559	61.56
228.793	61.56
229.027	68.56
229.262	75.56
229.496	85.56
229.73	90.56
229.964	89.56
230.199	77.56
230.433	67.56
230.667	75.56
230.901	83.56
231.136	85.56
231.37	89.56
231.604	74.56
231.838	72.56
232.072	82.56
232.306	67.56
232.541	87.56
232.775	82.56
233.009	85.56
233.243	83.56
233.477	85.56
233.711	66.56
233.945	84.56
234.179	77.56
234.413	70.56
234.647	79.56
234.881	70.56
235.115	76.56
235.349	85.56
235.583	76.56
235.817	76.56
236.051	85.56
236.285	76.56
236.519	92.56
236.753	74.56
236.987	74.56
237.221	82.56
237.455	76.56
237.689	79.56
237.922	72.56
238.156	83.56
238.39	61.56
238.624	82.56
238.858	81.56
239.091	69.56
239.325	80.56
239.559	83.56
239.793	65.56
240.027	77.56
240.26	69.56
240.494	68.56
240.728	70.56
240.961	78.56
241.195	82.56
241.429	81.56
241.662	75.56
241.896	65.56
242.13	78.56
242.363	80.56
242.597	74.56
242.83	61.56
243.064	75.56
243.298	78.56
243.531	76.56
243.765	82.56
243.998	64.56
244.232	81.56
244.465	78.56
244.699	78.56
244.932	73.56
245.166	82.56
245.399	84.56
245.633	70.56
245.866	72.56
246.099	83.56
246.333	74.56
246.566	89.56
246.8	76.56
247.033	69.56
247.266	70.56
247.5	81.56
247.733	60.56
247.966	85.56
248.2	85.56
248.433	83.56
248.666	81.56
248.899	81.56
249.133	85.56
249.366	96.56
249.599	94.56
249.832	86.56
250.066	65.56
250.299	71.56
250.532	86.56
250.765	80.56
250.998	81.56
251.231	83.56
251.465	77.56
251.698	79.56
251.931	72.56
252.164	85.56
252.397	81.56
252.63	73.56
252.863	83.56
253.096	86.56
253.329	85.56
253.562	80.56
253.795	73.56
254.028	76.56
254.261	84.56
254.494	80.56
254.727	80.56
254.96	78.56
255.193	82.56
255.426	79.56
255.659	90.56
255.892	93.56
256.124	70.56
256.357	70.56
256.59	79.56
256.823	80.56
257.056	78.56
257.289	85.56
257.521	76.56
257.754	78.56
257.987	64.56
258.22	68.56
258.452	77.56
258.685	82.56
258.918	88.56
259.151	91.56
259.383	84.56
259.616	80.56
259.849	92.56
260.081	66.56
260.314	73.56
260.547	90.56
260.779	86.56
261.012	86.56
261.244	78.56
261.477	92.56
261.71	95.56
261.942	105.56
262.175	130.56
262.407	99.56
262.64	89.56
262.872	80.56
263.105	88.56
263.337	89.56
263.57	77.56
263.802	90.56
264.035	80.56
264.267	84.56
264.499	81.56
264.732	92.56
264.964	89.56
265.197	78.56
265.429	96.56
265.661	75.56
265.894	71.56
266.126	92.56
266.358	90.56
266.591	85.56
266.823	76.56
267.055	80.56
267.287	84.56
267.52	78.56
267.752	77.56
267.984	67.56
268.216	84.56
268.448	83.56
268.681	71.56
268.913	90.56
269.145	73.56
269.377	77.56
269.609	83.56
269.841	66.56
270.073	81.56
270.306	85.56
270.538	79.56
270.77	84.56
271.002	67.56
271.234	86.56
271.466	91.56
271.698	80.56
271.93	83.56
272.162	93.56
272.394	78.56
272.626	75.56
272.858	74.56
273.09	76.56
273.322	89.56
273.553	81.56
273.785	86.56
274.017	79.56
274.249	83.56
274.481	85.56
274.713	84.56
274.945	77.56
275.176	73.56
275.408	99.56
275.64	90.56
275.872	79.56
276.104	77.56
276.335	92.56
276.567	94.56
276.799	126.56
277.031	120.56
277.262	114.56
277.494	92.56
277.726	96.56
277.957	73.56
278.189	80.56
278.421	76.56
278.652	81.56
278.884	93.56
279.115	68.56
279.347	77.56
279.579	84.56
279.81	86.56
280.042	99.56
280.273	100.56
280.505	100.56
280.736	87.56
280.968	87.56
281.199	79.56
281.431	76.56
281.662	92.56
281.894	99.56
282.125	112.56
282.356	121.56
282.588	156.56
282.819	120.56
283.051	105.56
283.282	83.56
283.513	90.56
283.745	80.56
283.976	80.56
284.207	81.56
284.439	73.56
284.67	95.56
284.901	86.56
285.132	73.56
285.364	92.56
285.595	99.56
285.826	99.56
286.057	91.56
286.288	85.56
286.52	85.56
286.751	78.56
286.982	94.56
287.213	76.56
287.444	90.56
287.675	98.56
287.906	99.56
288.138	84.56
288.369	84.56
288.6	96.56
288.831	90.56
289.062	83.56
289.293	89.56
289.524	81.56
289.755	84.56
289.986	94.56
290.217	84.56
290.448	85.56
290.679	91.56
290.91	80.56
291.141	88.56
291.371	93.56
291.602	95.56
291.833	83.56
292.064	97.56
292.295	83.56
292.526	71.56
292.757	71.56
292.987	91.56
293.218	99.56
293.449	100.56
293.68	100.56
293.91	91.56
294.141	90.56
294.372	90.56
294.603	96.56
294.833	95.56
295.064	89.56
295.295	75.56
295.525	95.56
295.756	102.56
295.987	115.56
296.217	155.56
296.448	123.56
296.679	92.56
296.909	90.56
297.14	91.56
297.37	106.56
297.601	96.56
297.831	90.56
298.062	85.56
298.292	83.56
298.523	77.56
298.753	91.56
298.984	89.56
299.214	78.56
299.445	99.56
299.675	93.56
299.905	80.56
300.136	96.56
300.366	85.56
300.597	94.56
300.827	81.56
301.057	103.56
301.288	107.56
301.518	92.56
301.748	76.56
301.979	90.56
302.209	98.56
302.439	92.56
302.669	82.56
302.9	98.56
303.13	88.56
303.36	94.56
303.59	114.56
303.82	106.56
304.051	97.56
304.281	92.56
304.511	97.56
304.741	92.56
304.971	79.56
305.201	88.56
305.431	104.56
305.661	90.56
305.891	91.56
306.121	78.56
306.352	117.56
306.582	102.56
306.812	111.56
307.042	102.56
307.272	107.56
307.502	92.56
307.731	91.56
307.961	86.56
308.191	91.56
308.421	103.56
308.651	97.56
308.881	101.56
309.111	86.56
309.341	94.56
309.571	100.56
309.8	93.56
310.03	98.56
310.26	102.56
310.49	98.56
310.72	117.56
310.949	114.56
311.179	108.56
311.409	84.56
311.639	107.56
311.868	80.56
312.098	91.56
312.328	91.56
312.557	102.56
312.787	105.56
313.017	97.56
313.246	107.56
313.476	95.56
313.706	85.56
313.935	103.56
314.165	97.56
314.394	109.56
314.624	101.56
314.853	90.56
315.083	103.56
315.312	104.56
315.542	94.56
315.771	95.56
316.001	96.56
316.23	90.56
316.46	84.56
316.689	90.56
316.919	96.56
317.148	105.56
317.377	94.56
317.607	94.56
317.836	89.56
318.065	90.56
318.295	93.56
318.524	96.56
318.753	100.56
318.983	93.56
319.212	113.56
319.441	103.56
319.67	114.56
319.9	97.56
320.129	92.56
320.358	83.56
320.587	109.56
320.816	111.56
321.046	99.56
321.275	104.56
321.504	100.56
321.733	104.56
321.962	106.56
322.191	108.56
322.42	104.56
322.649	117.56
322.878	109.56
323.108	118.56
323.337	137.56
323.566	139.56
323.795	164.56
324.024	243.56
324.253	505.56
324.482	1120.56
324.71	2293.56
324.939	3056.56
325.168	1092.56
325.397	314.56
325.626	169.56
325.855	139.56
326.084	139.56
326.313	150.56
326.542	170.56
326.77	289.56
326.999	582.56
327.228	1284.56
327.457	2338.56
327.686	1844.56
327.914	478.56
328.143	262.56
328.372	231.56
328.6	168.56
328.829	125.56
329.058	161.56
329.287	152.56
329.515	129.56
329.744	117.56
329.972	151.56
330.201	225.56
330.43	302.56
330.658	222.56
330.887	177.56
331.115	142.56
331.344	107.56
331.572	96.56
331.801	104.56
332.03	121.56
332.258	107.56
332.486	104.56
332.715	111.56
332.943	107.56
333.172	108.56
333.4	91.56
333.629	107.56
333.857	136.56
334.085	168.56
334.314	242.56
334.542	372.56
334.771	347.56
334.999	158.56
335.227	112.56
335.455	92.56
335.684	82.56
335.912	93.56
336.14	87.56
336.369	101.56
336.597	106.56
336.825	101.56
337.053	95.56
337.281	100.56
337.51	89.56
337.738	102.56
337.966	96.56
338.194	100.56
338.422	109.56
338.65	102.56
338.878	102.56
339.106	84.56
339.334	99.56
339.562	91.56
339.79	81.56
340.018	94.56
340.246	76.56
340.474	96.56
340.702	97.56
340.93	73.56
341.158	91.56
341.386	100.56
341.614	94.56
341.842	110.56
342.07	83.56
342.298	75.56
342.526	91.56
342.754	90.56
342.981	97.56
343.209	78.56
343.437	92.56
343.665	96.56
343.893	85.56
344.12	100.56
344.348	93.56
344.576	84.56
344.804	94.56
345.031	90.56
345.259	100.56
345.487	85.56
345.714	100.56
345.942	101.56
346.17	82.56
346.397	103.56
346.625	104.56
346.853	91.56
347.08	75.56
347.308	107.56
347.535	99.56
347.763	99.56
347.99	105.56
348.218	97.56
348.445	86.56
348.673	106.56
348.9	99.56
349.128	98.56
349.355	105.56
349.583	91.56
349.81	83.56
350.037	107.56
350.265	105.56
350.492	90.56
350.72	97.56
350.947	85.56
351.174	113.56
351.402	123.56
351.629	94.56
351.856	101.56
352.083	107.56
352.311	103.56
352.538	96.56
352.765	107.56
352.992	131.56
353.22	113.56
353.447	113.56
353.674	105.56
353.901	108.56
354.128	97.56
354.355	107.56
354.583	92.56
354.81	94.56
355.037	105.56
355.264	90.56
355.491	96.56
355.718	94.56
355.945	94.56
356.172	94.56
356.399	105.56
356.626	98.56
356.853	84.56
357.08	97.56
357.307	87.56
357.534	104.56
357.761	90.56
357.988	83.56
358.215	101.56
358.441	84.56
358.668	99.56
358.895	86.56
359.122	92.56
359.349	93.56
359.576	100.56
359.802	104.56
360.029	142.56
360.256	114.56
360.483	115.56
360.709	89.56
360.936	97.56
361.163	103.56
361.39	84.56
361.616	92.56
361.843	88.56
362.07	97.56
362.296	96.56
362.523	95.56
362.749	96.56
362.976	88.56
363.203	87.56
363.429	80.56
363.656	101.56
363.882	93.56
364.109	77.56
364.335	91.56
364.562	100.56
364.788	77.56
365.015	108.56
365.241	116.56
365.468	118.56
365.694	95.56
365.92	107.56
366.147	94.56
366.373	92.56
366.599	88.56
366.826	91.56
367.052	87.56
367.278	94.56
367.505	111.56
367.731	100.56
367.957	81.56
368.184	93.56
368.41	107.56
368.636	107.56
368.862	115.56
369.089	121.56
369.315	110.56
369.541	94.56
369.767	90.56
369.993	101.56
370.219	87.56
370.445	76.56
370.672	86.56
370.898	89.56
371.124	83.56
371.35	95.56
371.576	84.56
371.802	103.56
372.028	86.56
372.254	89.56
372.48	83.56
372.706	82.56
372.932	80.56
373.158	80.56
373.384	91.56
373.61	92.56
373.835	100.56
374.061	87.56
374.287	94.56
374.513	96.56
374.739	93.56
374.965	92.56
375.191	89.56
375.416	86.56
375.642	84.56
375.868	78.56
376.094	87.56
376.319	94.56
376.545	86.56
376.771	89.56
376.997	86.56
377.222	84.56
377.448	86.56
377.674	96.56
377.899	83.56
378.125	93.56
378.35	92.56
378.576	98.56
378.802	83.56
379.027	83.56
379.253	88.56
379.478	93.56
379.704	100.56
379.929	87.56
380.155	84.56
380.38	96.56
380.606	97.56
380.831	94.56
381.057	90.56
381.282	92.56
381.507	92.56
381.733	92.56
381.958	106.56
382.184	100.56
382.409	99.56
382.634	94.56
382.86	100.56
383.085	96.56
383.31	93.56
383.535	103.56
383.761	102.56
383.986	94.56
384.211	99.56
384.436	101.56
384.662	101.56
384.887	96.56
385.112	105.56
385.337	110.56
385.562	114.56
385.787	104.56
386.013	112.56
386.238	108.56
386.463	91.56
386.688	98.56
386.913	85.56
387.138	109.56
387.363	108.56
387.588	115.56
387.813	110.56
388.038	106.56
388.263	105.56
388.488	104.56
388.713	97.56
388.938	84.56
389.163	89.56
389.387	84.56
389.612	99.56
389.837	84.56
390.062	94.56
390.287	85.56
390.512	103.56
390.736	88.56
390.961	98.56
391.186	95.56
391.411	104.56
391.636	95.56
391.86	77.56
392.085	82.56
392.31	86.56
392.534	86.56
392.759	88.56
392.984	92.56
393.208	90.56
393.433	96.56
393.658	85.56
393.882	94.56
394.107	83.56
394.331	83.56
394.556	88.56
394.78	99.56
395.005	90.56
395.229	85.56
395.454	83.56
395.678	84.56
395.903	92.56
396.127	99.56
396.352	86.56
396.576	85.56
396.801	92.56
397.025	100.56
397.249	90.56
397.474	83.56
397.698	94.56
397.922	90.56
398.147	83.56
398.371	96.56
398.595	87.56
398.82	84.56
399.044	91.56
399.268	91.56
399.492	93.56
399.717	84.56
399.941	83.56
400.165	88.56
400.389	89.56
400.613	76.56
400.837	74.56
401.062	81.56
401.286	98.56
401.51	93.56
401.734	102.56
401.958	100.56
402.182	123.56
402.406	191.56
402.63	144.56
402.854	96.56
403.078	92.56
403.302	93.56
403.526	85.56
403.75	90.56
403.974	80.56
404.198	83.56
404.422	83.56
404.645	108.56
404.869	101.56
405.093	115.56
405.317	109.56
405.541	117.56
405.765	98.56
405.988	127.56
406.212	170.56
406.436	273.56
406.66	166.56
406.883	133.56
407.107	89.56
407.331	106.56
407.555	83.56
407.778	98.56
408.002	94.56
408.226	81.56
408.449	89.56
408.673	100.56
408.896	94.56
409.12	92.56
409.344	85.56
409.567	90.56
409.791	98.56
410.014	93.56
410.238	94.56
410.461	86.56
410.685	94.56
410.908	84.56
411.132	96.56
411.355	88.56
411.578	96.56
411.802	88.56
412.025	96.56
412.249	98.56
412.472	107.56
412.695	125.56
412.919	100.56
413.142	97.56
413.365	93.56
413.589	86.56
413.812	96.56
414.035	96.56
414.258	94.56
414.482	99.56
414.705	88.56
414.928	91.56
415.151	86.56
415.374	90.56
415.597	83.56
415.821	86.56
416.044	90.56
416.267	86.56
416.49	86.56
416.713	86.56
416.936	87.56
417.159	88.56
417.382	102.56
417.605	100.56
417.828	101.56
418.051	90.56
418.274	91.56
418.497	94.56
418.72	79.56
418.943	76.56
419.166	76.56
419.389	85.56
419.611	86.56
419.834	82.56
420.057	98.56
420.28	91.56
420.503	91.56
420.726	85.56
420.948	89.56
421.171	92.56
421.394	105.56
421.617	97.56
421.839	88.56
422.062	76.56
422.285	98.56
422.507	92.56
422.73	105.56
422.953	92.56
423.175	83.56
423.398	93.56
423.621	85.56
423.843	89.56
424.066	90.56
424.288	76.56
424.511	97.56
424.733	102.56
424.956	122.56
425.178	115.56
425.401	107.56
425.623	89.56
425.846	87.56
426.068	88.56
426.291	100.56
426.513	105.56
426.735	96.56
426.958	90.56
427.18	105.56
427.402	147.56
427.625	196.56
427.847	174.56
428.069	152.56
428.292	106.56
428.514	93.56
428.736	79.56
428.958	76.56
429.181	81.56
429.403	96.56
429.625	113.56
429.847	90.56
430.069	105.56
430.292	70.56
430.514	94.56
430.736	95.56
430.958	96.56
431.18	84.56
431.402	92.56
431.624	78.56
431.846	85.56
432.068	86.56
432.29	84.56
432.512	81.56
432.734	84.56
432.956	97.56
433.178	100.56
433.4	97.56
433.622	91.56
433.844	94.56
434.066	86.56
434.287	82.56
434.509	96.56
434.731	104.56
434.953	84.56
435.175	74.56
435.397	88.56
435.618	89.56
435.84	116.56
436.062	138.56
436.284	112.56
436.505	107.56
436.727	120.56
436.949	94.56
437.17	89.56
437.392	87.56
437.614	93.56
437.835	124.56
438.057	128.56
438.278	119.56
438.5	110.56
438.721	125.56
438.943	99.56
439.165	111.56
439.386	95.56
439.608	99.56
439.829	110.56
440.05	144.56
440.272	161.56
440.493	88.56
440.715	88.56
440.936	91.56
441.158	83.56
441.379	96.56
441.6	98.56
441.822	86.56
442.043	100.56
442.264	108.56
442.486	106.56
442.707	107.56
442.928	118.56
443.149	151.56
443.371	132.56
443.592	116.56
443.813	122.56
444.034	107.56
444.255	109.56
444.476	79.56
444.698	106.56
444.919	85.56
445.14	157.56
445.361	134.56
445.582	135.56
445.803	156.56
446.024	157.56
446.245	148.56
446.466	123.56
446.687	92.56
446.908	91.56
447.129	83.56
447.35	75.56
447.571	97.56
447.792	92.56
448.013	98.56
448.234	119.56
448.455	92.56
448.675	122.56
448.896	129.56
449.117	100.56
449.338	113.56
449.559	156.56
449.779	138.56
450	101.56
450.221	95.56
450.442	93.56
450.662	94.56
450.883	122.56
451.104	115.56
451.324	100.56
451.545	80.56
451.766	101.56
451.986	92.56
452.207	91.56
452.428	87.56
452.648	100.56
452.869	110.56
453.089	119.56
453.31	125.56
453.53	101.56
453.751	85.56
453.971	96.56
454.192	109.56
454.412	90.56
454.633	84.56
454.853	85.56
455.073	89.56
455.294	91.56
455.514	104.56
455.734	92.56
455.955	80.56
456.175	90.56
456.395	80.56
456.616	82.56
456.836	88.56
457.056	78.56
457.276	82.56
457.497	78.56
457.717	98.56
457.937	77.56
458.157	97.56
458.377	97.56
458.598	116.56
458.818	170.56
459.038	189.56
459.258	128.56
459.478	81.56
459.698	80.56
459.918	83.56
460.138	98.56
460.358	86.56
460.578	97.56
460.798	108.56
461.018	87.56
461.238	90.56
461.458	92.56
461.678	84.56
461.898	89.56
462.118	75.56
462.338	67.56
462.558	91.56
462.777	89.56
462.997	84.56
463.217	91.56
463.437	82.56
463.657	82.56
463.876	93.56
464.096	90.56
464.316	91.56
464.536	101.56
464.755	99.56
464.975	115.56
465.195	192.56
465.414	177.56
465.634	106.56
465.854	88.56
466.073	87.56
466.293	87.56
466.512	86.56
466.732	72.56
466.951	90.56
467.171	96.56
467.391	94.56
467.61	106.56
467.829	114.56
468.049	156.56
468.268	188.56
468.488	122.56
468.707	98.56
468.927	92.56
469.146	73.56
469.365	83.56
469.585	102.56
469.804	110.56
470.023	85.56
470.243	82.56
470.462	113.56
470.681	116.56
470.901	90.56
471.12	83.56
471.339	91.56
471.558	88.56
471.777	106.56
471.997	107.56
472.216	259.56
472.435	449.56
472.654	164.56
472.873	100.56
473.092	96.56
473.311	77.56
473.53	98.56
473.749	93.56
473.968	96.56
474.187	116.56
474.406	95.56
474.625	79.56
474.844	86.56
475.063	87.56
475.282	73.56
475.501	92.56
475.72	88.56
475.939	93.56
476.158	92.56
476.377	88.56
476.596	87.56
476.814	97.56
477.033	84.56
477.252	100.56
477.471	81.56
477.69	100.56
477.908	80.56
478.127	92.56
478.346	80.56
478.564	85.56
478.783	110.56
479.002	91.56
479.22	100.56
479.439	97.56
479.658	110.56
479.876	105.56
480.095	97.56
480.313	108.56
480.532	90.56
480.751	122.56
480.969	240.56
481.188	761.56
481.406	494.56
481.624	135.56
481.843	123.56
482.061	97.56
482.28	89.56
482.498	93.56
482.717	81.56
482.935	78.56
483.153	83.56
483.372	93.56
483.59	68.56
483.808	90.56
484.027	89.56
484.245	105.56
484.463	100.56
484.681	102.56
484.9	89.56
485.118	101.56
485.336	105.56
485.554	97.56
485.772	115.56
485.99	106.56
486.209	106.56
486.427	109.56
486.645	121.56
486.863	115.56
487.081	112.56
487.299	93.56
487.517	91.56
487.735	93.56
487.953	83.56
488.171	95.56
488.389	93.56
488.607	106.56
488.825	88.56
489.043	90.56
489.261	86.56
489.479	91.56
489.696	80.56
489.914	90.56
490.132	74.56
490.35	83.56
490.568	85.56
490.786	91.56
491.003	82.56
491.221	92.56
491.439	97.56
491.657	93.56
491.874	96.56
492.092	85.56
492.31	92.56
492.527	92.56
492.745	93.56
492.963	109.56
493.18	73.56
493.398	89.56
493.615	101.56
493.833	89.56
494.05	89.56
494.268	89.56
494.485	109.56
494.703	87.56
494.92	99.56
495.138	95.56
495.355	82.56
495.573	76.56
495.79	95.56
496.008	82.56
496.225	79.56
496.442	71.56
496.66	108.56
496.877	80.56
497.094	104.56
497.312	80.56
497.529	92.56
497.746	76.56
497.963	89.56
498.181	98.56
498.398	88.56
498.615	110.56
498.832	94.56
499.049	94.56
499.267	99.56
499.484	96.56
499.701	92.56
499.918	86.56
500.135	99.56
500.352	85.56
500.569	107.56
500.786	95.56
501.003	90.56
501.22	77.56
501.437	80.56
501.654	94.56
501.871	115.56
502.088	91.56
502.305	92.56
502.522	96.56
502.739	83.56
502.956	99.56
503.172	103.56
503.389	104.56
503.606	107.56
503.823	93.56
504.04	86.56
504.256	93.56
504.473	89.56
504.69	80.56
504.907	80.56
505.123	89.56
505.34	92.56
505.557	91.56
505.773	91.56
505.99	99.56
506.207	97.56
506.423	95.56
506.64	74.56
506.856	101.56
507.073	99.56
507.289	92.56
507.506	94.56
507.722	123.56
507.939	115.56
508.155	96.56
508.372	104.56
508.588	97.56
508.805	88.56
509.021	103.56
509.238	98.56
509.454	102.56
509.67	115.56
509.887	97.56
510.103	140.56
510.319	226.56
510.536	907.56
510.752	2964.56
510.968	818.56
511.184	179.56
511.401	107.56
511.617	127.56
511.833	100.56
512.049	94.56
512.265	101.56
512.481	93.56
512.698	97.56
512.914	92.56
513.13	85.56
513.346	86.56
513.562	100.56
513.778	99.56
513.994	102.56
514.21	102.56
514.426	111.56
514.642	159.56
