Data from Circ_2006_H10_HRD10591_00008.txt Node
Date: Wed Jan 03 10:26:05 EST 2024
User: Yrep
Spectrometer: HR+D1059
Trigger mode: 1
Integration Time (sec): 1.000000E-1
Scans to average: 1
Electric dark correction enabled: true
Nonlinearity correction enabled: false
Boxcar width: 0
XAxis mode: Wavelengths
Number of Pixels in Spectrum: 2048
>>>>>Begin Spectral Data<<<<<
223.165	-26.56
223.4	-26.56
223.635	-26.56
223.869	-13.56
224.104	-16.56
224.338	-18.56
224.573	-15.56
224.808	-14.56
225.042	5.44
225.277	-1.56
225.511	9.44
225.746	11.44
225.98	11.44
226.215	-3.56
226.449	-6.56
226.683	12.44
226.918	39.44
227.152	27.44
227.387	30.44
227.621	44.44
227.856	47.44
228.09	44.44
228.324	39.44
228.559	54.44
228.793	58.44
229.027	75.44
229.262	68.44
229.496	85.44
229.73	77.44
229.964	88.44
230.199	77.44
230.433	81.44
230.667	58.44
230.901	84.44
231.136	69.44
231.37	72.44
231.604	92.44
231.838	94.44
232.072	68.44
232.306	77.44
232.541	79.44
232.775	83.44
233.009	88.44
233.243	101.44
233.477	86.44
233.711	75.44
233.945	78.44
234.179	73.44
234.413	74.44
234.647	69.44
234.881	68.44
235.115	79.44
235.349	82.44
235.583	82.44
235.817	73.44
236.051	81.44
236.285	72.44
236.519	81.44
236.753	82.44
236.987	83.44
237.221	82.44
237.455	95.44
237.689	83.44
237.922	83.44
238.156	64.44
238.39	85.44
238.624	90.44
238.858	81.44
239.091	69.44
239.325	83.44
239.559	78.44
239.793	98.44
240.027	84.44
240.26	76.44
240.494	77.44
240.728	68.44
240.961	84.44
241.195	87.44
241.429	75.44
241.662	90.44
241.896	67.44
242.13	79.44
242.363	78.44
242.597	78.44
242.83	78.44
243.064	88.44
243.298	77.44
243.531	87.44
243.765	84.44
243.998	81.44
244.232	80.44
244.465	79.44
244.699	73.44
244.932	74.44
245.166	90.44
245.399	83.44
245.633	77.44
245.866	77.44
246.099	84.44
246.333	79.44
246.566	89.44
246.8	82.44
247.033	87.44
247.266	87.44
247.5	80.44
247.733	90.44
247.966	85.44
248.2	86.44
248.433	84.44
248.666	80.44
248.899	69.44
249.133	87.44
249.366	89.44
249.599	88.44
249.832	83.44
250.066	75.44
250.299	68.44
250.532	67.44
250.765	86.44
250.998	89.44
251.231	86.44
251.465	84.44
251.698	71.44
251.931	79.44
252.164	78.44
252.397	68.44
252.63	87.44
252.863	91.44
253.096	85.44
253.329	86.44
253.562	91.44
253.795	88.44
254.028	90.44
254.261	71.44
254.494	86.44
254.727	88.44
254.96	79.44
255.193	87.44
255.426	75.44
255.659	94.44
255.892	82.44
256.124	72.44
256.357	83.44
256.59	76.44
256.823	65.44
257.056	81.44
257.289	81.44
257.521	77.44
257.754	70.44
257.987	97.44
258.22	72.44
258.452	77.44
258.685	86.44
258.918	71.44
259.151	81.44
259.383	79.44
259.616	76.44
259.849	88.44
260.081	64.44
260.314	77.44
260.547	79.44
260.779	78.44
261.012	74.44
261.244	77.44
261.477	86.44
261.71	91.44
261.942	103.44
262.175	108.44
262.407	90.44
262.64	79.44
262.872	85.44
263.105	90.44
263.337	86.44
263.57	91.44
263.802	87.44
264.035	76.44
264.267	73.44
264.499	76.44
264.732	80.44
264.964	92.44
265.197	92.44
265.429	77.44
265.661	85.44
265.894	85.44
266.126	90.44
266.358	88.44
266.591	90.44
266.823	92.44
267.055	87.44
267.287	81.44
267.52	73.44
267.752	82.44
267.984	81.44
268.216	79.44
268.448	84.44
268.681	86.44
268.913	82.44
269.145	98.44
269.377	84.44
269.609	82.44
269.841	92.44
270.073	81.44
270.306	78.44
270.538	85.44
270.77	79.44
271.002	87.44
271.234	92.44
271.466	88.44
271.698	76.44
271.93	79.44
272.162	81.44
272.394	89.44
272.626	90.44
272.858	74.44
273.09	105.44
273.322	87.44
273.553	95.44
273.785	83.44
274.017	89.44
274.249	90.44
274.481	82.44
274.713	81.44
274.945	73.44
275.176	84.44
275.408	73.44
275.64	95.44
275.872	95.44
276.104	88.44
276.335	92.44
276.567	103.44
276.799	86.44
277.031	88.44
277.262	90.44
277.494	94.44
277.726	67.44
277.957	80.44
278.189	87.44
278.421	77.44
278.652	84.44
278.884	85.44
279.115	88.44
279.347	76.44
279.579	84.44
279.81	100.44
280.042	99.44
280.273	91.44
280.505	66.44
280.736	99.44
280.968	86.44
281.199	97.44
281.431	84.44
281.662	95.44
281.894	94.44
282.125	101.44
282.356	116.44
282.588	131.44
282.819	106.44
283.051	102.44
283.282	97.44
283.513	87.44
283.745	81.44
283.976	99.44
284.207	79.44
284.439	73.44
284.67	80.44
284.901	70.44
285.132	88.44
285.364	73.44
285.595	77.44
285.826	92.44
286.057	87.44
286.288	82.44
286.52	83.44
286.751	86.44
286.982	83.44
287.213	87.44
287.444	76.44
287.675	90.44
287.906	93.44
288.138	83.44
288.369	68.44
288.6	83.44
288.831	99.44
289.062	96.44
289.293	90.44
289.524	96.44
289.755	97.44
289.986	90.44
290.217	91.44
290.448	84.44
290.679	95.44
290.91	77.44
291.141	85.44
291.371	87.44
291.602	87.44
291.833	94.44
292.064	87.44
292.295	87.44
292.526	81.44
292.757	84.44
292.987	75.44
293.218	84.44
293.449	86.44
293.68	88.44
293.91	80.44
294.141	92.44
294.372	91.44
294.603	92.44
294.833	109.44
295.064	94.44
295.295	99.44
295.525	94.44
295.756	105.44
295.987	113.44
296.217	136.44
296.448	124.44
296.679	91.44
296.909	77.44
297.14	94.44
297.37	97.44
297.601	95.44
297.831	98.44
298.062	101.44
298.292	78.44
298.523	84.44
298.753	89.44
298.984	94.44
299.214	99.44
299.445	92.44
299.675	101.44
299.905	105.44
300.136	87.44
300.366	86.44
300.597	84.44
300.827	97.44
301.057	94.44
301.288	108.44
301.518	85.44
301.748	89.44
301.979	106.44
302.209	92.44
302.439	92.44
302.669	77.44
302.9	93.44
303.13	94.44
303.36	97.44
303.59	108.44
303.82	115.44
304.051	94.44
304.281	86.44
304.511	108.44
304.741	91.44
304.971	82.44
305.201	100.44
305.431	91.44
305.661	102.44
305.891	94.44
306.121	92.44
306.352	110.44
306.582	97.44
306.812	85.44
307.042	99.44
307.272	81.44
307.502	95.44
307.731	86.44
307.961	83.44
308.191	98.44
308.421	95.44
308.651	90.44
308.881	76.44
309.111	99.44
309.341	95.44
309.571	104.44
309.8	93.44
310.03	95.44
310.26	107.44
310.49	94.44
310.72	82.44
310.949	104.44
311.179	93.44
311.409	93.44
311.639	99.44
311.868	85.44
312.098	92.44
312.328	92.44
312.557	98.44
312.787	108.44
313.017	98.44
313.246	80.44
313.476	101.44
313.706	72.44
313.935	93.44
314.165	98.44
314.394	102.44
314.624	78.44
314.853	94.44
315.083	80.44
315.312	93.44
315.542	90.44
315.771	81.44
316.001	83.44
316.23	95.44
316.46	101.44
316.689	105.44
316.919	96.44
317.148	94.44
317.377	97.44
317.607	97.44
317.836	81.44
318.065	98.44
318.295	85.44
318.524	73.44
318.753	86.44
318.983	102.44
319.212	94.44
319.441	109.44
319.67	102.44
319.9	94.44
320.129	75.44
320.358	88.44
320.587	91.44
320.816	96.44
321.046	105.44
321.275	113.44
321.504	86.44
321.733	97.44
321.962	97.44
322.191	94.44
322.42	102.44
322.649	114.44
322.878	114.44
323.108	112.44
323.337	133.44
323.566	139.44
323.795	148.44
324.024	214.44
324.253	426.44
324.482	921.44
324.71	1968.44
324.939	2521.44
325.168	913.44
325.397	269.44
325.626	152.44
325.855	125.44
326.084	132.44
326.313	131.44
326.542	157.44
326.77	238.44
326.999	511.44
327.228	1111.44
327.457	1981.44
327.686	1542.44
327.914	403.44
328.143	199.44
328.372	165.44
328.6	113.44
328.829	124.44
329.058	141.44
329.287	113.44
329.515	116.44
329.744	110.44
329.972	108.44
330.201	114.44
330.43	110.44
330.658	129.44
330.887	150.44
331.115	109.44
331.344	93.44
331.572	103.44
331.801	100.44
332.03	87.44
332.258	97.44
332.486	86.44
332.715	92.44
332.943	108.44
333.172	90.44
333.4	86.44
333.629	100.44
333.857	102.44
334.085	93.44
334.314	110.44
334.542	111.44
334.771	90.44
334.999	111.44
335.227	98.44
335.455	85.44
335.684	98.44
335.912	88.44
336.14	81.44
336.369	93.44
336.597	116.44
336.825	102.44
337.053	110.44
337.281	96.44
337.51	85.44
337.738	86.44
337.966	79.44
338.194	89.44
338.422	96.44
338.65	94.44
338.878	74.44
339.106	81.44
339.334	90.44
339.562	91.44
339.79	87.44
340.018	97.44
340.246	89.44
340.474	89.44
340.702	98.44
340.93	85.44
341.158	90.44
341.386	101.44
341.614	96.44
341.842	86.44
342.07	94.44
342.298	84.44
342.526	86.44
342.754	87.44
342.981	82.44
343.209	67.44
343.437	91.44
343.665	89.44
343.893	85.44
344.12	91.44
344.348	93.44
344.576	88.44
344.804	82.44
345.031	90.44
345.259	104.44
345.487	84.44
345.714	106.44
345.942	85.44
346.17	92.44
346.397	79.44
346.625	84.44
346.853	91.44
347.08	79.44
347.308	94.44
347.535	98.44
347.763	85.44
347.99	108.44
348.218	105.44
348.445	97.44
348.673	95.44
348.9	101.44
349.128	100.44
349.355	95.44
349.583	98.44
349.81	87.44
350.037	111.44
350.265	82.44
350.492	81.44
350.72	103.44
350.947	96.44
351.174	125.44
351.402	102.44
351.629	101.44
351.856	94.44
352.083	117.44
352.311	87.44
352.538	124.44
352.765	105.44
352.992	108.44
353.22	116.44
353.447	115.44
353.674	99.44
353.901	111.44
354.128	103.44
354.355	93.44
354.583	93.44
354.81	92.44
355.037	97.44
355.264	91.44
355.491	85.44
355.718	80.44
355.945	97.44
356.172	101.44
356.399	90.44
356.626	92.44
356.853	92.44
357.08	89.44
357.307	90.44
357.534	89.44
357.761	100.44
357.988	94.44
358.215	101.44
358.441	94.44
358.668	84.44
358.895	97.44
359.122	90.44
359.349	107.44
359.576	95.44
359.802	108.44
360.029	100.44
360.256	112.44
360.483	109.44
360.709	95.44
360.936	78.44
361.163	100.44
361.39	100.44
361.616	88.44
361.843	82.44
362.07	82.44
362.296	92.44
362.523	104.44
362.749	92.44
362.976	108.44
363.203	91.44
363.429	85.44
363.656	84.44
363.882	92.44
364.109	91.44
364.335	99.44
364.562	101.44
364.788	88.44
365.015	99.44
365.241	92.44
365.468	99.44
365.694	101.44
365.92	95.44
366.147	92.44
366.373	96.44
366.599	73.44
366.826	85.44
367.052	86.44
367.278	85.44
367.505	87.44
367.731	93.44
367.957	96.44
368.184	100.44
368.41	95.44
368.636	94.44
368.862	124.44
369.089	116.44
369.315	102.44
369.541	86.44
369.767	85.44
369.993	103.44
370.219	95.44
370.445	88.44
370.672	89.44
370.898	84.44
371.124	91.44
371.35	78.44
371.576	93.44
371.802	85.44
372.028	87.44
372.254	89.44
372.48	82.44
372.706	91.44
372.932	109.44
373.158	87.44
373.384	93.44
373.61	92.44
373.835	90.44
374.061	108.44
374.287	85.44
374.513	77.44
374.739	91.44
374.965	75.44
375.191	91.44
375.416	82.44
375.642	91.44
375.868	82.44
376.094	101.44
376.319	84.44
376.545	89.44
376.771	66.44
376.997	80.44
377.222	85.44
377.448	95.44
377.674	92.44
377.899	87.44
378.125	92.44
378.35	94.44
378.576	83.44
378.802	92.44
379.027	95.44
379.253	93.44
379.478	93.44
379.704	101.44
379.929	82.44
380.155	91.44
380.38	95.44
380.606	101.44
380.831	90.44
381.057	106.44
381.282	93.44
381.507	114.44
381.733	110.44
381.958	107.44
382.184	109.44
382.409	109.44
382.634	109.44
382.86	100.44
383.085	111.44
383.31	87.44
383.535	107.44
383.761	115.44
383.986	109.44
384.211	98.44
384.436	100.44
384.662	113.44
384.887	118.44
385.112	118.44
385.337	127.44
385.562	99.44
385.787	117.44
386.013	129.44
386.238	101.44
386.463	110.44
386.688	110.44
386.913	107.44
387.138	111.44
387.363	103.44
387.588	101.44
387.813	102.44
388.038	118.44
388.263	118.44
388.488	109.44
388.713	98.44
388.938	87.44
389.163	95.44
389.387	99.44
389.612	84.44
389.837	92.44
390.062	107.44
390.287	83.44
390.512	86.44
390.736	99.44
390.961	85.44
391.186	83.44
391.411	114.44
391.636	86.44
391.86	86.44
392.085	76.44
392.31	101.44
392.534	81.44
392.759	100.44
392.984	94.44
393.208	94.44
393.433	114.44
393.658	93.44
393.882	96.44
394.107	75.44
394.331	88.44
394.556	69.44
394.78	82.44
395.005	86.44
395.229	76.44
395.454	89.44
395.678	95.44
395.903	75.44
396.127	78.44
396.352	91.44
396.576	84.44
396.801	88.44
397.025	92.44
397.249	97.44
397.474	85.44
397.698	106.44
397.922	103.44
398.147	74.44
398.371	65.44
398.595	78.44
398.82	89.44
399.044	97.44
399.268	82.44
399.492	94.44
399.717	84.44
399.941	85.44
400.165	70.44
400.389	84.44
400.613	85.44
400.837	96.44
401.062	95.44
401.286	92.44
401.51	91.44
401.734	110.44
401.958	97.44
402.182	138.44
402.406	172.44
402.63	139.44
402.854	93.44
403.078	94.44
403.302	78.44
403.526	76.44
403.75	83.44
403.974	85.44
404.198	85.44
404.422	84.44
404.645	96.44
404.869	97.44
405.093	87.44
405.317	100.44
405.541	90.44
405.765	101.44
405.988	110.44
406.212	168.44
406.436	226.44
406.66	139.44
406.883	98.44
407.107	88.44
407.331	104.44
407.555	91.44
407.778	94.44
408.002	91.44
408.226	82.44
408.449	82.44
408.673	81.44
408.896	101.44
409.12	104.44
409.344	89.44
409.567	86.44
409.791	107.44
410.014	93.44
410.238	107.44
410.461	96.44
410.685	95.44
410.908	107.44
411.132	93.44
411.355	98.44
411.578	86.44
411.802	91.44
412.025	75.44
412.249	95.44
412.472	83.44
412.695	101.44
412.919	79.44
413.142	97.44
413.365	102.44
413.589	91.44
413.812	90.44
414.035	90.44
414.258	84.44
414.482	80.44
414.705	78.44
414.928	99.44
415.151	98.44
415.374	87.44
415.597	84.44
415.821	82.44
416.044	92.44
416.267	95.44
416.49	95.44
416.713	93.44
416.936	91.44
417.159	91.44
417.382	78.44
417.605	97.44
417.828	93.44
418.051	80.44
418.274	79.44
418.497	94.44
418.72	107.44
418.943	86.44
419.166	89.44
419.389	96.44
419.611	85.44
419.834	84.44
420.057	91.44
420.28	86.44
420.503	79.44
420.726	102.44
420.948	97.44
421.171	91.44
421.394	85.44
421.617	88.44
421.839	84.44
422.062	87.44
422.285	106.44
422.507	105.44
422.73	104.44
422.953	91.44
423.175	86.44
423.398	76.44
423.621	92.44
423.843	74.44
424.066	78.44
424.288	92.44
424.511	94.44
424.733	103.44
424.956	92.44
425.178	100.44
425.401	85.44
425.623	106.44
425.846	86.44
426.068	86.44
426.291	90.44
426.513	92.44
426.735	98.44
426.958	103.44
427.18	110.44
427.402	138.44
427.625	147.44
427.847	118.44
428.069	102.44
428.292	87.44
428.514	81.44
428.736	85.44
428.958	78.44
429.181	84.44
429.403	87.44
429.625	91.44
429.847	86.44
430.069	110.44
430.292	99.44
430.514	86.44
430.736	87.44
430.958	92.44
431.18	87.44
431.402	78.44
431.624	88.44
431.846	87.44
432.068	91.44
432.29	90.44
432.512	98.44
432.734	96.44
432.956	92.44
433.178	100.44
433.4	86.44
433.622	86.44
433.844	84.44
434.066	92.44
434.287	99.44
434.509	86.44
434.731	68.44
434.953	94.44
435.175	86.44
435.397	87.44
435.618	104.44
435.84	99.44
436.062	123.44
436.284	107.44
436.505	112.44
436.727	103.44
436.949	103.44
437.17	90.44
437.392	85.44
437.614	83.44
437.835	110.44
438.057	122.44
438.278	115.44
438.5	95.44
438.721	109.44
438.943	102.44
439.165	86.44
439.386	85.44
439.608	90.44
439.829	99.44
440.05	125.44
440.272	154.44
440.493	102.44
440.715	82.44
440.936	82.44
441.158	91.44
441.379	81.44
441.6	93.44
441.822	96.44
442.043	95.44
442.264	87.44
442.486	102.44
442.707	101.44
442.928	117.44
443.149	130.44
443.371	127.44
443.592	96.44
443.813	106.44
444.034	108.44
444.255	88.44
444.476	89.44
444.698	90.44
444.919	95.44
445.14	124.44
445.361	116.44
445.582	115.44
445.803	128.44
446.024	135.44
446.245	126.44
446.466	97.44
446.687	82.44
446.908	85.44
447.129	87.44
447.35	92.44
447.571	100.44
447.792	92.44
448.013	97.44
448.234	112.44
448.455	93.44
448.675	118.44
448.896	114.44
449.117	94.44
449.338	93.44
449.559	125.44
449.779	122.44
450	89.44
450.221	78.44
450.442	83.44
450.662	89.44
450.883	87.44
451.104	109.44
451.324	100.44
451.545	77.44
451.766	86.44
451.986	92.44
452.207	112.44
452.428	100.44
452.648	105.44
452.869	94.44
453.089	113.44
453.31	113.44
453.53	92.44
453.751	99.44
453.971	101.44
454.192	110.44
454.412	88.44
454.633	88.44
454.853	88.44
455.073	88.44
455.294	93.44
455.514	97.44
455.734	100.44
455.955	72.44
456.175	72.44
456.395	81.44
456.616	84.44
456.836	75.44
457.056	79.44
457.276	95.44
457.497	96.44
457.717	71.44
457.937	90.44
458.157	84.44
458.377	93.44
458.598	100.44
458.818	146.44
459.038	159.44
459.258	108.44
459.478	106.44
459.698	86.44
459.918	93.44
460.138	94.44
460.358	77.44
460.578	78.44
460.798	95.44
461.018	102.44
461.238	80.44
461.458	87.44
461.678	84.44
461.898	79.44
462.118	75.44
462.338	86.44
462.558	87.44
462.777	86.44
462.997	79.44
463.217	82.44
463.437	91.44
463.657	92.44
463.876	86.44
464.096	86.44
464.316	85.44
464.536	102.44
464.755	106.44
464.975	109.44
465.195	159.44
465.414	159.44
465.634	106.44
465.854	86.44
466.073	91.44
466.293	96.44
466.512	91.44
466.732	83.44
466.951	97.44
467.171	101.44
467.391	88.44
467.61	111.44
467.829	114.44
468.049	86.44
468.268	77.44
468.488	86.44
468.707	102.44
468.927	93.44
469.146	84.44
469.365	89.44
469.585	90.44
469.804	83.44
470.023	105.44
470.243	94.44
470.462	103.44
470.681	101.44
470.901	81.44
471.12	87.44
471.339	88.44
471.558	77.44
471.777	90.44
471.997	81.44
472.216	99.44
472.435	92.44
472.654	94.44
472.873	91.44
473.092	87.44
473.311	86.44
473.53	98.44
473.749	87.44
473.968	89.44
474.187	109.44
474.406	95.44
474.625	94.44
474.844	84.44
475.063	81.44
475.282	86.44
475.501	75.44
475.72	82.44
475.939	73.44
476.158	82.44
476.377	84.44
476.596	74.44
476.814	98.44
477.033	87.44
477.252	96.44
477.471	91.44
477.69	79.44
477.908	77.44
478.127	71.44
478.346	92.44
478.564	96.44
478.783	87.44
479.002	98.44
479.22	97.44
479.439	98.44
479.658	115.44
479.876	98.44
480.095	102.44
480.313	95.44
480.532	91.44
480.751	97.44
480.969	93.44
481.188	107.44
481.406	107.44
481.624	86.44
481.843	94.44
482.061	78.44
482.28	90.44
482.498	82.44
482.717	69.44
482.935	94.44
483.153	88.44
483.372	91.44
483.59	101.44
483.808	97.44
484.027	91.44
484.245	95.44
484.463	105.44
484.681	103.44
484.9	95.44
485.118	100.44
485.336	113.44
485.554	87.44
485.772	114.44
485.99	114.44
486.209	116.44
486.427	107.44
486.645	115.44
486.863	113.44
487.081	106.44
487.299	89.44
487.517	93.44
487.735	85.44
487.953	86.44
488.171	84.44
488.389	89.44
488.607	89.44
488.825	91.44
489.043	102.44
489.261	84.44
489.479	85.44
489.696	88.44
489.914	108.44
490.132	77.44
490.35	84.44
490.568	100.44
490.786	82.44
491.003	97.44
491.221	89.44
491.439	92.44
491.657	94.44
491.874	99.44
492.092	86.44
492.31	91.44
492.527	90.44
492.745	93.44
492.963	91.44
493.18	86.44
493.398	90.44
493.615	90.44
493.833	93.44
494.05	81.44
494.268	88.44
494.485	102.44
494.703	96.44
494.92	87.44
495.138	90.44
495.355	92.44
495.573	76.44
495.79	87.44
496.008	86.44
496.225	91.44
496.442	74.44
496.66	86.44
496.877	101.44
497.094	102.44
497.312	86.44
497.529	95.44
497.746	112.44
497.963	88.44
498.181	98.44
498.398	99.44
498.615	100.44
498.832	111.44
499.049	90.44
499.267	93.44
499.484	93.44
499.701	109.44
499.918	77.44
500.135	81.44
500.352	88.44
500.569	91.44
500.786	108.44
501.003	95.44
501.22	89.44
501.437	89.44
501.654	99.44
501.871	104.44
502.088	90.44
502.305	95.44
502.522	94.44
502.739	90.44
502.956	94.44
503.172	98.44
503.389	91.44
503.606	108.44
503.823	101.44
504.04	93.44
504.256	93.44
504.473	94.44
504.69	89.44
504.907	87.44
505.123	90.44
505.34	62.44
505.557	106.44
505.773	97.44
505.99	106.44
506.207	104.44
506.423	83.44
506.64	93.44
506.856	95.44
507.073	85.44
507.289	98.44
507.506	84.44
507.722	120.44
507.939	125.44
508.155	92.44
508.372	67.44
508.588	93.44
508.805	93.44
509.021	105.44
509.238	106.44
509.454	96.44
509.67	84.44
509.887	128.44
510.103	139.44
510.319	211.44
510.536	747.44
510.752	2431.44
510.968	697.44
511.184	155.44
511.401	113.44
511.617	102.44
511.833	89.44
512.049	76.44
512.265	100.44
512.481	102.44
512.698	88.44
512.914	99.44
513.13	100.44
513.346	108.44
513.562	108.44
513.778	96.44
513.994	94.44
514.21	107.44
514.426	113.44
514.642	135.44
514.858	125.44
515.074	165.44
515.29	445.44
515.506	1508.44
