Data from Circ_2006_H10_HRD10591_00084.txt Node
Date: Wed Jan 03 10:26:20 EST 2024
User: Yrep
Spectrometer: HR+D1059
Trigger mode: 1
Integration Time (sec): 1.000000E-1
Scans to average: 1
Electric dark correction enabled: true
Nonlinearity correction enabled: false
Boxcar width: 0
XAxis mode: Wavelengths
Number of Pixels in Spectrum: 2048
>>>>>Begin Spectral Data<<<<<
223.165	-6.38
223.4	-6.38
223.635	-6.38
223.869	-18.38
224.104	-9.38
224.338	-15.38
224.573	-26.38
224.808	-13.38
225.042	-8.38
225.277	1.62
225.511	-0.38
225.746	11.62
225.98	-1.38
226.215	13.62
226.449	8.62
226.683	12.62
226.918	29.62
227.152	21.62
227.387	43.62
227.621	33.62
227.856	51.62
228.09	55.62
228.324	58.62
228.559	58.62
228.793	70.62
229.027	64.62
229.262	81.62
229.496	73.62
229.73	86.62
229.964	86.62
230.199	80.62
230.433	86.62
230.667	81.62
230.901	82.62
231.136	84.62
231.37	81.62
231.604	74.62
231.838	79.62
232.072	98.62
232.306	87.62
232.541	95.62
232.775	81.62
233.009	77.62
233.243	93.62
233.477	95.62
233.711	90.62
233.945	89.62
234.179	88.62
234.413	86.62
234.647	93.62
234.881	95.62
235.115	72.62
235.349	87.62
235.583	77.62
235.817	90.62
236.051	82.62
236.285	83.62
236.519	80.62
236.753	81.62
236.987	86.62
237.221	81.62
237.455	103.62
237.689	86.62
237.922	78.62
238.156	66.62
238.39	91.62
238.624	79.62
238.858	83.62
239.091	90.62
239.325	97.62
239.559	87.62
239.793	77.62
240.027	78.62
240.26	79.62
240.494	75.62
240.728	82.62
240.961	75.62
241.195	72.62
241.429	80.62
241.662	75.62
241.896	81.62
242.13	86.62
242.363	87.62
242.597	88.62
242.83	83.62
243.064	83.62
243.298	84.62
243.531	93.62
243.765	88.62
243.998	92.62
244.232	83.62
244.465	85.62
244.699	91.62
244.932	79.62
245.166	93.62
245.399	74.62
245.633	79.62
245.866	71.62
246.099	63.62
246.333	69.62
246.566	74.62
246.8	81.62
247.033	87.62
247.266	82.62
247.5	67.62
247.733	103.62
247.966	81.62
248.2	84.62
248.433	79.62
248.666	72.62
248.899	81.62
249.133	86.62
249.366	100.62
249.599	113.62
249.832	84.62
250.066	93.62
250.299	85.62
250.532	61.62
250.765	80.62
250.998	82.62
251.231	87.62
251.465	67.62
251.698	85.62
251.931	80.62
252.164	79.62
252.397	74.62
252.63	86.62
252.863	89.62
253.096	86.62
253.329	74.62
253.562	79.62
253.795	69.62
254.028	95.62
254.261	91.62
254.494	96.62
254.727	105.62
254.96	71.62
255.193	73.62
255.426	87.62
255.659	82.62
255.892	94.62
256.124	71.62
256.357	96.62
256.59	88.62
256.823	83.62
257.056	87.62
257.289	86.62
257.521	79.62
257.754	104.62
257.987	86.62
258.22	89.62
258.452	96.62
258.685	93.62
258.918	86.62
259.151	85.62
259.383	89.62
259.616	92.62
259.849	93.62
260.081	85.62
260.314	69.62
260.547	82.62
260.779	80.62
261.012	89.62
261.244	81.62
261.477	104.62
261.71	98.62
261.942	109.62
262.175	134.62
262.407	91.62
262.64	73.62
262.872	88.62
263.105	84.62
263.337	83.62
263.57	83.62
263.802	89.62
264.035	91.62
264.267	78.62
264.499	71.62
264.732	111.62
264.964	96.62
265.197	90.62
265.429	86.62
265.661	98.62
265.894	89.62
266.126	81.62
266.358	101.62
266.591	81.62
266.823	88.62
267.055	85.62
267.287	86.62
267.52	80.62
267.752	93.62
267.984	90.62
268.216	93.62
268.448	84.62
268.681	83.62
268.913	83.62
269.145	93.62
269.377	103.62
269.609	86.62
269.841	87.62
270.073	89.62
270.306	88.62
270.538	89.62
270.77	88.62
271.002	89.62
271.234	92.62
271.466	83.62
271.698	78.62
271.93	84.62
272.162	81.62
272.394	81.62
272.626	81.62
272.858	87.62
273.09	91.62
273.322	95.62
273.553	80.62
273.785	89.62
274.017	77.62
274.249	99.62
274.481	93.62
274.713	81.62
274.945	93.62
275.176	99.62
275.408	83.62
275.64	97.62
275.872	76.62
276.104	80.62
276.335	107.62
276.567	106.62
276.799	142.62
277.031	131.62
277.262	96.62
277.494	97.62
277.726	104.62
277.957	97.62
278.189	77.62
278.421	91.62
278.652	86.62
278.884	98.62
279.115	85.62
279.347	71.62
279.579	94.62
279.81	87.62
280.042	95.62
280.273	97.62
280.505	91.62
280.736	92.62
280.968	90.62
281.199	86.62
281.431	96.62
281.662	83.62
281.894	88.62
282.125	115.62
282.356	129.62
282.588	153.62
282.819	112.62
283.051	83.62
283.282	106.62
283.513	96.62
283.745	90.62
283.976	90.62
284.207	87.62
284.439	85.62
284.67	83.62
284.901	89.62
285.132	95.62
285.364	97.62
285.595	89.62
285.826	74.62
286.057	93.62
286.288	75.62
286.52	93.62
286.751	75.62
286.982	100.62
287.213	84.62
287.444	91.62
287.675	97.62
287.906	87.62
288.138	86.62
288.369	96.62
288.6	85.62
288.831	81.62
289.062	79.62
289.293	95.62
289.524	89.62
289.755	83.62
289.986	94.62
290.217	86.62
290.448	90.62
290.679	86.62
290.91	100.62
291.141	81.62
291.371	93.62
291.602	98.62
291.833	98.62
292.064	85.62
292.295	89.62
292.526	105.62
292.757	102.62
292.987	90.62
293.218	102.62
293.449	80.62
293.68	89.62
293.91	98.62
294.141	97.62
294.372	86.62
294.603	86.62
294.833	71.62
295.064	88.62
295.295	89.62
295.525	105.62
295.756	98.62
295.987	125.62
296.217	150.62
296.448	139.62
296.679	105.62
296.909	106.62
297.14	99.62
297.37	98.62
297.601	86.62
297.831	90.62
298.062	93.62
298.292	92.62
298.523	88.62
298.753	79.62
298.984	105.62
299.214	82.62
299.445	97.62
299.675	108.62
299.905	99.62
300.136	91.62
300.366	85.62
300.597	96.62
300.827	105.62
301.057	109.62
301.288	113.62
301.518	101.62
301.748	81.62
301.979	93.62
302.209	91.62
302.439	84.62
302.669	103.62
302.9	85.62
303.13	99.62
303.36	105.62
303.59	95.62
303.82	118.62
304.051	98.62
304.281	100.62
304.511	91.62
304.741	93.62
304.971	85.62
305.201	100.62
305.431	91.62
305.661	85.62
305.891	99.62
306.121	105.62
306.352	100.62
306.582	113.62
306.812	101.62
307.042	91.62
307.272	97.62
307.502	107.62
307.731	115.62
307.961	87.62
308.191	83.62
308.421	99.62
308.651	88.62
308.881	97.62
309.111	98.62
309.341	122.62
309.571	119.62
309.8	79.62
310.03	95.62
310.26	77.62
310.49	107.62
310.72	109.62
310.949	108.62
311.179	103.62
311.409	101.62
311.639	98.62
311.868	98.62
312.098	87.62
312.328	95.62
312.557	105.62
312.787	113.62
313.017	102.62
313.246	93.62
313.476	107.62
313.706	97.62
313.935	107.62
314.165	117.62
314.394	120.62
314.624	104.62
314.853	108.62
315.083	97.62
315.312	99.62
315.542	84.62
315.771	90.62
316.001	105.62
316.23	103.62
316.46	106.62
316.689	102.62
316.919	99.62
317.148	92.62
317.377	84.62
317.607	101.62
317.836	99.62
318.065	86.62
318.295	90.62
318.524	87.62
318.753	104.62
318.983	101.62
319.212	122.62
319.441	112.62
319.67	114.62
319.9	104.62
320.129	94.62
320.358	95.62
320.587	108.62
320.816	110.62
321.046	107.62
321.275	114.62
321.504	110.62
321.733	105.62
321.962	110.62
322.191	105.62
322.42	117.62
322.649	115.62
322.878	116.62
323.108	122.62
323.337	129.62
323.566	150.62
323.795	170.62
324.024	238.62
324.253	489.62
324.482	1066.62
324.71	2220.62
324.939	2904.62
325.168	1021.62
325.397	281.62
325.626	171.62
325.855	145.62
326.084	137.62
326.313	159.62
326.542	175.62
326.77	281.62
326.999	574.62
327.228	1224.62
327.457	2235.62
327.686	1717.62
327.914	462.62
328.143	241.62
328.372	201.62
328.6	152.62
328.829	125.62
329.058	137.62
329.287	138.62
329.515	121.62
329.744	131.62
329.972	113.62
330.201	163.62
330.43	217.62
330.658	168.62
330.887	173.62
331.115	134.62
331.344	115.62
331.572	110.62
331.801	108.62
332.03	103.62
332.258	97.62
332.486	88.62
332.715	88.62
332.943	108.62
333.172	102.62
333.4	111.62
333.629	123.62
333.857	126.62
334.085	133.62
334.314	145.62
334.542	221.62
334.771	225.62
334.999	137.62
335.227	96.62
335.455	91.62
335.684	113.62
335.912	98.62
336.14	103.62
336.369	103.62
336.597	99.62
336.825	105.62
337.053	96.62
337.281	100.62
337.51	103.62
337.738	105.62
337.966	95.62
338.194	114.62
338.422	100.62
338.65	84.62
338.878	101.62
339.106	99.62
339.334	97.62
339.562	93.62
339.79	80.62
340.018	97.62
340.246	106.62
340.474	89.62
340.702	101.62
340.93	91.62
341.158	88.62
341.386	99.62
341.614	113.62
341.842	90.62
342.07	95.62
342.298	98.62
342.526	98.62
342.754	103.62
342.981	103.62
343.209	113.62
343.437	105.62
343.665	87.62
343.893	95.62
344.12	103.62
344.348	114.62
344.576	94.62
344.804	96.62
345.031	111.62
345.259	105.62
345.487	103.62
345.714	101.62
345.942	107.62
346.17	78.62
346.397	91.62
346.625	96.62
346.853	96.62
347.08	84.62
347.308	110.62
347.535	102.62
347.763	107.62
347.99	123.62
348.218	107.62
348.445	113.62
348.673	95.62
348.9	90.62
349.128	106.62
349.355	101.62
349.583	96.62
349.81	93.62
350.037	94.62
350.265	94.62
350.492	98.62
350.72	83.62
350.947	112.62
351.174	106.62
351.402	120.62
351.629	110.62
351.856	88.62
352.083	112.62
352.311	117.62
352.538	114.62
352.765	115.62
352.992	116.62
353.22	116.62
353.447	101.62
353.674	102.62
353.901	89.62
354.128	107.62
354.355	115.62
354.583	115.62
354.81	110.62
355.037	87.62
355.264	92.62
355.491	90.62
355.718	96.62
355.945	80.62
356.172	90.62
356.399	95.62
356.626	101.62
356.853	96.62
357.08	107.62
357.307	91.62
357.534	85.62
357.761	93.62
357.988	98.62
358.215	98.62
358.441	91.62
358.668	87.62
358.895	91.62
359.122	88.62
359.349	83.62
359.576	98.62
359.802	115.62
360.029	133.62
360.256	129.62
360.483	114.62
360.709	95.62
360.936	103.62
361.163	109.62
361.39	96.62
361.616	110.62
361.843	94.62
362.07	98.62
362.296	102.62
362.523	96.62
362.749	81.62
362.976	98.62
363.203	103.62
363.429	97.62
363.656	87.62
363.882	102.62
364.109	85.62
364.335	95.62
364.562	78.62
364.788	96.62
365.015	107.62
365.241	103.62
365.468	114.62
365.694	111.62
365.92	109.62
366.147	91.62
366.373	82.62
366.599	86.62
366.826	83.62
367.052	95.62
367.278	85.62
367.505	91.62
367.731	82.62
367.957	111.62
368.184	97.62
368.41	91.62
368.636	120.62
368.862	137.62
369.089	120.62
369.315	97.62
369.541	103.62
369.767	94.62
369.993	78.62
370.219	94.62
370.445	97.62
370.672	88.62
370.898	96.62
371.124	91.62
371.35	98.62
371.576	85.62
371.802	96.62
372.028	100.62
372.254	101.62
372.48	75.62
372.706	85.62
372.932	87.62
373.158	88.62
373.384	82.62
373.61	88.62
373.835	91.62
374.061	84.62
374.287	108.62
374.513	104.62
374.739	91.62
374.965	91.62
375.191	94.62
375.416	79.62
375.642	98.62
375.868	91.62
376.094	100.62
376.319	104.62
376.545	87.62
376.771	95.62
376.997	90.62
377.222	79.62
377.448	100.62
377.674	77.62
377.899	115.62
378.125	88.62
378.35	94.62
378.576	103.62
378.802	94.62
379.027	103.62
379.253	93.62
379.478	91.62
379.704	104.62
379.929	82.62
380.155	101.62
380.38	95.62
380.606	101.62
380.831	99.62
381.057	112.62
381.282	95.62
381.507	83.62
381.733	101.62
381.958	106.62
382.184	90.62
382.409	101.62
382.634	94.62
382.86	94.62
383.085	110.62
383.31	109.62
383.535	102.62
383.761	104.62
383.986	98.62
384.211	104.62
384.436	98.62
384.662	104.62
384.887	109.62
385.112	102.62
385.337	112.62
385.562	97.62
385.787	110.62
386.013	113.62
386.238	125.62
386.463	117.62
386.688	99.62
386.913	94.62
387.138	78.62
387.363	89.62
387.588	113.62
387.813	108.62
388.038	119.62
388.263	122.62
388.488	120.62
388.713	95.62
388.938	104.62
389.163	103.62
389.387	97.62
389.612	105.62
389.837	89.62
390.062	98.62
390.287	100.62
390.512	97.62
390.736	88.62
390.961	94.62
391.186	108.62
391.411	97.62
391.636	80.62
391.86	91.62
392.085	95.62
392.31	83.62
392.534	79.62
392.759	81.62
392.984	96.62
393.208	87.62
393.433	89.62
393.658	100.62
393.882	95.62
394.107	92.62
394.331	88.62
394.556	81.62
394.78	84.62
395.005	85.62
395.229	89.62
395.454	88.62
395.678	97.62
395.903	88.62
396.127	85.62
396.352	91.62
396.576	98.62
396.801	98.62
397.025	90.62
397.249	89.62
397.474	81.62
397.698	95.62
397.922	95.62
398.147	87.62
398.371	95.62
398.595	89.62
398.82	93.62
399.044	97.62
399.268	85.62
399.492	82.62
399.717	98.62
399.941	104.62
400.165	90.62
400.389	91.62
400.613	94.62
400.837	70.62
401.062	86.62
401.286	97.62
401.51	87.62
401.734	91.62
401.958	110.62
402.182	149.62
402.406	173.62
402.63	133.62
402.854	96.62
403.078	91.62
403.302	106.62
403.526	91.62
403.75	90.62
403.974	90.62
404.198	100.62
404.422	85.62
404.645	90.62
404.869	85.62
405.093	106.62
405.317	100.62
405.541	102.62
405.765	115.62
405.988	127.62
406.212	201.62
406.436	256.62
406.66	177.62
406.883	115.62
407.107	113.62
407.331	85.62
407.555	98.62
407.778	91.62
408.002	89.62
408.226	99.62
408.449	96.62
408.673	87.62
408.896	98.62
409.12	90.62
409.344	96.62
409.567	100.62
409.791	87.62
410.014	87.62
410.238	105.62
410.461	107.62
410.685	89.62
410.908	119.62
411.132	102.62
411.355	108.62
411.578	99.62
411.802	79.62
412.025	108.62
412.249	93.62
412.472	104.62
412.695	103.62
412.919	88.62
413.142	87.62
413.365	106.62
413.589	84.62
413.812	94.62
414.035	100.62
414.258	88.62
414.482	94.62
414.705	97.62
414.928	100.62
415.151	106.62
415.374	99.62
415.597	87.62
415.821	88.62
416.044	90.62
416.267	91.62
416.49	96.62
416.713	90.62
416.936	93.62
417.159	98.62
417.382	100.62
417.605	97.62
417.828	105.62
418.051	84.62
418.274	94.62
418.497	75.62
418.72	105.62
418.943	103.62
419.166	90.62
419.389	101.62
419.611	90.62
419.834	83.62
420.057	90.62
420.28	81.62
420.503	104.62
420.726	85.62
420.948	95.62
421.171	87.62
421.394	97.62
421.617	106.62
421.839	106.62
422.062	95.62
422.285	84.62
422.507	88.62
422.73	101.62
422.953	91.62
423.175	100.62
423.398	87.62
423.621	97.62
423.843	86.62
424.066	89.62
424.288	94.62
424.511	85.62
424.733	97.62
424.956	119.62
425.178	110.62
425.401	101.62
425.623	104.62
425.846	102.62
426.068	91.62
426.291	98.62
426.513	105.62
426.735	95.62
426.958	94.62
427.18	118.62
427.402	162.62
427.625	181.62
427.847	162.62
428.069	120.62
428.292	111.62
428.514	88.62
428.736	91.62
428.958	102.62
429.181	81.62
429.403	101.62
429.625	93.62
429.847	94.62
430.069	102.62
430.292	105.62
430.514	86.62
430.736	86.62
430.958	88.62
431.18	95.62
431.402	88.62
431.624	96.62
431.846	91.62
432.068	91.62
432.29	102.62
432.512	91.62
432.734	92.62
432.956	75.62
433.178	87.62
433.4	104.62
433.622	102.62
433.844	82.62
434.066	99.62
434.287	93.62
434.509	68.62
434.731	101.62
434.953	96.62
435.175	101.62
435.397	103.62
435.618	102.62
435.84	116.62
436.062	128.62
436.284	134.62
436.505	104.62
436.727	129.62
436.949	94.62
437.17	83.62
437.392	106.62
437.614	90.62
437.835	118.62
438.057	126.62
438.278	115.62
438.5	94.62
438.721	128.62
438.943	105.62
439.165	82.62
439.386	97.62
439.608	98.62
439.829	105.62
440.05	135.62
440.272	152.62
440.493	109.62
440.715	90.62
440.936	87.62
441.158	88.62
441.379	89.62
441.6	96.62
441.822	89.62
442.043	104.62
442.264	115.62
442.486	98.62
442.707	71.62
442.928	102.62
443.149	137.62
443.371	145.62
443.592	120.62
443.813	113.62
444.034	100.62
444.255	104.62
444.476	105.62
444.698	101.62
444.919	83.62
445.14	140.62
445.361	141.62
445.582	133.62
445.803	159.62
446.024	136.62
446.245	143.62
446.466	118.62
446.687	90.62
446.908	101.62
447.129	100.62
447.35	97.62
447.571	94.62
447.792	103.62
448.013	105.62
448.234	109.62
448.455	110.62
448.675	125.62
448.896	133.62
449.117	104.62
449.338	95.62
449.559	137.62
449.779	131.62
450	98.62
450.221	94.62
450.442	96.62
450.662	74.62
450.883	132.62
451.104	121.62
451.324	101.62
451.545	101.62
451.766	95.62
451.986	86.62
452.207	106.62
452.428	111.62
452.648	111.62
452.869	120.62
453.089	122.62
453.31	136.62
453.53	110.62
453.751	112.62
453.971	111.62
454.192	117.62
454.412	99.62
454.633	111.62
454.853	99.62
455.073	96.62
455.294	98.62
455.514	110.62
455.734	94.62
455.955	85.62
456.175	86.62
456.395	95.62
456.616	99.62
456.836	86.62
457.056	88.62
457.276	85.62
457.497	93.62
457.717	95.62
457.937	96.62
458.157	107.62
458.377	98.62
458.598	131.62
458.818	181.62
459.038	175.62
459.258	125.62
459.478	107.62
459.698	82.62
459.918	91.62
460.138	83.62
460.358	103.62
460.578	91.62
460.798	89.62
461.018	105.62
461.238	101.62
461.458	83.62
461.678	99.62
461.898	110.62
462.118	92.62
462.338	91.62
462.558	97.62
462.777	83.62
462.997	89.62
463.217	89.62
463.437	95.62
463.657	77.62
463.876	89.62
464.096	97.62
464.316	91.62
464.536	90.62
464.755	92.62
464.975	106.62
465.195	202.62
465.414	182.62
465.634	105.62
465.854	97.62
466.073	98.62
466.293	97.62
466.512	80.62
466.732	101.62
466.951	83.62
467.171	86.62
467.391	84.62
467.61	118.62
467.829	99.62
468.049	129.62
468.268	144.62
468.488	107.62
468.707	97.62
468.927	80.62
469.146	96.62
469.365	90.62
469.585	69.62
469.804	114.62
470.023	107.62
470.243	107.62
470.462	109.62
470.681	120.62
470.901	92.62
471.12	91.62
471.339	103.62
471.558	95.62
471.777	105.62
471.997	118.62
472.216	171.62
472.435	279.62
472.654	129.62
472.873	93.62
473.092	98.62
473.311	112.62
473.53	101.62
473.749	92.62
473.968	106.62
474.187	114.62
474.406	115.62
474.625	90.62
474.844	94.62
475.063	92.62
475.282	89.62
475.501	99.62
475.72	87.62
475.939	89.62
476.158	94.62
476.377	93.62
476.596	102.62
476.814	105.62
477.033	99.62
477.252	109.62
477.471	108.62
477.69	100.62
477.908	102.62
478.127	95.62
478.346	84.62
478.564	106.62
478.783	105.62
479.002	95.62
479.22	102.62
479.439	109.62
479.658	103.62
479.876	101.62
480.095	96.62
480.313	100.62
480.532	103.62
480.751	118.62
480.969	171.62
481.188	445.62
481.406	307.62
481.624	117.62
481.843	98.62
482.061	91.62
482.28	94.62
482.498	78.62
482.717	89.62
482.935	81.62
483.153	88.62
483.372	81.62
483.59	82.62
483.808	91.62
484.027	106.62
484.245	90.62
484.463	106.62
484.681	104.62
484.9	90.62
485.118	104.62
485.336	103.62
485.554	105.62
485.772	117.62
485.99	103.62
486.209	114.62
486.427	105.62
486.645	126.62
486.863	113.62
487.081	105.62
487.299	116.62
487.517	100.62
487.735	90.62
487.953	97.62
488.171	93.62
488.389	92.62
488.607	105.62
488.825	80.62
489.043	87.62
489.261	86.62
489.479	91.62
489.696	99.62
489.914	89.62
490.132	103.62
490.35	93.62
490.568	98.62
490.786	94.62
491.003	93.62
491.221	82.62
491.439	105.62
491.657	109.62
491.874	86.62
492.092	101.62
492.31	92.62
492.527	96.62
492.745	89.62
492.963	100.62
493.18	103.62
493.398	94.62
493.615	113.62
493.833	96.62
494.05	101.62
494.268	72.62
494.485	90.62
494.703	102.62
494.92	98.62
495.138	88.62
495.355	85.62
495.573	92.62
495.79	108.62
496.008	106.62
496.225	101.62
496.442	95.62
496.66	96.62
496.877	85.62
497.094	109.62
497.312	92.62
497.529	100.62
497.746	98.62
497.963	97.62
498.181	96.62
498.398	104.62
498.615	113.62
498.832	102.62
499.049	90.62
499.267	96.62
499.484	87.62
499.701	95.62
499.918	111.62
500.135	93.62
500.352	85.62
500.569	103.62
500.786	108.62
501.003	96.62
501.22	86.62
501.437	83.62
501.654	102.62
501.871	133.62
502.088	95.62
502.305	95.62
502.522	90.62
502.739	90.62
502.956	84.62
503.172	90.62
503.389	91.62
503.606	115.62
503.823	112.62
504.04	91.62
504.256	97.62
504.473	88.62
504.69	82.62
504.907	100.62
505.123	93.62
505.34	101.62
505.557	75.62
505.773	96.62
505.99	98.62
506.207	85.62
506.423	97.62
506.64	102.62
506.856	95.62
507.073	100.62
507.289	104.62
507.506	100.62
507.722	106.62
507.939	102.62
508.155	103.62
508.372	105.62
508.588	106.62
508.805	94.62
509.021	91.62
509.238	107.62
509.454	114.62
509.67	105.62
509.887	115.62
510.103	156.62
510.319	239.62
510.536	905.62
510.752	3050.62
510.968	856.62
511.184	178.62
511.401	122.62
511.617	105.62
511.833	108.62
512.049	96.62
512.265	95.62
512.481	99.62
512.698	93.62
512.914	97.62
513.13	99.62
