Data from Circ_2006_H10_HRD10591_00030.txt Node
Date: Wed Jan 03 10:26:09 EST 2024
User: Yrep
Spectrometer: HR+D1059
Trigger mode: 1
Integration Time (sec): 1.000000E-1
Scans to average: 1
Electric dark correction enabled: true
Nonlinearity correction enabled: false
Boxcar width: 0
XAxis mode: Wavelengths
Number of Pixels in Spectrum: 2048
>>>>>Begin Spectral Data<<<<<
223.165	-27.12
223.4	-27.12
223.635	-27.12
223.869	-17.12
224.104	-21.12
224.338	-12.12
224.573	-12.12
224.808	-6.12
225.042	-10.12
225.277	-9.12
225.511	-2.12
225.746	1.88
225.98	8.88
226.215	1.88
226.449	16.88
226.683	29.88
226.918	21.88
227.152	35.88
227.387	43.88
227.621	39.88
227.856	41.88
228.09	39.88
228.324	49.88
228.559	51.88
228.793	55.88
229.027	60.88
229.262	62.88
229.496	66.88
229.73	89.88
229.964	88.88
230.199	81.88
230.433	86.88
230.667	68.88
230.901	78.88
231.136	77.88
231.37	69.88
231.604	70.88
231.838	83.88
232.072	78.88
232.306	76.88
232.541	82.88
232.775	69.88
233.009	81.88
233.243	70.88
233.477	85.88
233.711	72.88
233.945	81.88
234.179	67.88
234.413	77.88
234.647	86.88
234.881	86.88
235.115	77.88
235.349	84.88
235.583	82.88
235.817	76.88
236.051	75.88
236.285	81.88
236.519	79.88
236.753	79.88
236.987	85.88
237.221	78.88
237.455	91.88
237.689	77.88
237.922	79.88
238.156	80.88
238.39	81.88
238.624	70.88
238.858	78.88
239.091	93.88
239.325	73.88
239.559	64.88
239.793	67.88
240.027	73.88
240.26	75.88
240.494	75.88
240.728	69.88
240.961	72.88
241.195	82.88
241.429	71.88
241.662	72.88
241.896	73.88
242.13	61.88
242.363	79.88
242.597	79.88
242.83	80.88
243.064	80.88
243.298	63.88
243.531	70.88
243.765	70.88
243.998	79.88
244.232	83.88
244.465	90.88
244.699	76.88
244.932	79.88
245.166	81.88
245.399	84.88
245.633	79.88
245.866	87.88
246.099	77.88
246.333	76.88
246.566	64.88
246.8	65.88
247.033	77.88
247.266	82.88
247.5	96.88
247.733	70.88
247.966	82.88
248.2	69.88
248.433	81.88
248.666	72.88
248.899	78.88
249.133	83.88
249.366	94.88
249.599	102.88
249.832	90.88
250.066	95.88
250.299	88.88
250.532	97.88
250.765	75.88
250.998	70.88
251.231	77.88
251.465	76.88
251.698	104.88
251.931	78.88
252.164	84.88
252.397	74.88
252.63	80.88
252.863	63.88
253.096	75.88
253.329	82.88
253.562	93.88
253.795	69.88
254.028	75.88
254.261	86.88
254.494	84.88
254.727	83.88
254.96	80.88
255.193	96.88
255.426	66.88
255.659	72.88
255.892	93.88
256.124	76.88
256.357	86.88
256.59	85.88
256.823	78.88
257.056	70.88
257.289	70.88
257.521	88.88
257.754	84.88
257.987	85.88
258.22	81.88
258.452	82.88
258.685	78.88
258.918	77.88
259.151	87.88
259.383	76.88
259.616	82.88
259.849	74.88
260.081	81.88
260.314	85.88
260.547	86.88
260.779	86.88
261.012	81.88
261.244	90.88
261.477	91.88
261.71	118.88
261.942	129.88
262.175	133.88
262.407	85.88
262.64	86.88
262.872	70.88
263.105	77.88
263.337	83.88
263.57	92.88
263.802	76.88
264.035	93.88
264.267	73.88
264.499	91.88
264.732	88.88
264.964	79.88
265.197	88.88
265.429	98.88
265.661	83.88
265.894	82.88
266.126	99.88
266.358	66.88
266.591	67.88
266.823	88.88
267.055	80.88
267.287	95.88
267.52	77.88
267.752	86.88
267.984	78.88
268.216	79.88
268.448	87.88
268.681	74.88
268.913	81.88
269.145	81.88
269.377	85.88
269.609	82.88
269.841	101.88
270.073	78.88
270.306	81.88
270.538	95.88
270.77	96.88
271.002	69.88
271.234	76.88
271.466	76.88
271.698	85.88
271.93	83.88
272.162	80.88
272.394	88.88
272.626	77.88
272.858	94.88
273.09	77.88
273.322	86.88
273.553	75.88
273.785	88.88
274.017	86.88
274.249	101.88
274.481	86.88
274.713	93.88
274.945	91.88
275.176	79.88
275.408	81.88
275.64	79.88
275.872	95.88
276.104	94.88
276.335	88.88
276.567	95.88
276.799	98.88
277.031	86.88
277.262	91.88
277.494	99.88
277.726	83.88
277.957	87.88
278.189	83.88
278.421	72.88
278.652	93.88
278.884	88.88
279.115	87.88
279.347	72.88
279.579	86.88
279.81	93.88
280.042	86.88
280.273	79.88
280.505	91.88
280.736	82.88
280.968	94.88
281.199	70.88
281.431	84.88
281.662	85.88
281.894	94.88
282.125	84.88
282.356	123.88
282.588	146.88
282.819	117.88
283.051	95.88
283.282	87.88
283.513	83.88
283.745	85.88
283.976	88.88
284.207	79.88
284.439	89.88
284.67	82.88
284.901	90.88
285.132	82.88
285.364	95.88
285.595	94.88
285.826	94.88
286.057	87.88
286.288	99.88
286.52	93.88
286.751	87.88
286.982	72.88
287.213	102.88
287.444	81.88
287.675	99.88
287.906	84.88
288.138	102.88
288.369	90.88
288.6	103.88
288.831	89.88
289.062	91.88
289.293	78.88
289.524	87.88
289.755	90.88
289.986	83.88
290.217	100.88
290.448	90.88
290.679	89.88
290.91	94.88
291.141	84.88
291.371	89.88
291.602	87.88
291.833	86.88
292.064	83.88
292.295	96.88
292.526	99.88
292.757	81.88
292.987	95.88
293.218	89.88
293.449	74.88
293.68	88.88
293.91	81.88
294.141	86.88
294.372	91.88
294.603	84.88
294.833	83.88
295.064	81.88
295.295	91.88
295.525	87.88
295.756	109.88
295.987	126.88
296.217	165.88
296.448	125.88
296.679	94.88
296.909	78.88
297.14	82.88
297.37	71.88
297.601	87.88
297.831	86.88
298.062	96.88
298.292	83.88
298.523	96.88
298.753	91.88
298.984	72.88
299.214	83.88
299.445	79.88
299.675	96.88
299.905	102.88
300.136	83.88
300.366	110.88
300.597	87.88
300.827	95.88
301.057	98.88
301.288	105.88
301.518	89.88
301.748	85.88
301.979	97.88
302.209	92.88
302.439	103.88
302.669	98.88
302.9	82.88
303.13	95.88
303.36	99.88
303.59	110.88
303.82	115.88
304.051	94.88
304.281	102.88
304.511	97.88
304.741	101.88
304.971	100.88
305.201	86.88
305.431	78.88
305.661	94.88
305.891	77.88
306.121	95.88
306.352	114.88
306.582	106.88
306.812	93.88
307.042	98.88
307.272	99.88
307.502	113.88
307.731	108.88
307.961	90.88
308.191	90.88
308.421	95.88
308.651	108.88
308.881	93.88
309.111	85.88
309.341	89.88
309.571	102.88
309.8	109.88
310.03	106.88
310.26	101.88
310.49	103.88
310.72	100.88
310.949	104.88
311.179	97.88
311.409	99.88
311.639	77.88
311.868	107.88
312.098	100.88
312.328	98.88
312.557	112.88
312.787	115.88
313.017	110.88
313.246	93.88
313.476	85.88
313.706	97.88
313.935	94.88
314.165	92.88
314.394	105.88
314.624	103.88
314.853	97.88
315.083	102.88
315.312	95.88
315.542	93.88
315.771	91.88
316.001	88.88
316.23	93.88
316.46	94.88
316.689	84.88
316.919	89.88
317.148	97.88
317.377	85.88
317.607	93.88
317.836	116.88
318.065	107.88
318.295	85.88
318.524	87.88
318.753	93.88
318.983	103.88
319.212	101.88
319.441	109.88
319.67	113.88
319.9	101.88
320.129	84.88
320.358	92.88
320.587	91.88
320.816	91.88
321.046	108.88
321.275	85.88
321.504	105.88
321.733	100.88
321.962	99.88
322.191	108.88
322.42	110.88
322.649	121.88
322.878	121.88
323.108	129.88
323.337	133.88
323.566	157.88
323.795	165.88
324.024	239.88
324.253	498.88
324.482	1105.88
324.71	2354.88
324.939	3061.88
325.168	1066.88
325.397	297.88
325.626	180.88
325.855	143.88
326.084	134.88
326.313	149.88
326.542	179.88
326.77	284.88
326.999	587.88
327.228	1286.88
327.457	2357.88
327.686	1843.88
327.914	449.88
328.143	228.88
328.372	165.88
328.6	139.88
328.829	126.88
329.058	132.88
329.287	133.88
329.515	120.88
329.744	102.88
329.972	105.88
330.201	109.88
330.43	130.88
330.658	139.88
330.887	154.88
331.115	118.88
331.344	106.88
331.572	87.88
331.801	103.88
332.03	109.88
332.258	104.88
332.486	91.88
332.715	102.88
332.943	87.88
333.172	104.88
333.4	107.88
333.629	110.88
333.857	117.88
334.085	116.88
334.314	113.88
334.542	122.88
334.771	122.88
334.999	106.88
335.227	93.88
335.455	99.88
335.684	84.88
335.912	85.88
336.14	111.88
336.369	101.88
336.597	106.88
336.825	92.88
337.053	92.88
337.281	106.88
337.51	101.88
337.738	85.88
337.966	93.88
338.194	100.88
338.422	93.88
338.65	92.88
338.878	93.88
339.106	85.88
339.334	100.88
339.562	97.88
339.79	98.88
340.018	98.88
340.246	99.88
340.474	96.88
340.702	91.88
340.93	100.88
341.158	84.88
341.386	106.88
341.614	96.88
341.842	98.88
342.07	101.88
342.298	106.88
342.526	83.88
342.754	82.88
342.981	92.88
343.209	81.88
343.437	87.88
343.665	87.88
343.893	94.88
344.12	81.88
344.348	103.88
344.576	91.88
344.804	94.88
345.031	87.88
345.259	90.88
345.487	107.88
345.714	99.88
345.942	84.88
346.17	91.88
346.397	95.88
346.625	84.88
346.853	103.88
347.08	93.88
347.308	82.88
347.535	92.88
347.763	88.88
347.99	95.88
348.218	108.88
348.445	106.88
348.673	102.88
348.9	99.88
349.128	101.88
349.355	83.88
349.583	91.88
349.81	107.88
350.037	85.88
350.265	92.88
350.492	89.88
350.72	83.88
350.947	95.88
351.174	107.88
351.402	127.88
351.629	105.88
351.856	92.88
352.083	107.88
352.311	115.88
352.538	103.88
352.765	123.88
352.992	128.88
353.22	110.88
353.447	107.88
353.674	98.88
353.901	107.88
354.128	101.88
354.355	84.88
354.583	99.88
354.81	105.88
355.037	101.88
355.264	102.88
355.491	90.88
355.718	88.88
355.945	93.88
356.172	111.88
356.399	100.88
356.626	96.88
356.853	94.88
357.08	94.88
357.307	89.88
357.534	92.88
357.761	95.88
357.988	91.88
358.215	77.88
358.441	98.88
358.668	101.88
358.895	88.88
359.122	98.88
359.349	107.88
359.576	103.88
359.802	105.88
360.029	122.88
360.256	98.88
360.483	81.88
360.709	85.88
360.936	93.88
361.163	109.88
361.39	103.88
361.616	102.88
361.843	107.88
362.07	93.88
362.296	105.88
362.523	104.88
362.749	94.88
362.976	97.88
363.203	107.88
363.429	94.88
363.656	85.88
363.882	101.88
364.109	79.88
364.335	92.88
364.562	94.88
364.788	101.88
365.015	99.88
365.241	110.88
365.468	100.88
365.694	117.88
365.92	97.88
366.147	91.88
366.373	102.88
366.599	92.88
366.826	95.88
367.052	93.88
367.278	103.88
367.505	91.88
367.731	101.88
367.957	90.88
368.184	95.88
368.41	95.88
368.636	112.88
368.862	115.88
369.089	124.88
369.315	97.88
369.541	84.88
369.767	87.88
369.993	94.88
370.219	87.88
370.445	97.88
370.672	97.88
370.898	101.88
371.124	100.88
371.35	78.88
371.576	78.88
371.802	96.88
372.028	99.88
372.254	93.88
372.48	68.88
372.706	93.88
372.932	86.88
373.158	86.88
373.384	82.88
373.61	82.88
373.835	86.88
374.061	89.88
374.287	81.88
374.513	93.88
374.739	96.88
374.965	98.88
375.191	76.88
375.416	107.88
375.642	84.88
375.868	94.88
376.094	95.88
376.319	89.88
376.545	80.88
376.771	97.88
376.997	87.88
377.222	107.88
377.448	99.88
377.674	99.88
377.899	88.88
378.125	95.88
378.35	87.88
378.576	95.88
378.802	99.88
379.027	87.88
379.253	75.88
379.478	80.88
379.704	96.88
379.929	91.88
380.155	101.88
380.38	101.88
380.606	98.88
380.831	83.88
381.057	106.88
381.282	94.88
381.507	102.88
381.733	106.88
381.958	91.88
382.184	97.88
382.409	101.88
382.634	103.88
382.86	100.88
383.085	105.88
383.31	103.88
383.535	100.88
383.761	92.88
383.986	102.88
384.211	119.88
384.436	107.88
384.662	97.88
384.887	98.88
385.112	121.88
385.337	107.88
385.562	107.88
385.787	106.88
386.013	113.88
386.238	117.88
386.463	112.88
386.688	116.88
386.913	108.88
387.138	113.88
387.363	103.88
387.588	91.88
387.813	122.88
388.038	127.88
388.263	121.88
388.488	102.88
388.713	95.88
388.938	93.88
389.163	96.88
389.387	91.88
389.612	107.88
389.837	81.88
390.062	96.88
390.287	102.88
390.512	87.88
390.736	89.88
390.961	99.88
391.186	91.88
391.411	95.88
391.636	103.88
391.86	85.88
392.085	97.88
392.31	86.88
392.534	79.88
392.759	100.88
392.984	89.88
393.208	101.88
393.433	92.88
393.658	78.88
393.882	92.88
394.107	89.88
394.331	91.88
394.556	90.88
394.78	80.88
395.005	87.88
395.229	80.88
395.454	92.88
395.678	87.88
395.903	71.88
396.127	86.88
396.352	86.88
396.576	75.88
396.801	101.88
397.025	76.88
397.249	86.88
397.474	83.88
397.698	94.88
397.922	78.88
398.147	88.88
398.371	87.88
398.595	85.88
398.82	79.88
399.044	86.88
399.268	93.88
399.492	89.88
399.717	90.88
399.941	87.88
400.165	76.88
400.389	86.88
400.613	97.88
400.837	81.88
401.062	91.88
401.286	77.88
401.51	90.88
401.734	88.88
401.958	106.88
402.182	121.88
402.406	145.88
402.63	113.88
402.854	96.88
403.078	93.88
403.302	91.88
403.526	87.88
403.75	82.88
403.974	82.88
404.198	87.88
404.422	87.88
404.645	91.88
404.869	84.88
405.093	90.88
405.317	99.88
405.541	116.88
405.765	116.88
405.988	127.88
406.212	179.88
406.436	259.88
406.66	165.88
406.883	110.88
407.107	91.88
407.331	100.88
407.555	102.88
407.778	105.88
408.002	95.88
408.226	73.88
408.449	85.88
408.673	87.88
408.896	102.88
409.12	95.88
409.344	78.88
409.567	79.88
409.791	85.88
410.014	99.88
410.238	85.88
410.461	86.88
410.685	90.88
410.908	91.88
411.132	107.88
411.355	95.88
411.578	86.88
411.802	105.88
412.025	81.88
412.249	81.88
412.472	94.88
412.695	85.88
412.919	89.88
413.142	92.88
413.365	90.88
413.589	85.88
413.812	97.88
414.035	97.88
414.258	87.88
414.482	77.88
414.705	93.88
414.928	87.88
415.151	115.88
415.374	106.88
415.597	93.88
415.821	92.88
416.044	96.88
416.267	87.88
416.49	81.88
416.713	97.88
416.936	90.88
417.159	80.88
417.382	90.88
417.605	84.88
417.828	91.88
418.051	83.88
418.274	87.88
418.497	93.88
418.72	90.88
418.943	88.88
419.166	94.88
419.389	87.88
419.611	99.88
419.834	87.88
420.057	96.88
420.28	92.88
420.503	90.88
420.726	86.88
420.948	84.88
421.171	86.88
421.394	114.88
421.617	96.88
421.839	65.88
422.062	83.88
422.285	93.88
422.507	91.88
422.73	103.88
422.953	96.88
423.175	93.88
423.398	79.88
423.621	79.88
423.843	101.88
424.066	95.88
424.288	95.88
424.511	103.88
424.733	82.88
424.956	112.88
425.178	110.88
425.401	101.88
425.623	104.88
425.846	93.88
426.068	90.88
426.291	93.88
426.513	104.88
426.735	95.88
426.958	93.88
427.18	103.88
427.402	164.88
427.625	175.88
427.847	145.88
428.069	107.88
428.292	91.88
428.514	86.88
428.736	79.88
428.958	88.88
429.181	80.88
429.403	91.88
429.625	97.88
429.847	93.88
430.069	93.88
430.292	95.88
430.514	87.88
430.736	75.88
430.958	76.88
431.18	86.88
431.402	84.88
431.624	73.88
431.846	81.88
432.068	81.88
432.29	89.88
432.512	94.88
432.734	92.88
432.956	89.88
433.178	93.88
433.4	86.88
433.622	86.88
433.844	82.88
434.066	91.88
434.287	102.88
434.509	97.88
434.731	101.88
434.953	95.88
435.175	89.88
435.397	78.88
435.618	89.88
435.84	96.88
436.062	110.88
436.284	131.88
436.505	97.88
436.727	119.88
436.949	105.88
437.17	93.88
437.392	71.88
437.614	95.88
437.835	118.88
438.057	130.88
438.278	111.88
438.5	97.88
438.721	133.88
438.943	106.88
439.165	90.88
439.386	90.88
439.608	79.88
439.829	99.88
440.05	127.88
440.272	159.88
440.493	115.88
440.715	91.88
440.936	69.88
441.158	85.88
441.379	98.88
441.6	96.88
441.822	86.88
442.043	93.88
442.264	101.88
442.486	111.88
442.707	107.88
442.928	118.88
443.149	127.88
443.371	135.88
443.592	109.88
443.813	106.88
444.034	101.88
444.255	110.88
444.476	95.88
444.698	90.88
444.919	112.88
445.14	123.88
445.361	131.88
445.582	136.88
445.803	155.88
446.024	144.88
446.245	133.88
446.466	113.88
446.687	95.88
446.908	80.88
447.129	87.88
447.35	84.88
447.571	82.88
447.792	89.88
448.013	103.88
448.234	119.88
448.455	102.88
448.675	116.88
448.896	114.88
449.117	89.88
449.338	114.88
449.559	143.88
449.779	139.88
450	101.88
450.221	98.88
450.442	72.88
450.662	105.88
450.883	105.88
451.104	114.88
451.324	102.88
451.545	103.88
451.766	96.88
451.986	85.88
452.207	81.88
452.428	93.88
452.648	101.88
452.869	118.88
453.089	114.88
453.31	107.88
453.53	96.88
453.751	96.88
453.971	114.88
454.192	112.88
454.412	90.88
454.633	76.88
454.853	90.88
455.073	76.88
455.294	81.88
455.514	111.88
455.734	94.88
455.955	101.88
456.175	85.88
456.395	77.88
456.616	78.88
456.836	85.88
457.056	79.88
457.276	70.88
457.497	85.88
457.717	94.88
457.937	77.88
458.157	88.88
458.377	96.88
458.598	109.88
458.818	165.88
459.038	181.88
459.258	142.88
459.478	93.88
459.698	88.88
459.918	78.88
460.138	96.88
460.358	85.88
460.578	77.88
460.798	96.88
461.018	85.88
461.238	78.88
461.458	88.88
461.678	91.88
461.898	79.88
462.118	84.88
462.338	88.88
462.558	81.88
462.777	81.88
462.997	85.88
463.217	84.88
463.437	90.88
463.657	86.88
463.876	85.88
464.096	89.88
464.316	96.88
464.536	106.88
464.755	93.88
464.975	120.88
465.195	198.88
465.414	183.88
465.634	94.88
465.854	83.88
466.073	82.88
466.293	91.88
466.512	87.88
466.732	76.88
466.951	94.88
467.171	84.88
467.391	89.88
467.61	107.88
467.829	101.88
468.049	106.88
468.268	106.88
468.488	80.88
468.707	99.88
468.927	83.88
469.146	83.88
469.365	73.88
469.585	92.88
469.804	97.88
470.023	107.88
470.243	89.88
470.462	107.88
470.681	112.88
470.901	93.88
471.12	98.88
471.339	82.88
471.558	80.88
471.777	97.88
471.997	81.88
472.216	88.88
472.435	117.88
472.654	71.88
472.873	78.88
473.092	110.88
473.311	87.88
473.53	78.88
473.749	77.88
473.968	91.88
474.187	102.88
474.406	94.88
474.625	87.88
474.844	80.88
475.063	85.88
475.282	101.88
475.501	104.88
475.72	82.88
475.939	92.88
476.158	88.88
476.377	81.88
476.596	84.88
476.814	82.88
477.033	83.88
477.252	106.88
477.471	84.88
477.69	87.88
477.908	79.88
478.127	87.88
478.346	87.88
478.564	92.88
478.783	100.88
479.002	82.88
479.22	91.88
479.439	121.88
479.658	112.88
479.876	94.88
480.095	94.88
480.313	87.88
480.532	86.88
480.751	97.88
480.969	108.88
481.188	156.88
481.406	117.88
481.624	90.88
481.843	88.88
482.061	98.88
482.28	94.88
482.498	84.88
482.717	86.88
482.935	82.88
483.153	78.88
483.372	92.88
483.59	93.88
483.808	89.88
484.027	104.88
484.245	85.88
484.463	90.88
484.681	99.88
484.9	90.88
485.118	97.88
485.336	98.88
485.554	95.88
485.772	115.88
485.99	112.88
486.209	106.88
486.427	122.88
486.645	123.88
486.863	128.88
487.081	100.88
487.299	107.88
487.517	85.88
487.735	106.88
487.953	86.88
488.171	91.88
488.389	105.88
488.607	101.88
488.825	90.88
489.043	93.88
489.261	92.88
489.479	87.88
489.696	103.88
489.914	89.88
490.132	87.88
490.35	101.88
490.568	96.88
490.786	92.88
491.003	92.88
491.221	85.88
491.439	90.88
491.657	96.88
491.874	93.88
492.092	90.88
492.31	90.88
492.527	74.88
492.745	91.88
492.963	106.88
493.18	90.88
493.398	105.88
493.615	101.88
493.833	96.88
494.05	83.88
494.268	92.88
494.485	87.88
494.703	87.88
494.92	92.88
495.138	94.88
495.355	88.88
495.573	87.88
495.79	85.88
496.008	100.88
496.225	96.88
496.442	91.88
496.66	97.88
496.877	74.88
497.094	82.88
497.312	92.88
497.529	94.88
497.746	96.88
497.963	98.88
498.181	100.88
498.398	95.88
498.615	126.88
498.832	101.88
499.049	81.88
499.267	92.88
499.484	93.88
499.701	92.88
499.918	93.88
500.135	72.88
500.352	79.88
500.569	98.88
500.786	94.88
501.003	91.88
501.22	93.88
501.437	93.88
501.654	92.88
501.871	108.88
502.088	97.88
502.305	97.88
502.522	102.88
502.739	77.88
502.956	105.88
503.172	92.88
503.389	97.88
503.606	116.88
503.823	101.88
504.04	86.88
504.256	81.88
504.473	81.88
504.69	79.88
504.907	102.88
505.123	98.88
505.34	90.88
505.557	106.88
505.773	86.88
505.99	104.88
506.207	98.88
506.423	95.88
506.64	94.88
506.856	90.88
507.073	87.88
507.289	96.88
507.506	102.88
507.722	112.88
507.939	117.88
508.155	104.88
508.372	83.88
508.588	99.88
508.805	100.88
509.021	102.88
509.238	107.88
509.454	89.88
509.67	98.88
509.887	109.88
510.103	130.88
510.319	247.88
510.536	867.88
510.752	2861.88
510.968	791.88
511.184	163.88
511.401	114.88
511.617	105.88
511.833	85.88
512.049	102.88
512.265	94.88
512.481	106.88
512.698	95.88
512.914	97.88
513.13	80.88
513.346	86.88
513.562	105.88
513.778	92.88
513.994	118.88
514.21	97.88
514.426	118.88
514.642	149.88
