Data from Circ_2006_H10_HRD10591_00003.txt Node
Date: Wed Jan 03 10:26:04 EST 2024
User: Yrep
Spectrometer: HR+D1059
Trigger mode: 1
Integration Time (sec): 1.000000E-1
Scans to average: 1
Electric dark correction enabled: true
Nonlinearity correction enabled: false
Boxcar width: 0
XAxis mode: Wavelengths
Number of Pixels in Spectrum: 2048
>>>>>Begin Spectral Data<<<<<
223.165	-32.62
223.4	-32.62
223.635	-32.62
223.869	-33.62
224.104	-15.62
224.338	-4.62
224.573	-20.62
224.808	-21.62
225.042	-1.62
225.277	2.38
225.511	-5.62
225.746	9.38
225.98	20.38
226.215	-6.62
226.449	20.38
226.683	22.38
226.918	25.38
227.152	42.38
227.387	25.38
227.621	20.38
227.856	38.38
228.09	32.38
228.324	52.38
228.559	57.38
228.793	49.38
229.027	60.38
229.262	62.38
229.496	59.38
229.73	84.38
229.964	87.38
230.199	76.38
230.433	76.38
230.667	73.38
230.901	71.38
231.136	68.38
231.37	65.38
231.604	86.38
231.838	69.38
232.072	72.38
232.306	77.38
232.541	69.38
232.775	78.38
233.009	72.38
233.243	79.38
233.477	76.38
233.711	73.38
233.945	71.38
234.179	66.38
234.413	69.38
234.647	63.38
234.881	70.38
235.115	72.38
235.349	67.38
235.583	71.38
235.817	69.38
236.051	79.38
236.285	65.38
236.519	76.38
236.753	72.38
236.987	80.38
237.221	74.38
237.455	70.38
237.689	77.38
237.922	73.38
238.156	76.38
238.39	74.38
238.624	68.38
238.858	68.38
239.091	62.38
239.325	74.38
239.559	77.38
239.793	66.38
240.027	66.38
240.26	71.38
240.494	80.38
240.728	80.38
240.961	69.38
241.195	76.38
241.429	78.38
241.662	68.38
241.896	60.38
242.13	70.38
242.363	83.38
242.597	73.38
242.83	65.38
243.064	68.38
243.298	68.38
243.531	65.38
243.765	69.38
243.998	78.38
244.232	73.38
244.465	78.38
244.699	60.38
244.932	75.38
245.166	75.38
245.399	63.38
245.633	63.38
245.866	70.38
246.099	53.38
246.333	71.38
246.566	71.38
246.8	85.38
247.033	74.38
247.266	70.38
247.5	65.38
247.733	61.38
247.966	79.38
248.2	62.38
248.433	69.38
248.666	76.38
248.899	80.38
249.133	74.38
249.366	90.38
249.599	76.38
249.832	81.38
250.066	80.38
250.299	80.38
250.532	85.38
250.765	69.38
250.998	70.38
251.231	70.38
251.465	71.38
251.698	79.38
251.931	81.38
252.164	78.38
252.397	65.38
252.63	78.38
252.863	63.38
253.096	78.38
253.329	71.38
253.562	68.38
253.795	78.38
254.028	78.38
254.261	75.38
254.494	72.38
254.727	76.38
254.96	72.38
255.193	79.38
255.426	80.38
255.659	69.38
255.892	92.38
256.124	74.38
256.357	82.38
256.59	70.38
256.823	76.38
257.056	77.38
257.289	76.38
257.521	66.38
257.754	84.38
257.987	62.38
258.22	74.38
258.452	75.38
258.685	80.38
258.918	82.38
259.151	74.38
259.383	69.38
259.616	79.38
259.849	77.38
260.081	72.38
260.314	63.38
260.547	61.38
260.779	85.38
261.012	70.38
261.244	79.38
261.477	87.38
261.71	82.38
261.942	103.38
262.175	98.38
262.407	94.38
262.64	90.38
262.872	89.38
263.105	87.38
263.337	73.38
263.57	83.38
263.802	84.38
264.035	76.38
264.267	76.38
264.499	69.38
264.732	61.38
264.964	90.38
265.197	87.38
265.429	82.38
265.661	89.38
265.894	82.38
266.126	77.38
266.358	77.38
266.591	75.38
266.823	69.38
267.055	75.38
267.287	88.38
267.52	79.38
267.752	80.38
267.984	78.38
268.216	73.38
268.448	84.38
268.681	76.38
268.913	77.38
269.145	89.38
269.377	78.38
269.609	79.38
269.841	79.38
270.073	80.38
270.306	86.38
270.538	81.38
270.77	64.38
271.002	70.38
271.234	81.38
271.466	95.38
271.698	90.38
271.93	89.38
272.162	54.38
272.394	72.38
272.626	81.38
272.858	75.38
273.09	74.38
273.322	77.38
273.553	71.38
273.785	83.38
274.017	77.38
274.249	82.38
274.481	95.38
274.713	73.38
274.945	69.38
275.176	91.38
275.408	91.38
275.64	88.38
275.872	74.38
276.104	92.38
276.335	88.38
276.567	82.38
276.799	109.38
277.031	74.38
277.262	84.38
277.494	81.38
277.726	88.38
277.957	82.38
278.189	78.38
278.421	80.38
278.652	88.38
278.884	62.38
279.115	80.38
279.347	90.38
279.579	75.38
279.81	82.38
280.042	75.38
280.273	66.38
280.505	68.38
280.736	80.38
280.968	83.38
281.199	74.38
281.431	73.38
281.662	72.38
281.894	89.38
282.125	90.38
282.356	121.38
282.588	125.38
282.819	103.38
283.051	88.38
283.282	76.38
283.513	79.38
283.745	96.38
283.976	74.38
284.207	75.38
284.439	87.38
284.67	84.38
284.901	86.38
285.132	84.38
285.364	84.38
285.595	75.38
285.826	75.38
286.057	79.38
286.288	78.38
286.52	76.38
286.751	82.38
286.982	89.38
287.213	80.38
287.444	79.38
287.675	87.38
287.906	77.38
288.138	86.38
288.369	106.38
288.6	79.38
288.831	89.38
289.062	92.38
289.293	80.38
289.524	88.38
289.755	79.38
289.986	78.38
290.217	79.38
290.448	85.38
290.679	85.38
290.91	88.38
291.141	82.38
291.371	80.38
291.602	78.38
291.833	79.38
292.064	68.38
292.295	77.38
292.526	95.38
292.757	84.38
292.987	87.38
293.218	72.38
293.449	86.38
293.68	82.38
293.91	90.38
294.141	81.38
294.372	81.38
294.603	79.38
294.833	80.38
295.064	85.38
295.295	90.38
295.525	97.38
295.756	92.38
295.987	109.38
296.217	110.38
296.448	104.38
296.679	82.38
296.909	101.38
297.14	89.38
297.37	88.38
297.601	76.38
297.831	69.38
298.062	87.38
298.292	92.38
298.523	92.38
298.753	76.38
298.984	89.38
299.214	78.38
299.445	76.38
299.675	82.38
299.905	90.38
300.136	82.38
300.366	93.38
300.597	75.38
300.827	86.38
301.057	100.38
301.288	96.38
301.518	82.38
301.748	78.38
301.979	89.38
302.209	86.38
302.439	95.38
302.669	100.38
302.9	79.38
303.13	92.38
303.36	83.38
303.59	95.38
303.82	93.38
304.051	97.38
304.281	88.38
304.511	89.38
304.741	88.38
304.971	76.38
305.201	73.38
305.431	76.38
305.661	92.38
305.891	79.38
306.121	97.38
306.352	83.38
306.582	97.38
306.812	89.38
307.042	85.38
307.272	85.38
307.502	93.38
307.731	96.38
307.961	86.38
308.191	79.38
308.421	77.38
308.651	81.38
308.881	89.38
309.111	89.38
309.341	94.38
309.571	85.38
309.8	89.38
310.03	91.38
310.26	93.38
310.49	90.38
310.72	105.38
310.949	96.38
311.179	90.38
311.409	80.38
311.639	90.38
311.868	84.38
312.098	90.38
312.328	86.38
312.557	86.38
312.787	98.38
313.017	98.38
313.246	94.38
313.476	79.38
313.706	92.38
313.935	86.38
314.165	89.38
314.394	98.38
314.624	88.38
314.853	92.38
315.083	81.38
315.312	104.38
315.542	91.38
315.771	103.38
316.001	85.38
316.23	85.38
316.46	84.38
316.689	91.38
316.919	97.38
317.148	97.38
317.377	98.38
317.607	84.38
317.836	86.38
318.065	82.38
318.295	74.38
318.524	104.38
318.753	80.38
318.983	84.38
319.212	103.38
319.441	103.38
319.67	94.38
319.9	89.38
320.129	100.38
320.358	81.38
320.587	82.38
320.816	101.38
321.046	87.38
321.275	96.38
321.504	95.38
321.733	95.38
321.962	94.38
322.191	88.38
322.42	104.38
322.649	94.38
322.878	100.38
323.108	108.38
323.337	122.38
323.566	123.38
323.795	144.38
324.024	203.38
324.253	379.38
324.482	802.38
324.71	1726.38
324.939	2270.38
325.168	831.38
325.397	232.38
325.626	152.38
325.855	133.38
326.084	132.38
326.313	129.38
326.542	143.38
326.77	226.38
326.999	455.38
327.228	973.38
327.457	1756.38
327.686	1383.38
327.914	362.38
328.143	183.38
328.372	137.38
328.6	120.38
328.829	115.38
329.058	109.38
329.287	119.38
329.515	104.38
329.744	98.38
329.972	96.38
330.201	98.38
330.43	111.38
330.658	105.38
330.887	120.38
331.115	110.38
331.344	84.38
331.572	97.38
331.801	82.38
332.03	105.38
332.258	96.38
332.486	87.38
332.715	103.38
332.943	93.38
333.172	95.38
333.4	79.38
333.629	93.38
333.857	82.38
334.085	91.38
334.314	96.38
334.542	98.38
334.771	112.38
334.999	99.38
335.227	89.38
335.455	74.38
335.684	89.38
335.912	82.38
336.14	116.38
336.369	111.38
336.597	84.38
336.825	103.38
337.053	93.38
337.281	79.38
337.51	86.38
337.738	75.38
337.966	78.38
338.194	93.38
338.422	85.38
338.65	86.38
338.878	83.38
339.106	92.38
339.334	89.38
339.562	84.38
339.79	78.38
340.018	87.38
340.246	91.38
340.474	87.38
340.702	76.38
340.93	97.38
341.158	95.38
341.386	93.38
341.614	92.38
341.842	82.38
342.07	85.38
342.298	79.38
342.526	85.38
342.754	78.38
342.981	65.38
343.209	97.38
343.437	89.38
343.665	91.38
343.893	73.38
344.12	88.38
344.348	75.38
344.576	85.38
344.804	95.38
345.031	97.38
345.259	82.38
345.487	94.38
345.714	89.38
345.942	83.38
346.17	86.38
346.397	89.38
346.625	78.38
346.853	88.38
347.08	84.38
347.308	91.38
347.535	72.38
347.763	88.38
347.99	110.38
348.218	96.38
348.445	108.38
348.673	101.38
348.9	88.38
349.128	101.38
349.355	80.38
349.583	101.38
349.81	88.38
350.037	91.38
350.265	81.38
350.492	88.38
350.72	103.38
350.947	113.38
351.174	104.38
351.402	96.38
351.629	116.38
351.856	98.38
352.083	88.38
352.311	85.38
352.538	108.38
352.765	106.38
352.992	94.38
353.22	103.38
353.447	107.38
353.674	97.38
353.901	99.38
354.128	83.38
354.355	98.38
354.583	101.38
354.81	99.38
355.037	95.38
355.264	99.38
355.491	81.38
355.718	72.38
355.945	94.38
356.172	82.38
356.399	103.38
356.626	90.38
356.853	90.38
357.08	88.38
357.307	76.38
357.534	82.38
357.761	110.38
357.988	101.38
358.215	94.38
358.441	88.38
358.668	79.38
358.895	89.38
359.122	94.38
359.349	74.38
359.576	91.38
359.802	94.38
360.029	97.38
360.256	91.38
360.483	93.38
360.709	80.38
360.936	82.38
361.163	79.38
361.39	81.38
361.616	86.38
361.843	86.38
362.07	87.38
362.296	86.38
362.523	81.38
362.749	102.38
362.976	79.38
363.203	88.38
363.429	93.38
363.656	82.38
363.882	97.38
364.109	97.38
364.335	90.38
364.562	85.38
364.788	97.38
365.015	105.38
365.241	96.38
365.468	95.38
365.694	99.38
365.92	88.38
366.147	94.38
366.373	84.38
366.599	85.38
366.826	100.38
367.052	83.38
367.278	72.38
367.505	82.38
367.731	95.38
367.957	87.38
368.184	78.38
368.41	88.38
368.636	102.38
368.862	118.38
369.089	102.38
369.315	80.38
369.541	81.38
369.767	73.38
369.993	79.38
370.219	85.38
370.445	92.38
370.672	76.38
370.898	82.38
371.124	71.38
371.35	79.38
371.576	80.38
371.802	76.38
372.028	77.38
372.254	88.38
372.48	86.38
372.706	70.38
372.932	90.38
373.158	86.38
373.384	78.38
373.61	83.38
373.835	82.38
374.061	82.38
374.287	81.38
374.513	86.38
374.739	78.38
374.965	75.38
375.191	86.38
375.416	90.38
375.642	86.38
375.868	92.38
376.094	95.38
376.319	95.38
376.545	95.38
376.771	81.38
376.997	65.38
377.222	93.38
377.448	80.38
377.674	79.38
377.899	88.38
378.125	84.38
378.35	89.38
378.576	90.38
378.802	93.38
379.027	101.38
379.253	110.38
379.478	95.38
379.704	97.38
379.929	89.38
380.155	85.38
380.38	89.38
380.606	104.38
380.831	97.38
381.057	101.38
381.282	95.38
381.507	95.38
381.733	92.38
381.958	95.38
382.184	81.38
382.409	97.38
382.634	103.38
382.86	88.38
383.085	97.38
383.31	78.38
383.535	90.38
383.761	93.38
383.986	105.38
384.211	99.38
384.436	100.38
384.662	92.38
384.887	108.38
385.112	101.38
385.337	110.38
385.562	110.38
385.787	100.38
386.013	115.38
386.238	122.38
386.463	102.38
386.688	112.38
386.913	92.38
387.138	121.38
387.363	110.38
387.588	102.38
387.813	92.38
388.038	104.38
388.263	138.38
388.488	137.38
388.713	100.38
388.938	90.38
389.163	89.38
389.387	95.38
389.612	92.38
389.837	95.38
390.062	87.38
390.287	84.38
390.512	87.38
390.736	88.38
390.961	84.38
391.186	90.38
391.411	90.38
391.636	89.38
391.86	70.38
392.085	92.38
392.31	93.38
392.534	95.38
392.759	93.38
392.984	93.38
393.208	89.38
393.433	94.38
393.658	77.38
393.882	88.38
394.107	93.38
394.331	77.38
394.556	80.38
394.78	83.38
395.005	79.38
395.229	91.38
395.454	84.38
395.678	73.38
395.903	90.38
396.127	82.38
396.352	78.38
396.576	91.38
396.801	77.38
397.025	87.38
397.249	85.38
397.474	89.38
397.698	81.38
397.922	74.38
398.147	69.38
398.371	69.38
398.595	77.38
398.82	81.38
399.044	80.38
399.268	85.38
399.492	94.38
399.717	76.38
399.941	95.38
400.165	79.38
400.389	81.38
400.613	88.38
400.837	76.38
401.062	89.38
401.286	93.38
401.51	76.38
401.734	90.38
401.958	79.38
402.182	120.38
402.406	141.38
402.63	97.38
402.854	90.38
403.078	90.38
403.302	81.38
403.526	90.38
403.75	87.38
403.974	80.38
404.198	86.38
404.422	80.38
404.645	89.38
404.869	84.38
405.093	88.38
405.317	86.38
405.541	98.38
405.765	80.38
405.988	116.38
406.212	159.38
406.436	188.38
406.66	134.38
406.883	104.38
407.107	83.38
407.331	80.38
407.555	85.38
407.778	96.38
408.002	92.38
408.226	94.38
408.449	84.38
408.673	88.38
408.896	84.38
409.12	92.38
409.344	75.38
409.567	78.38
409.791	86.38
410.014	71.38
410.238	109.38
410.461	89.38
410.685	88.38
410.908	93.38
411.132	96.38
411.355	99.38
411.578	88.38
411.802	85.38
412.025	92.38
412.249	89.38
412.472	102.38
412.695	84.38
412.919	82.38
413.142	94.38
413.365	81.38
413.589	81.38
413.812	88.38
414.035	86.38
414.258	87.38
414.482	81.38
414.705	80.38
414.928	85.38
415.151	89.38
415.374	90.38
415.597	84.38
415.821	88.38
416.044	72.38
416.267	84.38
416.49	81.38
416.713	81.38
416.936	71.38
417.159	68.38
417.382	81.38
417.605	82.38
417.828	88.38
418.051	79.38
418.274	89.38
418.497	94.38
418.72	82.38
418.943	90.38
419.166	86.38
419.389	70.38
419.611	77.38
419.834	93.38
420.057	77.38
420.28	77.38
420.503	78.38
420.726	86.38
420.948	82.38
421.171	104.38
421.394	89.38
421.617	81.38
421.839	74.38
422.062	92.38
422.285	97.38
422.507	78.38
422.73	97.38
422.953	96.38
423.175	82.38
423.398	91.38
423.621	82.38
423.843	80.38
424.066	79.38
424.288	88.38
424.511	93.38
424.733	101.38
424.956	112.38
425.178	100.38
425.401	103.38
425.623	89.38
425.846	88.38
426.068	88.38
426.291	89.38
426.513	81.38
426.735	89.38
426.958	98.38
427.18	104.38
427.402	136.38
427.625	133.38
427.847	106.38
428.069	101.38
428.292	96.38
428.514	78.38
428.736	90.38
428.958	77.38
429.181	75.38
429.403	85.38
429.625	69.38
429.847	91.38
430.069	102.38
430.292	110.38
430.514	93.38
430.736	83.38
430.958	81.38
431.18	80.38
431.402	85.38
431.624	92.38
431.846	73.38
432.068	74.38
432.29	95.38
432.512	74.38
432.734	63.38
432.956	95.38
433.178	77.38
433.4	98.38
433.622	78.38
433.844	94.38
434.066	83.38
434.287	73.38
434.509	80.38
434.731	93.38
434.953	90.38
435.175	84.38
435.397	87.38
435.618	69.38
435.84	92.38
436.062	119.38
436.284	115.38
436.505	102.38
436.727	107.38
436.949	81.38
437.17	68.38
437.392	72.38
437.614	81.38
437.835	101.38
438.057	106.38
438.278	97.38
438.5	100.38
438.721	99.38
438.943	103.38
439.165	86.38
439.386	88.38
439.608	90.38
439.829	108.38
440.05	114.38
440.272	137.38
440.493	98.38
440.715	76.38
440.936	85.38
441.158	80.38
441.379	77.38
441.6	84.38
441.822	98.38
442.043	88.38
442.264	102.38
442.486	96.38
442.707	89.38
442.928	97.38
443.149	113.38
443.371	104.38
443.592	106.38
443.813	104.38
444.034	102.38
444.255	92.38
444.476	92.38
444.698	84.38
444.919	72.38
445.14	109.38
445.361	102.38
445.582	116.38
445.803	123.38
446.024	130.38
446.245	129.38
446.466	112.38
446.687	95.38
446.908	79.38
447.129	75.38
447.35	77.38
447.571	85.38
447.792	97.38
448.013	97.38
448.234	98.38
448.455	102.38
448.675	109.38
448.896	107.38
449.117	99.38
449.338	112.38
449.559	121.38
449.779	120.38
450	77.38
450.221	83.38
450.442	86.38
450.662	75.38
450.883	102.38
451.104	106.38
451.324	84.38
451.545	76.38
451.766	94.38
451.986	90.38
452.207	68.38
452.428	78.38
452.648	94.38
452.869	100.38
453.089	119.38
453.31	99.38
453.53	76.38
453.751	70.38
453.971	80.38
454.192	94.38
454.412	81.38
454.633	78.38
454.853	77.38
455.073	90.38
455.294	96.38
455.514	81.38
455.734	81.38
455.955	89.38
456.175	55.38
456.395	84.38
456.616	75.38
456.836	86.38
457.056	78.38
457.276	83.38
457.497	76.38
457.717	77.38
457.937	85.38
458.157	89.38
458.377	81.38
458.598	98.38
458.818	137.38
459.038	130.38
459.258	101.38
459.478	96.38
459.698	90.38
459.918	95.38
460.138	80.38
460.358	71.38
460.578	81.38
460.798	74.38
461.018	96.38
461.238	89.38
461.458	73.38
461.678	72.38
461.898	85.38
462.118	84.38
462.338	76.38
462.558	89.38
462.777	86.38
462.997	85.38
463.217	90.38
463.437	98.38
463.657	77.38
463.876	81.38
464.096	78.38
464.316	84.38
464.536	90.38
464.755	86.38
464.975	105.38
465.195	146.38
465.414	150.38
465.634	89.38
465.854	104.38
466.073	82.38
466.293	85.38
466.512	62.38
466.732	76.38
466.951	80.38
467.171	87.38
467.391	76.38
467.61	81.38
467.829	82.38
468.049	82.38
468.268	89.38
468.488	82.38
468.707	82.38
468.927	94.38
469.146	71.38
469.365	64.38
469.585	84.38
469.804	88.38
470.023	84.38
470.243	73.38
470.462	90.38
470.681	80.38
470.901	79.38
471.12	69.38
471.339	78.38
471.558	84.38
471.777	75.38
471.997	88.38
472.216	91.38
472.435	93.38
472.654	79.38
472.873	97.38
473.092	75.38
473.311	83.38
473.53	90.38
473.749	77.38
473.968	94.38
474.187	84.38
474.406	105.38
474.625	77.38
474.844	92.38
475.063	78.38
475.282	88.38
475.501	79.38
475.72	88.38
475.939	85.38
476.158	91.38
476.377	64.38
476.596	83.38
476.814	93.38
477.033	99.38
477.252	87.38
477.471	95.38
477.69	89.38
477.908	78.38
478.127	91.38
478.346	82.38
478.564	85.38
478.783	78.38
479.002	76.38
479.22	66.38
479.439	89.38
479.658	91.38
479.876	94.38
480.095	85.38
480.313	72.38
480.532	80.38
480.751	74.38
480.969	77.38
481.188	109.38
481.406	100.38
481.624	99.38
481.843	88.38
482.061	77.38
482.28	81.38
482.498	82.38
482.717	82.38
482.935	89.38
483.153	88.38
483.372	99.38
483.59	84.38
483.808	82.38
484.027	80.38
484.245	95.38
484.463	82.38
484.681	98.38
484.9	97.38
485.118	88.38
485.336	103.38
485.554	112.38
485.772	94.38
485.99	94.38
486.209	93.38
486.427	99.38
486.645	101.38
486.863	99.38
487.081	90.38
487.299	88.38
487.517	88.38
487.735	101.38
487.953	106.38
488.171	95.38
488.389	85.38
488.607	87.38
488.825	61.38
489.043	85.38
489.261	84.38
489.479	87.38
489.696	70.38
489.914	86.38
490.132	81.38
490.35	89.38
490.568	72.38
490.786	76.38
491.003	88.38
491.221	95.38
491.439	94.38
491.657	82.38
491.874	89.38
492.092	87.38
492.31	68.38
492.527	85.38
492.745	83.38
492.963	85.38
493.18	90.38
493.398	89.38
493.615	98.38
493.833	73.38
494.05	95.38
494.268	82.38
494.485	83.38
494.703	89.38
494.92	94.38
495.138	92.38
495.355	93.38
495.573	96.38
495.79	82.38
496.008	93.38
496.225	100.38
496.442	80.38
496.66	79.38
496.877	85.38
497.094	100.38
497.312	90.38
497.529	88.38
497.746	77.38
497.963	73.38
498.181	85.38
498.398	81.38
498.615	94.38
498.832	94.38
499.049	90.38
499.267	90.38
499.484	82.38
499.701	68.38
499.918	82.38
500.135	73.38
500.352	88.38
500.569	79.38
500.786	91.38
501.003	103.38
501.22	85.38
501.437	81.38
501.654	86.38
501.871	97.38
502.088	99.38
502.305	90.38
502.522	100.38
502.739	100.38
502.956	87.38
503.172	73.38
503.389	89.38
503.606	76.38
503.823	98.38
504.04	81.38
504.256	86.38
504.473	74.38
504.69	78.38
504.907	84.38
505.123	84.38
505.34	90.38
505.557	94.38
505.773	96.38
505.99	73.38
506.207	64.38
506.423	85.38
506.64	82.38
506.856	90.38
507.073	82.38
507.289	84.38
507.506	93.38
507.722	101.38
507.939	103.38
508.155	91.38
508.372	84.38
508.588	84.38
508.805	87.38
509.021	86.38
509.238	102.38
509.454	89.38
509.67	94.38
509.887	98.38
510.103	109.38
510.319	178.38
510.536	637.38
510.752	2025.38
510.968	576.38
511.184	143.38
511.401	107.38
511.617	99.38
511.833	96.38
512.049	86.38
512.265	86.38
512.481	80.38
512.698	80.38
512.914	91.38
513.13	86.38
513.346	96.38
513.562	98.38
513.778	86.38
513.994	95.38
514.21	98.38
514.426	114.38
514.642	117.38
514.858	113.38
515.074	146.38
515.29	381.38
515.506	1256.38
515.721	465.38
515.937	138.38
516.153	83.38
516.369	85.38
516.585	100.38
516.801	89.38
517.016	92.38
517.232	81.38
