Data from Circ_2006_H10_HRD10591_00041.txt Node
Date: Wed Jan 03 10:26:12 EST 2024
User: Yrep
Spectrometer: HR+D1059
Trigger mode: 1
Integration Time (sec): 1.000000E-1
Scans to average: 1
Electric dark correction enabled: true
Nonlinearity correction enabled: false
Boxcar width: 0
XAxis mode: Wavelengths
Number of Pixels in Spectrum: 2048
>>>>>Begin Spectral Data<<<<<
223.165	-23.75
223.4	-23.75
223.635	-23.75
223.869	-9.75
224.104	-24.75
224.338	-13.75
224.573	-1.75
224.808	-23.75
225.042	-7.75
225.277	-9.75
225.511	7.25
225.746	5.25
225.98	-0.75
226.215	13.25
226.449	11.25
226.683	20.25
226.918	33.25
227.152	25.25
227.387	30.25
227.621	43.25
227.856	40.25
228.09	51.25
228.324	61.25
228.559	66.25
228.793	65.25
229.027	69.25
229.262	65.25
229.496	78.25
229.73	98.25
229.964	81.25
230.199	77.25
230.433	78.25
230.667	60.25
230.901	95.25
231.136	90.25
231.37	63.25
231.604	94.25
231.838	70.25
232.072	89.25
232.306	87.25
232.541	82.25
232.775	94.25
233.009	86.25
233.243	80.25
233.477	89.25
233.711	78.25
233.945	84.25
234.179	68.25
234.413	83.25
234.647	82.25
234.881	85.25
235.115	81.25
235.349	88.25
235.583	81.25
235.817	77.25
236.051	83.25
236.285	83.25
236.519	84.25
236.753	88.25
236.987	97.25
237.221	81.25
237.455	73.25
237.689	84.25
237.922	66.25
238.156	81.25
238.39	83.25
238.624	89.25
238.858	81.25
239.091	94.25
239.325	72.25
239.559	78.25
239.793	88.25
240.027	96.25
240.26	80.25
240.494	83.25
240.728	73.25
240.961	92.25
241.195	92.25
241.429	75.25
241.662	67.25
241.896	92.25
242.13	84.25
242.363	80.25
242.597	74.25
242.83	96.25
243.064	68.25
243.298	69.25
243.531	88.25
243.765	75.25
243.998	71.25
244.232	84.25
244.465	91.25
244.699	79.25
244.932	89.25
245.166	81.25
245.399	87.25
245.633	79.25
245.866	71.25
246.099	82.25
246.333	92.25
246.566	83.25
246.8	88.25
247.033	97.25
247.266	87.25
247.5	93.25
247.733	89.25
247.966	77.25
248.2	90.25
248.433	93.25
248.666	95.25
248.899	81.25
249.133	108.25
249.366	102.25
249.599	101.25
249.832	90.25
250.066	80.25
250.299	90.25
250.532	95.25
250.765	81.25
250.998	89.25
251.231	94.25
251.465	82.25
251.698	74.25
251.931	84.25
252.164	80.25
252.397	65.25
252.63	85.25
252.863	85.25
253.096	85.25
253.329	80.25
253.562	90.25
253.795	85.25
254.028	96.25
254.261	96.25
254.494	74.25
254.727	88.25
254.96	71.25
255.193	87.25
255.426	93.25
255.659	95.25
255.892	73.25
256.124	81.25
256.357	86.25
256.59	91.25
256.823	97.25
257.056	88.25
257.289	78.25
257.521	72.25
257.754	84.25
257.987	87.25
258.22	84.25
258.452	73.25
258.685	85.25
258.918	91.25
259.151	86.25
259.383	85.25
259.616	81.25
259.849	81.25
260.081	96.25
260.314	79.25
260.547	90.25
260.779	94.25
261.012	88.25
261.244	76.25
261.477	85.25
261.71	85.25
261.942	129.25
262.175	127.25
262.407	84.25
262.64	89.25
262.872	97.25
263.105	94.25
263.337	82.25
263.57	74.25
263.802	83.25
264.035	81.25
264.267	82.25
264.499	96.25
264.732	91.25
264.964	94.25
265.197	76.25
265.429	96.25
265.661	89.25
265.894	84.25
266.126	86.25
266.358	73.25
266.591	89.25
266.823	85.25
267.055	88.25
267.287	92.25
267.52	94.25
267.752	87.25
267.984	87.25
268.216	88.25
268.448	84.25
268.681	84.25
268.913	80.25
269.145	95.25
269.377	91.25
269.609	65.25
269.841	88.25
270.073	107.25
270.306	103.25
270.538	103.25
270.77	91.25
271.002	89.25
271.234	81.25
271.466	95.25
271.698	77.25
271.93	89.25
272.162	102.25
272.394	89.25
272.626	106.25
272.858	88.25
273.09	83.25
273.322	83.25
273.553	90.25
273.785	81.25
274.017	86.25
274.249	90.25
274.481	89.25
274.713	85.25
274.945	85.25
275.176	89.25
275.408	92.25
275.64	96.25
275.872	91.25
276.104	92.25
276.335	93.25
276.567	118.25
276.799	142.25
277.031	135.25
277.262	102.25
277.494	97.25
277.726	82.25
277.957	98.25
278.189	88.25
278.421	94.25
278.652	107.25
278.884	93.25
279.115	90.25
279.347	77.25
279.579	77.25
279.81	85.25
280.042	81.25
280.273	88.25
280.505	85.25
280.736	89.25
280.968	85.25
281.199	81.25
281.431	85.25
281.662	87.25
281.894	95.25
282.125	111.25
282.356	138.25
282.588	170.25
282.819	123.25
283.051	83.25
283.282	75.25
283.513	102.25
283.745	93.25
283.976	89.25
284.207	68.25
284.439	91.25
284.67	95.25
284.901	98.25
285.132	95.25
285.364	89.25
285.595	86.25
285.826	79.25
286.057	92.25
286.288	94.25
286.52	98.25
286.751	73.25
286.982	93.25
287.213	77.25
287.444	95.25
287.675	83.25
287.906	99.25
288.138	76.25
288.369	88.25
288.6	100.25
288.831	92.25
289.062	94.25
289.293	94.25
289.524	95.25
289.755	88.25
289.986	84.25
290.217	90.25
290.448	88.25
290.679	83.25
290.91	91.25
291.141	92.25
291.371	98.25
291.602	82.25
291.833	84.25
292.064	80.25
292.295	82.25
292.526	92.25
292.757	105.25
292.987	84.25
293.218	79.25
293.449	104.25
293.68	95.25
293.91	95.25
294.141	101.25
294.372	87.25
294.603	86.25
294.833	92.25
295.064	93.25
295.295	97.25
295.525	89.25
295.756	112.25
295.987	139.25
296.217	151.25
296.448	153.25
296.679	114.25
296.909	110.25
297.14	88.25
297.37	90.25
297.601	95.25
297.831	107.25
298.062	102.25
298.292	91.25
298.523	101.25
298.753	94.25
298.984	104.25
299.214	108.25
299.445	104.25
299.675	99.25
299.905	93.25
300.136	90.25
300.366	86.25
300.597	87.25
300.827	101.25
301.057	100.25
301.288	127.25
301.518	91.25
301.748	89.25
301.979	114.25
302.209	85.25
302.439	101.25
302.669	69.25
302.9	96.25
303.13	88.25
303.36	106.25
303.59	113.25
303.82	118.25
304.051	98.25
304.281	96.25
304.511	92.25
304.741	96.25
304.971	96.25
305.201	91.25
305.431	103.25
305.661	69.25
305.891	96.25
306.121	96.25
306.352	130.25
306.582	108.25
306.812	100.25
307.042	103.25
307.272	101.25
307.502	99.25
307.731	95.25
307.961	86.25
308.191	105.25
308.421	105.25
308.651	82.25
308.881	95.25
309.111	108.25
309.341	97.25
309.571	116.25
309.8	99.25
310.03	118.25
310.26	113.25
310.49	111.25
310.72	106.25
310.949	115.25
311.179	101.25
311.409	94.25
311.639	97.25
311.868	104.25
312.098	104.25
312.328	108.25
312.557	102.25
312.787	109.25
313.017	109.25
313.246	108.25
313.476	102.25
313.706	109.25
313.935	104.25
314.165	120.25
314.394	108.25
314.624	103.25
314.853	96.25
315.083	89.25
315.312	100.25
315.542	86.25
315.771	82.25
316.001	95.25
316.23	94.25
316.46	100.25
316.689	90.25
316.919	97.25
317.148	104.25
317.377	97.25
317.607	100.25
317.836	109.25
318.065	88.25
318.295	95.25
318.524	102.25
318.753	100.25
318.983	107.25
319.212	96.25
319.441	114.25
319.67	118.25
319.9	86.25
320.129	97.25
320.358	109.25
320.587	102.25
320.816	101.25
321.046	95.25
321.275	100.25
321.504	106.25
321.733	109.25
321.962	113.25
322.191	116.25
322.42	117.25
322.649	124.25
322.878	118.25
323.108	143.25
323.337	139.25
323.566	164.25
323.795	182.25
324.024	293.25
324.253	562.25
324.482	1274.25
324.71	2641.25
324.939	3537.25
325.168	1218.25
325.397	317.25
325.626	187.25
325.855	155.25
326.084	154.25
326.313	176.25
326.542	207.25
326.77	272.25
326.999	669.25
327.228	1418.25
327.457	2670.25
327.686	2021.25
327.914	534.25
328.143	243.25
328.372	178.25
328.6	150.25
328.829	139.25
329.058	160.25
329.287	144.25
329.515	144.25
329.744	108.25
329.972	99.25
330.201	136.25
330.43	148.25
330.658	154.25
330.887	180.25
331.115	132.25
331.344	115.25
331.572	99.25
331.801	117.25
332.03	114.25
332.258	117.25
332.486	90.25
332.715	103.25
332.943	108.25
333.172	103.25
333.4	97.25
333.629	128.25
333.857	127.25
334.085	127.25
334.314	120.25
334.542	166.25
334.771	132.25
334.999	116.25
335.227	105.25
335.455	100.25
335.684	96.25
335.912	97.25
336.14	93.25
336.369	125.25
336.597	117.25
336.825	106.25
337.053	91.25
337.281	103.25
337.51	97.25
337.738	115.25
337.966	95.25
338.194	99.25
338.422	100.25
338.65	107.25
338.878	94.25
339.106	97.25
339.334	78.25
339.562	85.25
339.79	91.25
340.018	88.25
340.246	101.25
340.474	114.25
340.702	98.25
340.93	99.25
341.158	89.25
341.386	96.25
341.614	103.25
341.842	96.25
342.07	96.25
342.298	96.25
342.526	107.25
342.754	94.25
342.981	100.25
343.209	90.25
343.437	103.25
343.665	86.25
343.893	92.25
344.12	96.25
344.348	87.25
344.576	90.25
344.804	101.25
345.031	93.25
345.259	105.25
345.487	94.25
345.714	97.25
345.942	95.25
346.17	89.25
346.397	101.25
346.625	106.25
346.853	95.25
347.08	96.25
347.308	104.25
347.535	99.25
347.763	102.25
347.99	110.25
348.218	128.25
348.445	121.25
348.673	105.25
348.9	89.25
349.128	95.25
349.355	100.25
349.583	105.25
349.81	98.25
350.037	94.25
350.265	104.25
350.492	99.25
350.72	95.25
350.947	114.25
351.174	117.25
351.402	123.25
351.629	109.25
351.856	114.25
352.083	115.25
352.311	111.25
352.538	124.25
352.765	110.25
352.992	108.25
353.22	128.25
353.447	119.25
353.674	98.25
353.901	99.25
354.128	102.25
354.355	92.25
354.583	99.25
354.81	101.25
355.037	91.25
355.264	83.25
355.491	93.25
355.718	109.25
355.945	101.25
356.172	95.25
356.399	93.25
356.626	90.25
356.853	96.25
357.08	100.25
357.307	88.25
357.534	89.25
357.761	112.25
357.988	110.25
358.215	109.25
358.441	98.25
358.668	95.25
358.895	88.25
359.122	109.25
359.349	104.25
359.576	100.25
359.802	101.25
360.029	132.25
360.256	120.25
360.483	107.25
360.709	101.25
360.936	103.25
361.163	104.25
361.39	109.25
361.616	108.25
361.843	90.25
362.07	102.25
362.296	93.25
362.523	95.25
362.749	89.25
362.976	90.25
363.203	78.25
363.429	85.25
363.656	98.25
363.882	102.25
364.109	106.25
364.335	99.25
364.562	97.25
364.788	95.25
365.015	103.25
365.241	92.25
365.468	131.25
365.694	130.25
365.92	101.25
366.147	103.25
366.373	74.25
366.599	95.25
366.826	100.25
367.052	93.25
367.278	94.25
367.505	99.25
367.731	105.25
367.957	103.25
368.184	90.25
368.41	109.25
368.636	114.25
368.862	118.25
369.089	117.25
369.315	108.25
369.541	107.25
369.767	100.25
369.993	96.25
370.219	95.25
370.445	97.25
370.672	87.25
370.898	97.25
371.124	88.25
371.35	79.25
371.576	93.25
371.802	85.25
372.028	90.25
372.254	108.25
372.48	88.25
372.706	91.25
372.932	87.25
373.158	102.25
373.384	93.25
373.61	92.25
373.835	85.25
374.061	104.25
374.287	86.25
374.513	87.25
374.739	84.25
374.965	105.25
375.191	103.25
375.416	104.25
375.642	96.25
375.868	104.25
376.094	99.25
376.319	96.25
376.545	83.25
376.771	96.25
376.997	112.25
377.222	100.25
377.448	100.25
377.674	94.25
377.899	102.25
378.125	95.25
378.35	105.25
378.576	94.25
378.802	106.25
379.027	72.25
379.253	94.25
379.478	102.25
379.704	98.25
379.929	96.25
380.155	97.25
380.38	103.25
380.606	105.25
380.831	101.25
381.057	106.25
381.282	90.25
381.507	101.25
381.733	100.25
381.958	99.25
382.184	102.25
382.409	110.25
382.634	94.25
382.86	99.25
383.085	105.25
383.31	110.25
383.535	115.25
383.761	106.25
383.986	111.25
384.211	99.25
384.436	107.25
384.662	105.25
384.887	110.25
385.112	102.25
385.337	122.25
385.562	111.25
385.787	117.25
386.013	116.25
386.238	132.25
386.463	113.25
386.688	118.25
386.913	104.25
387.138	111.25
387.363	109.25
387.588	95.25
387.813	111.25
388.038	91.25
388.263	122.25
388.488	114.25
388.713	104.25
388.938	105.25
389.163	116.25
389.387	100.25
389.612	88.25
389.837	96.25
390.062	81.25
390.287	92.25
390.512	98.25
390.736	91.25
390.961	102.25
391.186	91.25
391.411	104.25
391.636	93.25
391.86	93.25
392.085	79.25
392.31	81.25
392.534	88.25
392.759	104.25
392.984	80.25
393.208	95.25
393.433	99.25
393.658	101.25
393.882	95.25
394.107	94.25
394.331	82.25
394.556	103.25
394.78	88.25
395.005	94.25
395.229	88.25
395.454	100.25
395.678	85.25
395.903	93.25
396.127	87.25
396.352	84.25
396.576	96.25
396.801	93.25
397.025	82.25
397.249	89.25
397.474	94.25
397.698	97.25
397.922	101.25
398.147	95.25
398.371	84.25
398.595	80.25
398.82	88.25
399.044	77.25
399.268	86.25
399.492	91.25
399.717	91.25
399.941	93.25
400.165	103.25
400.389	96.25
400.613	103.25
400.837	98.25
401.062	90.25
401.286	92.25
401.51	96.25
401.734	76.25
401.958	117.25
402.182	143.25
402.406	188.25
402.63	158.25
402.854	111.25
403.078	96.25
403.302	98.25
403.526	89.25
403.75	84.25
403.974	91.25
404.198	95.25
404.422	94.25
404.645	84.25
404.869	83.25
405.093	103.25
405.317	101.25
405.541	121.25
405.765	102.25
405.988	113.25
406.212	202.25
406.436	295.25
406.66	178.25
406.883	120.25
407.107	108.25
407.331	113.25
407.555	110.25
407.778	99.25
408.002	105.25
408.226	96.25
408.449	100.25
408.673	88.25
408.896	99.25
409.12	108.25
409.344	94.25
409.567	92.25
409.791	91.25
410.014	97.25
410.238	108.25
410.461	98.25
410.685	95.25
410.908	93.25
411.132	103.25
411.355	111.25
411.578	97.25
411.802	93.25
412.025	92.25
412.249	97.25
412.472	92.25
412.695	94.25
412.919	102.25
413.142	98.25
413.365	89.25
413.589	96.25
413.812	96.25
414.035	98.25
414.258	101.25
414.482	100.25
414.705	92.25
414.928	96.25
415.151	81.25
415.374	86.25
415.597	89.25
415.821	98.25
416.044	99.25
416.267	105.25
416.49	86.25
416.713	109.25
416.936	90.25
417.159	97.25
417.382	82.25
417.605	73.25
417.828	95.25
418.051	93.25
418.274	102.25
418.497	107.25
418.72	89.25
418.943	93.25
419.166	76.25
419.389	91.25
419.611	88.25
419.834	97.25
420.057	83.25
420.28	90.25
420.503	83.25
420.726	89.25
420.948	101.25
421.171	99.25
421.394	106.25
421.617	85.25
421.839	85.25
422.062	90.25
422.285	111.25
422.507	105.25
422.73	113.25
422.953	104.25
423.175	101.25
423.398	99.25
423.621	89.25
423.843	92.25
424.066	84.25
424.288	89.25
424.511	107.25
424.733	96.25
424.956	106.25
425.178	111.25
425.401	110.25
425.623	110.25
425.846	112.25
426.068	99.25
426.291	85.25
426.513	85.25
426.735	93.25
426.958	99.25
427.18	104.25
427.402	167.25
427.625	209.25
427.847	158.25
428.069	127.25
428.292	91.25
428.514	83.25
428.736	91.25
428.958	84.25
429.181	68.25
429.403	91.25
429.625	90.25
429.847	81.25
430.069	110.25
430.292	110.25
430.514	93.25
430.736	77.25
430.958	92.25
431.18	97.25
431.402	94.25
431.624	79.25
431.846	100.25
432.068	94.25
432.29	89.25
432.512	91.25
432.734	89.25
432.956	103.25
433.178	95.25
433.4	121.25
433.622	102.25
433.844	103.25
434.066	105.25
434.287	88.25
434.509	86.25
434.731	95.25
434.953	98.25
435.175	102.25
435.397	83.25
435.618	96.25
435.84	101.25
436.062	159.25
436.284	124.25
436.505	110.25
436.727	113.25
436.949	110.25
437.17	89.25
437.392	103.25
437.614	103.25
437.835	119.25
438.057	129.25
438.278	131.25
438.5	103.25
438.721	146.25
438.943	101.25
439.165	99.25
439.386	83.25
439.608	92.25
439.829	113.25
440.05	139.25
440.272	162.25
440.493	96.25
440.715	91.25
440.936	92.25
441.158	87.25
441.379	93.25
441.6	110.25
441.822	108.25
442.043	91.25
442.264	118.25
442.486	118.25
442.707	103.25
442.928	123.25
443.149	159.25
443.371	145.25
443.592	145.25
443.813	109.25
444.034	129.25
444.255	98.25
444.476	88.25
444.698	101.25
444.919	92.25
445.14	145.25
445.361	147.25
445.582	143.25
445.803	157.25
446.024	157.25
446.245	160.25
446.466	133.25
446.687	88.25
446.908	102.25
447.129	95.25
447.35	94.25
447.571	103.25
447.792	102.25
448.013	119.25
448.234	115.25
448.455	105.25
448.675	118.25
448.896	148.25
449.117	127.25
449.338	111.25
449.559	161.25
449.779	131.25
450	103.25
450.221	96.25
450.442	93.25
450.662	89.25
450.883	109.25
451.104	117.25
451.324	96.25
451.545	98.25
451.766	87.25
451.986	92.25
452.207	101.25
452.428	103.25
452.648	116.25
452.869	123.25
453.089	121.25
453.31	140.25
453.53	101.25
453.751	107.25
453.971	112.25
454.192	116.25
454.412	98.25
454.633	86.25
454.853	87.25
455.073	103.25
455.294	92.25
455.514	121.25
455.734	106.25
455.955	93.25
456.175	91.25
456.395	99.25
456.616	89.25
456.836	100.25
457.056	95.25
457.276	82.25
457.497	89.25
457.717	73.25
457.937	86.25
458.157	87.25
458.377	87.25
458.598	102.25
458.818	189.25
459.038	193.25
459.258	137.25
459.478	91.25
459.698	78.25
459.918	96.25
460.138	86.25
460.358	71.25
460.578	88.25
460.798	104.25
461.018	96.25
461.238	78.25
461.458	88.25
461.678	98.25
461.898	90.25
462.118	92.25
462.338	97.25
462.558	83.25
462.777	92.25
462.997	89.25
463.217	92.25
463.437	89.25
463.657	94.25
463.876	81.25
464.096	89.25
464.316	89.25
464.536	109.25
464.755	103.25
464.975	127.25
465.195	220.25
465.414	223.25
465.634	112.25
465.854	99.25
466.073	98.25
466.293	105.25
466.512	88.25
466.732	82.25
466.951	69.25
467.171	97.25
467.391	105.25
467.61	125.25
467.829	109.25
468.049	84.25
468.268	109.25
468.488	101.25
468.707	85.25
468.927	84.25
469.146	95.25
469.365	100.25
469.585	100.25
469.804	103.25
470.023	110.25
470.243	116.25
470.462	106.25
470.681	128.25
470.901	91.25
471.12	100.25
471.339	95.25
471.558	95.25
471.777	98.25
471.997	100.25
472.216	116.25
472.435	125.25
472.654	104.25
472.873	95.25
473.092	87.25
473.311	99.25
473.53	93.25
473.749	73.25
473.968	99.25
474.187	118.25
474.406	119.25
474.625	92.25
474.844	96.25
475.063	94.25
475.282	92.25
475.501	92.25
475.72	109.25
475.939	91.25
476.158	93.25
476.377	88.25
476.596	95.25
476.814	102.25
477.033	87.25
477.252	96.25
477.471	97.25
477.69	87.25
477.908	89.25
478.127	93.25
478.346	88.25
478.564	104.25
478.783	105.25
479.002	97.25
479.22	90.25
479.439	121.25
479.658	118.25
479.876	98.25
480.095	85.25
480.313	98.25
480.532	97.25
480.751	94.25
480.969	111.25
481.188	209.25
481.406	167.25
481.624	105.25
481.843	80.25
482.061	94.25
482.28	86.25
482.498	82.25
482.717	87.25
482.935	90.25
483.153	106.25
483.372	90.25
483.59	104.25
483.808	102.25
484.027	95.25
484.245	96.25
484.463	78.25
484.681	104.25
484.9	90.25
485.118	90.25
485.336	101.25
485.554	97.25
485.772	84.25
485.99	117.25
486.209	109.25
486.427	113.25
486.645	120.25
486.863	115.25
487.081	115.25
487.299	103.25
487.517	99.25
487.735	85.25
487.953	102.25
488.171	100.25
488.389	112.25
488.607	108.25
488.825	103.25
489.043	98.25
489.261	95.25
489.479	92.25
489.696	93.25
489.914	97.25
490.132	93.25
490.35	109.25
490.568	98.25
490.786	98.25
491.003	86.25
491.221	81.25
491.439	83.25
491.657	105.25
491.874	100.25
492.092	93.25
492.31	114.25
492.527	92.25
492.745	88.25
492.963	98.25
493.18	80.25
493.398	100.25
493.615	90.25
493.833	94.25
494.05	108.25
494.268	97.25
494.485	89.25
494.703	110.25
494.92	93.25
495.138	93.25
495.355	85.25
495.573	97.25
495.79	96.25
496.008	99.25
496.225	91.25
496.442	102.25
496.66	93.25
496.877	95.25
497.094	94.25
497.312	92.25
497.529	82.25
497.746	103.25
497.963	101.25
498.181	101.25
498.398	98.25
498.615	113.25
498.832	104.25
499.049	96.25
499.267	79.25
499.484	95.25
499.701	99.25
499.918	94.25
500.135	103.25
500.352	70.25
500.569	96.25
500.786	98.25
501.003	103.25
501.22	113.25
501.437	88.25
501.654	99.25
501.871	126.25
502.088	96.25
502.305	82.25
502.522	78.25
502.739	84.25
502.956	87.25
503.172	108.25
503.389	116.25
503.606	114.25
503.823	104.25
504.04	94.25
504.256	80.25
504.473	84.25
504.69	88.25
504.907	93.25
505.123	86.25
505.34	80.25
505.557	89.25
505.773	94.25
505.99	104.25
506.207	93.25
506.423	77.25
506.64	89.25
506.856	75.25
507.073	91.25
507.289	96.25
507.506	96.25
507.722	125.25
507.939	102.25
508.155	112.25
508.372	84.25
508.588	85.25
508.805	115.25
509.021	109.25
509.238	103.25
509.454	97.25
509.67	113.25
509.887	123.25
510.103	152.25
510.319	250.25
510.536	1020.25
510.752	3384.25
510.968	890.25
511.184	183.25
511.401	128.25
511.617	82.25
511.833	89.25
512.049	87.25
512.265	110.25
512.481	94.25
512.698	83.25
512.914	96.25
