Data from Circ_2006_H10_HRD10591_00066.txt Node
Date: Wed Jan 03 10:26:17 EST 2024
User: Yrep
Spectrometer: HR+D1059
Trigger mode: 1
Integration Time (sec): 1.000000E-1
Scans to average: 1
Electric dark correction enabled: true
Nonlinearity correction enabled: false
Boxcar width: 0
XAxis mode: Wavelengths
Number of Pixels in Spectrum: 2048
>>>>>Begin Spectral Data<<<<<
223.165	-20.5
223.4	-20.5
223.635	-20.5
223.869	-17.5
224.104	-7.5
224.338	-10.5
224.573	-9.5
224.808	-18.5
225.042	-17.5
225.277	-11.5
225.511	-5.5
225.746	13.5
225.98	1.5
226.215	1.5
226.449	18.5
226.683	27.5
226.918	25.5
227.152	30.5
227.387	46.5
227.621	48.5
227.856	54.5
228.09	45.5
228.324	49.5
228.559	71.5
228.793	54.5
229.027	68.5
229.262	66.5
229.496	86.5
229.73	80.5
229.964	103.5
230.199	70.5
230.433	86.5
230.667	65.5
230.901	84.5
231.136	76.5
231.37	80.5
231.604	64.5
231.838	90.5
232.072	83.5
232.306	93.5
232.541	87.5
232.775	87.5
233.009	71.5
233.243	90.5
233.477	80.5
233.711	88.5
233.945	77.5
234.179	85.5
234.413	77.5
234.647	77.5
234.881	91.5
235.115	66.5
235.349	84.5
235.583	81.5
235.817	91.5
236.051	76.5
236.285	84.5
236.519	87.5
236.753	73.5
236.987	73.5
237.221	89.5
237.455	80.5
237.689	71.5
237.922	76.5
238.156	85.5
238.39	80.5
238.624	81.5
238.858	88.5
239.091	81.5
239.325	83.5
239.559	76.5
239.793	78.5
240.027	103.5
240.26	89.5
240.494	89.5
240.728	76.5
240.961	89.5
241.195	72.5
241.429	80.5
241.662	72.5
241.896	86.5
242.13	84.5
242.363	94.5
242.597	83.5
242.83	80.5
243.064	97.5
243.298	72.5
243.531	81.5
243.765	75.5
243.998	79.5
244.232	85.5
244.465	80.5
244.699	90.5
244.932	85.5
245.166	69.5
245.399	79.5
245.633	88.5
245.866	96.5
246.099	91.5
246.333	87.5
246.566	78.5
246.8	79.5
247.033	82.5
247.266	70.5
247.5	82.5
247.733	90.5
247.966	81.5
248.2	93.5
248.433	90.5
248.666	79.5
248.899	78.5
249.133	80.5
249.366	85.5
249.599	97.5
249.832	89.5
250.066	87.5
250.299	77.5
250.532	81.5
250.765	84.5
250.998	99.5
251.231	87.5
251.465	70.5
251.698	96.5
251.931	87.5
252.164	70.5
252.397	74.5
252.63	77.5
252.863	86.5
253.096	88.5
253.329	84.5
253.562	97.5
253.795	88.5
254.028	80.5
254.261	85.5
254.494	96.5
254.727	89.5
254.96	81.5
255.193	80.5
255.426	85.5
255.659	84.5
255.892	70.5
256.124	80.5
256.357	69.5
256.59	66.5
256.823	84.5
257.056	73.5
257.289	81.5
257.521	90.5
257.754	86.5
257.987	73.5
258.22	93.5
258.452	78.5
258.685	84.5
258.918	89.5
259.151	89.5
259.383	76.5
259.616	81.5
259.849	88.5
260.081	94.5
260.314	90.5
260.547	84.5
260.779	79.5
261.012	77.5
261.244	82.5
261.477	94.5
261.71	94.5
261.942	103.5
262.175	129.5
262.407	100.5
262.64	99.5
262.872	89.5
263.105	84.5
263.337	80.5
263.57	76.5
263.802	77.5
264.035	91.5
264.267	89.5
264.499	94.5
264.732	87.5
264.964	87.5
265.197	91.5
265.429	95.5
265.661	89.5
265.894	87.5
266.126	99.5
266.358	97.5
266.591	86.5
266.823	81.5
267.055	81.5
267.287	78.5
267.52	87.5
267.752	85.5
267.984	77.5
268.216	81.5
268.448	88.5
268.681	87.5
268.913	70.5
269.145	73.5
269.377	68.5
269.609	71.5
269.841	81.5
270.073	81.5
270.306	90.5
270.538	95.5
270.77	77.5
271.002	95.5
271.234	82.5
271.466	99.5
271.698	73.5
271.93	88.5
272.162	81.5
272.394	98.5
272.626	86.5
272.858	90.5
273.09	88.5
273.322	90.5
273.553	91.5
273.785	76.5
274.017	88.5
274.249	91.5
274.481	96.5
274.713	97.5
274.945	93.5
275.176	99.5
275.408	99.5
275.64	88.5
275.872	79.5
276.104	96.5
276.335	92.5
276.567	96.5
276.799	103.5
277.031	105.5
277.262	79.5
277.494	80.5
277.726	89.5
277.957	96.5
278.189	84.5
278.421	81.5
278.652	95.5
278.884	96.5
279.115	89.5
279.347	94.5
279.579	77.5
279.81	97.5
280.042	80.5
280.273	97.5
280.505	87.5
280.736	85.5
280.968	96.5
281.199	89.5
281.431	101.5
281.662	93.5
281.894	84.5
282.125	109.5
282.356	129.5
282.588	141.5
282.819	116.5
283.051	88.5
283.282	98.5
283.513	95.5
283.745	78.5
283.976	85.5
284.207	87.5
284.439	93.5
284.67	89.5
284.901	99.5
285.132	91.5
285.364	87.5
285.595	89.5
285.826	84.5
286.057	100.5
286.288	88.5
286.52	92.5
286.751	100.5
286.982	87.5
287.213	97.5
287.444	88.5
287.675	86.5
287.906	85.5
288.138	93.5
288.369	108.5
288.6	97.5
288.831	98.5
289.062	87.5
289.293	98.5
289.524	89.5
289.755	83.5
289.986	97.5
290.217	97.5
290.448	101.5
290.679	85.5
290.91	87.5
291.141	88.5
291.371	94.5
291.602	108.5
291.833	82.5
292.064	87.5
292.295	95.5
292.526	80.5
292.757	82.5
292.987	82.5
293.218	100.5
293.449	104.5
293.68	92.5
293.91	75.5
294.141	105.5
294.372	101.5
294.603	90.5
294.833	83.5
295.064	94.5
295.295	81.5
295.525	110.5
295.756	101.5
295.987	121.5
296.217	145.5
296.448	132.5
296.679	99.5
296.909	91.5
297.14	86.5
297.37	109.5
297.601	87.5
297.831	97.5
298.062	99.5
298.292	97.5
298.523	80.5
298.753	93.5
298.984	98.5
299.214	87.5
299.445	89.5
299.675	86.5
299.905	93.5
300.136	90.5
300.366	91.5
300.597	89.5
300.827	89.5
301.057	112.5
301.288	106.5
301.518	102.5
301.748	88.5
301.979	92.5
302.209	100.5
302.439	94.5
302.669	84.5
302.9	68.5
303.13	87.5
303.36	87.5
303.59	104.5
303.82	101.5
304.051	94.5
304.281	88.5
304.511	93.5
304.741	84.5
304.971	79.5
305.201	99.5
305.431	96.5
305.661	101.5
305.891	94.5
306.121	94.5
306.352	97.5
306.582	107.5
306.812	96.5
307.042	100.5
307.272	92.5
307.502	93.5
307.731	96.5
307.961	109.5
308.191	105.5
308.421	95.5
308.651	105.5
308.881	110.5
309.111	103.5
309.341	93.5
309.571	98.5
309.8	99.5
310.03	110.5
310.26	100.5
310.49	108.5
310.72	97.5
310.949	99.5
311.179	102.5
311.409	108.5
311.639	93.5
311.868	100.5
312.098	109.5
312.328	105.5
312.557	100.5
312.787	111.5
313.017	107.5
313.246	81.5
313.476	86.5
313.706	90.5
313.935	106.5
314.165	101.5
314.394	114.5
314.624	92.5
314.853	103.5
315.083	90.5
315.312	100.5
315.542	86.5
315.771	100.5
316.001	81.5
316.23	96.5
316.46	94.5
316.689	92.5
316.919	88.5
317.148	102.5
317.377	105.5
317.607	98.5
317.836	95.5
318.065	94.5
318.295	90.5
318.524	97.5
318.753	99.5
318.983	93.5
319.212	115.5
319.441	115.5
319.67	107.5
319.9	94.5
320.129	89.5
320.358	100.5
320.587	98.5
320.816	96.5
321.046	100.5
321.275	95.5
321.504	106.5
321.733	100.5
321.962	104.5
322.191	107.5
322.42	105.5
322.649	122.5
322.878	132.5
323.108	111.5
323.337	130.5
323.566	142.5
323.795	163.5
324.024	226.5
324.253	469.5
324.482	964.5
324.71	1993.5
324.939	2499.5
325.168	911.5
325.397	258.5
325.626	158.5
325.855	136.5
326.084	146.5
326.313	122.5
326.542	177.5
326.77	243.5
326.999	515.5
327.228	1058.5
327.457	1970.5
327.686	1556.5
327.914	410.5
328.143	206.5
328.372	166.5
328.6	136.5
328.829	136.5
329.058	122.5
329.287	140.5
329.515	117.5
329.744	115.5
329.972	112.5
330.201	131.5
330.43	140.5
330.658	131.5
330.887	151.5
331.115	148.5
331.344	105.5
331.572	122.5
331.801	129.5
332.03	105.5
332.258	100.5
332.486	106.5
332.715	102.5
332.943	81.5
333.172	102.5
333.4	92.5
333.629	106.5
333.857	108.5
334.085	121.5
334.314	127.5
334.542	152.5
334.771	142.5
334.999	120.5
335.227	110.5
335.455	103.5
335.684	92.5
335.912	102.5
336.14	117.5
336.369	94.5
336.597	97.5
336.825	104.5
337.053	80.5
337.281	94.5
337.51	106.5
337.738	98.5
337.966	91.5
338.194	96.5
338.422	87.5
338.65	96.5
338.878	87.5
339.106	84.5
339.334	106.5
339.562	90.5
339.79	99.5
340.018	89.5
340.246	84.5
340.474	100.5
340.702	99.5
340.93	98.5
341.158	90.5
341.386	92.5
341.614	93.5
341.842	101.5
342.07	88.5
342.298	97.5
342.526	92.5
342.754	90.5
342.981	83.5
343.209	87.5
343.437	95.5
343.665	88.5
343.893	93.5
344.12	98.5
344.348	88.5
344.576	92.5
344.804	103.5
345.031	111.5
345.259	98.5
345.487	109.5
345.714	94.5
345.942	101.5
346.17	88.5
346.397	96.5
346.625	99.5
346.853	87.5
347.08	93.5
347.308	97.5
347.535	88.5
347.763	112.5
347.99	97.5
348.218	123.5
348.445	112.5
348.673	105.5
348.9	86.5
349.128	112.5
349.355	97.5
349.583	100.5
349.81	92.5
350.037	84.5
350.265	108.5
350.492	87.5
350.72	107.5
350.947	106.5
351.174	104.5
351.402	133.5
351.629	98.5
351.856	100.5
352.083	115.5
352.311	112.5
352.538	111.5
352.765	124.5
352.992	119.5
353.22	140.5
353.447	100.5
353.674	104.5
353.901	109.5
354.128	116.5
354.355	105.5
354.583	109.5
354.81	93.5
355.037	98.5
355.264	100.5
355.491	96.5
355.718	93.5
355.945	103.5
356.172	110.5
356.399	93.5
356.626	84.5
356.853	96.5
357.08	96.5
357.307	119.5
357.534	90.5
357.761	80.5
357.988	92.5
358.215	97.5
358.441	92.5
358.668	100.5
358.895	95.5
359.122	91.5
359.349	88.5
359.576	79.5
359.802	116.5
360.029	118.5
360.256	113.5
360.483	107.5
360.709	104.5
360.936	94.5
361.163	100.5
361.39	104.5
361.616	102.5
361.843	85.5
362.07	102.5
362.296	95.5
362.523	117.5
362.749	96.5
362.976	94.5
363.203	100.5
363.429	94.5
363.656	94.5
363.882	108.5
364.109	93.5
364.335	83.5
364.562	117.5
364.788	95.5
365.015	90.5
365.241	101.5
365.468	109.5
365.694	108.5
365.92	104.5
366.147	94.5
366.373	81.5
366.599	92.5
366.826	94.5
367.052	94.5
367.278	89.5
367.505	83.5
367.731	96.5
367.957	87.5
368.184	98.5
368.41	107.5
368.636	101.5
368.862	120.5
369.089	116.5
369.315	110.5
369.541	98.5
369.767	90.5
369.993	95.5
370.219	102.5
370.445	97.5
370.672	84.5
370.898	87.5
371.124	96.5
371.35	88.5
371.576	106.5
371.802	101.5
372.028	87.5
372.254	97.5
372.48	83.5
372.706	97.5
372.932	96.5
373.158	74.5
373.384	90.5
373.61	97.5
373.835	92.5
374.061	91.5
374.287	91.5
374.513	106.5
374.739	87.5
374.965	99.5
375.191	105.5
375.416	80.5
375.642	93.5
375.868	90.5
376.094	96.5
376.319	96.5
376.545	87.5
376.771	96.5
376.997	76.5
377.222	95.5
377.448	93.5
377.674	92.5
377.899	92.5
378.125	94.5
378.35	104.5
378.576	94.5
378.802	98.5
379.027	96.5
379.253	100.5
379.478	88.5
379.704	105.5
379.929	86.5
380.155	90.5
380.38	96.5
380.606	86.5
380.831	96.5
381.057	103.5
381.282	112.5
381.507	101.5
381.733	95.5
381.958	103.5
382.184	104.5
382.409	107.5
382.634	108.5
382.86	101.5
383.085	105.5
383.31	120.5
383.535	99.5
383.761	110.5
383.986	106.5
384.211	106.5
384.436	101.5
384.662	95.5
384.887	98.5
385.112	117.5
385.337	113.5
385.562	105.5
385.787	103.5
386.013	105.5
386.238	111.5
386.463	111.5
386.688	109.5
386.913	110.5
387.138	97.5
387.363	118.5
387.588	104.5
387.813	97.5
388.038	102.5
388.263	113.5
388.488	108.5
388.713	103.5
388.938	87.5
389.163	107.5
389.387	91.5
389.612	90.5
389.837	89.5
390.062	105.5
390.287	94.5
390.512	88.5
390.736	111.5
390.961	94.5
391.186	82.5
391.411	105.5
391.636	83.5
391.86	92.5
392.085	83.5
392.31	84.5
392.534	90.5
392.759	104.5
392.984	92.5
393.208	84.5
393.433	101.5
393.658	100.5
393.882	85.5
394.107	97.5
394.331	86.5
394.556	86.5
394.78	94.5
395.005	101.5
395.229	98.5
395.454	97.5
395.678	95.5
395.903	82.5
396.127	88.5
396.352	97.5
396.576	80.5
396.801	81.5
397.025	100.5
397.249	87.5
397.474	98.5
397.698	84.5
397.922	93.5
398.147	80.5
398.371	107.5
398.595	96.5
398.82	101.5
399.044	90.5
399.268	94.5
399.492	101.5
399.717	93.5
399.941	96.5
400.165	107.5
400.389	95.5
400.613	96.5
400.837	82.5
401.062	92.5
401.286	87.5
401.51	98.5
401.734	100.5
401.958	98.5
402.182	113.5
402.406	166.5
402.63	124.5
402.854	98.5
403.078	90.5
403.302	81.5
403.526	69.5
403.75	103.5
403.974	82.5
404.198	106.5
404.422	94.5
404.645	89.5
404.869	96.5
405.093	108.5
405.317	99.5
405.541	101.5
405.765	117.5
405.988	120.5
406.212	189.5
406.436	240.5
406.66	168.5
406.883	113.5
407.107	102.5
407.331	101.5
407.555	98.5
407.778	101.5
408.002	101.5
408.226	104.5
408.449	89.5
408.673	97.5
408.896	90.5
409.12	106.5
409.344	94.5
409.567	99.5
409.791	95.5
410.014	88.5
410.238	92.5
410.461	101.5
410.685	98.5
410.908	94.5
411.132	104.5
411.355	100.5
411.578	96.5
411.802	84.5
412.025	85.5
412.249	86.5
412.472	99.5
412.695	86.5
412.919	98.5
413.142	96.5
413.365	77.5
413.589	96.5
413.812	88.5
414.035	104.5
414.258	83.5
414.482	84.5
414.705	90.5
414.928	94.5
415.151	110.5
415.374	100.5
415.597	88.5
415.821	95.5
416.044	95.5
416.267	102.5
416.49	101.5
416.713	92.5
416.936	79.5
417.159	96.5
417.382	92.5
417.605	108.5
417.828	102.5
418.051	97.5
418.274	90.5
418.497	105.5
418.72	87.5
418.943	97.5
419.166	80.5
419.389	100.5
419.611	88.5
419.834	89.5
420.057	86.5
420.28	88.5
420.503	80.5
420.726	96.5
420.948	87.5
421.171	102.5
421.394	88.5
421.617	107.5
421.839	94.5
422.062	98.5
422.285	92.5
422.507	99.5
422.73	117.5
422.953	98.5
423.175	90.5
423.398	95.5
423.621	102.5
423.843	93.5
424.066	80.5
424.288	76.5
424.511	87.5
424.733	109.5
424.956	93.5
425.178	99.5
425.401	107.5
425.623	90.5
425.846	94.5
426.068	93.5
426.291	96.5
426.513	103.5
426.735	90.5
426.958	93.5
427.18	106.5
427.402	137.5
427.625	191.5
427.847	136.5
428.069	117.5
428.292	100.5
428.514	94.5
428.736	84.5
428.958	91.5
429.181	97.5
429.403	86.5
429.625	83.5
429.847	95.5
430.069	97.5
430.292	90.5
430.514	94.5
430.736	87.5
430.958	104.5
431.18	94.5
431.402	85.5
431.624	75.5
431.846	90.5
432.068	80.5
432.29	90.5
432.512	86.5
432.734	93.5
432.956	89.5
433.178	115.5
433.4	102.5
433.622	87.5
433.844	84.5
434.066	92.5
434.287	90.5
434.509	90.5
434.731	84.5
434.953	84.5
435.175	87.5
435.397	98.5
435.618	108.5
435.84	96.5
436.062	115.5
436.284	105.5
436.505	96.5
436.727	109.5
436.949	94.5
437.17	92.5
437.392	86.5
437.614	100.5
437.835	121.5
438.057	116.5
438.278	107.5
438.5	103.5
438.721	127.5
438.943	115.5
439.165	99.5
439.386	84.5
439.608	97.5
439.829	109.5
440.05	121.5
440.272	148.5
440.493	102.5
440.715	94.5
440.936	94.5
441.158	96.5
441.379	88.5
441.6	98.5
441.822	83.5
442.043	102.5
442.264	109.5
442.486	112.5
442.707	99.5
442.928	98.5
443.149	130.5
443.371	130.5
443.592	121.5
443.813	113.5
444.034	116.5
444.255	81.5
444.476	93.5
444.698	86.5
444.919	88.5
445.14	140.5
445.361	133.5
445.582	121.5
445.803	133.5
446.024	137.5
446.245	153.5
446.466	108.5
446.687	100.5
446.908	98.5
447.129	79.5
447.35	95.5
447.571	92.5
447.792	91.5
448.013	98.5
448.234	104.5
448.455	93.5
448.675	108.5
448.896	126.5
449.117	125.5
449.338	104.5
449.559	129.5
449.779	117.5
450	96.5
450.221	98.5
450.442	87.5
450.662	97.5
450.883	108.5
451.104	111.5
451.324	90.5
451.545	110.5
451.766	93.5
451.986	86.5
452.207	94.5
452.428	90.5
452.648	85.5
452.869	124.5
453.089	129.5
453.31	122.5
453.53	86.5
453.751	113.5
453.971	103.5
454.192	117.5
454.412	108.5
454.633	100.5
454.853	89.5
455.073	93.5
455.294	79.5
455.514	97.5
455.734	106.5
455.955	103.5
456.175	91.5
456.395	80.5
456.616	73.5
456.836	71.5
457.056	82.5
457.276	92.5
457.497	79.5
457.717	73.5
457.937	81.5
458.157	98.5
458.377	102.5
458.598	101.5
458.818	162.5
459.038	168.5
459.258	115.5
459.478	100.5
459.698	79.5
459.918	94.5
460.138	98.5
460.358	85.5
460.578	92.5
460.798	84.5
461.018	101.5
461.238	98.5
461.458	76.5
461.678	95.5
461.898	80.5
462.118	83.5
462.338	91.5
462.558	90.5
462.777	75.5
462.997	88.5
463.217	96.5
463.437	85.5
463.657	92.5
463.876	92.5
464.096	96.5
464.316	99.5
464.536	109.5
464.755	97.5
464.975	95.5
465.195	169.5
465.414	168.5
465.634	103.5
465.854	95.5
466.073	89.5
466.293	94.5
466.512	96.5
466.732	88.5
466.951	86.5
467.171	108.5
467.391	96.5
467.61	102.5
467.829	101.5
468.049	97.5
468.268	108.5
468.488	80.5
468.707	86.5
468.927	89.5
469.146	84.5
469.365	82.5
469.585	85.5
469.804	97.5
470.023	97.5
470.243	86.5
470.462	94.5
470.681	120.5
470.901	96.5
471.12	103.5
471.339	82.5
471.558	99.5
471.777	89.5
471.997	92.5
472.216	109.5
472.435	178.5
472.654	97.5
472.873	96.5
473.092	92.5
473.311	95.5
473.53	100.5
473.749	103.5
473.968	84.5
474.187	112.5
474.406	73.5
474.625	92.5
474.844	92.5
475.063	95.5
475.282	90.5
475.501	88.5
475.72	98.5
475.939	90.5
476.158	81.5
476.377	93.5
476.596	94.5
476.814	104.5
477.033	94.5
477.252	93.5
477.471	85.5
477.69	90.5
477.908	89.5
478.127	77.5
478.346	89.5
478.564	97.5
478.783	98.5
479.002	76.5
479.22	94.5
479.439	98.5
479.658	108.5
479.876	88.5
480.095	102.5
480.313	104.5
480.532	99.5
480.751	90.5
480.969	130.5
481.188	236.5
481.406	174.5
481.624	100.5
481.843	91.5
482.061	87.5
482.28	88.5
482.498	84.5
482.717	92.5
482.935	86.5
483.153	85.5
483.372	103.5
483.59	88.5
483.808	74.5
484.027	83.5
484.245	83.5
484.463	106.5
484.681	98.5
484.9	96.5
485.118	97.5
485.336	106.5
485.554	96.5
485.772	102.5
485.99	97.5
486.209	110.5
486.427	109.5
486.645	109.5
486.863	119.5
487.081	104.5
487.299	102.5
487.517	78.5
487.735	93.5
487.953	93.5
488.171	107.5
488.389	94.5
488.607	94.5
488.825	105.5
489.043	84.5
489.261	89.5
489.479	96.5
489.696	87.5
489.914	99.5
490.132	94.5
490.35	97.5
490.568	98.5
490.786	91.5
491.003	82.5
491.221	76.5
491.439	85.5
491.657	100.5
491.874	100.5
492.092	84.5
492.31	87.5
492.527	88.5
492.745	89.5
492.963	92.5
493.18	106.5
493.398	98.5
493.615	95.5
493.833	95.5
494.05	97.5
494.268	93.5
494.485	76.5
494.703	86.5
494.92	94.5
495.138	83.5
495.355	87.5
495.573	101.5
495.79	96.5
496.008	86.5
496.225	102.5
496.442	92.5
496.66	92.5
496.877	88.5
497.094	82.5
497.312	93.5
497.529	95.5
497.746	87.5
497.963	93.5
498.181	101.5
498.398	105.5
498.615	112.5
498.832	99.5
499.049	86.5
499.267	101.5
499.484	85.5
499.701	87.5
499.918	91.5
500.135	102.5
500.352	88.5
500.569	86.5
500.786	85.5
501.003	87.5
501.22	91.5
501.437	105.5
501.654	105.5
501.871	110.5
502.088	91.5
502.305	89.5
502.522	92.5
502.739	105.5
502.956	87.5
503.172	98.5
503.389	112.5
503.606	110.5
503.823	112.5
504.04	93.5
504.256	86.5
504.473	84.5
504.69	81.5
504.907	92.5
505.123	94.5
505.34	92.5
505.557	96.5
505.773	88.5
505.99	98.5
506.207	99.5
506.423	100.5
506.64	96.5
506.856	88.5
507.073	82.5
507.289	82.5
507.506	105.5
507.722	114.5
507.939	106.5
508.155	100.5
508.372	92.5
508.588	97.5
508.805	106.5
509.021	93.5
509.238	103.5
509.454	90.5
509.67	103.5
509.887	108.5
510.103	132.5
510.319	224.5
510.536	841.5
510.752	2715.5
510.968	726.5
511.184	174.5
511.401	106.5
511.617	105.5
511.833	95.5
512.049	99.5
512.265	97.5
512.481	95.5
512.698	95.5
512.914	96.5
513.13	96.5
513.346	103.5
513.562	93.5
513.778	103.5
513.994	104.5
514.21	106.5
514.426	114.5
514.642	126.5
514.858	132.5
515.074	176.5
515.29	510.5
515.506	1716.5
515.721	640.5
515.937	178.5
516.153	111.5
516.369	109.5
516.585	101.5
516.801	92.5
517.016	110.5
517.232	100.5
517.448	100.5
517.664	95.5
517.879	95.5
518.095	98.5
518.311	112.5
518.527	86.5
518.742	105.5
518.958	91.5
519.173	113.5
519.389	100.5
519.605	114.5
519.82	102.5
520.036	124.5
520.251	126.5
520.467	114.5
520.682	99.5
520.898	103.5
521.113	115.5
521.329	146.5
521.544	246.5
521.76	638.5
521.975	2819.5
522.19	1657.5
522.406	366.5
522.621	144.5
522.836	107.5
523.052	98.5
523.267	112.5
523.482	109.5
523.698	115.5
523.913	127.5
524.128	104.5
524.343	99.5
524.559	87.5
524.774	100.5
524.989	104.5
525.204	104.5
525.419	111.5
525.634	91.5
525.849	99.5
526.064	84.5
526.28	103.5
526.495	101.5
526.71	84.5
526.925	105.5
527.14	96.5
527.355	90.5
527.57	90.5
527.785	93.5
527.999	84.5
528.214	102.5
528.429	96.5
528.644	75.5
528.859	89.5
529.074	99.5
529.289	144.5
529.503	206.5
529.718	114.5
529.933	97.5
530.148	93.5
530.363	101.5
530.577	90.5
530.792	85.5
531.007	103.5
531.221	90.5
531.436	93.5
531.651	80.5
531.865	89.5
532.08	97.5
532.295	84.5
532.509	82.5
532.724	101.5
532.938	92.5
533.153	93.5
