Data from Circ_2006_H10_HRD10591_00059.txt Node
Date: Wed Jan 03 10:26:15 EST 2024
User: Yrep
Spectrometer: HR+D1059
Trigger mode: 1
Integration Time (sec): 1.000000E-1
Scans to average: 1
Electric dark correction enabled: true
Nonlinearity correction enabled: false
Boxcar width: 0
XAxis mode: Wavelengths
Number of Pixels in Spectrum: 2048
>>>>>Begin Spectral Data<<<<<
223.165	-20.56
223.4	-20.56
223.635	-20.56
223.869	-19.56
224.104	-16.56
224.338	-20.56
224.573	-22.56
224.808	-29.56
225.042	1.44
225.277	-8.56
225.511	-0.56
225.746	17.44
225.98	2.44
226.215	4.44
226.449	15.44
226.683	27.44
226.918	37.44
227.152	32.44
227.387	31.44
227.621	34.44
227.856	19.44
228.09	47.44
228.324	35.44
228.559	45.44
228.793	59.44
229.027	59.44
229.262	64.44
229.496	63.44
229.73	73.44
229.964	85.44
230.199	78.44
230.433	74.44
230.667	68.44
230.901	65.44
231.136	85.44
231.37	81.44
231.604	78.44
231.838	80.44
232.072	74.44
232.306	66.44
232.541	89.44
232.775	73.44
233.009	77.44
233.243	75.44
233.477	76.44
233.711	73.44
233.945	80.44
234.179	68.44
234.413	80.44
234.647	82.44
234.881	81.44
235.115	67.44
235.349	81.44
235.583	82.44
235.817	73.44
236.051	87.44
236.285	67.44
236.519	71.44
236.753	83.44
236.987	82.44
237.221	91.44
237.455	86.44
237.689	91.44
237.922	64.44
238.156	79.44
238.39	66.44
238.624	75.44
238.858	88.44
239.091	63.44
239.325	69.44
239.559	76.44
239.793	68.44
240.027	74.44
240.26	74.44
240.494	79.44
240.728	67.44
240.961	88.44
241.195	89.44
241.429	75.44
241.662	65.44
241.896	86.44
242.13	80.44
242.363	90.44
242.597	71.44
242.83	76.44
243.064	71.44
243.298	64.44
243.531	74.44
243.765	71.44
243.998	75.44
244.232	76.44
244.465	80.44
244.699	74.44
244.932	75.44
245.166	74.44
245.399	77.44
245.633	71.44
245.866	77.44
246.099	85.44
246.333	72.44
246.566	74.44
246.8	82.44
247.033	71.44
247.266	83.44
247.5	83.44
247.733	74.44
247.966	75.44
248.2	68.44
248.433	74.44
248.666	73.44
248.899	86.44
249.133	79.44
249.366	90.44
249.599	91.44
249.832	72.44
250.066	83.44
250.299	80.44
250.532	92.44
250.765	88.44
250.998	80.44
251.231	68.44
251.465	83.44
251.698	67.44
251.931	73.44
252.164	69.44
252.397	74.44
252.63	73.44
252.863	61.44
253.096	77.44
253.329	88.44
253.562	87.44
253.795	76.44
254.028	79.44
254.261	66.44
254.494	77.44
254.727	71.44
254.96	81.44
255.193	87.44
255.426	71.44
255.659	81.44
255.892	94.44
256.124	74.44
256.357	73.44
256.59	84.44
256.823	80.44
257.056	77.44
257.289	85.44
257.521	77.44
257.754	83.44
257.987	73.44
258.22	83.44
258.452	77.44
258.685	79.44
258.918	80.44
259.151	81.44
259.383	84.44
259.616	87.44
259.849	89.44
260.081	74.44
260.314	82.44
260.547	86.44
260.779	78.44
261.012	89.44
261.244	84.44
261.477	103.44
261.71	94.44
261.942	103.44
262.175	111.44
262.407	88.44
262.64	85.44
262.872	77.44
263.105	77.44
263.337	86.44
263.57	80.44
263.802	85.44
264.035	82.44
264.267	79.44
264.499	84.44
264.732	89.44
264.964	69.44
265.197	82.44
265.429	83.44
265.661	62.44
265.894	80.44
266.126	100.44
266.358	80.44
266.591	94.44
266.823	79.44
267.055	79.44
267.287	85.44
267.52	83.44
267.752	64.44
267.984	78.44
268.216	89.44
268.448	73.44
268.681	82.44
268.913	77.44
269.145	79.44
269.377	69.44
269.609	101.44
269.841	88.44
270.073	77.44
270.306	88.44
270.538	83.44
270.77	73.44
271.002	79.44
271.234	94.44
271.466	91.44
271.698	86.44
271.93	90.44
272.162	76.44
272.394	85.44
272.626	91.44
272.858	72.44
273.09	82.44
273.322	81.44
273.553	89.44
273.785	79.44
274.017	78.44
274.249	74.44
274.481	77.44
274.713	71.44
274.945	80.44
275.176	79.44
275.408	84.44
275.64	89.44
275.872	91.44
276.104	101.44
276.335	80.44
276.567	105.44
276.799	108.44
277.031	94.44
277.262	80.44
277.494	79.44
277.726	90.44
277.957	79.44
278.189	87.44
278.421	92.44
278.652	83.44
278.884	82.44
279.115	91.44
279.347	82.44
279.579	91.44
279.81	78.44
280.042	87.44
280.273	81.44
280.505	85.44
280.736	90.44
280.968	99.44
281.199	89.44
281.431	81.44
281.662	82.44
281.894	85.44
282.125	87.44
282.356	114.44
282.588	140.44
282.819	106.44
283.051	96.44
283.282	88.44
283.513	77.44
283.745	94.44
283.976	73.44
284.207	77.44
284.439	91.44
284.67	83.44
284.901	87.44
285.132	78.44
285.364	76.44
285.595	84.44
285.826	79.44
286.057	86.44
286.288	82.44
286.52	93.44
286.751	82.44
286.982	83.44
287.213	84.44
287.444	99.44
287.675	92.44
287.906	74.44
288.138	95.44
288.369	92.44
288.6	95.44
288.831	69.44
289.062	84.44
289.293	87.44
289.524	88.44
289.755	100.44
289.986	79.44
290.217	71.44
290.448	82.44
290.679	75.44
290.91	104.44
291.141	90.44
291.371	94.44
291.602	99.44
291.833	81.44
292.064	84.44
292.295	87.44
292.526	78.44
292.757	81.44
292.987	93.44
293.218	98.44
293.449	90.44
293.68	85.44
293.91	79.44
294.141	92.44
294.372	83.44
294.603	91.44
294.833	98.44
295.064	83.44
295.295	93.44
295.525	89.44
295.756	102.44
295.987	101.44
296.217	128.44
296.448	119.44
296.679	108.44
296.909	97.44
297.14	92.44
297.37	90.44
297.601	89.44
297.831	79.44
298.062	85.44
298.292	89.44
298.523	87.44
298.753	68.44
298.984	90.44
299.214	91.44
299.445	92.44
299.675	91.44
299.905	100.44
300.136	81.44
300.366	78.44
300.597	90.44
300.827	100.44
301.057	99.44
301.288	106.44
301.518	84.44
301.748	92.44
301.979	91.44
302.209	88.44
302.439	96.44
302.669	92.44
302.9	99.44
303.13	85.44
303.36	87.44
303.59	97.44
303.82	103.44
304.051	92.44
304.281	93.44
304.511	92.44
304.741	93.44
304.971	88.44
305.201	78.44
305.431	94.44
305.661	90.44
305.891	91.44
306.121	99.44
306.352	101.44
306.582	103.44
306.812	100.44
307.042	98.44
307.272	104.44
307.502	98.44
307.731	97.44
307.961	83.44
308.191	91.44
308.421	105.44
308.651	92.44
308.881	74.44
309.111	87.44
309.341	96.44
309.571	103.44
309.8	92.44
310.03	100.44
310.26	93.44
310.49	79.44
310.72	95.44
310.949	103.44
311.179	100.44
311.409	94.44
311.639	89.44
311.868	88.44
312.098	102.44
312.328	101.44
312.557	94.44
312.787	114.44
313.017	101.44
313.246	89.44
313.476	84.44
313.706	97.44
313.935	91.44
314.165	90.44
314.394	104.44
314.624	83.44
314.853	98.44
315.083	106.44
315.312	104.44
315.542	88.44
315.771	102.44
316.001	91.44
316.23	80.44
316.46	82.44
316.689	87.44
316.919	80.44
317.148	90.44
317.377	86.44
317.607	97.44
317.836	92.44
318.065	83.44
318.295	87.44
318.524	80.44
318.753	99.44
318.983	86.44
319.212	123.44
319.441	100.44
319.67	98.44
319.9	96.44
320.129	84.44
320.358	101.44
320.587	99.44
320.816	89.44
321.046	108.44
321.275	88.44
321.504	98.44
321.733	100.44
321.962	104.44
322.191	106.44
322.42	97.44
322.649	112.44
322.878	110.44
323.108	123.44
323.337	133.44
323.566	135.44
323.795	148.44
324.024	235.44
324.253	466.44
324.482	958.44
324.71	2010.44
324.939	2674.44
325.168	970.44
325.397	289.44
325.626	162.44
325.855	137.44
326.084	144.44
326.313	127.44
326.542	169.44
326.77	252.44
326.999	535.44
327.228	1109.44
327.457	2007.44
327.686	1597.44
327.914	430.44
328.143	217.44
328.372	177.44
328.6	146.44
328.829	120.44
329.058	135.44
329.287	119.44
329.515	112.44
329.744	104.44
329.972	103.44
330.201	133.44
330.43	148.44
330.658	135.44
330.887	155.44
331.115	137.44
331.344	96.44
331.572	110.44
331.801	106.44
332.03	98.44
332.258	80.44
332.486	86.44
332.715	86.44
332.943	102.44
333.172	88.44
333.4	115.44
333.629	112.44
333.857	104.44
334.085	104.44
334.314	135.44
334.542	151.44
334.771	142.44
334.999	105.44
335.227	93.44
335.455	100.44
335.684	101.44
335.912	90.44
336.14	93.44
336.369	100.44
336.597	97.44
336.825	80.44
337.053	83.44
337.281	89.44
337.51	98.44
337.738	84.44
337.966	86.44
338.194	105.44
338.422	93.44
338.65	101.44
338.878	85.44
339.106	95.44
339.334	92.44
339.562	88.44
339.79	84.44
340.018	95.44
340.246	90.44
340.474	102.44
340.702	86.44
340.93	97.44
341.158	106.44
341.386	94.44
341.614	96.44
341.842	78.44
342.07	101.44
342.298	94.44
342.526	94.44
342.754	74.44
342.981	82.44
343.209	92.44
343.437	78.44
343.665	86.44
343.893	89.44
344.12	88.44
344.348	97.44
344.576	96.44
344.804	95.44
345.031	104.44
345.259	104.44
345.487	96.44
345.714	104.44
345.942	84.44
346.17	79.44
346.397	93.44
346.625	92.44
346.853	106.44
347.08	103.44
347.308	103.44
347.535	91.44
347.763	105.44
347.99	111.44
348.218	104.44
348.445	104.44
348.673	96.44
348.9	97.44
349.128	87.44
349.355	89.44
349.583	76.44
349.81	85.44
350.037	98.44
350.265	87.44
350.492	84.44
350.72	90.44
350.947	89.44
351.174	108.44
351.402	113.44
351.629	100.44
351.856	103.44
352.083	103.44
352.311	94.44
352.538	108.44
352.765	116.44
352.992	115.44
353.22	114.44
353.447	108.44
353.674	108.44
353.901	96.44
354.128	77.44
354.355	88.44
354.583	104.44
354.81	103.44
355.037	100.44
355.264	108.44
355.491	93.44
355.718	92.44
355.945	93.44
356.172	84.44
356.399	96.44
356.626	79.44
356.853	85.44
357.08	98.44
357.307	85.44
357.534	92.44
357.761	101.44
357.988	89.44
358.215	104.44
358.441	97.44
358.668	97.44
358.895	81.44
359.122	85.44
359.349	84.44
359.576	92.44
359.802	105.44
360.029	111.44
360.256	108.44
360.483	91.44
360.709	84.44
360.936	97.44
361.163	83.44
361.39	97.44
361.616	91.44
361.843	92.44
362.07	81.44
362.296	91.44
362.523	92.44
362.749	97.44
362.976	85.44
363.203	94.44
363.429	83.44
363.656	87.44
363.882	85.44
364.109	97.44
364.335	87.44
364.562	94.44
364.788	78.44
365.015	86.44
365.241	93.44
365.468	101.44
365.694	105.44
365.92	107.44
366.147	101.44
366.373	74.44
366.599	87.44
366.826	85.44
367.052	81.44
367.278	79.44
367.505	97.44
367.731	80.44
367.957	94.44
368.184	103.44
368.41	107.44
368.636	105.44
368.862	127.44
369.089	113.44
369.315	82.44
369.541	95.44
369.767	91.44
369.993	87.44
370.219	96.44
370.445	80.44
370.672	90.44
370.898	94.44
371.124	85.44
371.35	83.44
371.576	91.44
371.802	75.44
372.028	93.44
372.254	87.44
372.48	88.44
372.706	73.44
372.932	84.44
373.158	71.44
373.384	93.44
373.61	95.44
373.835	93.44
374.061	83.44
374.287	81.44
374.513	75.44
374.739	94.44
374.965	90.44
375.191	90.44
375.416	88.44
375.642	93.44
375.868	87.44
376.094	102.44
376.319	98.44
376.545	94.44
376.771	81.44
376.997	82.44
377.222	93.44
377.448	91.44
377.674	80.44
377.899	92.44
378.125	101.44
378.35	79.44
378.576	78.44
378.802	90.44
379.027	96.44
379.253	85.44
379.478	93.44
379.704	97.44
379.929	85.44
380.155	90.44
380.38	89.44
380.606	92.44
380.831	89.44
381.057	96.44
381.282	81.44
381.507	87.44
381.733	99.44
381.958	100.44
382.184	90.44
382.409	71.44
382.634	75.44
382.86	84.44
383.085	100.44
383.31	95.44
383.535	90.44
383.761	105.44
383.986	90.44
384.211	92.44
384.436	105.44
384.662	100.44
384.887	97.44
385.112	97.44
385.337	100.44
385.562	120.44
385.787	97.44
386.013	109.44
386.238	115.44
386.463	100.44
386.688	108.44
386.913	90.44
387.138	90.44
387.363	102.44
387.588	97.44
387.813	95.44
388.038	116.44
388.263	119.44
388.488	104.44
388.713	95.44
388.938	83.44
389.163	85.44
389.387	95.44
389.612	79.44
389.837	74.44
390.062	99.44
390.287	81.44
390.512	88.44
390.736	92.44
390.961	97.44
391.186	85.44
391.411	88.44
391.636	85.44
391.86	87.44
392.085	83.44
392.31	93.44
392.534	74.44
392.759	96.44
392.984	95.44
393.208	96.44
393.433	100.44
393.658	90.44
393.882	86.44
394.107	89.44
394.331	83.44
394.556	80.44
394.78	86.44
395.005	96.44
395.229	82.44
395.454	76.44
395.678	76.44
395.903	85.44
396.127	79.44
396.352	73.44
396.576	87.44
396.801	73.44
397.025	84.44
397.249	89.44
397.474	76.44
397.698	97.44
397.922	76.44
398.147	89.44
398.371	73.44
398.595	71.44
398.82	91.44
399.044	77.44
399.268	76.44
399.492	68.44
399.717	99.44
399.941	84.44
400.165	85.44
400.389	77.44
400.613	87.44
400.837	83.44
401.062	103.44
401.286	99.44
401.51	80.44
401.734	84.44
401.958	93.44
402.182	130.44
402.406	163.44
402.63	130.44
402.854	97.44
403.078	85.44
403.302	96.44
403.526	90.44
403.75	82.44
403.974	108.44
404.198	78.44
404.422	93.44
404.645	98.44
404.869	77.44
405.093	93.44
405.317	107.44
405.541	106.44
405.765	82.44
405.988	114.44
406.212	167.44
406.436	247.44
406.66	150.44
406.883	99.44
407.107	92.44
407.331	108.44
407.555	85.44
407.778	101.44
408.002	97.44
408.226	78.44
408.449	86.44
408.673	85.44
408.896	104.44
409.12	94.44
409.344	84.44
409.567	95.44
409.791	89.44
410.014	81.44
410.238	81.44
410.461	81.44
410.685	96.44
410.908	101.44
411.132	97.44
411.355	102.44
411.578	92.44
411.802	88.44
412.025	75.44
412.249	91.44
412.472	98.44
412.695	87.44
412.919	91.44
413.142	79.44
413.365	78.44
413.589	85.44
413.812	90.44
414.035	99.44
414.258	84.44
414.482	68.44
414.705	97.44
414.928	89.44
415.151	89.44
415.374	92.44
415.597	93.44
415.821	80.44
416.044	92.44
416.267	96.44
416.49	73.44
416.713	96.44
416.936	88.44
417.159	75.44
417.382	82.44
417.605	88.44
417.828	80.44
418.051	85.44
418.274	88.44
418.497	84.44
418.72	85.44
418.943	88.44
419.166	101.44
419.389	66.44
419.611	114.44
419.834	85.44
420.057	92.44
420.28	91.44
420.503	88.44
420.726	80.44
420.948	102.44
421.171	93.44
421.394	82.44
421.617	86.44
421.839	84.44
422.062	99.44
422.285	85.44
422.507	109.44
422.73	99.44
422.953	87.44
423.175	81.44
423.398	74.44
423.621	89.44
423.843	85.44
424.066	91.44
424.288	94.44
424.511	92.44
424.733	100.44
424.956	93.44
425.178	91.44
425.401	91.44
425.623	92.44
425.846	91.44
426.068	90.44
426.291	98.44
426.513	78.44
426.735	82.44
426.958	68.44
427.18	103.44
427.402	132.44
427.625	176.44
427.847	135.44
428.069	110.44
428.292	80.44
428.514	80.44
428.736	83.44
428.958	76.44
429.181	85.44
429.403	99.44
429.625	91.44
429.847	96.44
430.069	99.44
430.292	86.44
430.514	84.44
430.736	84.44
430.958	72.44
431.18	76.44
431.402	83.44
431.624	77.44
431.846	92.44
432.068	94.44
432.29	83.44
432.512	92.44
432.734	91.44
432.956	99.44
433.178	103.44
433.4	116.44
433.622	89.44
433.844	101.44
434.066	91.44
434.287	83.44
434.509	86.44
434.731	100.44
434.953	79.44
435.175	109.44
435.397	83.44
435.618	106.44
435.84	96.44
436.062	117.44
436.284	115.44
436.505	103.44
436.727	108.44
436.949	79.44
437.17	83.44
437.392	90.44
437.614	82.44
437.835	113.44
438.057	123.44
438.278	125.44
438.5	112.44
438.721	123.44
438.943	87.44
439.165	81.44
439.386	84.44
439.608	100.44
439.829	89.44
440.05	129.44
440.272	145.44
440.493	101.44
440.715	85.44
440.936	81.44
441.158	93.44
441.379	87.44
441.6	92.44
441.822	77.44
442.043	89.44
442.264	113.44
442.486	102.44
442.707	80.44
442.928	109.44
443.149	120.44
443.371	131.44
443.592	120.44
443.813	111.44
444.034	125.44
444.255	102.44
444.476	91.44
444.698	81.44
444.919	83.44
445.14	132.44
445.361	141.44
445.582	113.44
445.803	139.44
446.024	152.44
446.245	139.44
446.466	114.44
446.687	81.44
446.908	89.44
447.129	79.44
447.35	83.44
447.571	87.44
447.792	89.44
448.013	89.44
448.234	115.44
448.455	99.44
448.675	104.44
448.896	107.44
449.117	111.44
449.338	110.44
449.559	132.44
449.779	137.44
450	89.44
450.221	75.44
450.442	84.44
450.662	88.44
450.883	99.44
451.104	115.44
451.324	96.44
451.545	94.44
451.766	74.44
451.986	92.44
452.207	89.44
452.428	87.44
452.648	83.44
452.869	109.44
453.089	115.44
453.31	120.44
453.53	99.44
453.751	98.44
453.971	100.44
454.192	121.44
454.412	96.44
454.633	75.44
454.853	85.44
455.073	75.44
455.294	92.44
455.514	106.44
455.734	92.44
455.955	90.44
456.175	86.44
456.395	88.44
456.616	83.44
456.836	99.44
457.056	84.44
457.276	89.44
457.497	98.44
457.717	89.44
457.937	77.44
458.157	95.44
458.377	73.44
458.598	103.44
458.818	155.44
459.038	170.44
459.258	105.44
459.478	93.44
459.698	82.44
459.918	83.44
460.138	82.44
460.358	91.44
460.578	91.44
460.798	78.44
461.018	80.44
461.238	79.44
461.458	77.44
461.678	78.44
461.898	71.44
462.118	80.44
462.338	84.44
462.558	89.44
462.777	101.44
462.997	93.44
463.217	80.44
463.437	83.44
463.657	89.44
463.876	68.44
464.096	72.44
464.316	90.44
464.536	92.44
464.755	85.44
464.975	111.44
465.195	185.44
465.414	170.44
465.634	94.44
465.854	95.44
466.073	82.44
466.293	85.44
466.512	94.44
466.732	94.44
466.951	72.44
467.171	86.44
467.391	90.44
467.61	91.44
467.829	88.44
468.049	92.44
468.268	121.44
468.488	101.44
468.707	82.44
468.927	79.44
469.146	81.44
469.365	75.44
469.585	81.44
469.804	88.44
470.023	103.44
470.243	93.44
470.462	111.44
470.681	113.44
470.901	90.44
471.12	88.44
471.339	86.44
471.558	82.44
471.777	95.44
471.997	91.44
472.216	131.44
472.435	179.44
472.654	113.44
472.873	91.44
473.092	82.44
473.311	90.44
473.53	89.44
473.749	92.44
473.968	100.44
474.187	116.44
474.406	94.44
474.625	83.44
474.844	94.44
475.063	81.44
475.282	78.44
475.501	82.44
475.72	80.44
475.939	102.44
476.158	83.44
476.377	98.44
476.596	74.44
476.814	95.44
477.033	81.44
477.252	83.44
477.471	82.44
477.69	87.44
477.908	95.44
478.127	75.44
478.346	98.44
478.564	94.44
478.783	80.44
479.002	87.44
479.22	93.44
479.439	93.44
479.658	99.44
479.876	90.44
480.095	87.44
480.313	88.44
480.532	78.44
480.751	86.44
480.969	123.44
481.188	265.44
481.406	186.44
481.624	107.44
481.843	95.44
482.061	96.44
482.28	93.44
482.498	85.44
482.717	87.44
482.935	88.44
483.153	95.44
483.372	80.44
483.59	87.44
483.808	89.44
484.027	79.44
484.245	92.44
484.463	95.44
484.681	105.44
484.9	83.44
485.118	97.44
485.336	94.44
485.554	113.44
485.772	98.44
485.99	110.44
486.209	99.44
486.427	105.44
486.645	104.44
486.863	115.44
487.081	106.44
487.299	94.44
487.517	84.44
487.735	88.44
487.953	91.44
488.171	78.44
488.389	93.44
488.607	91.44
488.825	97.44
489.043	95.44
489.261	81.44
489.479	91.44
489.696	77.44
489.914	87.44
490.132	85.44
490.35	81.44
490.568	88.44
490.786	85.44
491.003	99.44
491.221	97.44
491.439	90.44
491.657	84.44
491.874	105.44
492.092	86.44
492.31	85.44
492.527	95.44
492.745	92.44
492.963	89.44
493.18	94.44
493.398	85.44
493.615	91.44
493.833	95.44
494.05	96.44
494.268	103.44
494.485	87.44
494.703	80.44
494.92	88.44
495.138	89.44
495.355	86.44
495.573	86.44
495.79	88.44
496.008	81.44
496.225	93.44
496.442	87.44
496.66	75.44
496.877	93.44
497.094	91.44
497.312	81.44
497.529	99.44
497.746	88.44
497.963	85.44
498.181	86.44
498.398	88.44
498.615	112.44
498.832	113.44
499.049	82.44
499.267	73.44
499.484	62.44
499.701	93.44
499.918	89.44
500.135	82.44
500.352	100.44
500.569	87.44
500.786	93.44
501.003	90.44
501.22	88.44
501.437	80.44
501.654	111.44
501.871	120.44
502.088	100.44
502.305	91.44
502.522	100.44
502.739	95.44
502.956	84.44
503.172	89.44
503.389	95.44
503.606	115.44
503.823	94.44
504.04	90.44
504.256	92.44
504.473	85.44
504.69	76.44
504.907	96.44
505.123	89.44
505.34	82.44
505.557	108.44
505.773	98.44
505.99	107.44
506.207	92.44
506.423	83.44
506.64	79.44
506.856	82.44
507.073	100.44
507.289	95.44
507.506	82.44
507.722	119.44
507.939	123.44
508.155	101.44
508.372	106.44
508.588	89.44
508.805	86.44
509.021	106.44
509.238	104.44
509.454	110.44
509.67	115.44
509.887	115.44
510.103	127.44
510.319	223.44
510.536	835.44
510.752	2785.44
510.968	779.44
511.184	173.44
511.401	121.44
511.617	95.44
511.833	100.44
512.049	101.44
512.265	80.44
512.481	97.44
512.698	82.44
512.914	85.44
513.13	84.44
513.346	93.44
513.562	97.44
513.778	106.44
513.994	95.44
514.21	107.44
514.426	120.44
514.642	126.44
514.858	126.44
515.074	196.44
515.29	554.44
515.506	1825.44
515.721	668.44
