Data from Circ_2006_H10_HRD10591_00045.txt Node
Date: Wed Jan 03 10:26:12 EST 2024
User: Yrep
Spectrometer: HR+D1059
Trigger mode: 1
Integration Time (sec): 1.000000E-1
Scans to average: 1
Electric dark correction enabled: true
Nonlinearity correction enabled: false
Boxcar width: 0
XAxis mode: Wavelengths
Number of Pixels in Spectrum: 2048
>>>>>Begin Spectral Data<<<<<
223.165	-9.06
223.4	-9.06
223.635	-9.06
223.869	-37.06
224.104	-16.06
224.338	-8.06
224.573	-13.06
224.808	-11.06
225.042	-4.06
225.277	-2.06
225.511	1.94
225.746	11.94
225.98	2.94
226.215	17.94
226.449	9.94
226.683	4.94
226.918	17.94
227.152	32.94
227.387	36.94
227.621	41.94
227.856	49.94
228.09	53.94
228.324	52.94
228.559	54.94
228.793	57.94
229.027	77.94
229.262	74.94
229.496	83.94
229.73	101.94
229.964	79.94
230.199	69.94
230.433	77.94
230.667	74.94
230.901	65.94
231.136	74.94
231.37	86.94
231.604	86.94
231.838	76.94
232.072	76.94
232.306	94.94
232.541	66.94
232.775	77.94
233.009	86.94
233.243	76.94
233.477	90.94
233.711	76.94
233.945	65.94
234.179	78.94
234.413	84.94
234.647	69.94
234.881	74.94
235.115	76.94
235.349	87.94
235.583	85.94
235.817	65.94
236.051	71.94
236.285	76.94
236.519	83.94
236.753	75.94
236.987	68.94
237.221	72.94
237.455	95.94
237.689	70.94
237.922	77.94
238.156	72.94
238.39	76.94
238.624	75.94
238.858	74.94
239.091	84.94
239.325	80.94
239.559	87.94
239.793	85.94
240.027	75.94
240.26	86.94
240.494	86.94
240.728	76.94
240.961	75.94
241.195	84.94
241.429	73.94
241.662	57.94
241.896	73.94
242.13	79.94
242.363	76.94
242.597	70.94
242.83	79.94
243.064	77.94
243.298	61.94
243.531	69.94
243.765	86.94
243.998	85.94
244.232	92.94
244.465	70.94
244.699	78.94
244.932	80.94
245.166	83.94
245.399	82.94
245.633	76.94
245.866	47.94
246.099	68.94
246.333	91.94
246.566	78.94
246.8	80.94
247.033	74.94
247.266	75.94
247.5	70.94
247.733	81.94
247.966	65.94
248.2	78.94
248.433	93.94
248.666	91.94
248.899	85.94
249.133	86.94
249.366	108.94
249.599	102.94
249.832	82.94
250.066	80.94
250.299	70.94
250.532	74.94
250.765	85.94
250.998	64.94
251.231	74.94
251.465	61.94
251.698	68.94
251.931	81.94
252.164	79.94
252.397	77.94
252.63	94.94
252.863	70.94
253.096	76.94
253.329	95.94
253.562	85.94
253.795	74.94
254.028	77.94
254.261	89.94
254.494	76.94
254.727	85.94
254.96	83.94
255.193	83.94
255.426	80.94
255.659	84.94
255.892	75.94
256.124	79.94
256.357	77.94
256.59	88.94
256.823	69.94
257.056	73.94
257.289	89.94
257.521	83.94
257.754	74.94
257.987	70.94
258.22	86.94
258.452	76.94
258.685	73.94
258.918	87.94
259.151	83.94
259.383	84.94
259.616	67.94
259.849	70.94
260.081	90.94
260.314	95.94
260.547	87.94
260.779	78.94
261.012	78.94
261.244	83.94
261.477	97.94
261.71	106.94
261.942	137.94
262.175	146.94
262.407	103.94
262.64	77.94
262.872	75.94
263.105	82.94
263.337	108.94
263.57	82.94
263.802	72.94
264.035	90.94
264.267	84.94
264.499	81.94
264.732	86.94
264.964	75.94
265.197	85.94
265.429	95.94
265.661	89.94
265.894	83.94
266.126	100.94
266.358	79.94
266.591	90.94
266.823	78.94
267.055	86.94
267.287	85.94
267.52	85.94
267.752	85.94
267.984	77.94
268.216	81.94
268.448	81.94
268.681	70.94
268.913	79.94
269.145	74.94
269.377	80.94
269.609	84.94
269.841	87.94
270.073	92.94
270.306	91.94
270.538	83.94
270.77	86.94
271.002	78.94
271.234	88.94
271.466	93.94
271.698	81.94
271.93	76.94
272.162	89.94
272.394	87.94
272.626	79.94
272.858	76.94
273.09	80.94
273.322	88.94
273.553	87.94
273.785	85.94
274.017	78.94
274.249	94.94
274.481	89.94
274.713	86.94
274.945	86.94
275.176	86.94
275.408	90.94
275.64	76.94
275.872	82.94
276.104	95.94
276.335	104.94
276.567	98.94
276.799	115.94
277.031	134.94
277.262	91.94
277.494	85.94
277.726	102.94
277.957	75.94
278.189	89.94
278.421	84.94
278.652	77.94
278.884	79.94
279.115	83.94
279.347	87.94
279.579	87.94
279.81	82.94
280.042	86.94
280.273	79.94
280.505	88.94
280.736	95.94
280.968	82.94
281.199	74.94
281.431	99.94
281.662	84.94
281.894	90.94
282.125	97.94
282.356	151.94
282.588	185.94
282.819	139.94
283.051	94.94
283.282	94.94
283.513	101.94
283.745	93.94
283.976	82.94
284.207	88.94
284.439	78.94
284.67	90.94
284.901	85.94
285.132	85.94
285.364	87.94
285.595	81.94
285.826	86.94
286.057	83.94
286.288	82.94
286.52	77.94
286.751	78.94
286.982	81.94
287.213	89.94
287.444	88.94
287.675	79.94
287.906	96.94
288.138	87.94
288.369	93.94
288.6	98.94
288.831	106.94
289.062	90.94
289.293	90.94
289.524	76.94
289.755	89.94
289.986	79.94
290.217	79.94
290.448	76.94
290.679	92.94
290.91	94.94
291.141	92.94
291.371	76.94
291.602	93.94
291.833	94.94
292.064	87.94
292.295	74.94
292.526	87.94
292.757	92.94
292.987	101.94
293.218	93.94
293.449	90.94
293.68	93.94
293.91	86.94
294.141	102.94
294.372	90.94
294.603	87.94
294.833	91.94
295.064	100.94
295.295	100.94
295.525	103.94
295.756	109.94
295.987	126.94
296.217	177.94
296.448	155.94
296.679	87.94
296.909	100.94
297.14	95.94
297.37	87.94
297.601	98.94
297.831	90.94
298.062	96.94
298.292	86.94
298.523	97.94
298.753	96.94
298.984	84.94
299.214	99.94
299.445	108.94
299.675	93.94
299.905	87.94
300.136	110.94
300.366	113.94
300.597	94.94
300.827	111.94
301.057	111.94
301.288	123.94
301.518	107.94
301.748	97.94
301.979	102.94
302.209	99.94
302.439	102.94
302.669	69.94
302.9	92.94
303.13	100.94
303.36	87.94
303.59	114.94
303.82	114.94
304.051	86.94
304.281	82.94
304.511	106.94
304.741	81.94
304.971	88.94
305.201	75.94
305.431	84.94
305.661	90.94
305.891	86.94
306.121	91.94
306.352	119.94
306.582	112.94
306.812	105.94
307.042	95.94
307.272	112.94
307.502	108.94
307.731	97.94
307.961	94.94
308.191	69.94
308.421	86.94
308.651	100.94
308.881	105.94
309.111	88.94
309.341	102.94
309.571	107.94
309.8	84.94
310.03	104.94
310.26	119.94
310.49	97.94
310.72	110.94
310.949	115.94
311.179	112.94
311.409	99.94
311.639	93.94
311.868	106.94
312.098	117.94
312.328	98.94
312.557	103.94
312.787	127.94
313.017	125.94
313.246	98.94
313.476	92.94
313.706	101.94
313.935	118.94
314.165	99.94
314.394	107.94
314.624	111.94
314.853	98.94
315.083	95.94
315.312	100.94
315.542	94.94
315.771	100.94
316.001	93.94
316.23	83.94
316.46	103.94
316.689	94.94
316.919	97.94
317.148	104.94
317.377	101.94
317.607	102.94
317.836	85.94
318.065	96.94
318.295	89.94
318.524	111.94
318.753	99.94
318.983	108.94
319.212	97.94
319.441	117.94
319.67	124.94
319.9	101.94
320.129	104.94
320.358	102.94
320.587	94.94
320.816	104.94
321.046	117.94
321.275	100.94
321.504	109.94
321.733	99.94
321.962	114.94
322.191	120.94
322.42	132.94
322.649	129.94
322.878	124.94
323.108	151.94
323.337	160.94
323.566	181.94
323.795	216.94
324.024	306.94
324.253	652.94
324.482	1489.94
324.71	3178.94
324.939	4166.94
325.168	1443.94
325.397	383.94
325.626	206.94
325.855	156.94
326.084	150.94
326.313	164.94
326.542	189.94
326.77	335.94
326.999	752.94
327.228	1609.94
327.457	3085.94
327.686	2313.94
327.914	584.94
328.143	275.94
328.372	221.94
328.6	169.94
328.829	148.94
329.058	169.94
329.287	172.94
329.515	118.94
329.744	122.94
329.972	109.94
330.201	145.94
330.43	174.94
330.658	183.94
330.887	192.94
331.115	157.94
331.344	117.94
331.572	124.94
331.801	119.94
332.03	121.94
332.258	108.94
332.486	94.94
332.715	110.94
332.943	109.94
333.172	114.94
333.4	104.94
333.629	94.94
333.857	131.94
334.085	123.94
334.314	121.94
334.542	158.94
334.771	158.94
334.999	110.94
335.227	110.94
335.455	107.94
335.684	93.94
335.912	100.94
336.14	106.94
336.369	96.94
336.597	124.94
336.825	104.94
337.053	99.94
337.281	85.94
337.51	100.94
337.738	91.94
337.966	106.94
338.194	109.94
338.422	103.94
338.65	100.94
338.878	84.94
339.106	86.94
339.334	100.94
339.562	106.94
339.79	90.94
340.018	102.94
340.246	104.94
340.474	101.94
340.702	103.94
340.93	87.94
341.158	99.94
341.386	108.94
341.614	107.94
341.842	99.94
342.07	87.94
342.298	102.94
342.526	97.94
342.754	88.94
342.981	100.94
343.209	79.94
343.437	100.94
343.665	94.94
343.893	104.94
344.12	84.94
344.348	91.94
344.576	75.94
344.804	84.94
345.031	114.94
345.259	102.94
345.487	92.94
345.714	106.94
345.942	110.94
346.17	93.94
346.397	102.94
346.625	98.94
346.853	102.94
347.08	98.94
347.308	103.94
347.535	99.94
347.763	113.94
347.99	102.94
348.218	108.94
348.445	115.94
348.673	116.94
348.9	102.94
349.128	95.94
349.355	105.94
349.583	96.94
349.81	86.94
350.037	97.94
350.265	114.94
350.492	90.94
350.72	106.94
350.947	112.94
351.174	109.94
351.402	123.94
351.629	104.94
351.856	109.94
352.083	125.94
352.311	119.94
352.538	123.94
352.765	135.94
352.992	126.94
353.22	126.94
353.447	122.94
353.674	101.94
353.901	94.94
354.128	105.94
354.355	88.94
354.583	95.94
354.81	93.94
355.037	102.94
355.264	80.94
355.491	102.94
355.718	79.94
355.945	90.94
356.172	71.94
356.399	98.94
356.626	88.94
356.853	96.94
357.08	96.94
357.307	87.94
357.534	93.94
357.761	90.94
357.988	89.94
358.215	112.94
358.441	95.94
358.668	96.94
358.895	96.94
359.122	84.94
359.349	93.94
359.576	99.94
359.802	92.94
360.029	135.94
360.256	140.94
360.483	124.94
360.709	103.94
360.936	81.94
361.163	91.94
361.39	95.94
361.616	99.94
361.843	92.94
362.07	94.94
362.296	102.94
362.523	111.94
362.749	90.94
362.976	86.94
363.203	96.94
363.429	101.94
363.656	85.94
363.882	95.94
364.109	104.94
364.335	91.94
364.562	90.94
364.788	97.94
365.015	109.94
365.241	113.94
365.468	115.94
365.694	123.94
365.92	105.94
366.147	90.94
366.373	90.94
366.599	99.94
366.826	82.94
367.052	91.94
367.278	103.94
367.505	97.94
367.731	106.94
367.957	91.94
368.184	97.94
368.41	111.94
368.636	112.94
368.862	146.94
369.089	112.94
369.315	107.94
369.541	101.94
369.767	98.94
369.993	94.94
370.219	107.94
370.445	99.94
370.672	86.94
370.898	97.94
371.124	82.94
371.35	84.94
371.576	93.94
371.802	91.94
372.028	91.94
372.254	87.94
372.48	82.94
372.706	91.94
372.932	98.94
373.158	97.94
373.384	103.94
373.61	87.94
373.835	84.94
374.061	93.94
374.287	98.94
374.513	90.94
374.739	90.94
374.965	82.94
375.191	93.94
375.416	100.94
375.642	82.94
375.868	95.94
376.094	98.94
376.319	94.94
376.545	92.94
376.771	85.94
376.997	87.94
377.222	97.94
377.448	90.94
377.674	93.94
377.899	92.94
378.125	95.94
378.35	88.94
378.576	108.94
378.802	74.94
379.027	88.94
379.253	92.94
379.478	87.94
379.704	98.94
379.929	100.94
380.155	99.94
380.38	92.94
380.606	93.94
380.831	118.94
381.057	101.94
381.282	91.94
381.507	98.94
381.733	117.94
381.958	96.94
382.184	107.94
382.409	105.94
382.634	111.94
382.86	98.94
383.085	106.94
383.31	103.94
383.535	99.94
383.761	89.94
383.986	92.94
384.211	107.94
384.436	92.94
384.662	107.94
384.887	107.94
385.112	106.94
385.337	99.94
385.562	88.94
385.787	114.94
386.013	108.94
386.238	113.94
386.463	96.94
386.688	117.94
386.913	109.94
387.138	100.94
387.363	110.94
387.588	91.94
387.813	100.94
388.038	110.94
388.263	117.94
388.488	105.94
388.713	106.94
388.938	98.94
389.163	109.94
389.387	91.94
389.612	105.94
389.837	98.94
390.062	90.94
390.287	97.94
390.512	92.94
390.736	92.94
390.961	92.94
391.186	102.94
391.411	92.94
391.636	90.94
391.86	92.94
392.085	85.94
392.31	83.94
392.534	84.94
392.759	102.94
392.984	96.94
393.208	93.94
393.433	120.94
393.658	89.94
393.882	87.94
394.107	84.94
394.331	81.94
394.556	79.94
394.78	95.94
395.005	82.94
395.229	91.94
395.454	83.94
395.678	86.94
395.903	83.94
396.127	96.94
396.352	90.94
396.576	82.94
396.801	95.94
397.025	91.94
397.249	86.94
397.474	90.94
397.698	99.94
397.922	90.94
398.147	84.94
398.371	81.94
398.595	95.94
398.82	76.94
399.044	86.94
399.268	87.94
399.492	90.94
399.717	87.94
399.941	98.94
400.165	91.94
400.389	99.94
400.613	91.94
400.837	93.94
401.062	98.94
401.286	81.94
401.51	94.94
401.734	102.94
401.958	123.94
402.182	160.94
402.406	227.94
402.63	163.94
402.854	107.94
403.078	97.94
403.302	89.94
403.526	93.94
403.75	83.94
403.974	92.94
404.198	85.94
404.422	93.94
404.645	82.94
404.869	99.94
405.093	107.94
405.317	118.94
405.541	102.94
405.765	132.94
405.988	129.94
406.212	239.94
406.436	352.94
406.66	194.94
406.883	125.94
407.107	94.94
407.331	114.94
407.555	112.94
407.778	94.94
408.002	96.94
408.226	96.94
408.449	102.94
408.673	89.94
408.896	108.94
409.12	108.94
409.344	93.94
409.567	99.94
409.791	87.94
410.014	83.94
410.238	97.94
410.461	98.94
410.685	102.94
410.908	107.94
411.132	117.94
411.355	104.94
411.578	98.94
411.802	91.94
412.025	94.94
412.249	86.94
412.472	100.94
412.695	102.94
412.919	92.94
413.142	98.94
413.365	83.94
413.589	79.94
413.812	93.94
414.035	89.94
414.258	82.94
414.482	101.94
414.705	101.94
414.928	91.94
415.151	84.94
415.374	80.94
415.597	96.94
415.821	90.94
416.044	81.94
416.267	83.94
416.49	82.94
416.713	92.94
416.936	99.94
417.159	93.94
417.382	104.94
417.605	91.94
417.828	106.94
418.051	84.94
418.274	78.94
418.497	83.94
418.72	87.94
418.943	95.94
419.166	90.94
419.389	86.94
419.611	87.94
419.834	85.94
420.057	85.94
420.28	81.94
420.503	80.94
420.726	80.94
420.948	94.94
421.171	104.94
421.394	104.94
421.617	94.94
421.839	94.94
422.062	76.94
422.285	96.94
422.507	108.94
422.73	102.94
422.953	88.94
423.175	101.94
423.398	91.94
423.621	93.94
423.843	92.94
424.066	98.94
424.288	94.94
424.511	121.94
424.733	101.94
424.956	116.94
425.178	114.94
425.401	101.94
425.623	102.94
425.846	87.94
426.068	90.94
426.291	86.94
426.513	87.94
426.735	88.94
426.958	99.94
427.18	139.94
427.402	173.94
427.625	246.94
427.847	181.94
428.069	122.94
428.292	92.94
428.514	94.94
428.736	76.94
428.958	87.94
429.181	82.94
429.403	77.94
429.625	89.94
429.847	104.94
430.069	103.94
430.292	100.94
430.514	87.94
430.736	80.94
430.958	85.94
431.18	81.94
431.402	89.94
431.624	81.94
431.846	76.94
432.068	88.94
432.29	87.94
432.512	95.94
432.734	91.94
432.956	77.94
433.178	125.94
433.4	114.94
433.622	91.94
433.844	91.94
434.066	95.94
434.287	88.94
434.509	90.94
434.731	95.94
434.953	88.94
435.175	85.94
435.397	89.94
435.618	100.94
435.84	118.94
436.062	144.94
436.284	141.94
436.505	118.94
436.727	107.94
436.949	99.94
437.17	86.94
437.392	88.94
437.614	102.94
437.835	113.94
438.057	157.94
438.278	127.94
438.5	117.94
438.721	145.94
438.943	118.94
439.165	105.94
439.386	101.94
439.608	106.94
439.829	109.94
440.05	149.94
440.272	192.94
440.493	110.94
440.715	90.94
440.936	93.94
441.158	99.94
441.379	81.94
441.6	115.94
441.822	109.94
442.043	111.94
442.264	109.94
442.486	107.94
442.707	94.94
442.928	109.94
443.149	167.94
443.371	176.94
443.592	148.94
443.813	137.94
444.034	135.94
444.255	81.94
444.476	96.94
444.698	98.94
444.919	93.94
445.14	129.94
445.361	137.94
445.582	151.94
445.803	189.94
446.024	184.94
446.245	183.94
446.466	132.94
446.687	97.94
446.908	91.94
447.129	96.94
447.35	97.94
447.571	111.94
447.792	89.94
448.013	113.94
448.234	137.94
448.455	121.94
448.675	118.94
448.896	132.94
449.117	119.94
449.338	112.94
449.559	137.94
449.779	166.94
450	109.94
450.221	93.94
450.442	101.94
450.662	104.94
450.883	128.94
451.104	156.94
451.324	101.94
451.545	90.94
451.766	93.94
451.986	76.94
452.207	79.94
452.428	94.94
452.648	116.94
452.869	132.94
453.089	145.94
453.31	149.94
453.53	100.94
453.751	103.94
453.971	122.94
454.192	131.94
454.412	107.94
454.633	86.94
454.853	85.94
455.073	88.94
455.294	95.94
455.514	108.94
455.734	90.94
455.955	87.94
456.175	85.94
456.395	89.94
456.616	84.94
456.836	94.94
457.056	92.94
457.276	80.94
457.497	79.94
457.717	86.94
457.937	96.94
458.157	101.94
458.377	90.94
458.598	139.94
458.818	198.94
459.038	229.94
459.258	126.94
459.478	95.94
459.698	91.94
459.918	83.94
460.138	81.94
460.358	90.94
460.578	97.94
460.798	96.94
461.018	96.94
461.238	94.94
461.458	95.94
461.678	95.94
461.898	95.94
462.118	83.94
462.338	86.94
462.558	85.94
462.777	83.94
462.997	85.94
463.217	82.94
463.437	92.94
463.657	87.94
463.876	94.94
464.096	90.94
464.316	98.94
464.536	93.94
464.755	116.94
464.975	131.94
465.195	263.94
465.414	236.94
465.634	97.94
465.854	90.94
466.073	93.94
466.293	86.94
466.512	81.94
466.732	99.94
466.951	73.94
467.171	88.94
467.391	106.94
467.61	112.94
467.829	112.94
468.049	102.94
468.268	106.94
468.488	92.94
468.707	87.94
468.927	84.94
469.146	97.94
469.365	85.94
469.585	96.94
469.804	110.94
470.023	112.94
470.243	102.94
470.462	125.94
470.681	126.94
470.901	112.94
471.12	93.94
471.339	77.94
471.558	92.94
471.777	75.94
471.997	84.94
472.216	123.94
472.435	178.94
472.654	96.94
472.873	97.94
473.092	100.94
473.311	93.94
473.53	77.94
473.749	96.94
473.968	99.94
474.187	110.94
474.406	111.94
474.625	83.94
474.844	101.94
475.063	78.94
475.282	77.94
475.501	84.94
475.72	87.94
475.939	78.94
476.158	88.94
476.377	81.94
476.596	92.94
476.814	97.94
477.033	85.94
477.252	94.94
477.471	87.94
477.69	85.94
477.908	99.94
478.127	93.94
478.346	90.94
478.564	92.94
478.783	111.94
479.002	97.94
479.22	84.94
479.439	112.94
479.658	117.94
479.876	95.94
480.095	98.94
480.313	91.94
480.532	97.94
480.751	88.94
480.969	100.94
481.188	240.94
481.406	171.94
481.624	93.94
481.843	105.94
482.061	86.94
482.28	83.94
482.498	94.94
482.717	82.94
482.935	90.94
483.153	94.94
483.372	99.94
483.59	82.94
483.808	97.94
484.027	94.94
484.245	83.94
484.463	87.94
484.681	91.94
484.9	88.94
485.118	94.94
485.336	100.94
485.554	98.94
485.772	97.94
485.99	109.94
486.209	97.94
486.427	115.94
486.645	135.94
486.863	122.94
487.081	113.94
487.299	99.94
487.517	96.94
487.735	99.94
487.953	90.94
488.171	93.94
488.389	92.94
488.607	100.94
488.825	87.94
489.043	82.94
489.261	88.94
489.479	88.94
489.696	88.94
489.914	94.94
490.132	89.94
490.35	78.94
490.568	94.94
490.786	107.94
491.003	90.94
491.221	104.94
491.439	85.94
491.657	105.94
491.874	86.94
492.092	85.94
492.31	90.94
492.527	86.94
492.745	100.94
492.963	76.94
493.18	94.94
493.398	102.94
493.615	87.94
493.833	92.94
494.05	95.94
494.268	92.94
494.485	78.94
494.703	85.94
494.92	97.94
495.138	98.94
495.355	87.94
495.573	84.94
495.79	96.94
496.008	89.94
496.225	90.94
496.442	78.94
496.66	100.94
496.877	97.94
497.094	96.94
497.312	103.94
497.529	93.94
497.746	102.94
497.963	97.94
498.181	94.94
498.398	103.94
498.615	125.94
498.832	119.94
499.049	81.94
499.267	84.94
499.484	84.94
499.701	91.94
499.918	86.94
500.135	81.94
500.352	85.94
500.569	80.94
500.786	95.94
501.003	97.94
501.22	76.94
501.437	95.94
501.654	109.94
501.871	110.94
502.088	92.94
502.305	83.94
502.522	91.94
502.739	96.94
502.956	98.94
503.172	92.94
503.389	104.94
503.606	128.94
503.823	114.94
504.04	94.94
504.256	98.94
504.473	78.94
504.69	102.94
504.907	83.94
505.123	96.94
505.34	94.94
505.557	84.94
505.773	94.94
505.99	97.94
506.207	75.94
506.423	89.94
506.64	93.94
506.856	90.94
507.073	101.94
507.289	101.94
507.506	106.94
507.722	131.94
507.939	133.94
508.155	111.94
508.372	90.94
508.588	102.94
508.805	93.94
509.021	96.94
509.238	91.94
509.454	98.94
509.67	108.94
509.887	125.94
510.103	145.94
510.319	288.94
510.536	1156.94
510.752	3939.94
510.968	1033.94
511.184	197.94
511.401	148.94
511.617	112.94
511.833	102.94
512.049	91.94
512.265	101.94
512.481	86.94
512.698	93.94
512.914	105.94
513.13	93.94
513.346	91.94
513.562	96.94
513.778	87.94
