Data from Circ_2006_H10_HRD10591_00006.txt Node
Date: Wed Jan 03 10:26:05 EST 2024
User: Yrep
Spectrometer: HR+D1059
Trigger mode: 1
Integration Time (sec): 1.000000E-1
Scans to average: 1
Electric dark correction enabled: true
Nonlinearity correction enabled: false
Boxcar width: 0
XAxis mode: Wavelengths
Number of Pixels in Spectrum: 2048
>>>>>Begin Spectral Data<<<<<
223.165	-19.56
223.4	-19.56
223.635	-19.56
223.869	-8.56
224.104	-17.56
224.338	-13.56
224.573	-2.56
224.808	-27.56
225.042	-27.56
225.277	-11.56
225.511	-0.56
225.746	8.44
225.98	-1.56
226.215	12.44
226.449	20.44
226.683	26.44
226.918	25.44
227.152	37.44
227.387	32.44
227.621	40.44
227.856	43.44
228.09	44.44
228.324	48.44
228.559	65.44
228.793	69.44
229.027	80.44
229.262	65.44
229.496	78.44
229.73	96.44
229.964	91.44
230.199	76.44
230.433	74.44
230.667	78.44
230.901	78.44
231.136	91.44
231.37	93.44
231.604	100.44
231.838	71.44
232.072	84.44
232.306	85.44
232.541	72.44
232.775	82.44
233.009	86.44
233.243	87.44
233.477	81.44
233.711	76.44
233.945	81.44
234.179	75.44
234.413	89.44
234.647	89.44
234.881	69.44
235.115	86.44
235.349	90.44
235.583	94.44
235.817	84.44
236.051	69.44
236.285	90.44
236.519	73.44
236.753	78.44
236.987	77.44
237.221	73.44
237.455	95.44
237.689	77.44
237.922	76.44
238.156	63.44
238.39	74.44
238.624	82.44
238.858	102.44
239.091	79.44
239.325	67.44
239.559	76.44
239.793	87.44
240.027	86.44
240.26	70.44
240.494	95.44
240.728	84.44
240.961	74.44
241.195	100.44
241.429	81.44
241.662	78.44
241.896	76.44
242.13	55.44
242.363	72.44
242.597	86.44
242.83	92.44
243.064	83.44
243.298	68.44
243.531	82.44
243.765	86.44
243.998	90.44
244.232	76.44
244.465	80.44
244.699	74.44
244.932	77.44
245.166	84.44
245.399	82.44
245.633	67.44
245.866	71.44
246.099	77.44
246.333	76.44
246.566	87.44
246.8	83.44
247.033	80.44
247.266	80.44
247.5	84.44
247.733	86.44
247.966	85.44
248.2	77.44
248.433	88.44
248.666	78.44
248.899	97.44
249.133	88.44
249.366	98.44
249.599	96.44
249.832	72.44
250.066	79.44
250.299	92.44
250.532	87.44
250.765	81.44
250.998	88.44
251.231	92.44
251.465	84.44
251.698	83.44
251.931	77.44
252.164	78.44
252.397	81.44
252.63	81.44
252.863	79.44
253.096	84.44
253.329	89.44
253.562	81.44
253.795	82.44
254.028	81.44
254.261	98.44
254.494	85.44
254.727	102.44
254.96	76.44
255.193	85.44
255.426	91.44
255.659	83.44
255.892	83.44
256.124	89.44
256.357	84.44
256.59	84.44
256.823	83.44
257.056	95.44
257.289	78.44
257.521	72.44
257.754	78.44
257.987	89.44
258.22	104.44
258.452	87.44
258.685	80.44
258.918	92.44
259.151	87.44
259.383	73.44
259.616	88.44
259.849	86.44
260.081	83.44
260.314	82.44
260.547	90.44
260.779	81.44
261.012	87.44
261.244	100.44
261.477	91.44
261.71	105.44
261.942	108.44
262.175	100.44
262.407	90.44
262.64	87.44
262.872	92.44
263.105	82.44
263.337	93.44
263.57	79.44
263.802	88.44
264.035	82.44
264.267	88.44
264.499	98.44
264.732	79.44
264.964	81.44
265.197	86.44
265.429	94.44
265.661	85.44
265.894	102.44
266.126	80.44
266.358	78.44
266.591	72.44
266.823	84.44
267.055	82.44
267.287	77.44
267.52	96.44
267.752	85.44
267.984	91.44
268.216	78.44
268.448	81.44
268.681	87.44
268.913	90.44
269.145	89.44
269.377	99.44
269.609	88.44
269.841	83.44
270.073	87.44
270.306	77.44
270.538	78.44
270.77	98.44
271.002	86.44
271.234	89.44
271.466	80.44
271.698	82.44
271.93	87.44
272.162	89.44
272.394	109.44
272.626	80.44
272.858	92.44
273.09	92.44
273.322	79.44
273.553	84.44
273.785	86.44
274.017	88.44
274.249	94.44
274.481	77.44
274.713	89.44
274.945	82.44
275.176	87.44
275.408	81.44
275.64	87.44
275.872	93.44
276.104	93.44
276.335	80.44
276.567	113.44
276.799	109.44
277.031	108.44
277.262	101.44
277.494	105.44
277.726	88.44
277.957	78.44
278.189	95.44
278.421	80.44
278.652	84.44
278.884	88.44
279.115	94.44
279.347	89.44
279.579	89.44
279.81	87.44
280.042	99.44
280.273	94.44
280.505	89.44
280.736	101.44
280.968	83.44
281.199	85.44
281.431	92.44
281.662	94.44
281.894	105.44
282.125	97.44
282.356	105.44
282.588	124.44
282.819	120.44
283.051	99.44
283.282	93.44
283.513	96.44
283.745	85.44
283.976	85.44
284.207	72.44
284.439	78.44
284.67	84.44
284.901	82.44
285.132	94.44
285.364	89.44
285.595	95.44
285.826	97.44
286.057	90.44
286.288	64.44
286.52	93.44
286.751	82.44
286.982	89.44
287.213	89.44
287.444	96.44
287.675	86.44
287.906	96.44
288.138	100.44
288.369	86.44
288.6	93.44
288.831	97.44
289.062	91.44
289.293	89.44
289.524	76.44
289.755	96.44
289.986	92.44
290.217	80.44
290.448	87.44
290.679	97.44
290.91	99.44
291.141	101.44
291.371	81.44
291.602	86.44
291.833	78.44
292.064	90.44
292.295	93.44
292.526	93.44
292.757	86.44
292.987	79.44
293.218	84.44
293.449	78.44
293.68	81.44
293.91	96.44
294.141	98.44
294.372	97.44
294.603	91.44
294.833	89.44
295.064	89.44
295.295	88.44
295.525	105.44
295.756	104.44
295.987	125.44
296.217	125.44
296.448	135.44
296.679	98.44
296.909	101.44
297.14	85.44
297.37	90.44
297.601	86.44
297.831	88.44
298.062	75.44
298.292	80.44
298.523	94.44
298.753	87.44
298.984	88.44
299.214	86.44
299.445	96.44
299.675	94.44
299.905	94.44
300.136	101.44
300.366	88.44
300.597	90.44
300.827	93.44
301.057	85.44
301.288	112.44
301.518	100.44
301.748	98.44
301.979	101.44
302.209	87.44
302.439	97.44
302.669	90.44
302.9	90.44
303.13	97.44
303.36	100.44
303.59	100.44
303.82	118.44
304.051	103.44
304.281	81.44
304.511	105.44
304.741	99.44
304.971	102.44
305.201	84.44
305.431	76.44
305.661	97.44
305.891	86.44
306.121	102.44
306.352	110.44
306.582	120.44
306.812	80.44
307.042	99.44
307.272	85.44
307.502	94.44
307.731	88.44
307.961	78.44
308.191	90.44
308.421	88.44
308.651	78.44
308.881	90.44
309.111	95.44
309.341	81.44
309.571	103.44
309.8	96.44
310.03	97.44
310.26	86.44
310.49	96.44
310.72	105.44
310.949	110.44
311.179	85.44
311.409	94.44
311.639	100.44
311.868	91.44
312.098	99.44
312.328	97.44
312.557	101.44
312.787	110.44
313.017	96.44
313.246	100.44
313.476	94.44
313.706	101.44
313.935	98.44
314.165	90.44
314.394	94.44
314.624	102.44
314.853	104.44
315.083	97.44
315.312	103.44
315.542	102.44
315.771	105.44
316.001	94.44
316.23	87.44
316.46	84.44
316.689	94.44
316.919	99.44
317.148	94.44
317.377	95.44
317.607	99.44
317.836	96.44
318.065	90.44
318.295	97.44
318.524	93.44
318.753	89.44
318.983	83.44
319.212	112.44
319.441	116.44
319.67	101.44
319.9	96.44
320.129	94.44
320.358	80.44
320.587	98.44
320.816	107.44
321.046	101.44
321.275	102.44
321.504	105.44
321.733	98.44
321.962	128.44
322.191	101.44
322.42	111.44
322.649	121.44
322.878	111.44
323.108	109.44
323.337	124.44
323.566	129.44
323.795	154.44
324.024	207.44
324.253	408.44
324.482	882.44
324.71	1783.44
324.939	2370.44
325.168	856.44
325.397	254.44
325.626	146.44
325.855	134.44
326.084	130.44
326.313	142.44
326.542	159.44
326.77	237.44
326.999	492.44
327.228	1009.44
327.457	1847.44
327.686	1461.44
327.914	390.44
328.143	204.44
328.372	143.44
328.6	125.44
328.829	111.44
329.058	127.44
329.287	140.44
329.515	108.44
329.744	102.44
329.972	95.44
330.201	106.44
330.43	119.44
330.658	114.44
330.887	130.44
331.115	126.44
331.344	95.44
331.572	92.44
331.801	105.44
332.03	104.44
332.258	101.44
332.486	96.44
332.715	102.44
332.943	94.44
333.172	95.44
333.4	103.44
333.629	102.44
333.857	116.44
334.085	97.44
334.314	91.44
334.542	115.44
334.771	105.44
334.999	106.44
335.227	108.44
335.455	109.44
335.684	104.44
335.912	104.44
336.14	101.44
336.369	93.44
336.597	104.44
336.825	108.44
337.053	104.44
337.281	108.44
337.51	89.44
337.738	90.44
337.966	98.44
338.194	93.44
338.422	105.44
338.65	118.44
338.878	104.44
339.106	99.44
339.334	105.44
339.562	88.44
339.79	92.44
340.018	100.44
340.246	110.44
340.474	93.44
340.702	86.44
340.93	93.44
341.158	94.44
341.386	97.44
341.614	105.44
341.842	98.44
342.07	105.44
342.298	100.44
342.526	96.44
342.754	97.44
342.981	94.44
343.209	96.44
343.437	106.44
343.665	96.44
343.893	94.44
344.12	96.44
344.348	93.44
344.576	95.44
344.804	84.44
345.031	94.44
345.259	109.44
345.487	103.44
345.714	108.44
345.942	85.44
346.17	101.44
346.397	99.44
346.625	92.44
346.853	93.44
347.08	101.44
347.308	107.44
347.535	101.44
347.763	89.44
347.99	95.44
348.218	103.44
348.445	98.44
348.673	101.44
348.9	102.44
349.128	98.44
349.355	81.44
349.583	92.44
349.81	86.44
350.037	94.44
350.265	102.44
350.492	104.44
350.72	93.44
350.947	110.44
351.174	102.44
351.402	108.44
351.629	99.44
351.856	91.44
352.083	106.44
352.311	106.44
352.538	95.44
352.765	98.44
352.992	124.44
353.22	113.44
353.447	100.44
353.674	111.44
353.901	110.44
354.128	101.44
354.355	105.44
354.583	111.44
354.81	118.44
355.037	104.44
355.264	96.44
355.491	95.44
355.718	97.44
355.945	98.44
356.172	98.44
356.399	110.44
356.626	101.44
356.853	102.44
357.08	94.44
357.307	103.44
357.534	87.44
357.761	98.44
357.988	93.44
358.215	106.44
358.441	101.44
358.668	97.44
358.895	92.44
359.122	101.44
359.349	108.44
359.576	87.44
359.802	109.44
360.029	104.44
360.256	119.44
360.483	105.44
360.709	89.44
360.936	92.44
361.163	91.44
361.39	96.44
361.616	105.44
361.843	83.44
362.07	108.44
362.296	95.44
362.523	81.44
362.749	101.44
362.976	95.44
363.203	102.44
363.429	78.44
363.656	90.44
363.882	95.44
364.109	92.44
364.335	95.44
364.562	101.44
364.788	85.44
365.015	98.44
365.241	101.44
365.468	122.44
365.694	90.44
365.92	90.44
366.147	81.44
366.373	102.44
366.599	99.44
366.826	84.44
367.052	90.44
367.278	100.44
367.505	89.44
367.731	96.44
367.957	73.44
368.184	98.44
368.41	100.44
368.636	108.44
368.862	126.44
369.089	104.44
369.315	94.44
369.541	93.44
369.767	84.44
369.993	95.44
370.219	86.44
370.445	97.44
370.672	96.44
370.898	104.44
371.124	84.44
371.35	94.44
371.576	94.44
371.802	87.44
372.028	95.44
372.254	81.44
372.48	82.44
372.706	95.44
372.932	94.44
373.158	89.44
373.384	101.44
373.61	89.44
373.835	88.44
374.061	94.44
374.287	107.44
374.513	93.44
374.739	113.44
374.965	100.44
375.191	85.44
375.416	89.44
375.642	79.44
375.868	80.44
376.094	92.44
376.319	91.44
376.545	96.44
376.771	87.44
376.997	113.44
377.222	93.44
377.448	84.44
377.674	88.44
377.899	92.44
378.125	84.44
378.35	90.44
378.576	96.44
378.802	92.44
379.027	93.44
379.253	104.44
379.478	94.44
379.704	96.44
379.929	80.44
380.155	94.44
380.38	98.44
380.606	101.44
380.831	99.44
381.057	101.44
381.282	106.44
381.507	101.44
381.733	98.44
381.958	105.44
382.184	93.44
382.409	102.44
382.634	113.44
382.86	98.44
383.085	113.44
383.31	98.44
383.535	116.44
383.761	108.44
383.986	115.44
384.211	98.44
384.436	110.44
384.662	110.44
384.887	121.44
385.112	117.44
385.337	130.44
385.562	116.44
385.787	116.44
386.013	142.44
386.238	117.44
386.463	101.44
386.688	121.44
386.913	117.44
387.138	114.44
387.363	109.44
387.588	101.44
387.813	112.44
388.038	121.44
388.263	120.44
388.488	109.44
388.713	104.44
388.938	93.44
389.163	87.44
389.387	112.44
389.612	102.44
389.837	86.44
390.062	98.44
390.287	93.44
390.512	92.44
390.736	103.44
390.961	96.44
391.186	90.44
391.411	89.44
391.636	88.44
391.86	88.44
392.085	94.44
392.31	100.44
392.534	83.44
392.759	95.44
392.984	92.44
393.208	90.44
393.433	96.44
393.658	101.44
393.882	97.44
394.107	101.44
394.331	101.44
394.556	94.44
394.78	86.44
395.005	93.44
395.229	82.44
395.454	79.44
395.678	86.44
395.903	109.44
396.127	88.44
396.352	106.44
396.576	78.44
396.801	84.44
397.025	99.44
397.249	73.44
397.474	100.44
397.698	92.44
397.922	91.44
398.147	106.44
398.371	84.44
398.595	83.44
398.82	87.44
399.044	92.44
399.268	95.44
399.492	80.44
399.717	88.44
399.941	81.44
400.165	97.44
400.389	91.44
400.613	79.44
400.837	91.44
401.062	88.44
401.286	80.44
401.51	95.44
401.734	96.44
401.958	95.44
402.182	115.44
402.406	142.44
402.63	115.44
402.854	105.44
403.078	93.44
403.302	86.44
403.526	83.44
403.75	75.44
403.974	91.44
404.198	77.44
404.422	79.44
404.645	87.44
404.869	97.44
405.093	88.44
405.317	99.44
405.541	90.44
405.765	88.44
405.988	112.44
406.212	144.44
406.436	219.44
406.66	140.44
406.883	110.44
407.107	99.44
407.331	107.44
407.555	102.44
407.778	104.44
408.002	90.44
408.226	81.44
408.449	90.44
408.673	88.44
408.896	99.44
409.12	93.44
409.344	90.44
409.567	101.44
409.791	102.44
410.014	102.44
410.238	96.44
410.461	91.44
410.685	78.44
410.908	93.44
411.132	112.44
411.355	107.44
411.578	108.44
411.802	96.44
412.025	89.44
412.249	91.44
412.472	105.44
412.695	97.44
412.919	97.44
413.142	88.44
413.365	97.44
413.589	94.44
413.812	93.44
414.035	85.44
414.258	81.44
414.482	85.44
414.705	103.44
414.928	90.44
415.151	85.44
415.374	79.44
415.597	81.44
415.821	81.44
416.044	95.44
416.267	92.44
416.49	84.44
416.713	104.44
416.936	99.44
417.159	88.44
417.382	99.44
417.605	86.44
417.828	110.44
418.051	90.44
418.274	90.44
418.497	97.44
418.72	83.44
418.943	90.44
419.166	92.44
419.389	114.44
419.611	94.44
419.834	86.44
420.057	85.44
420.28	84.44
420.503	82.44
420.726	90.44
420.948	110.44
421.171	95.44
421.394	101.44
421.617	89.44
421.839	88.44
422.062	94.44
422.285	102.44
422.507	100.44
422.73	108.44
422.953	108.44
423.175	97.44
423.398	89.44
423.621	89.44
423.843	81.44
424.066	87.44
424.288	100.44
424.511	90.44
424.733	111.44
424.956	104.44
425.178	100.44
425.401	102.44
425.623	114.44
425.846	93.44
426.068	92.44
426.291	89.44
426.513	91.44
426.735	97.44
426.958	88.44
427.18	101.44
427.402	132.44
427.625	159.44
427.847	121.44
428.069	103.44
428.292	92.44
428.514	90.44
428.736	77.44
428.958	81.44
429.181	87.44
429.403	80.44
429.625	98.44
429.847	84.44
430.069	100.44
430.292	90.44
430.514	78.44
430.736	86.44
430.958	84.44
431.18	99.44
431.402	95.44
431.624	87.44
431.846	86.44
432.068	86.44
432.29	92.44
432.512	90.44
432.734	84.44
432.956	93.44
433.178	97.44
433.4	89.44
433.622	95.44
433.844	108.44
434.066	106.44
434.287	105.44
434.509	92.44
434.731	97.44
434.953	78.44
435.175	89.44
435.397	93.44
435.618	92.44
435.84	111.44
436.062	120.44
436.284	124.44
436.505	109.44
436.727	86.44
436.949	104.44
437.17	104.44
437.392	101.44
437.614	98.44
437.835	103.44
438.057	115.44
438.278	113.44
438.5	119.44
438.721	126.44
438.943	90.44
439.165	74.44
439.386	85.44
439.608	91.44
439.829	89.44
440.05	125.44
440.272	137.44
440.493	99.44
440.715	98.44
440.936	99.44
441.158	97.44
441.379	86.44
441.6	94.44
441.822	104.44
442.043	117.44
442.264	105.44
442.486	108.44
442.707	83.44
442.928	105.44
443.149	131.44
443.371	125.44
443.592	119.44
443.813	117.44
444.034	114.44
444.255	87.44
444.476	83.44
444.698	82.44
444.919	84.44
445.14	123.44
445.361	124.44
445.582	121.44
445.803	142.44
446.024	126.44
446.245	126.44
446.466	111.44
446.687	89.44
446.908	92.44
447.129	82.44
447.35	89.44
447.571	109.44
447.792	105.44
448.013	96.44
448.234	105.44
448.455	100.44
448.675	106.44
448.896	129.44
449.117	105.44
449.338	118.44
449.559	133.44
449.779	139.44
450	99.44
450.221	108.44
450.442	96.44
450.662	91.44
450.883	98.44
451.104	119.44
451.324	83.44
451.545	108.44
451.766	95.44
451.986	88.44
452.207	98.44
452.428	99.44
452.648	89.44
452.869	108.44
453.089	125.44
453.31	106.44
453.53	94.44
453.751	84.44
453.971	105.44
454.192	113.44
454.412	99.44
454.633	90.44
454.853	87.44
455.073	96.44
455.294	80.44
455.514	85.44
455.734	92.44
455.955	81.44
456.175	75.44
456.395	90.44
456.616	97.44
456.836	93.44
457.056	95.44
457.276	83.44
457.497	89.44
457.717	104.44
457.937	73.44
458.157	89.44
458.377	97.44
458.598	105.44
458.818	147.44
459.038	146.44
459.258	97.44
459.478	91.44
459.698	79.44
459.918	85.44
460.138	79.44
460.358	84.44
460.578	84.44
460.798	86.44
461.018	91.44
461.238	87.44
461.458	94.44
461.678	90.44
461.898	87.44
462.118	88.44
462.338	82.44
462.558	98.44
462.777	80.44
462.997	89.44
463.217	96.44
463.437	95.44
463.657	84.44
463.876	81.44
464.096	100.44
464.316	96.44
464.536	98.44
464.755	90.44
464.975	114.44
465.195	159.44
465.414	146.44
465.634	100.44
465.854	78.44
466.073	89.44
466.293	101.44
466.512	84.44
466.732	85.44
466.951	100.44
467.171	89.44
467.391	94.44
467.61	97.44
467.829	102.44
468.049	98.44
468.268	94.44
468.488	82.44
468.707	98.44
468.927	82.44
469.146	103.44
469.365	82.44
469.585	95.44
469.804	101.44
470.023	90.44
470.243	89.44
470.462	110.44
470.681	108.44
470.901	100.44
471.12	90.44
471.339	80.44
471.558	87.44
471.777	78.44
471.997	89.44
472.216	89.44
472.435	109.44
472.654	91.44
472.873	87.44
473.092	92.44
473.311	90.44
473.53	76.44
473.749	92.44
473.968	90.44
474.187	87.44
474.406	93.44
474.625	98.44
474.844	90.44
475.063	92.44
475.282	91.44
475.501	89.44
475.72	90.44
475.939	80.44
476.158	88.44
476.377	99.44
476.596	95.44
476.814	90.44
477.033	89.44
477.252	85.44
477.471	80.44
477.69	95.44
477.908	99.44
478.127	81.44
478.346	85.44
478.564	99.44
478.783	87.44
479.002	106.44
479.22	93.44
479.439	108.44
479.658	104.44
479.876	96.44
480.095	105.44
480.313	94.44
480.532	102.44
480.751	70.44
480.969	109.44
481.188	120.44
481.406	100.44
481.624	91.44
481.843	99.44
482.061	90.44
482.28	109.44
482.498	93.44
482.717	100.44
482.935	98.44
483.153	96.44
483.372	91.44
483.59	98.44
483.808	111.44
484.027	79.44
484.245	90.44
484.463	100.44
484.681	88.44
484.9	95.44
485.118	91.44
485.336	88.44
485.554	108.44
485.772	96.44
485.99	99.44
486.209	111.44
486.427	117.44
486.645	135.44
486.863	127.44
487.081	110.44
487.299	97.44
487.517	102.44
487.735	94.44
487.953	93.44
488.171	105.44
488.389	93.44
488.607	111.44
488.825	86.44
489.043	100.44
489.261	110.44
489.479	97.44
489.696	86.44
489.914	78.44
490.132	77.44
490.35	87.44
490.568	86.44
490.786	89.44
491.003	95.44
491.221	90.44
491.439	92.44
491.657	94.44
491.874	97.44
492.092	89.44
492.31	81.44
492.527	86.44
492.745	96.44
492.963	90.44
493.18	97.44
493.398	88.44
493.615	97.44
493.833	88.44
494.05	96.44
494.268	100.44
494.485	90.44
494.703	91.44
494.92	91.44
495.138	93.44
495.355	81.44
495.573	97.44
495.79	84.44
496.008	99.44
496.225	92.44
496.442	92.44
496.66	84.44
496.877	99.44
497.094	99.44
497.312	95.44
497.529	100.44
497.746	98.44
497.963	80.44
498.181	90.44
498.398	106.44
498.615	127.44
498.832	95.44
499.049	100.44
499.267	103.44
499.484	83.44
499.701	88.44
499.918	83.44
500.135	89.44
500.352	93.44
500.569	80.44
500.786	101.44
501.003	97.44
501.22	78.44
501.437	90.44
501.654	93.44
501.871	100.44
502.088	97.44
502.305	95.44
502.522	100.44
502.739	100.44
502.956	101.44
503.172	93.44
503.389	109.44
503.606	95.44
503.823	107.44
504.04	101.44
504.256	107.44
504.473	89.44
504.69	96.44
504.907	99.44
505.123	99.44
505.34	87.44
505.557	102.44
505.773	102.44
505.99	80.44
506.207	77.44
506.423	91.44
506.64	84.44
506.856	101.44
507.073	96.44
507.289	103.44
507.506	112.44
507.722	123.44
507.939	112.44
508.155	96.44
508.372	94.44
508.588	92.44
508.805	103.44
509.021	86.44
509.238	104.44
509.454	105.44
509.67	100.44
509.887	113.44
510.103	120.44
510.319	209.44
510.536	678.44
510.752	2168.44
510.968	625.44
511.184	161.44
511.401	96.44
511.617	99.44
511.833	96.44
512.049	81.44
512.265	96.44
512.481	89.44
512.698	91.44
512.914	97.44
513.13	96.44
513.346	93.44
513.562	114.44
513.778	96.44
513.994	85.44
514.21	103.44
