Data from Circ_2006_H10_HRD10591_00060.txt Node
Date: Wed Jan 03 10:26:15 EST 2024
User: Yrep
Spectrometer: HR+D1059
Trigger mode: 1
Integration Time (sec): 1.000000E-1
Scans to average: 1
Electric dark correction enabled: true
Nonlinearity correction enabled: false
Boxcar width: 0
XAxis mode: Wavelengths
Number of Pixels in Spectrum: 2048
>>>>>Begin Spectral Data<<<<<
223.165	-23.31
223.4	-23.31
223.635	-23.31
223.869	-14.31
224.104	-7.31
224.338	-4.31
224.573	-14.31
224.808	-20.31
225.042	-9.31
225.277	-6.31
225.511	-13.31
225.746	10.69
225.98	-2.31
226.215	27.69
226.449	9.69
226.683	16.69
226.918	20.69
227.152	29.69
227.387	32.69
227.621	48.69
227.856	44.69
228.09	42.69
228.324	45.69
228.559	59.69
228.793	41.69
229.027	54.69
229.262	48.69
229.496	68.69
229.73	85.69
229.964	78.69
230.199	64.69
230.433	78.69
230.667	78.69
230.901	68.69
231.136	75.69
231.37	68.69
231.604	74.69
231.838	76.69
232.072	82.69
232.306	86.69
232.541	65.69
232.775	85.69
233.009	70.69
233.243	75.69
233.477	80.69
233.711	70.69
233.945	73.69
234.179	59.69
234.413	79.69
234.647	75.69
234.881	69.69
235.115	72.69
235.349	75.69
235.583	74.69
235.817	77.69
236.051	74.69
236.285	70.69
236.519	67.69
236.753	75.69
236.987	87.69
237.221	93.69
237.455	75.69
237.689	70.69
237.922	56.69
238.156	71.69
238.39	67.69
238.624	81.69
238.858	73.69
239.091	78.69
239.325	75.69
239.559	73.69
239.793	75.69
240.027	68.69
240.26	73.69
240.494	90.69
240.728	58.69
240.961	90.69
241.195	74.69
241.429	79.69
241.662	80.69
241.896	50.69
242.13	74.69
242.363	62.69
242.597	77.69
242.83	71.69
243.064	83.69
243.298	67.69
243.531	73.69
243.765	74.69
243.998	67.69
244.232	54.69
244.465	81.69
244.699	80.69
244.932	73.69
245.166	79.69
245.399	70.69
245.633	89.69
245.866	80.69
246.099	74.69
246.333	81.69
246.566	77.69
246.8	70.69
247.033	81.69
247.266	83.69
247.5	71.69
247.733	75.69
247.966	78.69
248.2	82.69
248.433	76.69
248.666	79.69
248.899	82.69
249.133	93.69
249.366	85.69
249.599	93.69
249.832	84.69
250.066	80.69
250.299	83.69
250.532	80.69
250.765	79.69
250.998	81.69
251.231	83.69
251.465	94.69
251.698	79.69
251.931	75.69
252.164	87.69
252.397	66.69
252.63	81.69
252.863	84.69
253.096	88.69
253.329	81.69
253.562	85.69
253.795	70.69
254.028	76.69
254.261	67.69
254.494	76.69
254.727	92.69
254.96	85.69
255.193	84.69
255.426	77.69
255.659	72.69
255.892	76.69
256.124	91.69
256.357	80.69
256.59	68.69
256.823	73.69
257.056	84.69
257.289	81.69
257.521	74.69
257.754	80.69
257.987	69.69
258.22	93.69
258.452	92.69
258.685	72.69
258.918	78.69
259.151	64.69
259.383	86.69
259.616	68.69
259.849	87.69
260.081	84.69
260.314	78.69
260.547	76.69
260.779	61.69
261.012	69.69
261.244	73.69
261.477	87.69
261.71	99.69
261.942	105.69
262.175	104.69
262.407	98.69
262.64	85.69
262.872	88.69
263.105	75.69
263.337	100.69
263.57	88.69
263.802	82.69
264.035	97.69
264.267	75.69
264.499	85.69
264.732	88.69
264.964	95.69
265.197	99.69
265.429	79.69
265.661	82.69
265.894	85.69
266.126	76.69
266.358	83.69
266.591	78.69
266.823	82.69
267.055	79.69
267.287	88.69
267.52	80.69
267.752	94.69
267.984	64.69
268.216	91.69
268.448	85.69
268.681	92.69
268.913	85.69
269.145	85.69
269.377	87.69
269.609	85.69
269.841	98.69
270.073	66.69
270.306	93.69
270.538	82.69
270.77	75.69
271.002	84.69
271.234	67.69
271.466	89.69
271.698	93.69
271.93	85.69
272.162	71.69
272.394	91.69
272.626	86.69
272.858	81.69
273.09	86.69
273.322	78.69
273.553	61.69
273.785	89.69
274.017	77.69
274.249	86.69
274.481	92.69
274.713	82.69
274.945	81.69
275.176	69.69
275.408	101.69
275.64	88.69
275.872	91.69
276.104	84.69
276.335	93.69
276.567	91.69
276.799	108.69
277.031	89.69
277.262	79.69
277.494	89.69
277.726	84.69
277.957	94.69
278.189	74.69
278.421	99.69
278.652	102.69
278.884	77.69
279.115	67.69
279.347	82.69
279.579	100.69
279.81	77.69
280.042	99.69
280.273	73.69
280.505	86.69
280.736	81.69
280.968	85.69
281.199	103.69
281.431	97.69
281.662	82.69
281.894	99.69
282.125	100.69
282.356	120.69
282.588	138.69
282.819	107.69
283.051	106.69
283.282	85.69
283.513	100.69
283.745	78.69
283.976	96.69
284.207	92.69
284.439	84.69
284.67	92.69
284.901	89.69
285.132	92.69
285.364	87.69
285.595	93.69
285.826	93.69
286.057	78.69
286.288	80.69
286.52	80.69
286.751	81.69
286.982	92.69
287.213	84.69
287.444	87.69
287.675	84.69
287.906	87.69
288.138	84.69
288.369	90.69
288.6	99.69
288.831	85.69
289.062	94.69
289.293	95.69
289.524	82.69
289.755	90.69
289.986	80.69
290.217	86.69
290.448	72.69
290.679	90.69
290.91	84.69
291.141	77.69
291.371	91.69
291.602	78.69
291.833	90.69
292.064	75.69
292.295	97.69
292.526	77.69
292.757	85.69
292.987	83.69
293.218	91.69
293.449	84.69
293.68	89.69
293.91	86.69
294.141	92.69
294.372	87.69
294.603	84.69
294.833	85.69
295.064	76.69
295.295	93.69
295.525	94.69
295.756	95.69
295.987	102.69
296.217	129.69
296.448	115.69
296.679	100.69
296.909	83.69
297.14	95.69
297.37	93.69
297.601	86.69
297.831	80.69
298.062	79.69
298.292	91.69
298.523	92.69
298.753	86.69
298.984	78.69
299.214	87.69
299.445	93.69
299.675	89.69
299.905	80.69
300.136	92.69
300.366	69.69
300.597	83.69
300.827	100.69
301.057	103.69
301.288	90.69
301.518	85.69
301.748	80.69
301.979	91.69
302.209	73.69
302.439	90.69
302.669	84.69
302.9	88.69
303.13	97.69
303.36	89.69
303.59	97.69
303.82	93.69
304.051	84.69
304.281	86.69
304.511	90.69
304.741	88.69
304.971	81.69
305.201	90.69
305.431	84.69
305.661	89.69
305.891	76.69
306.121	90.69
306.352	99.69
306.582	101.69
306.812	96.69
307.042	93.69
307.272	90.69
307.502	96.69
307.731	94.69
307.961	91.69
308.191	83.69
308.421	85.69
308.651	80.69
308.881	82.69
309.111	93.69
309.341	92.69
309.571	111.69
309.8	96.69
310.03	107.69
310.26	98.69
310.49	94.69
310.72	98.69
310.949	94.69
311.179	100.69
311.409	93.69
311.639	85.69
311.868	94.69
312.098	90.69
312.328	89.69
312.557	103.69
312.787	116.69
313.017	90.69
313.246	89.69
313.476	110.69
313.706	83.69
313.935	93.69
314.165	109.69
314.394	94.69
314.624	94.69
314.853	105.69
315.083	85.69
315.312	84.69
315.542	101.69
315.771	83.69
316.001	83.69
316.23	92.69
316.46	95.69
316.689	93.69
316.919	96.69
317.148	110.69
317.377	97.69
317.607	89.69
317.836	87.69
318.065	75.69
318.295	84.69
318.524	100.69
318.753	97.69
318.983	86.69
319.212	91.69
319.441	113.69
319.67	95.69
319.9	99.69
320.129	101.69
320.358	88.69
320.587	97.69
320.816	94.69
321.046	91.69
321.275	104.69
321.504	75.69
321.733	105.69
321.962	101.69
322.191	107.69
322.42	112.69
322.649	100.69
322.878	122.69
323.108	108.69
323.337	120.69
323.566	142.69
323.795	172.69
324.024	222.69
324.253	451.69
324.482	1000.69
324.71	2096.69
324.939	2662.69
325.168	972.69
325.397	278.69
325.626	143.69
325.855	120.69
326.084	130.69
326.313	143.69
326.542	174.69
326.77	261.69
326.999	559.69
327.228	1151.69
327.457	2097.69
327.686	1660.69
327.914	436.69
328.143	212.69
328.372	162.69
328.6	146.69
328.829	110.69
329.058	127.69
329.287	145.69
329.515	98.69
329.744	108.69
329.972	111.69
330.201	128.69
330.43	152.69
330.658	142.69
330.887	152.69
331.115	124.69
331.344	80.69
331.572	110.69
331.801	102.69
332.03	100.69
332.258	101.69
332.486	95.69
332.715	90.69
332.943	89.69
333.172	86.69
333.4	97.69
333.629	92.69
333.857	121.69
334.085	121.69
334.314	118.69
334.542	146.69
334.771	141.69
334.999	113.69
335.227	102.69
335.455	100.69
335.684	83.69
335.912	80.69
336.14	89.69
336.369	100.69
336.597	111.69
336.825	104.69
337.053	88.69
337.281	96.69
337.51	99.69
337.738	100.69
337.966	87.69
338.194	100.69
338.422	77.69
338.65	95.69
338.878	85.69
339.106	98.69
339.334	102.69
339.562	97.69
339.79	98.69
340.018	105.69
340.246	82.69
340.474	83.69
340.702	78.69
340.93	97.69
341.158	75.69
341.386	89.69
341.614	94.69
341.842	91.69
342.07	93.69
342.298	101.69
342.526	90.69
342.754	86.69
342.981	81.69
343.209	83.69
343.437	98.69
343.665	87.69
343.893	82.69
344.12	94.69
344.348	107.69
344.576	86.69
344.804	90.69
345.031	97.69
345.259	90.69
345.487	88.69
345.714	97.69
345.942	84.69
346.17	91.69
346.397	85.69
346.625	86.69
346.853	94.69
347.08	82.69
347.308	101.69
347.535	90.69
347.763	98.69
347.99	100.69
348.218	99.69
348.445	110.69
348.673	96.69
348.9	92.69
349.128	89.69
349.355	96.69
349.583	89.69
349.81	103.69
350.037	75.69
350.265	94.69
350.492	86.69
350.72	96.69
350.947	93.69
351.174	113.69
351.402	128.69
351.629	93.69
351.856	92.69
352.083	93.69
352.311	111.69
352.538	108.69
352.765	107.69
352.992	98.69
353.22	126.69
353.447	98.69
353.674	96.69
353.901	94.69
354.128	104.69
354.355	84.69
354.583	105.69
354.81	101.69
355.037	99.69
355.264	86.69
355.491	89.69
355.718	99.69
355.945	94.69
356.172	97.69
356.399	105.69
356.626	96.69
356.853	101.69
357.08	91.69
357.307	88.69
357.534	92.69
357.761	94.69
357.988	99.69
358.215	99.69
358.441	97.69
358.668	85.69
358.895	90.69
359.122	82.69
359.349	89.69
359.576	89.69
359.802	114.69
360.029	112.69
360.256	104.69
360.483	88.69
360.709	98.69
360.936	101.69
361.163	88.69
361.39	88.69
361.616	91.69
361.843	81.69
362.07	92.69
362.296	101.69
362.523	100.69
362.749	92.69
362.976	93.69
363.203	77.69
363.429	79.69
363.656	90.69
363.882	92.69
364.109	93.69
364.335	107.69
364.562	84.69
364.788	82.69
365.015	92.69
365.241	100.69
365.468	110.69
365.694	98.69
365.92	104.69
366.147	82.69
366.373	92.69
366.599	101.69
366.826	93.69
367.052	78.69
367.278	103.69
367.505	85.69
367.731	89.69
367.957	79.69
368.184	86.69
368.41	100.69
368.636	106.69
368.862	109.69
369.089	114.69
369.315	91.69
369.541	76.69
369.767	82.69
369.993	91.69
370.219	97.69
370.445	81.69
370.672	80.69
370.898	101.69
371.124	96.69
371.35	77.69
371.576	92.69
371.802	85.69
372.028	77.69
372.254	98.69
372.48	87.69
372.706	85.69
372.932	69.69
373.158	85.69
373.384	94.69
373.61	76.69
373.835	90.69
374.061	90.69
374.287	111.69
374.513	98.69
374.739	91.69
374.965	85.69
375.191	83.69
375.416	100.69
375.642	85.69
375.868	91.69
376.094	88.69
376.319	94.69
376.545	94.69
376.771	84.69
376.997	90.69
377.222	100.69
377.448	82.69
377.674	86.69
377.899	96.69
378.125	93.69
378.35	93.69
378.576	91.69
378.802	84.69
379.027	85.69
379.253	98.69
379.478	88.69
379.704	88.69
379.929	102.69
380.155	100.69
380.38	86.69
380.606	94.69
380.831	105.69
381.057	90.69
381.282	93.69
381.507	92.69
381.733	94.69
381.958	94.69
382.184	105.69
382.409	110.69
382.634	108.69
382.86	107.69
383.085	101.69
383.31	102.69
383.535	101.69
383.761	92.69
383.986	94.69
384.211	94.69
384.436	78.69
384.662	97.69
384.887	114.69
385.112	107.69
385.337	112.69
385.562	97.69
385.787	115.69
386.013	109.69
386.238	113.69
386.463	105.69
386.688	117.69
386.913	102.69
387.138	110.69
387.363	92.69
387.588	90.69
387.813	105.69
388.038	110.69
388.263	111.69
388.488	88.69
388.713	93.69
388.938	97.69
389.163	95.69
389.387	100.69
389.612	100.69
389.837	85.69
390.062	90.69
390.287	85.69
390.512	88.69
390.736	100.69
390.961	97.69
391.186	81.69
391.411	90.69
391.636	88.69
391.86	89.69
392.085	93.69
392.31	72.69
392.534	80.69
392.759	84.69
392.984	96.69
393.208	94.69
393.433	96.69
393.658	86.69
393.882	77.69
394.107	82.69
394.331	95.69
394.556	82.69
394.78	92.69
395.005	92.69
395.229	88.69
395.454	76.69
395.678	92.69
395.903	90.69
396.127	97.69
396.352	100.69
396.576	91.69
396.801	68.69
397.025	94.69
397.249	87.69
397.474	93.69
397.698	92.69
397.922	98.69
398.147	88.69
398.371	87.69
398.595	96.69
398.82	87.69
399.044	78.69
399.268	79.69
399.492	83.69
399.717	69.69
399.941	93.69
400.165	99.69
400.389	88.69
400.613	76.69
400.837	72.69
401.062	79.69
401.286	83.69
401.51	86.69
401.734	82.69
401.958	85.69
402.182	138.69
402.406	147.69
402.63	118.69
402.854	101.69
403.078	87.69
403.302	84.69
403.526	91.69
403.75	86.69
403.974	88.69
404.198	93.69
404.422	97.69
404.645	80.69
404.869	98.69
405.093	94.69
405.317	100.69
405.541	94.69
405.765	107.69
405.988	115.69
406.212	181.69
406.436	233.69
406.66	147.69
406.883	88.69
407.107	106.69
407.331	94.69
407.555	107.69
407.778	101.69
408.002	110.69
408.226	98.69
408.449	95.69
408.673	80.69
408.896	103.69
409.12	80.69
409.344	89.69
409.567	98.69
409.791	88.69
410.014	97.69
410.238	91.69
410.461	95.69
410.685	93.69
410.908	106.69
411.132	103.69
411.355	105.69
411.578	90.69
411.802	73.69
412.025	89.69
412.249	83.69
412.472	88.69
412.695	97.69
412.919	94.69
413.142	85.69
413.365	74.69
413.589	99.69
413.812	78.69
414.035	85.69
414.258	98.69
414.482	94.69
414.705	93.69
414.928	100.69
415.151	68.69
415.374	90.69
415.597	99.69
415.821	85.69
416.044	86.69
416.267	72.69
416.49	85.69
416.713	82.69
416.936	93.69
417.159	85.69
417.382	98.69
417.605	83.69
417.828	92.69
418.051	94.69
418.274	87.69
418.497	82.69
418.72	95.69
418.943	85.69
419.166	89.69
419.389	85.69
419.611	84.69
419.834	93.69
420.057	90.69
420.28	94.69
420.503	91.69
420.726	83.69
420.948	92.69
421.171	97.69
421.394	67.69
421.617	80.69
421.839	97.69
422.062	90.69
422.285	93.69
422.507	98.69
422.73	102.69
422.953	95.69
423.175	89.69
423.398	83.69
423.621	89.69
423.843	84.69
424.066	95.69
424.288	85.69
424.511	102.69
424.733	83.69
424.956	118.69
425.178	91.69
425.401	88.69
425.623	93.69
425.846	79.69
426.068	99.69
426.291	99.69
426.513	86.69
426.735	87.69
426.958	74.69
427.18	86.69
427.402	137.69
427.625	187.69
427.847	149.69
428.069	109.69
428.292	90.69
428.514	90.69
428.736	100.69
428.958	94.69
429.181	86.69
429.403	87.69
429.625	77.69
429.847	84.69
430.069	105.69
430.292	96.69
430.514	84.69
430.736	84.69
430.958	83.69
431.18	78.69
431.402	76.69
431.624	78.69
431.846	83.69
432.068	78.69
432.29	76.69
432.512	91.69
432.734	101.69
432.956	96.69
433.178	90.69
433.4	95.69
433.622	94.69
433.844	73.69
434.066	79.69
434.287	92.69
434.509	87.69
434.731	94.69
434.953	82.69
435.175	82.69
435.397	96.69
435.618	95.69
435.84	109.69
436.062	125.69
436.284	106.69
436.505	96.69
436.727	96.69
436.949	85.69
437.17	93.69
437.392	88.69
437.614	91.69
437.835	96.69
438.057	118.69
438.278	106.69
438.5	100.69
438.721	101.69
438.943	113.69
439.165	85.69
439.386	96.69
439.608	87.69
439.829	103.69
440.05	136.69
440.272	163.69
440.493	97.69
440.715	84.69
440.936	93.69
441.158	102.69
441.379	95.69
441.6	86.69
441.822	93.69
442.043	98.69
442.264	97.69
442.486	90.69
442.707	85.69
442.928	113.69
443.149	122.69
443.371	116.69
443.592	108.69
443.813	109.69
444.034	114.69
444.255	93.69
444.476	78.69
444.698	91.69
444.919	96.69
445.14	128.69
445.361	133.69
445.582	110.69
445.803	130.69
446.024	142.69
446.245	142.69
446.466	96.69
446.687	84.69
446.908	79.69
447.129	85.69
447.35	87.69
447.571	102.69
447.792	96.69
448.013	105.69
448.234	92.69
448.455	84.69
448.675	101.69
448.896	118.69
449.117	101.69
449.338	103.69
449.559	128.69
449.779	134.69
450	98.69
450.221	78.69
450.442	83.69
450.662	88.69
450.883	112.69
451.104	121.69
451.324	85.69
451.545	82.69
451.766	89.69
451.986	92.69
452.207	83.69
452.428	98.69
452.648	96.69
452.869	120.69
453.089	124.69
453.31	121.69
453.53	93.69
453.751	107.69
453.971	92.69
454.192	122.69
454.412	104.69
454.633	84.69
454.853	94.69
455.073	83.69
455.294	101.69
455.514	101.69
455.734	93.69
455.955	93.69
456.175	90.69
456.395	85.69
456.616	88.69
456.836	74.69
457.056	81.69
457.276	81.69
457.497	82.69
457.717	77.69
457.937	82.69
458.157	85.69
458.377	75.69
458.598	96.69
458.818	154.69
459.038	136.69
459.258	108.69
459.478	92.69
459.698	91.69
459.918	98.69
460.138	80.69
460.358	83.69
460.578	100.69
460.798	91.69
461.018	89.69
461.238	68.69
461.458	84.69
461.678	81.69
461.898	92.69
462.118	85.69
462.338	78.69
462.558	102.69
462.777	89.69
462.997	98.69
463.217	86.69
463.437	97.69
463.657	76.69
463.876	74.69
464.096	82.69
464.316	97.69
464.536	92.69
464.755	89.69
464.975	109.69
465.195	173.69
465.414	169.69
465.634	99.69
465.854	86.69
466.073	76.69
466.293	86.69
466.512	87.69
466.732	88.69
466.951	86.69
467.171	72.69
467.391	79.69
467.61	95.69
467.829	98.69
468.049	107.69
468.268	103.69
468.488	86.69
468.707	83.69
468.927	91.69
469.146	87.69
469.365	86.69
469.585	80.69
469.804	92.69
470.023	109.69
470.243	97.69
470.462	98.69
470.681	100.69
470.901	81.69
471.12	81.69
471.339	96.69
471.558	83.69
471.777	93.69
471.997	96.69
472.216	126.69
472.435	174.69
472.654	96.69
472.873	92.69
473.092	80.69
473.311	92.69
473.53	89.69
473.749	100.69
473.968	93.69
474.187	99.69
474.406	83.69
474.625	84.69
474.844	97.69
475.063	84.69
475.282	90.69
475.501	94.69
475.72	105.69
475.939	75.69
476.158	88.69
476.377	79.69
476.596	81.69
476.814	76.69
477.033	88.69
477.252	86.69
477.471	95.69
477.69	91.69
477.908	87.69
478.127	90.69
478.346	96.69
478.564	89.69
478.783	94.69
479.002	79.69
479.22	93.69
479.439	100.69
479.658	93.69
479.876	82.69
480.095	87.69
480.313	88.69
480.532	103.69
480.751	91.69
480.969	111.69
481.188	223.69
481.406	170.69
481.624	101.69
481.843	81.69
482.061	92.69
482.28	100.69
482.498	92.69
482.717	77.69
482.935	93.69
483.153	82.69
483.372	92.69
483.59	89.69
483.808	96.69
484.027	95.69
484.245	85.69
484.463	100.69
484.681	87.69
484.9	101.69
485.118	93.69
485.336	100.69
485.554	83.69
485.772	101.69
485.99	104.69
486.209	93.69
486.427	98.69
486.645	104.69
486.863	109.69
487.081	109.69
487.299	80.69
487.517	103.69
487.735	84.69
487.953	101.69
488.171	92.69
488.389	87.69
488.607	92.69
488.825	100.69
489.043	89.69
489.261	96.69
489.479	99.69
489.696	92.69
489.914	96.69
490.132	83.69
490.35	87.69
490.568	82.69
490.786	99.69
491.003	91.69
491.221	92.69
491.439	72.69
491.657	80.69
491.874	90.69
492.092	81.69
492.31	78.69
492.527	90.69
492.745	82.69
492.963	94.69
493.18	86.69
493.398	79.69
493.615	85.69
493.833	90.69
494.05	83.69
494.268	92.69
494.485	97.69
494.703	97.69
494.92	97.69
495.138	90.69
495.355	93.69
495.573	90.69
495.79	93.69
496.008	86.69
496.225	89.69
496.442	83.69
496.66	89.69
496.877	82.69
497.094	91.69
497.312	95.69
497.529	84.69
497.746	83.69
497.963	76.69
498.181	87.69
498.398	75.69
498.615	111.69
498.832	100.69
499.049	90.69
499.267	97.69
499.484	83.69
499.701	86.69
499.918	96.69
500.135	93.69
500.352	81.69
500.569	96.69
500.786	89.69
501.003	90.69
501.22	82.69
501.437	91.69
501.654	85.69
501.871	101.69
502.088	82.69
502.305	74.69
502.522	97.69
502.739	92.69
502.956	100.69
503.172	85.69
503.389	98.69
503.606	112.69
503.823	100.69
504.04	89.69
504.256	84.69
504.473	90.69
504.69	96.69
504.907	99.69
505.123	91.69
505.34	94.69
505.557	86.69
505.773	89.69
505.99	84.69
506.207	79.69
506.423	78.69
506.64	92.69
506.856	97.69
507.073	84.69
507.289	98.69
507.506	102.69
507.722	97.69
507.939	109.69
508.155	98.69
508.372	101.69
508.588	108.69
508.805	81.69
509.021	89.69
509.238	96.69
509.454	96.69
509.67	92.69
509.887	109.69
510.103	129.69
510.319	238.69
510.536	827.69
510.752	2626.69
510.968	728.69
511.184	162.69
511.401	101.69
511.617	112.69
511.833	95.69
512.049	90.69
512.265	92.69
512.481	83.69
512.698	92.69
512.914	87.69
513.13	83.69
513.346	94.69
513.562	87.69
513.778	81.69
513.994	96.69
514.21	92.69
514.426	123.69
514.642	148.69
514.858	134.69
515.074	162.69
515.29	508.69
515.506	1663.69
515.721	597.69
515.937	166.69
