Data from Circ_2006_H10_HRD10591_00013.txt Node
Date: Wed Jan 03 10:26:06 EST 2024
User: Yrep
Spectrometer: HR+D1059
Trigger mode: 1
Integration Time (sec): 1.000000E-1
Scans to average: 1
Electric dark correction enabled: true
Nonlinearity correction enabled: false
Boxcar width: 0
XAxis mode: Wavelengths
Number of Pixels in Spectrum: 2048
>>>>>Begin Spectral Data<<<<<
223.165	-25
223.4	-25
223.635	-25
223.869	-28
224.104	-16
224.338	-10
224.573	-29
224.808	-13
225.042	-9
225.277	-5
225.511	-9
225.746	4
225.98	8
226.215	21
226.449	16
226.683	30
226.918	32
227.152	33
227.387	41
227.621	30
227.856	44
228.09	46
228.324	54
228.559	54
228.793	57
229.027	65
229.262	68
229.496	89
229.73	91
229.964	92
230.199	70
230.433	80
230.667	72
230.901	84
231.136	81
231.37	77
231.604	77
231.838	103
232.072	98
232.306	77
232.541	85
232.775	101
233.009	83
233.243	81
233.477	87
233.711	94
233.945	81
234.179	79
234.413	91
234.647	86
234.881	69
235.115	73
235.349	72
235.583	83
235.817	84
236.051	70
236.285	76
236.519	80
236.753	65
236.987	73
237.221	86
237.455	95
237.689	94
237.922	80
238.156	84
238.39	83
238.624	67
238.858	84
239.091	71
239.325	70
239.559	73
239.793	71
240.027	75
240.26	83
240.494	79
240.728	85
240.961	93
241.195	82
241.429	76
241.662	89
241.896	85
242.13	71
242.363	72
242.597	81
242.83	90
243.064	93
243.298	84
243.531	78
243.765	85
243.998	63
244.232	84
244.465	78
244.699	77
244.932	89
245.166	79
245.399	65
245.633	86
245.866	71
246.099	81
246.333	86
246.566	79
246.8	74
247.033	60
247.266	88
247.5	85
247.733	80
247.966	86
248.2	82
248.433	82
248.666	82
248.899	84
249.133	77
249.366	88
249.599	98
249.832	86
250.066	83
250.299	81
250.532	106
250.765	86
250.998	84
251.231	69
251.465	77
251.698	87
251.931	84
252.164	65
252.397	72
252.63	79
252.863	88
253.096	85
253.329	70
253.562	88
253.795	84
254.028	87
254.261	111
254.494	105
254.727	94
254.96	75
255.193	76
255.426	71
255.659	97
255.892	83
256.124	66
256.357	88
256.59	80
256.823	74
257.056	98
257.289	90
257.521	82
257.754	90
257.987	88
258.22	94
258.452	82
258.685	86
258.918	89
259.151	91
259.383	96
259.616	89
259.849	97
260.081	84
260.314	80
260.547	78
260.779	97
261.012	84
261.244	85
261.477	100
261.71	98
261.942	129
262.175	133
262.407	97
262.64	86
262.872	85
263.105	83
263.337	89
263.57	87
263.802	92
264.035	90
264.267	97
264.499	98
264.732	75
264.964	81
265.197	88
265.429	83
265.661	89
265.894	97
266.126	94
266.358	88
266.591	85
266.823	77
267.055	90
267.287	84
267.52	86
267.752	95
267.984	88
268.216	89
268.448	86
268.681	94
268.913	88
269.145	97
269.377	83
269.609	87
269.841	88
270.073	90
270.306	90
270.538	81
270.77	96
271.002	73
271.234	88
271.466	89
271.698	92
271.93	79
272.162	84
272.394	84
272.626	81
272.858	101
273.09	82
273.322	90
273.553	95
273.785	101
274.017	81
274.249	102
274.481	80
274.713	82
274.945	107
275.176	99
275.408	94
275.64	85
275.872	95
276.104	96
276.335	100
276.567	121
276.799	100
277.031	109
277.262	94
277.494	89
277.726	106
277.957	85
278.189	71
278.421	96
278.652	94
278.884	90
279.115	92
279.347	90
279.579	81
279.81	89
280.042	88
280.273	96
280.505	95
280.736	97
280.968	97
281.199	86
281.431	84
281.662	91
281.894	90
282.125	109
282.356	118
282.588	158
282.819	119
283.051	94
283.282	76
283.513	94
283.745	93
283.976	85
284.207	89
284.439	89
284.67	94
284.901	88
285.132	79
285.364	88
285.595	76
285.826	80
286.057	84
286.288	106
286.52	86
286.751	87
286.982	88
287.213	85
287.444	94
287.675	109
287.906	95
288.138	93
288.369	101
288.6	94
288.831	94
289.062	103
289.293	84
289.524	94
289.755	86
289.986	80
290.217	96
290.448	85
290.679	94
290.91	97
291.141	91
291.371	94
291.602	98
291.833	94
292.064	68
292.295	84
292.526	81
292.757	90
292.987	90
293.218	81
293.449	91
293.68	88
293.91	93
294.141	95
294.372	92
294.603	95
294.833	89
295.064	76
295.295	110
295.525	99
295.756	98
295.987	116
296.217	161
296.448	130
296.679	109
296.909	96
297.14	95
297.37	101
297.601	104
297.831	95
298.062	90
298.292	101
298.523	83
298.753	91
298.984	94
299.214	90
299.445	90
299.675	98
299.905	88
300.136	80
300.366	87
300.597	93
300.827	92
301.057	113
301.288	117
301.518	96
301.748	104
301.979	81
302.209	100
302.439	92
302.669	101
302.9	87
303.13	105
303.36	97
303.59	114
303.82	95
304.051	89
304.281	86
304.511	102
304.741	96
304.971	93
305.201	86
305.431	88
305.661	87
305.891	104
306.121	92
306.352	109
306.582	114
306.812	102
307.042	103
307.272	94
307.502	90
307.731	90
307.961	93
308.191	98
308.421	108
308.651	87
308.881	102
309.111	96
309.341	92
309.571	112
309.8	97
310.03	109
310.26	97
310.49	97
310.72	116
310.949	110
311.179	112
311.409	102
311.639	104
311.868	96
312.098	91
312.328	91
312.557	104
312.787	108
313.017	95
313.246	93
313.476	80
313.706	87
313.935	91
314.165	88
314.394	116
314.624	110
314.853	112
315.083	95
315.312	100
315.542	97
315.771	101
316.001	85
316.23	84
316.46	95
316.689	90
316.919	92
317.148	106
317.377	108
317.607	98
317.836	98
318.065	99
318.295	94
318.524	100
318.753	104
318.983	101
319.212	105
319.441	109
319.67	119
319.9	107
320.129	115
320.358	111
320.587	90
320.816	106
321.046	93
321.275	106
321.504	111
321.733	110
321.962	104
322.191	127
322.42	115
322.649	113
322.878	111
323.108	131
323.337	134
323.566	153
323.795	184
324.024	258
324.253	523
324.482	1178
324.71	2421
324.939	3127
325.168	1091
325.397	322
325.626	169
325.855	144
326.084	136
326.313	145
326.542	174
326.77	278
326.999	608
327.228	1320
327.457	2376
327.686	1826
327.914	466
328.143	231
328.372	172
328.6	130
328.829	137
329.058	148
329.287	164
329.515	124
329.744	105
329.972	103
330.201	124
330.43	126
330.658	153
330.887	175
331.115	146
331.344	103
331.572	124
331.801	102
332.03	111
332.258	97
332.486	109
332.715	98
332.943	98
333.172	110
333.4	117
333.629	100
333.857	113
334.085	111
334.314	117
334.542	117
334.771	103
334.999	101
335.227	91
335.455	104
335.684	102
335.912	105
336.14	105
336.369	118
336.597	104
336.825	111
337.053	108
337.281	94
337.51	80
337.738	103
337.966	88
338.194	94
338.422	98
338.65	89
338.878	100
339.106	87
339.334	89
339.562	89
339.79	90
340.018	101
340.246	98
340.474	96
340.702	97
340.93	90
341.158	89
341.386	93
341.614	100
341.842	98
342.07	88
342.298	104
342.526	89
342.754	88
342.981	105
343.209	103
343.437	115
343.665	93
343.893	95
344.12	105
344.348	88
344.576	101
344.804	89
345.031	102
345.259	96
345.487	95
345.714	104
345.942	109
346.17	100
346.397	87
346.625	94
346.853	96
347.08	96
347.308	98
347.535	99
347.763	100
347.99	103
348.218	114
348.445	101
348.673	99
348.9	112
349.128	98
349.355	88
349.583	95
349.81	93
350.037	88
350.265	101
350.492	100
350.72	98
350.947	110
351.174	105
351.402	125
351.629	107
351.856	99
352.083	115
352.311	121
352.538	133
352.765	121
352.992	115
353.22	128
353.447	115
353.674	98
353.901	105
354.128	107
354.355	105
354.583	113
354.81	102
355.037	90
355.264	90
355.491	88
355.718	98
355.945	105
356.172	100
356.399	100
356.626	103
356.853	106
357.08	93
357.307	102
357.534	92
357.761	91
357.988	95
358.215	96
358.441	83
358.668	112
358.895	99
359.122	103
359.349	90
359.576	90
359.802	111
360.029	114
360.256	126
360.483	117
360.709	88
360.936	98
361.163	85
361.39	84
361.616	110
361.843	92
362.07	111
362.296	103
362.523	88
362.749	82
362.976	90
363.203	104
363.429	77
363.656	109
363.882	100
364.109	99
364.335	94
364.562	86
364.788	77
365.015	100
365.241	110
365.468	113
365.694	111
365.92	102
366.147	107
366.373	89
366.599	104
366.826	93
367.052	89
367.278	89
367.505	97
367.731	101
367.957	101
368.184	96
368.41	110
368.636	118
368.862	118
369.089	108
369.315	92
369.541	100
369.767	104
369.993	90
370.219	104
370.445	99
370.672	92
370.898	86
371.124	93
371.35	86
371.576	83
371.802	88
372.028	110
372.254	93
372.48	80
372.706	79
372.932	96
373.158	101
373.384	87
373.61	95
373.835	96
374.061	93
374.287	96
374.513	94
374.739	93
374.965	84
375.191	89
375.416	93
375.642	90
375.868	84
376.094	96
376.319	94
376.545	102
376.771	93
376.997	92
377.222	80
377.448	99
377.674	87
377.899	100
378.125	83
378.35	110
378.576	77
378.802	101
379.027	79
379.253	102
379.478	113
379.704	94
379.929	103
380.155	104
380.38	95
380.606	100
380.831	93
381.057	95
381.282	101
381.507	102
381.733	105
381.958	100
382.184	106
382.409	103
382.634	115
382.86	108
383.085	92
383.31	105
383.535	112
383.761	97
383.986	107
384.211	114
384.436	101
384.662	95
384.887	100
385.112	122
385.337	109
385.562	110
385.787	122
386.013	124
386.238	116
386.463	105
386.688	116
386.913	126
387.138	102
387.363	110
387.588	90
387.813	103
388.038	93
388.263	112
388.488	136
388.713	95
388.938	104
389.163	100
389.387	90
389.612	92
389.837	101
390.062	102
390.287	108
390.512	84
390.736	86
390.961	101
391.186	101
391.411	82
391.636	77
391.86	76
392.085	101
392.31	102
392.534	100
392.759	78
392.984	87
393.208	96
393.433	101
393.658	101
393.882	90
394.107	88
394.331	85
394.556	82
394.78	98
395.005	97
395.229	85
395.454	84
395.678	82
395.903	80
396.127	91
396.352	92
396.576	88
396.801	98
397.025	109
397.249	100
397.474	90
397.698	80
397.922	99
398.147	87
398.371	80
398.595	104
398.82	82
399.044	92
399.268	98
399.492	95
399.717	88
399.941	85
400.165	83
400.389	102
400.613	83
400.837	84
401.062	87
401.286	94
401.51	107
401.734	97
401.958	104
402.182	133
402.406	175
402.63	137
402.854	98
403.078	95
403.302	76
403.526	99
403.75	83
403.974	83
404.198	90
404.422	79
404.645	97
404.869	87
405.093	101
405.317	96
405.541	104
405.765	102
405.988	113
406.212	176
406.436	273
406.66	168
406.883	96
407.107	101
407.331	95
407.555	106
407.778	103
408.002	92
408.226	93
408.449	92
408.673	101
408.896	97
409.12	102
409.344	101
409.567	87
409.791	88
410.014	101
410.238	94
410.461	104
410.685	99
410.908	97
411.132	116
411.355	109
411.578	94
411.802	105
412.025	92
412.249	102
412.472	79
412.695	89
412.919	100
413.142	89
413.365	70
413.589	84
413.812	86
414.035	88
414.258	94
414.482	95
414.705	99
414.928	86
415.151	93
415.374	101
415.597	95
415.821	89
416.044	97
416.267	84
416.49	85
416.713	87
416.936	95
417.159	91
417.382	90
417.605	96
417.828	87
418.051	102
418.274	107
418.497	83
418.72	91
418.943	92
419.166	78
419.389	97
419.611	81
419.834	85
420.057	99
420.28	89
420.503	101
420.726	90
420.948	100
421.171	90
421.394	105
421.617	99
421.839	85
422.062	90
422.285	97
422.507	99
422.73	98
422.953	88
423.175	104
423.398	88
423.621	87
423.843	84
424.066	75
424.288	100
424.511	95
424.733	105
424.956	117
425.178	105
425.401	114
425.623	107
425.846	97
426.068	94
426.291	102
426.513	85
426.735	92
426.958	95
427.18	117
427.402	153
427.625	190
427.847	146
428.069	100
428.292	84
428.514	89
428.736	97
428.958	88
429.181	81
429.403	76
429.625	115
429.847	102
430.069	114
430.292	102
430.514	98
430.736	90
430.958	82
431.18	80
431.402	88
431.624	81
431.846	88
432.068	80
432.29	100
432.512	100
432.734	95
432.956	94
433.178	106
433.4	84
433.622	81
433.844	93
434.066	89
434.287	84
434.509	84
434.731	112
434.953	96
435.175	108
435.397	91
435.618	111
435.84	116
436.062	126
436.284	127
436.505	111
436.727	101
436.949	110
437.17	101
437.392	96
437.614	96
437.835	110
438.057	138
438.278	116
438.5	113
438.721	146
438.943	107
439.165	101
439.386	98
439.608	105
439.829	112
440.05	144
440.272	163
440.493	110
440.715	90
440.936	90
441.158	106
441.379	87
441.6	91
441.822	89
442.043	95
442.264	114
442.486	102
442.707	84
442.928	109
443.149	153
443.371	146
443.592	109
443.813	126
444.034	116
444.255	103
444.476	94
444.698	87
444.919	104
445.14	130
445.361	134
445.582	119
445.803	147
446.024	144
446.245	142
446.466	122
446.687	97
446.908	100
447.129	96
447.35	87
447.571	109
447.792	99
448.013	89
448.234	115
448.455	102
448.675	118
448.896	119
449.117	106
449.338	111
449.559	148
449.779	143
450	96
450.221	85
450.442	95
450.662	83
450.883	114
451.104	121
451.324	107
451.545	81
451.766	104
451.986	84
452.207	108
452.428	100
452.648	108
452.869	124
453.089	130
453.31	147
453.53	108
453.751	91
453.971	107
454.192	133
454.412	94
454.633	84
454.853	101
455.073	82
455.294	108
455.514	109
455.734	92
455.955	95
456.175	94
456.395	87
456.616	95
456.836	88
457.056	87
457.276	92
457.497	84
457.717	90
457.937	105
458.157	81
458.377	94
458.598	115
458.818	166
459.038	203
459.258	133
459.478	93
459.698	86
459.918	86
460.138	90
460.358	89
460.578	96
460.798	80
461.018	89
461.238	96
461.458	74
461.678	90
461.898	89
462.118	97
462.338	89
462.558	89
462.777	97
462.997	91
463.217	85
463.437	108
463.657	80
463.876	85
464.096	96
464.316	102
464.536	111
464.755	101
464.975	126
465.195	202
465.414	179
465.634	96
465.854	97
466.073	94
466.293	88
466.512	97
466.732	90
466.951	92
467.171	99
467.391	103
467.61	102
467.829	93
468.049	80
468.268	98
468.488	84
468.707	92
468.927	91
469.146	82
469.365	81
469.585	97
469.804	105
470.023	102
470.243	94
470.462	88
470.681	120
470.901	86
471.12	81
471.339	96
471.558	79
471.777	92
471.997	82
472.216	86
472.435	118
472.654	106
472.873	95
473.092	90
473.311	90
473.53	94
473.749	89
473.968	100
474.187	116
474.406	101
474.625	92
474.844	91
475.063	93
475.282	82
475.501	89
475.72	104
475.939	87
476.158	99
476.377	93
476.596	95
476.814	97
477.033	95
477.252	95
477.471	81
477.69	103
477.908	101
478.127	88
478.346	85
478.564	95
478.783	103
479.002	99
479.22	87
479.439	101
479.658	109
479.876	97
480.095	89
480.313	83
480.532	89
480.751	91
480.969	96
481.188	119
481.406	116
481.624	102
481.843	88
482.061	72
482.28	91
482.498	84
482.717	98
482.935	104
483.153	92
483.372	80
483.59	93
483.808	95
484.027	108
484.245	93
484.463	92
484.681	97
484.9	112
485.118	103
485.336	106
485.554	105
485.772	109
485.99	99
486.209	124
486.427	103
486.645	125
486.863	144
487.081	105
487.299	91
487.517	104
487.735	103
487.953	84
488.171	93
488.389	90
488.607	99
488.825	96
489.043	97
489.261	90
489.479	95
489.696	82
489.914	93
490.132	91
490.35	101
490.568	92
490.786	109
491.003	81
491.221	95
491.439	98
491.657	95
491.874	93
492.092	89
492.31	71
492.527	88
492.745	95
492.963	96
493.18	114
493.398	106
493.615	98
493.833	103
494.05	103
494.268	86
494.485	98
494.703	89
494.92	93
495.138	96
495.355	103
495.573	100
495.79	98
496.008	92
496.225	92
496.442	88
496.66	97
496.877	82
497.094	91
497.312	97
497.529	84
497.746	90
497.963	102
498.181	96
498.398	104
498.615	128
498.832	124
499.049	104
499.267	90
499.484	105
499.701	87
499.918	87
500.135	101
500.352	103
500.569	104
500.786	99
501.003	99
501.22	98
501.437	88
501.654	104
501.871	114
502.088	83
502.305	112
502.522	89
502.739	98
502.956	93
503.172	98
503.389	111
503.606	120
503.823	116
504.04	106
504.256	92
504.473	100
504.69	88
504.907	95
505.123	89
505.34	101
505.557	82
505.773	84
505.99	82
506.207	90
506.423	101
506.64	90
506.856	96
507.073	97
507.289	81
507.506	111
507.722	119
507.939	110
508.155	104
508.372	94
508.588	87
508.805	96
509.021	103
509.238	105
509.454	95
509.67	113
509.887	126
510.103	143
510.319	243
510.536	835
510.752	2890
510.968	769
511.184	178
511.401	121
511.617	112
511.833	98
512.049	89
512.265	84
512.481	94
512.698	109
512.914	89
513.13	84
513.346	93
513.562	85
513.778	110
513.994	94
514.21	104
514.426	116
514.642	157
514.858	143
515.074	193
515.29	577
515.506	1931
515.721	714
515.937	175
516.153	120
516.369	98
516.585	102
516.801	103
517.016	89
517.232	84
517.448	101
517.664	98
517.879	103
518.095	94
518.311	98
518.527	96
518.742	87
518.958	84
519.173	100
519.389	96
519.605	86
519.82	102
520.036	124
520.251	126
520.467	112
520.682	119
520.898	117
521.113	121
521.329	172
521.544	281
521.76	725
521.975	3237
522.19	1909
522.406	408
522.621	131
522.836	105
523.052	126
523.267	103
523.482	105
523.698	86
523.913	136
524.128	99
524.343	99
524.559	101
524.774	81
524.989	109
525.204	119
525.419	116
525.634	98
525.849	104
526.064	100
526.28	94
526.495	85
526.71	100
526.925	96
527.14	113
527.355	93
527.57	84
527.785	79
527.999	86
528.214	88
528.429	96
528.644	99
528.859	107
529.074	107
529.289	138
529.503	212
529.718	121
529.933	97
530.148	89
530.363	87
530.577	88
530.792	97
531.007	99
531.221	105
531.436	86
531.651	102
531.865	105
532.08	108
532.295	99
532.509	102
532.724	100
532.938	93
533.153	109
533.367	98
533.582	89
533.796	104
534.011	94
534.225	89
534.44	84
534.654	90
534.868	88
535.083	85
535.297	85
535.511	101
535.726	110
535.94	100
536.154	112
536.369	92
536.583	71
536.797	80
537.011	93
537.225	90
537.44	90
537.654	112
537.868	109
538.082	85
538.296	110
538.51	93
538.724	108
538.938	108
539.153	97
539.367	103
539.581	102
539.795	99
540.009	92
540.222	71
540.436	91
540.65	90
540.864	91
541.078	90
541.292	92
541.506	87
541.72	91
541.934	87
542.147	86
542.361	89
542.575	91
542.789	92
543.002	109
543.216	83
543.43	90
543.644	106
543.857	90
544.071	105
544.285	97
544.498	104
544.712	87
544.925	89
545.139	90
545.352	95
545.566	96
545.779	101
545.993	76
546.206	90
546.42	91
546.633	99
546.847	80
547.06	83
547.274	100
547.487	105
547.7	105
547.914	85
548.127	96
548.34	84
548.554	93
548.767	102
548.98	87
549.193	82
549.407	103
549.62	88
549.833	96
550.046	84
550.259	92
550.473	97
550.686	105
550.899	98
551.112	91
551.325	85
551.538	82
551.751	81
551.964	81
552.177	69
552.39	81
552.603	89
552.816	104
553.029	89
553.242	97
553.455	102
553.667	113
553.88	107
554.093	90
554.306	102
554.519	95
554.732	103
554.944	100
555.157	85
555.37	101
555.583	103
555.795	107
556.008	96
556.221	96
556.433	87
556.646	98
556.859	72
557.071	104
557.284	92
557.496	102
557.709	89
557.921	84
558.134	100
558.346	95
558.559	77
558.771	97
558.984	99
559.196	89
559.409	92
559.621	94
559.833	99
560.046	97
560.258	96
560.47	98
560.683	93
560.895	84
561.107	96
561.32	96
561.532	86
561.744	85
561.956	93
562.168	86
562.381	80
562.593	94
562.805	92
563.017	74
563.229	86
563.441	88
563.653	87
563.865	91
564.077	102
564.289	90
564.501	94
564.713	86
564.925	93
565.137	117
565.349	92
565.561	83
565.773	104
565.985	88
566.197	82
566.408	88
566.62	93
566.832	94
567.044	96
567.255	87
567.467	106
567.679	98
567.891	95
568.102	81
568.314	84
568.526	88
568.737	90
568.949	84
569.161	86
569.372	75
569.584	92
569.795	80
570.007	127
570.218	281
570.43	152
570.641	92
570.853	93
571.064	97
571.276	92
571.487	98
571.698	85
571.91	85
572.121	89
572.333	90
572.544	82
572.755	84
572.966	101
573.178	90
573.389	87
573.6	101
573.811	92
574.023	69
574.234	97
574.445	85
574.656	88
574.867	89
575.078	95
575.289	90
575.501	90
575.712	89
575.923	99
576.134	95
576.345	87
576.556	93
576.767	88
576.978	91
577.188	89
577.399	94
577.61	100
577.821	100
578.032	131
578.243	300
578.454	880
578.665	250
578.875	105
579.086	94
579.297	85
579.508	101
579.718	93
579.929	96
580.14	93
580.35	88
580.561	89
