Data from Circ_2006_H10_HRD10591_00073.txt Node
Date: Wed Jan 03 10:26:18 EST 2024
User: Yrep
Spectrometer: HR+D1059
Trigger mode: 1
Integration Time (sec): 1.000000E-1
Scans to average: 1
Electric dark correction enabled: true
Nonlinearity correction enabled: false
Boxcar width: 0
XAxis mode: Wavelengths
Number of Pixels in Spectrum: 2048
>>>>>Begin Spectral Data<<<<<
223.165	-22.56
223.4	-22.56
223.635	-22.56
223.869	-14.56
224.104	-13.56
224.338	-6.56
224.573	-24.56
224.808	-8.56
225.042	-5.56
225.277	-15.56
225.511	4.44
225.746	14.44
225.98	8.44
226.215	12.44
226.449	8.44
226.683	6.44
226.918	22.44
227.152	34.44
227.387	38.44
227.621	47.44
227.856	56.44
228.09	46.44
228.324	52.44
228.559	47.44
228.793	66.44
229.027	58.44
229.262	69.44
229.496	69.44
229.73	80.44
229.964	83.44
230.199	75.44
230.433	72.44
230.667	79.44
230.901	70.44
231.136	69.44
231.37	72.44
231.604	79.44
231.838	88.44
232.072	80.44
232.306	69.44
232.541	87.44
232.775	89.44
233.009	82.44
233.243	86.44
233.477	88.44
233.711	78.44
233.945	82.44
234.179	84.44
234.413	80.44
234.647	78.44
234.881	87.44
235.115	94.44
235.349	71.44
235.583	81.44
235.817	87.44
236.051	85.44
236.285	90.44
236.519	81.44
236.753	67.44
236.987	86.44
237.221	90.44
237.455	88.44
237.689	87.44
237.922	77.44
238.156	85.44
238.39	66.44
238.624	83.44
238.858	81.44
239.091	73.44
239.325	89.44
239.559	86.44
239.793	71.44
240.027	87.44
240.26	80.44
240.494	86.44
240.728	72.44
240.961	62.44
241.195	90.44
241.429	76.44
241.662	87.44
241.896	89.44
242.13	78.44
242.363	90.44
242.597	77.44
242.83	76.44
243.064	76.44
243.298	72.44
243.531	84.44
243.765	75.44
243.998	89.44
244.232	89.44
244.465	79.44
244.699	74.44
244.932	86.44
245.166	92.44
245.399	84.44
245.633	95.44
245.866	84.44
246.099	77.44
246.333	79.44
246.566	79.44
246.8	77.44
247.033	71.44
247.266	78.44
247.5	84.44
247.733	97.44
247.966	64.44
248.2	76.44
248.433	77.44
248.666	84.44
248.899	90.44
249.133	83.44
249.366	103.44
249.599	87.44
249.832	73.44
250.066	73.44
250.299	80.44
250.532	89.44
250.765	86.44
250.998	97.44
251.231	69.44
251.465	73.44
251.698	87.44
251.931	95.44
252.164	84.44
252.397	69.44
252.63	76.44
252.863	89.44
253.096	90.44
253.329	87.44
253.562	62.44
253.795	81.44
254.028	83.44
254.261	82.44
254.494	94.44
254.727	87.44
254.96	92.44
255.193	77.44
255.426	81.44
255.659	80.44
255.892	76.44
256.124	76.44
256.357	97.44
256.59	92.44
256.823	75.44
257.056	82.44
257.289	86.44
257.521	93.44
257.754	87.44
257.987	92.44
258.22	80.44
258.452	74.44
258.685	85.44
258.918	73.44
259.151	65.44
259.383	88.44
259.616	86.44
259.849	89.44
260.081	86.44
260.314	93.44
260.547	89.44
260.779	85.44
261.012	83.44
261.244	86.44
261.477	97.44
261.71	95.44
261.942	113.44
262.175	116.44
262.407	98.44
262.64	79.44
262.872	80.44
263.105	81.44
263.337	84.44
263.57	85.44
263.802	77.44
264.035	105.44
264.267	94.44
264.499	88.44
264.732	89.44
264.964	87.44
265.197	85.44
265.429	87.44
265.661	78.44
265.894	82.44
266.126	88.44
266.358	81.44
266.591	95.44
266.823	74.44
267.055	87.44
267.287	102.44
267.52	68.44
267.752	68.44
267.984	104.44
268.216	79.44
268.448	86.44
268.681	103.44
268.913	86.44
269.145	89.44
269.377	89.44
269.609	86.44
269.841	103.44
270.073	83.44
270.306	89.44
270.538	82.44
270.77	84.44
271.002	75.44
271.234	89.44
271.466	98.44
271.698	78.44
271.93	82.44
272.162	84.44
272.394	82.44
272.626	81.44
272.858	81.44
273.09	79.44
273.322	73.44
273.553	89.44
273.785	80.44
274.017	87.44
274.249	85.44
274.481	92.44
274.713	94.44
274.945	90.44
275.176	93.44
275.408	80.44
275.64	78.44
275.872	83.44
276.104	96.44
276.335	105.44
276.567	105.44
276.799	96.44
277.031	105.44
277.262	92.44
277.494	78.44
277.726	87.44
277.957	81.44
278.189	83.44
278.421	88.44
278.652	101.44
278.884	84.44
279.115	96.44
279.347	89.44
279.579	96.44
279.81	82.44
280.042	88.44
280.273	79.44
280.505	88.44
280.736	89.44
280.968	85.44
281.199	89.44
281.431	87.44
281.662	107.44
281.894	90.44
282.125	98.44
282.356	107.44
282.588	133.44
282.819	119.44
283.051	102.44
283.282	89.44
283.513	88.44
283.745	81.44
283.976	90.44
284.207	85.44
284.439	84.44
284.67	100.44
284.901	88.44
285.132	89.44
285.364	94.44
285.595	92.44
285.826	90.44
286.057	106.44
286.288	92.44
286.52	74.44
286.751	96.44
286.982	98.44
287.213	82.44
287.444	91.44
287.675	83.44
287.906	89.44
288.138	90.44
288.369	93.44
288.6	90.44
288.831	81.44
289.062	88.44
289.293	90.44
289.524	86.44
289.755	103.44
289.986	100.44
290.217	85.44
290.448	91.44
290.679	95.44
290.91	66.44
291.141	83.44
291.371	74.44
291.602	93.44
291.833	92.44
292.064	93.44
292.295	87.44
292.526	81.44
292.757	88.44
292.987	81.44
293.218	81.44
293.449	93.44
293.68	90.44
293.91	87.44
294.141	96.44
294.372	90.44
294.603	86.44
294.833	80.44
295.064	101.44
295.295	95.44
295.525	90.44
295.756	107.44
295.987	117.44
296.217	135.44
296.448	140.44
296.679	89.44
296.909	89.44
297.14	92.44
297.37	80.44
297.601	88.44
297.831	106.44
298.062	90.44
298.292	102.44
298.523	94.44
298.753	95.44
298.984	89.44
299.214	103.44
299.445	101.44
299.675	97.44
299.905	90.44
300.136	102.44
300.366	93.44
300.597	97.44
300.827	101.44
301.057	117.44
301.288	88.44
301.518	92.44
301.748	83.44
301.979	108.44
302.209	98.44
302.439	86.44
302.669	98.44
302.9	101.44
303.13	88.44
303.36	101.44
303.59	107.44
303.82	111.44
304.051	111.44
304.281	100.44
304.511	94.44
304.741	94.44
304.971	67.44
305.201	88.44
305.431	89.44
305.661	84.44
305.891	100.44
306.121	98.44
306.352	97.44
306.582	105.44
306.812	89.44
307.042	89.44
307.272	97.44
307.502	96.44
307.731	105.44
307.961	93.44
308.191	105.44
308.421	103.44
308.651	100.44
308.881	97.44
309.111	94.44
309.341	87.44
309.571	97.44
309.8	100.44
310.03	106.44
310.26	96.44
310.49	97.44
310.72	92.44
310.949	105.44
311.179	101.44
311.409	102.44
311.639	88.44
311.868	111.44
312.098	82.44
312.328	94.44
312.557	96.44
312.787	117.44
313.017	107.44
313.246	102.44
313.476	93.44
313.706	95.44
313.935	97.44
314.165	104.44
314.394	98.44
314.624	88.44
314.853	99.44
315.083	101.44
315.312	96.44
315.542	94.44
315.771	97.44
316.001	80.44
316.23	96.44
316.46	87.44
316.689	88.44
316.919	100.44
317.148	98.44
317.377	96.44
317.607	93.44
317.836	80.44
318.065	88.44
318.295	84.44
318.524	88.44
318.753	91.44
318.983	94.44
319.212	106.44
319.441	99.44
319.67	111.44
319.9	108.44
320.129	101.44
320.358	93.44
320.587	96.44
320.816	108.44
321.046	114.44
321.275	99.44
321.504	110.44
321.733	86.44
321.962	92.44
322.191	87.44
322.42	109.44
322.649	117.44
322.878	108.44
323.108	117.44
323.337	109.44
323.566	131.44
323.795	154.44
324.024	196.44
324.253	394.44
324.482	840.44
324.71	1716.44
324.939	2255.44
325.168	822.44
325.397	252.44
325.626	154.44
325.855	135.44
326.084	119.44
326.313	126.44
326.542	160.44
326.77	229.44
326.999	474.44
327.228	973.44
327.457	1793.44
327.686	1397.44
327.914	395.44
328.143	194.44
328.372	164.44
328.6	119.44
328.829	121.44
329.058	140.44
329.287	133.44
329.515	110.44
329.744	109.44
329.972	108.44
330.201	129.44
330.43	148.44
330.658	138.44
330.887	150.44
331.115	125.44
331.344	105.44
331.572	98.44
331.801	98.44
332.03	100.44
332.258	106.44
332.486	92.44
332.715	93.44
332.943	91.44
333.172	100.44
333.4	112.44
333.629	106.44
333.857	115.44
334.085	126.44
334.314	126.44
334.542	156.44
334.771	168.44
334.999	99.44
335.227	92.44
335.455	105.44
335.684	90.44
335.912	95.44
336.14	117.44
336.369	108.44
336.597	96.44
336.825	104.44
337.053	104.44
337.281	102.44
337.51	92.44
337.738	99.44
337.966	104.44
338.194	96.44
338.422	85.44
338.65	89.44
338.878	85.44
339.106	97.44
339.334	85.44
339.562	102.44
339.79	95.44
340.018	92.44
340.246	93.44
340.474	98.44
340.702	96.44
340.93	90.44
341.158	92.44
341.386	104.44
341.614	90.44
341.842	91.44
342.07	94.44
342.298	87.44
342.526	98.44
342.754	93.44
342.981	103.44
343.209	107.44
343.437	111.44
343.665	102.44
343.893	104.44
344.12	91.44
344.348	78.44
344.576	94.44
344.804	89.44
345.031	101.44
345.259	95.44
345.487	110.44
345.714	91.44
345.942	95.44
346.17	102.44
346.397	87.44
346.625	98.44
346.853	86.44
347.08	100.44
347.308	99.44
347.535	92.44
347.763	108.44
347.99	99.44
348.218	107.44
348.445	90.44
348.673	95.44
348.9	94.44
349.128	101.44
349.355	89.44
349.583	94.44
349.81	96.44
350.037	89.44
350.265	103.44
350.492	97.44
350.72	99.44
350.947	104.44
351.174	105.44
351.402	105.44
351.629	97.44
351.856	99.44
352.083	100.44
352.311	96.44
352.538	110.44
352.765	109.44
352.992	108.44
353.22	118.44
353.447	117.44
353.674	88.44
353.901	96.44
354.128	91.44
354.355	106.44
354.583	87.44
354.81	103.44
355.037	109.44
355.264	105.44
355.491	89.44
355.718	82.44
355.945	100.44
356.172	89.44
356.399	94.44
356.626	97.44
356.853	92.44
357.08	105.44
357.307	90.44
357.534	97.44
357.761	101.44
357.988	107.44
358.215	86.44
358.441	87.44
358.668	99.44
358.895	89.44
359.122	100.44
359.349	91.44
359.576	94.44
359.802	103.44
360.029	109.44
360.256	100.44
360.483	102.44
360.709	94.44
360.936	99.44
361.163	98.44
361.39	116.44
361.616	85.44
361.843	117.44
362.07	86.44
362.296	98.44
362.523	86.44
362.749	88.44
362.976	86.44
363.203	92.44
363.429	97.44
363.656	89.44
363.882	89.44
364.109	87.44
364.335	90.44
364.562	104.44
364.788	95.44
365.015	95.44
365.241	96.44
365.468	100.44
365.694	92.44
365.92	100.44
366.147	101.44
366.373	85.44
366.599	98.44
366.826	93.44
367.052	82.44
367.278	84.44
367.505	81.44
367.731	101.44
367.957	89.44
368.184	78.44
368.41	103.44
368.636	113.44
368.862	120.44
369.089	119.44
369.315	87.44
369.541	103.44
369.767	84.44
369.993	101.44
370.219	100.44
370.445	83.44
370.672	103.44
370.898	96.44
371.124	97.44
371.35	93.44
371.576	96.44
371.802	101.44
372.028	92.44
372.254	97.44
372.48	70.44
372.706	108.44
372.932	97.44
373.158	97.44
373.384	86.44
373.61	75.44
373.835	103.44
374.061	77.44
374.287	104.44
374.513	99.44
374.739	93.44
374.965	88.44
375.191	85.44
375.416	83.44
375.642	95.44
375.868	111.44
376.094	100.44
376.319	97.44
376.545	87.44
376.771	86.44
376.997	99.44
377.222	101.44
377.448	94.44
377.674	104.44
377.899	103.44
378.125	90.44
378.35	91.44
378.576	96.44
378.802	91.44
379.027	98.44
379.253	110.44
379.478	115.44
379.704	97.44
379.929	113.44
380.155	94.44
380.38	82.44
380.606	104.44
380.831	84.44
381.057	97.44
381.282	100.44
381.507	82.44
381.733	83.44
381.958	93.44
382.184	87.44
382.409	99.44
382.634	113.44
382.86	106.44
383.085	98.44
383.31	97.44
383.535	109.44
383.761	100.44
383.986	115.44
384.211	94.44
384.436	90.44
384.662	96.44
384.887	98.44
385.112	113.44
385.337	98.44
385.562	112.44
385.787	95.44
386.013	116.44
386.238	110.44
386.463	97.44
386.688	115.44
386.913	95.44
387.138	102.44
387.363	93.44
387.588	106.44
387.813	98.44
388.038	90.44
388.263	119.44
388.488	103.44
388.713	108.44
388.938	101.44
389.163	111.44
389.387	93.44
389.612	87.44
389.837	107.44
390.062	82.44
390.287	82.44
390.512	116.44
390.736	108.44
390.961	85.44
391.186	96.44
391.411	99.44
391.636	104.44
391.86	93.44
392.085	87.44
392.31	88.44
392.534	96.44
392.759	92.44
392.984	101.44
393.208	86.44
393.433	90.44
393.658	73.44
393.882	90.44
394.107	78.44
394.331	81.44
394.556	99.44
394.78	78.44
395.005	89.44
395.229	91.44
395.454	97.44
395.678	100.44
395.903	94.44
396.127	98.44
396.352	88.44
396.576	91.44
396.801	89.44
397.025	93.44
397.249	95.44
397.474	97.44
397.698	77.44
397.922	97.44
398.147	80.44
398.371	84.44
398.595	90.44
398.82	90.44
399.044	85.44
399.268	95.44
399.492	89.44
399.717	101.44
399.941	98.44
400.165	97.44
400.389	87.44
400.613	87.44
400.837	93.44
401.062	96.44
401.286	85.44
401.51	106.44
401.734	108.44
401.958	97.44
402.182	119.44
402.406	145.44
402.63	127.44
402.854	92.44
403.078	97.44
403.302	86.44
403.526	97.44
403.75	119.44
403.974	82.44
404.198	94.44
404.422	84.44
404.645	88.44
404.869	94.44
405.093	85.44
405.317	100.44
405.541	95.44
405.765	103.44
405.988	118.44
406.212	181.44
406.436	206.44
406.66	158.44
406.883	93.44
407.107	81.44
407.331	89.44
407.555	92.44
407.778	88.44
408.002	94.44
408.226	94.44
408.449	88.44
408.673	87.44
408.896	109.44
409.12	88.44
409.344	92.44
409.567	85.44
409.791	88.44
410.014	101.44
410.238	92.44
410.461	105.44
410.685	95.44
410.908	89.44
411.132	106.44
411.355	106.44
411.578	107.44
411.802	86.44
412.025	85.44
412.249	102.44
412.472	95.44
412.695	93.44
412.919	88.44
413.142	88.44
413.365	80.44
413.589	87.44
413.812	92.44
414.035	97.44
414.258	86.44
414.482	88.44
414.705	77.44
414.928	77.44
415.151	97.44
415.374	85.44
415.597	94.44
415.821	103.44
416.044	96.44
416.267	97.44
416.49	89.44
416.713	97.44
416.936	94.44
417.159	90.44
417.382	90.44
417.605	71.44
417.828	85.44
418.051	93.44
418.274	94.44
418.497	91.44
418.72	80.44
418.943	74.44
419.166	84.44
419.389	107.44
419.611	98.44
419.834	107.44
420.057	87.44
420.28	94.44
420.503	88.44
420.726	89.44
420.948	86.44
421.171	99.44
421.394	91.44
421.617	91.44
421.839	102.44
422.062	90.44
422.285	84.44
422.507	103.44
422.73	118.44
422.953	104.44
423.175	103.44
423.398	101.44
423.621	106.44
423.843	103.44
424.066	92.44
424.288	92.44
424.511	85.44
424.733	91.44
424.956	104.44
425.178	103.44
425.401	104.44
425.623	102.44
425.846	97.44
426.068	97.44
426.291	96.44
426.513	89.44
426.735	95.44
426.958	101.44
427.18	109.44
427.402	137.44
427.625	169.44
427.847	135.44
428.069	130.44
428.292	86.44
428.514	97.44
428.736	86.44
428.958	89.44
429.181	78.44
429.403	86.44
429.625	88.44
429.847	92.44
430.069	81.44
430.292	82.44
430.514	94.44
430.736	98.44
430.958	87.44
431.18	87.44
431.402	103.44
431.624	92.44
431.846	70.44
432.068	88.44
432.29	89.44
432.512	85.44
432.734	100.44
432.956	102.44
433.178	103.44
433.4	91.44
433.622	87.44
433.844	71.44
434.066	75.44
434.287	90.44
434.509	96.44
434.731	83.44
434.953	86.44
435.175	92.44
435.397	96.44
435.618	90.44
435.84	131.44
436.062	114.44
436.284	109.44
436.505	98.44
436.727	97.44
436.949	106.44
437.17	88.44
437.392	86.44
437.614	111.44
437.835	109.44
438.057	116.44
438.278	106.44
438.5	101.44
438.721	125.44
438.943	101.44
439.165	88.44
439.386	80.44
439.608	96.44
439.829	95.44
440.05	123.44
440.272	133.44
440.493	95.44
440.715	81.44
440.936	105.44
441.158	84.44
441.379	79.44
441.6	91.44
441.822	111.44
442.043	99.44
442.264	113.44
442.486	88.44
442.707	90.44
442.928	108.44
443.149	108.44
443.371	109.44
443.592	110.44
443.813	106.44
444.034	103.44
444.255	96.44
444.476	101.44
444.698	81.44
444.919	106.44
445.14	139.44
445.361	122.44
445.582	119.44
445.803	143.44
446.024	153.44
446.245	129.44
446.466	114.44
446.687	95.44
446.908	84.44
447.129	102.44
447.35	85.44
447.571	98.44
447.792	102.44
448.013	101.44
448.234	103.44
448.455	99.44
448.675	99.44
448.896	108.44
449.117	98.44
449.338	87.44
449.559	116.44
449.779	127.44
450	92.44
450.221	85.44
450.442	109.44
450.662	87.44
450.883	104.44
451.104	110.44
451.324	88.44
451.545	110.44
451.766	69.44
451.986	77.44
452.207	91.44
452.428	95.44
452.648	103.44
452.869	100.44
453.089	112.44
453.31	125.44
453.53	97.44
453.751	81.44
453.971	115.44
454.192	101.44
454.412	101.44
454.633	93.44
454.853	89.44
455.073	92.44
455.294	111.44
455.514	100.44
455.734	93.44
455.955	97.44
456.175	81.44
456.395	91.44
456.616	102.44
456.836	84.44
457.056	88.44
457.276	91.44
457.497	78.44
457.717	86.44
457.937	90.44
458.157	87.44
458.377	98.44
458.598	108.44
458.818	138.44
459.038	164.44
459.258	126.44
459.478	99.44
459.698	88.44
459.918	90.44
460.138	86.44
460.358	79.44
460.578	78.44
460.798	89.44
461.018	100.44
461.238	99.44
461.458	87.44
461.678	81.44
461.898	96.44
462.118	84.44
462.338	87.44
462.558	110.44
462.777	94.44
462.997	89.44
463.217	97.44
463.437	93.44
463.657	92.44
463.876	87.44
464.096	88.44
464.316	108.44
464.536	94.44
464.755	104.44
464.975	104.44
465.195	160.44
465.414	160.44
465.634	108.44
465.854	84.44
466.073	84.44
466.293	77.44
466.512	87.44
466.732	83.44
466.951	98.44
467.171	105.44
467.391	100.44
467.61	97.44
467.829	108.44
468.049	102.44
468.268	105.44
468.488	82.44
468.707	92.44
468.927	102.44
469.146	93.44
469.365	95.44
469.585	94.44
469.804	80.44
470.023	102.44
470.243	97.44
470.462	96.44
470.681	88.44
470.901	86.44
471.12	93.44
471.339	96.44
471.558	94.44
471.777	78.44
471.997	92.44
472.216	129.44
472.435	174.44
472.654	120.44
472.873	88.44
473.092	83.44
473.311	83.44
473.53	92.44
473.749	105.44
473.968	103.44
474.187	104.44
474.406	95.44
474.625	101.44
474.844	92.44
475.063	79.44
475.282	89.44
475.501	88.44
475.72	90.44
475.939	86.44
476.158	72.44
476.377	81.44
476.596	90.44
476.814	93.44
477.033	100.44
477.252	90.44
477.471	88.44
477.69	102.44
477.908	99.44
478.127	95.44
478.346	90.44
478.564	95.44
478.783	92.44
479.002	96.44
479.22	104.44
479.439	112.44
479.658	113.44
479.876	87.44
480.095	93.44
480.313	84.44
480.532	92.44
480.751	109.44
480.969	133.44
481.188	254.44
481.406	179.44
481.624	100.44
481.843	86.44
482.061	102.44
482.28	92.44
482.498	89.44
482.717	84.44
482.935	95.44
483.153	86.44
483.372	87.44
483.59	84.44
483.808	81.44
484.027	94.44
484.245	93.44
484.463	79.44
484.681	102.44
484.9	78.44
485.118	105.44
485.336	104.44
485.554	95.44
485.772	112.44
485.99	92.44
486.209	104.44
486.427	93.44
486.645	130.44
486.863	127.44
487.081	105.44
487.299	111.44
487.517	102.44
487.735	99.44
487.953	94.44
488.171	94.44
488.389	114.44
488.607	106.44
488.825	96.44
489.043	79.44
489.261	103.44
489.479	88.44
489.696	96.44
489.914	101.44
490.132	91.44
490.35	92.44
490.568	99.44
490.786	105.44
491.003	107.44
491.221	98.44
491.439	101.44
491.657	86.44
491.874	98.44
492.092	94.44
492.31	86.44
492.527	86.44
492.745	93.44
492.963	97.44
493.18	102.44
493.398	101.44
493.615	83.44
493.833	104.44
494.05	94.44
494.268	100.44
494.485	88.44
494.703	105.44
494.92	94.44
495.138	94.44
495.355	82.44
495.573	86.44
495.79	90.44
496.008	96.44
496.225	97.44
496.442	90.44
496.66	111.44
496.877	97.44
497.094	87.44
497.312	91.44
497.529	97.44
497.746	81.44
497.963	96.44
498.181	96.44
498.398	82.44
498.615	104.44
498.832	108.44
499.049	90.44
499.267	98.44
499.484	84.44
499.701	80.44
499.918	92.44
500.135	103.44
500.352	93.44
500.569	99.44
500.786	108.44
501.003	97.44
501.22	94.44
501.437	92.44
501.654	98.44
501.871	106.44
502.088	96.44
502.305	111.44
502.522	93.44
502.739	89.44
502.956	104.44
503.172	94.44
503.389	86.44
503.606	111.44
503.823	96.44
504.04	88.44
504.256	97.44
504.473	99.44
504.69	94.44
504.907	97.44
505.123	103.44
505.34	101.44
505.557	100.44
505.773	93.44
505.99	91.44
506.207	99.44
506.423	94.44
506.64	90.44
506.856	94.44
507.073	90.44
507.289	92.44
507.506	93.44
507.722	120.44
507.939	111.44
508.155	106.44
508.372	101.44
508.588	109.44
508.805	99.44
509.021	84.44
509.238	110.44
509.454	111.44
509.67	98.44
509.887	125.44
510.103	140.44
510.319	209.44
510.536	748.44
510.752	2451.44
510.968	687.44
511.184	164.44
511.401	108.44
511.617	90.44
511.833	93.44
512.049	101.44
512.265	83.44
512.481	96.44
512.698	89.44
512.914	93.44
513.13	95.44
513.346	100.44
513.562	102.44
513.778	101.44
513.994	101.44
514.21	100.44
514.426	119.44
