Data from Circ_2006_H10_HRD10591_00012.txt Node
Date: Wed Jan 03 10:26:06 EST 2024
User: Yrep
Spectrometer: HR+D1059
Trigger mode: 1
Integration Time (sec): 1.000000E-1
Scans to average: 1
Electric dark correction enabled: true
Nonlinearity correction enabled: false
Boxcar width: 0
XAxis mode: Wavelengths
Number of Pixels in Spectrum: 2048
>>>>>Begin Spectral Data<<<<<
223.165	-17.5
223.4	-17.5
223.635	-17.5
223.869	-20.5
224.104	-23.5
224.338	-24.5
224.573	-0.5
224.808	-22.5
225.042	-9.5
225.277	5.5
225.511	3.5
225.746	6.5
225.98	7.5
226.215	16.5
226.449	6.5
226.683	22.5
226.918	25.5
227.152	24.5
227.387	26.5
227.621	50.5
227.856	49.5
228.09	61.5
228.324	46.5
228.559	61.5
228.793	45.5
229.027	69.5
229.262	61.5
229.496	75.5
229.73	75.5
229.964	81.5
230.199	70.5
230.433	70.5
230.667	66.5
230.901	76.5
231.136	82.5
231.37	87.5
231.604	79.5
231.838	74.5
232.072	92.5
232.306	84.5
232.541	81.5
232.775	80.5
233.009	83.5
233.243	71.5
233.477	83.5
233.711	83.5
233.945	68.5
234.179	69.5
234.413	82.5
234.647	84.5
234.881	84.5
235.115	88.5
235.349	78.5
235.583	80.5
235.817	89.5
236.051	85.5
236.285	86.5
236.519	86.5
236.753	72.5
236.987	71.5
237.221	77.5
237.455	91.5
237.689	69.5
237.922	89.5
238.156	79.5
238.39	80.5
238.624	89.5
238.858	75.5
239.091	73.5
239.325	85.5
239.559	79.5
239.793	87.5
240.027	79.5
240.26	75.5
240.494	86.5
240.728	80.5
240.961	78.5
241.195	66.5
241.429	82.5
241.662	78.5
241.896	73.5
242.13	82.5
242.363	92.5
242.597	77.5
242.83	82.5
243.064	84.5
243.298	83.5
243.531	79.5
243.765	72.5
243.998	64.5
244.232	75.5
244.465	86.5
244.699	76.5
244.932	82.5
245.166	70.5
245.399	66.5
245.633	75.5
245.866	70.5
246.099	80.5
246.333	81.5
246.566	79.5
246.8	77.5
247.033	61.5
247.266	85.5
247.5	69.5
247.733	70.5
247.966	88.5
248.2	76.5
248.433	78.5
248.666	72.5
248.899	69.5
249.133	87.5
249.366	93.5
249.599	93.5
249.832	78.5
250.066	75.5
250.299	75.5
250.532	87.5
250.765	93.5
250.998	79.5
251.231	78.5
251.465	78.5
251.698	95.5
251.931	57.5
252.164	81.5
252.397	72.5
252.63	81.5
252.863	79.5
253.096	78.5
253.329	78.5
253.562	79.5
253.795	93.5
254.028	73.5
254.261	72.5
254.494	72.5
254.727	78.5
254.96	91.5
255.193	90.5
255.426	81.5
255.659	72.5
255.892	82.5
256.124	79.5
256.357	83.5
256.59	84.5
256.823	73.5
257.056	76.5
257.289	80.5
257.521	72.5
257.754	75.5
257.987	94.5
258.22	95.5
258.452	75.5
258.685	75.5
258.918	90.5
259.151	85.5
259.383	91.5
259.616	75.5
259.849	67.5
260.081	78.5
260.314	70.5
260.547	83.5
260.779	82.5
261.012	79.5
261.244	76.5
261.477	97.5
261.71	85.5
261.942	124.5
262.175	105.5
262.407	85.5
262.64	84.5
262.872	77.5
263.105	81.5
263.337	74.5
263.57	90.5
263.802	88.5
264.035	80.5
264.267	71.5
264.499	79.5
264.732	79.5
264.964	92.5
265.197	83.5
265.429	81.5
265.661	77.5
265.894	82.5
266.126	71.5
266.358	94.5
266.591	82.5
266.823	84.5
267.055	87.5
267.287	87.5
267.52	87.5
267.752	91.5
267.984	87.5
268.216	87.5
268.448	90.5
268.681	83.5
268.913	75.5
269.145	78.5
269.377	86.5
269.609	75.5
269.841	70.5
270.073	93.5
270.306	83.5
270.538	75.5
270.77	82.5
271.002	92.5
271.234	76.5
271.466	97.5
271.698	81.5
271.93	84.5
272.162	85.5
272.394	86.5
272.626	100.5
272.858	81.5
273.09	78.5
273.322	92.5
273.553	70.5
273.785	76.5
274.017	69.5
274.249	82.5
274.481	78.5
274.713	84.5
274.945	91.5
275.176	90.5
275.408	84.5
275.64	97.5
275.872	91.5
276.104	82.5
276.335	89.5
276.567	96.5
276.799	115.5
277.031	104.5
277.262	91.5
277.494	85.5
277.726	77.5
277.957	78.5
278.189	84.5
278.421	78.5
278.652	80.5
278.884	85.5
279.115	94.5
279.347	93.5
279.579	80.5
279.81	77.5
280.042	81.5
280.273	74.5
280.505	90.5
280.736	88.5
280.968	87.5
281.199	88.5
281.431	95.5
281.662	91.5
281.894	76.5
282.125	97.5
282.356	125.5
282.588	122.5
282.819	106.5
283.051	93.5
283.282	96.5
283.513	80.5
283.745	74.5
283.976	83.5
284.207	74.5
284.439	80.5
284.67	86.5
284.901	100.5
285.132	92.5
285.364	77.5
285.595	78.5
285.826	79.5
286.057	83.5
286.288	83.5
286.52	103.5
286.751	77.5
286.982	79.5
287.213	81.5
287.444	91.5
287.675	83.5
287.906	91.5
288.138	99.5
288.369	92.5
288.6	79.5
288.831	90.5
289.062	92.5
289.293	99.5
289.524	89.5
289.755	78.5
289.986	80.5
290.217	78.5
290.448	88.5
290.679	83.5
290.91	89.5
291.141	83.5
291.371	88.5
291.602	91.5
291.833	91.5
292.064	103.5
292.295	88.5
292.526	89.5
292.757	83.5
292.987	87.5
293.218	94.5
293.449	93.5
293.68	92.5
293.91	86.5
294.141	76.5
294.372	100.5
294.603	83.5
294.833	94.5
295.064	89.5
295.295	94.5
295.525	87.5
295.756	95.5
295.987	107.5
296.217	126.5
296.448	125.5
296.679	98.5
296.909	95.5
297.14	77.5
297.37	81.5
297.601	84.5
297.831	93.5
298.062	88.5
298.292	97.5
298.523	93.5
298.753	94.5
298.984	89.5
299.214	89.5
299.445	85.5
299.675	94.5
299.905	83.5
300.136	85.5
300.366	87.5
300.597	97.5
300.827	106.5
301.057	94.5
301.288	104.5
301.518	88.5
301.748	81.5
301.979	107.5
302.209	90.5
302.439	90.5
302.669	86.5
302.9	98.5
303.13	89.5
303.36	97.5
303.59	100.5
303.82	103.5
304.051	93.5
304.281	98.5
304.511	105.5
304.741	87.5
304.971	94.5
305.201	90.5
305.431	85.5
305.661	86.5
305.891	97.5
306.121	98.5
306.352	105.5
306.582	113.5
306.812	71.5
307.042	91.5
307.272	94.5
307.502	92.5
307.731	101.5
307.961	74.5
308.191	90.5
308.421	100.5
308.651	109.5
308.881	88.5
309.111	87.5
309.341	87.5
309.571	85.5
309.8	96.5
310.03	98.5
310.26	95.5
310.49	99.5
310.72	98.5
310.949	97.5
311.179	107.5
311.409	94.5
311.639	99.5
311.868	100.5
312.098	86.5
312.328	88.5
312.557	91.5
312.787	104.5
313.017	103.5
313.246	111.5
313.476	98.5
313.706	94.5
313.935	96.5
314.165	107.5
314.394	97.5
314.624	92.5
314.853	100.5
315.083	90.5
315.312	96.5
315.542	75.5
315.771	93.5
316.001	92.5
316.23	99.5
316.46	102.5
316.689	88.5
316.919	96.5
317.148	96.5
317.377	99.5
317.607	98.5
317.836	88.5
318.065	84.5
318.295	85.5
318.524	89.5
318.753	94.5
318.983	89.5
319.212	98.5
319.441	115.5
319.67	103.5
319.9	101.5
320.129	95.5
320.358	104.5
320.587	114.5
320.816	89.5
321.046	117.5
321.275	98.5
321.504	106.5
321.733	105.5
321.962	85.5
322.191	104.5
322.42	111.5
322.649	122.5
322.878	109.5
323.108	112.5
323.337	126.5
323.566	137.5
323.795	152.5
324.024	234.5
324.253	443.5
324.482	933.5
324.71	1951.5
324.939	2559.5
325.168	945.5
325.397	283.5
325.626	158.5
325.855	127.5
326.084	127.5
326.313	132.5
326.542	155.5
326.77	253.5
326.999	507.5
327.228	1109.5
327.457	2043.5
327.686	1611.5
327.914	411.5
328.143	206.5
328.372	141.5
328.6	139.5
328.829	112.5
329.058	121.5
329.287	121.5
329.515	106.5
329.744	107.5
329.972	116.5
330.201	90.5
330.43	106.5
330.658	122.5
330.887	126.5
331.115	115.5
331.344	107.5
331.572	104.5
331.801	94.5
332.03	102.5
332.258	101.5
332.486	95.5
332.715	100.5
332.943	97.5
333.172	76.5
333.4	105.5
333.629	98.5
333.857	111.5
334.085	107.5
334.314	98.5
334.542	116.5
334.771	99.5
334.999	113.5
335.227	97.5
335.455	84.5
335.684	98.5
335.912	94.5
336.14	91.5
336.369	93.5
336.597	96.5
336.825	95.5
337.053	93.5
337.281	101.5
337.51	97.5
337.738	101.5
337.966	105.5
338.194	102.5
338.422	99.5
338.65	87.5
338.878	81.5
339.106	92.5
339.334	89.5
339.562	87.5
339.79	91.5
340.018	101.5
340.246	98.5
340.474	99.5
340.702	86.5
340.93	87.5
341.158	102.5
341.386	97.5
341.614	87.5
341.842	107.5
342.07	82.5
342.298	97.5
342.526	85.5
342.754	96.5
342.981	89.5
343.209	91.5
343.437	105.5
343.665	80.5
343.893	98.5
344.12	98.5
344.348	104.5
344.576	91.5
344.804	92.5
345.031	121.5
345.259	102.5
345.487	92.5
345.714	98.5
345.942	93.5
346.17	74.5
346.397	99.5
346.625	88.5
346.853	98.5
347.08	96.5
347.308	79.5
347.535	103.5
347.763	87.5
347.99	101.5
348.218	98.5
348.445	98.5
348.673	90.5
348.9	86.5
349.128	111.5
349.355	87.5
349.583	98.5
349.81	85.5
350.037	96.5
350.265	95.5
350.492	92.5
350.72	106.5
350.947	99.5
351.174	107.5
351.402	98.5
351.629	109.5
351.856	76.5
352.083	109.5
352.311	102.5
352.538	98.5
352.765	105.5
352.992	109.5
353.22	100.5
353.447	108.5
353.674	96.5
353.901	95.5
354.128	97.5
354.355	93.5
354.583	104.5
354.81	95.5
355.037	96.5
355.264	101.5
355.491	95.5
355.718	94.5
355.945	92.5
356.172	108.5
356.399	84.5
356.626	111.5
356.853	92.5
357.08	96.5
357.307	91.5
357.534	84.5
357.761	86.5
357.988	95.5
358.215	94.5
358.441	94.5
358.668	100.5
358.895	92.5
359.122	88.5
359.349	92.5
359.576	101.5
359.802	97.5
360.029	106.5
360.256	116.5
360.483	94.5
360.709	90.5
360.936	101.5
361.163	100.5
361.39	94.5
361.616	105.5
361.843	94.5
362.07	99.5
362.296	93.5
362.523	99.5
362.749	83.5
362.976	97.5
363.203	116.5
363.429	86.5
363.656	82.5
363.882	91.5
364.109	91.5
364.335	102.5
364.562	106.5
364.788	96.5
365.015	98.5
365.241	88.5
365.468	105.5
365.694	100.5
365.92	89.5
366.147	92.5
366.373	91.5
366.599	87.5
366.826	85.5
367.052	87.5
367.278	93.5
367.505	86.5
367.731	94.5
367.957	73.5
368.184	94.5
368.41	117.5
368.636	106.5
368.862	108.5
369.089	101.5
369.315	89.5
369.541	90.5
369.767	92.5
369.993	99.5
370.219	83.5
370.445	91.5
370.672	87.5
370.898	85.5
371.124	101.5
371.35	91.5
371.576	91.5
371.802	75.5
372.028	82.5
372.254	76.5
372.48	104.5
372.706	68.5
372.932	91.5
373.158	91.5
373.384	86.5
373.61	104.5
373.835	71.5
374.061	90.5
374.287	106.5
374.513	88.5
374.739	86.5
374.965	68.5
375.191	87.5
375.416	96.5
375.642	91.5
375.868	98.5
376.094	92.5
376.319	92.5
376.545	100.5
376.771	93.5
376.997	95.5
377.222	95.5
377.448	92.5
377.674	102.5
377.899	86.5
378.125	95.5
378.35	99.5
378.576	96.5
378.802	94.5
379.027	86.5
379.253	100.5
379.478	94.5
379.704	97.5
379.929	92.5
380.155	105.5
380.38	96.5
380.606	108.5
380.831	91.5
381.057	97.5
381.282	106.5
381.507	102.5
381.733	95.5
381.958	97.5
382.184	103.5
382.409	100.5
382.634	98.5
382.86	112.5
383.085	115.5
383.31	102.5
383.535	118.5
383.761	108.5
383.986	116.5
384.211	103.5
384.436	105.5
384.662	100.5
384.887	105.5
385.112	103.5
385.337	126.5
385.562	107.5
385.787	135.5
386.013	110.5
386.238	126.5
386.463	108.5
386.688	109.5
386.913	127.5
387.138	106.5
387.363	106.5
387.588	103.5
387.813	111.5
388.038	119.5
388.263	125.5
388.488	109.5
388.713	98.5
388.938	84.5
389.163	83.5
389.387	105.5
389.612	94.5
389.837	102.5
390.062	100.5
390.287	86.5
390.512	106.5
390.736	91.5
390.961	90.5
391.186	92.5
391.411	81.5
391.636	85.5
391.86	78.5
392.085	77.5
392.31	78.5
392.534	87.5
392.759	88.5
392.984	85.5
393.208	102.5
393.433	97.5
393.658	104.5
393.882	82.5
394.107	89.5
394.331	68.5
394.556	78.5
394.78	89.5
395.005	94.5
395.229	91.5
395.454	100.5
395.678	93.5
395.903	85.5
396.127	93.5
396.352	86.5
396.576	89.5
396.801	81.5
397.025	93.5
397.249	93.5
397.474	93.5
397.698	76.5
397.922	79.5
398.147	81.5
398.371	69.5
398.595	83.5
398.82	85.5
399.044	82.5
399.268	83.5
399.492	85.5
399.717	84.5
399.941	83.5
400.165	91.5
400.389	86.5
400.613	97.5
400.837	83.5
401.062	95.5
401.286	81.5
401.51	89.5
401.734	93.5
401.958	96.5
402.182	124.5
402.406	136.5
402.63	107.5
402.854	92.5
403.078	85.5
403.302	82.5
403.526	84.5
403.75	94.5
403.974	97.5
404.198	104.5
404.422	84.5
404.645	96.5
404.869	97.5
405.093	96.5
405.317	87.5
405.541	112.5
405.765	106.5
405.988	125.5
406.212	161.5
406.436	220.5
406.66	127.5
406.883	110.5
407.107	96.5
407.331	97.5
407.555	101.5
407.778	105.5
408.002	97.5
408.226	86.5
408.449	95.5
408.673	99.5
408.896	86.5
409.12	96.5
409.344	81.5
409.567	84.5
409.791	100.5
410.014	102.5
410.238	96.5
410.461	89.5
410.685	90.5
410.908	95.5
411.132	103.5
411.355	93.5
411.578	93.5
411.802	84.5
412.025	90.5
412.249	75.5
412.472	93.5
412.695	92.5
412.919	94.5
413.142	94.5
413.365	76.5
413.589	91.5
413.812	77.5
414.035	94.5
414.258	88.5
414.482	89.5
414.705	84.5
414.928	90.5
415.151	85.5
415.374	98.5
415.597	81.5
415.821	96.5
416.044	79.5
416.267	89.5
416.49	91.5
416.713	99.5
416.936	96.5
417.159	75.5
417.382	91.5
417.605	85.5
417.828	98.5
418.051	101.5
418.274	101.5
418.497	98.5
418.72	79.5
418.943	94.5
419.166	96.5
419.389	85.5
419.611	94.5
419.834	100.5
420.057	88.5
420.28	81.5
420.503	82.5
420.726	109.5
420.948	99.5
421.171	81.5
421.394	91.5
421.617	81.5
421.839	92.5
422.062	106.5
422.285	102.5
422.507	94.5
422.73	110.5
422.953	87.5
423.175	93.5
423.398	100.5
423.621	86.5
423.843	80.5
424.066	90.5
424.288	91.5
424.511	82.5
424.733	110.5
424.956	94.5
425.178	107.5
425.401	104.5
425.623	99.5
425.846	84.5
426.068	101.5
426.291	84.5
426.513	78.5
426.735	96.5
426.958	86.5
427.18	102.5
427.402	141.5
427.625	177.5
427.847	127.5
428.069	111.5
428.292	90.5
428.514	89.5
428.736	78.5
428.958	79.5
429.181	85.5
429.403	89.5
429.625	94.5
429.847	83.5
430.069	107.5
430.292	95.5
430.514	95.5
430.736	90.5
430.958	86.5
431.18	87.5
431.402	94.5
431.624	86.5
431.846	87.5
432.068	87.5
432.29	98.5
432.512	89.5
432.734	83.5
432.956	86.5
433.178	101.5
433.4	95.5
433.622	107.5
433.844	87.5
434.066	91.5
434.287	95.5
434.509	85.5
434.731	102.5
434.953	86.5
435.175	84.5
435.397	88.5
435.618	91.5
435.84	98.5
436.062	132.5
436.284	119.5
436.505	110.5
436.727	106.5
436.949	101.5
437.17	86.5
437.392	88.5
437.614	93.5
437.835	96.5
438.057	126.5
438.278	126.5
438.5	113.5
438.721	109.5
438.943	90.5
439.165	93.5
439.386	80.5
439.608	98.5
439.829	95.5
440.05	135.5
440.272	156.5
440.493	97.5
440.715	85.5
440.936	91.5
441.158	92.5
441.379	96.5
441.6	81.5
441.822	108.5
442.043	98.5
442.264	102.5
442.486	108.5
442.707	87.5
442.928	100.5
443.149	133.5
443.371	140.5
443.592	117.5
443.813	116.5
444.034	109.5
444.255	79.5
444.476	91.5
444.698	87.5
444.919	79.5
445.14	129.5
445.361	107.5
445.582	106.5
445.803	152.5
446.024	133.5
446.245	135.5
446.466	94.5
446.687	96.5
446.908	85.5
447.129	97.5
447.35	89.5
447.571	85.5
447.792	86.5
448.013	104.5
448.234	113.5
448.455	113.5
448.675	117.5
448.896	104.5
449.117	105.5
449.338	114.5
449.559	135.5
449.779	125.5
450	83.5
450.221	71.5
450.442	82.5
450.662	97.5
450.883	107.5
451.104	125.5
451.324	86.5
451.545	101.5
451.766	85.5
451.986	96.5
452.207	88.5
452.428	83.5
452.648	94.5
452.869	108.5
453.089	110.5
453.31	125.5
453.53	102.5
453.751	87.5
453.971	103.5
454.192	111.5
454.412	101.5
454.633	78.5
454.853	75.5
455.073	80.5
455.294	92.5
455.514	92.5
455.734	96.5
455.955	80.5
456.175	85.5
456.395	100.5
456.616	96.5
456.836	91.5
457.056	82.5
457.276	88.5
457.497	85.5
457.717	91.5
457.937	91.5
458.157	89.5
458.377	80.5
458.598	124.5
458.818	149.5
459.038	157.5
459.258	124.5
459.478	85.5
459.698	64.5
459.918	73.5
460.138	77.5
460.358	86.5
460.578	81.5
460.798	91.5
461.018	77.5
461.238	80.5
461.458	74.5
461.678	85.5
461.898	91.5
462.118	101.5
462.338	93.5
462.558	93.5
462.777	93.5
462.997	85.5
463.217	77.5
463.437	84.5
463.657	93.5
463.876	81.5
464.096	86.5
464.316	101.5
464.536	94.5
464.755	80.5
464.975	99.5
465.195	155.5
465.414	153.5
465.634	99.5
465.854	83.5
466.073	85.5
466.293	93.5
466.512	85.5
466.732	83.5
466.951	77.5
467.171	93.5
467.391	93.5
467.61	101.5
467.829	93.5
468.049	88.5
468.268	91.5
468.488	86.5
468.707	94.5
468.927	71.5
469.146	84.5
469.365	91.5
469.585	89.5
469.804	84.5
470.023	94.5
470.243	75.5
470.462	99.5
470.681	110.5
470.901	91.5
471.12	95.5
471.339	86.5
471.558	80.5
471.777	85.5
471.997	86.5
472.216	99.5
472.435	101.5
472.654	94.5
472.873	93.5
473.092	78.5
473.311	93.5
473.53	77.5
473.749	97.5
473.968	104.5
474.187	108.5
474.406	105.5
474.625	81.5
474.844	94.5
475.063	99.5
475.282	82.5
475.501	87.5
475.72	90.5
475.939	66.5
476.158	80.5
476.377	90.5
476.596	101.5
476.814	92.5
477.033	86.5
477.252	87.5
477.471	96.5
477.69	98.5
477.908	81.5
478.127	76.5
478.346	82.5
478.564	92.5
478.783	100.5
479.002	97.5
479.22	85.5
479.439	93.5
479.658	107.5
479.876	100.5
480.095	106.5
480.313	87.5
480.532	90.5
480.751	87.5
480.969	91.5
481.188	112.5
481.406	112.5
481.624	82.5
481.843	83.5
482.061	70.5
482.28	91.5
482.498	73.5
482.717	88.5
482.935	91.5
483.153	81.5
483.372	95.5
483.59	93.5
483.808	79.5
484.027	96.5
484.245	91.5
484.463	95.5
484.681	107.5
484.9	81.5
485.118	94.5
485.336	106.5
485.554	95.5
485.772	95.5
485.99	104.5
486.209	97.5
486.427	112.5
486.645	107.5
486.863	107.5
487.081	100.5
487.299	115.5
487.517	106.5
487.735	79.5
487.953	82.5
488.171	100.5
488.389	78.5
488.607	98.5
488.825	85.5
489.043	86.5
489.261	78.5
489.479	95.5
489.696	90.5
489.914	86.5
490.132	81.5
490.35	92.5
490.568	95.5
490.786	89.5
491.003	95.5
491.221	83.5
491.439	81.5
491.657	109.5
491.874	99.5
492.092	81.5
492.31	91.5
492.527	83.5
492.745	85.5
492.963	91.5
493.18	94.5
493.398	104.5
493.615	99.5
493.833	102.5
494.05	68.5
494.268	95.5
494.485	93.5
494.703	84.5
494.92	94.5
495.138	89.5
495.355	93.5
495.573	78.5
495.79	94.5
496.008	92.5
496.225	83.5
496.442	91.5
496.66	98.5
496.877	95.5
497.094	97.5
497.312	88.5
497.529	98.5
497.746	90.5
497.963	74.5
498.181	102.5
498.398	97.5
498.615	96.5
498.832	109.5
499.049	92.5
499.267	95.5
499.484	96.5
499.701	105.5
499.918	89.5
500.135	92.5
500.352	93.5
500.569	85.5
500.786	90.5
501.003	98.5
501.22	93.5
501.437	76.5
501.654	93.5
501.871	97.5
502.088	95.5
502.305	92.5
502.522	92.5
502.739	101.5
502.956	75.5
503.172	77.5
503.389	97.5
503.606	89.5
503.823	93.5
504.04	87.5
504.256	86.5
504.473	90.5
504.69	86.5
504.907	97.5
505.123	90.5
505.34	97.5
505.557	96.5
505.773	86.5
505.99	94.5
506.207	87.5
506.423	85.5
506.64	86.5
506.856	93.5
507.073	85.5
507.289	97.5
507.506	98.5
507.722	102.5
507.939	114.5
508.155	95.5
508.372	80.5
508.588	97.5
508.805	110.5
509.021	87.5
509.238	100.5
509.454	93.5
509.67	99.5
509.887	123.5
510.103	130.5
510.319	216.5
510.536	719.5
510.752	2263.5
510.968	643.5
511.184	146.5
511.401	106.5
511.617	89.5
511.833	95.5
512.049	108.5
512.265	95.5
512.481	84.5
512.698	102.5
512.914	91.5
513.13	95.5
513.346	94.5
513.562	99.5
513.778	101.5
513.994	99.5
514.21	106.5
514.426	103.5
514.642	128.5
514.858	128.5
515.074	160.5
515.29	433.5
515.506	1452.5
515.721	539.5
515.937	146.5
516.153	115.5
516.369	82.5
516.585	80.5
516.801	105.5
517.016	95.5
517.232	87.5
517.448	87.5
517.664	93.5
517.879	96.5
518.095	102.5
518.311	94.5
518.527	99.5
518.742	82.5
518.958	101.5
519.173	94.5
519.389	93.5
519.605	82.5
519.82	98.5
520.036	93.5
520.251	105.5
520.467	97.5
520.682	111.5
520.898	106.5
521.113	105.5
521.329	137.5
521.544	215.5
521.76	531.5
521.975	2373.5
522.19	1459.5
522.406	318.5
522.621	133.5
522.836	96.5
523.052	100.5
523.267	91.5
523.482	94.5
523.698	90.5
523.913	112.5
524.128	101.5
524.343	84.5
524.559	83.5
524.774	92.5
524.989	89.5
525.204	103.5
525.419	94.5
525.634	102.5
525.849	91.5
526.064	101.5
526.28	77.5
526.495	86.5
526.71	93.5
526.925	89.5
527.14	88.5
527.355	94.5
527.57	80.5
527.785	102.5
527.999	82.5
528.214	101.5
528.429	94.5
528.644	85.5
528.859	98.5
529.074	90.5
529.289	103.5
529.503	180.5
529.718	121.5
529.933	98.5
530.148	85.5
530.363	77.5
530.577	80.5
530.792	78.5
531.007	85.5
531.221	85.5
531.436	87.5
531.651	94.5
531.865	96.5
532.08	90.5
532.295	95.5
532.509	95.5
532.724	89.5
532.938	78.5
533.153	96.5
533.367	98.5
533.582	104.5
533.796	76.5
534.011	101.5
534.225	94.5
534.44	83.5
534.654	80.5
534.868	94.5
535.083	88.5
