Data from Circ_2006_H10_HRD10591_00019.txt Node
Date: Wed Jan 03 10:26:07 EST 2024
User: Yrep
Spectrometer: HR+D1059
Trigger mode: 1
Integration Time (sec): 1.000000E-1
Scans to average: 1
Electric dark correction enabled: true
Nonlinearity correction enabled: false
Boxcar width: 0
XAxis mode: Wavelengths
Number of Pixels in Spectrum: 2048
>>>>>Begin Spectral Data<<<<<
223.165	-23.19
223.4	-23.19
223.635	-23.19
223.869	-21.19
224.104	-14.19
224.338	-0.19
224.573	-9.19
224.808	-26.19
225.042	-19.19
225.277	-15.19
225.511	2.81
225.746	1.81
225.98	13.81
226.215	9.81
226.449	15.81
226.683	21.81
226.918	31.81
227.152	30.81
227.387	41.81
227.621	33.81
227.856	33.81
228.09	46.81
228.324	42.81
228.559	56.81
228.793	73.81
229.027	70.81
229.262	73.81
229.496	78.81
229.73	82.81
229.964	86.81
230.199	72.81
230.433	85.81
230.667	68.81
230.901	74.81
231.136	67.81
231.37	75.81
231.604	82.81
231.838	82.81
232.072	76.81
232.306	80.81
232.541	74.81
232.775	69.81
233.009	69.81
233.243	74.81
233.477	80.81
233.711	75.81
233.945	86.81
234.179	82.81
234.413	85.81
234.647	82.81
234.881	78.81
235.115	75.81
235.349	82.81
235.583	78.81
235.817	75.81
236.051	74.81
236.285	84.81
236.519	82.81
236.753	78.81
236.987	65.81
237.221	78.81
237.455	86.81
237.689	73.81
237.922	66.81
238.156	86.81
238.39	71.81
238.624	80.81
238.858	74.81
239.091	61.81
239.325	59.81
239.559	69.81
239.793	63.81
240.027	77.81
240.26	81.81
240.494	75.81
240.728	79.81
240.961	77.81
241.195	79.81
241.429	73.81
241.662	64.81
241.896	75.81
242.13	68.81
242.363	61.81
242.597	76.81
242.83	61.81
243.064	60.81
243.298	78.81
243.531	61.81
243.765	67.81
243.998	85.81
244.232	85.81
244.465	90.81
244.699	81.81
244.932	79.81
245.166	66.81
245.399	78.81
245.633	92.81
245.866	74.81
246.099	54.81
246.333	81.81
246.566	75.81
246.8	75.81
247.033	70.81
247.266	73.81
247.5	64.81
247.733	74.81
247.966	82.81
248.2	73.81
248.433	81.81
248.666	75.81
248.899	69.81
249.133	71.81
249.366	100.81
249.599	101.81
249.832	74.81
250.066	75.81
250.299	87.81
250.532	82.81
250.765	64.81
250.998	70.81
251.231	83.81
251.465	90.81
251.698	92.81
251.931	72.81
252.164	89.81
252.397	76.81
252.63	77.81
252.863	72.81
253.096	86.81
253.329	75.81
253.562	81.81
253.795	61.81
254.028	81.81
254.261	70.81
254.494	71.81
254.727	75.81
254.96	63.81
255.193	67.81
255.426	66.81
255.659	73.81
255.892	80.81
256.124	70.81
256.357	79.81
256.59	86.81
256.823	86.81
257.056	67.81
257.289	82.81
257.521	69.81
257.754	72.81
257.987	69.81
258.22	70.81
258.452	84.81
258.685	80.81
258.918	70.81
259.151	71.81
259.383	82.81
259.616	58.81
259.849	81.81
260.081	79.81
260.314	71.81
260.547	82.81
260.779	75.81
261.012	77.81
261.244	76.81
261.477	90.81
261.71	89.81
261.942	119.81
262.175	115.81
262.407	90.81
262.64	77.81
262.872	83.81
263.105	79.81
263.337	83.81
263.57	67.81
263.802	70.81
264.035	74.81
264.267	73.81
264.499	81.81
264.732	67.81
264.964	89.81
265.197	81.81
265.429	91.81
265.661	69.81
265.894	85.81
266.126	80.81
266.358	84.81
266.591	73.81
266.823	82.81
267.055	81.81
267.287	79.81
267.52	70.81
267.752	94.81
267.984	86.81
268.216	76.81
268.448	66.81
268.681	74.81
268.913	74.81
269.145	87.81
269.377	74.81
269.609	74.81
269.841	84.81
270.073	87.81
270.306	86.81
270.538	78.81
270.77	67.81
271.002	67.81
271.234	75.81
271.466	85.81
271.698	75.81
271.93	90.81
272.162	86.81
272.394	93.81
272.626	93.81
272.858	87.81
273.09	86.81
273.322	95.81
273.553	77.81
273.785	75.81
274.017	66.81
274.249	86.81
274.481	96.81
274.713	81.81
274.945	91.81
275.176	75.81
275.408	81.81
275.64	84.81
275.872	92.81
276.104	82.81
276.335	93.81
276.567	104.81
276.799	108.81
277.031	98.81
277.262	81.81
277.494	92.81
277.726	71.81
277.957	75.81
278.189	79.81
278.421	80.81
278.652	71.81
278.884	93.81
279.115	76.81
279.347	84.81
279.579	74.81
279.81	77.81
280.042	85.81
280.273	76.81
280.505	92.81
280.736	74.81
280.968	73.81
281.199	70.81
281.431	92.81
281.662	82.81
281.894	78.81
282.125	108.81
282.356	121.81
282.588	157.81
282.819	110.81
283.051	83.81
283.282	90.81
283.513	71.81
283.745	63.81
283.976	87.81
284.207	81.81
284.439	94.81
284.67	86.81
284.901	78.81
285.132	65.81
285.364	86.81
285.595	84.81
285.826	77.81
286.057	92.81
286.288	93.81
286.52	86.81
286.751	80.81
286.982	88.81
287.213	84.81
287.444	88.81
287.675	87.81
287.906	89.81
288.138	86.81
288.369	89.81
288.6	94.81
288.831	83.81
289.062	93.81
289.293	79.81
289.524	83.81
289.755	78.81
289.986	77.81
290.217	95.81
290.448	79.81
290.679	76.81
290.91	86.81
291.141	82.81
291.371	86.81
291.602	73.81
291.833	95.81
292.064	88.81
292.295	87.81
292.526	74.81
292.757	88.81
292.987	77.81
293.218	82.81
293.449	81.81
293.68	95.81
293.91	89.81
294.141	77.81
294.372	90.81
294.603	82.81
294.833	87.81
295.064	88.81
295.295	83.81
295.525	91.81
295.756	107.81
295.987	132.81
296.217	166.81
296.448	140.81
296.679	98.81
296.909	92.81
297.14	80.81
297.37	75.81
297.601	81.81
297.831	75.81
298.062	83.81
298.292	73.81
298.523	92.81
298.753	89.81
298.984	76.81
299.214	82.81
299.445	77.81
299.675	87.81
299.905	95.81
300.136	86.81
300.366	86.81
300.597	90.81
300.827	91.81
301.057	92.81
301.288	102.81
301.518	93.81
301.748	79.81
301.979	96.81
302.209	109.81
302.439	81.81
302.669	89.81
302.9	85.81
303.13	84.81
303.36	89.81
303.59	107.81
303.82	109.81
304.051	100.81
304.281	84.81
304.511	101.81
304.741	89.81
304.971	83.81
305.201	89.81
305.431	94.81
305.661	95.81
305.891	107.81
306.121	92.81
306.352	105.81
306.582	111.81
306.812	83.81
307.042	88.81
307.272	92.81
307.502	93.81
307.731	87.81
307.961	84.81
308.191	81.81
308.421	91.81
308.651	110.81
308.881	102.81
309.111	83.81
309.341	89.81
309.571	92.81
309.8	85.81
310.03	93.81
310.26	93.81
310.49	103.81
310.72	98.81
310.949	110.81
311.179	112.81
311.409	105.81
311.639	85.81
311.868	101.81
312.098	98.81
312.328	105.81
312.557	104.81
312.787	98.81
313.017	101.81
313.246	78.81
313.476	92.81
313.706	83.81
313.935	86.81
314.165	99.81
314.394	99.81
314.624	91.81
314.853	83.81
315.083	88.81
315.312	88.81
315.542	93.81
315.771	90.81
316.001	97.81
316.23	69.81
316.46	101.81
316.689	108.81
316.919	91.81
317.148	75.81
317.377	88.81
317.607	95.81
317.836	82.81
318.065	86.81
318.295	103.81
318.524	111.81
318.753	100.81
318.983	95.81
319.212	92.81
319.441	102.81
319.67	103.81
319.9	80.81
320.129	78.81
320.358	86.81
320.587	85.81
320.816	93.81
321.046	92.81
321.275	109.81
321.504	92.81
321.733	95.81
321.962	98.81
322.191	104.81
322.42	96.81
322.649	137.81
322.878	110.81
323.108	130.81
323.337	127.81
323.566	136.81
323.795	162.81
324.024	262.81
324.253	559.81
324.482	1207.81
324.71	2525.81
324.939	3281.81
325.168	1157.81
325.397	323.81
325.626	165.81
325.855	145.81
326.084	135.81
326.313	161.81
326.542	185.81
326.77	286.81
326.999	647.81
327.228	1359.81
327.457	2507.81
327.686	1954.81
327.914	500.81
328.143	227.81
328.372	176.81
328.6	142.81
328.829	137.81
329.058	146.81
329.287	151.81
329.515	105.81
329.744	103.81
329.972	115.81
330.201	103.81
330.43	130.81
330.658	134.81
330.887	168.81
331.115	127.81
331.344	112.81
331.572	94.81
331.801	118.81
332.03	99.81
332.258	92.81
332.486	94.81
332.715	92.81
332.943	68.81
333.172	93.81
333.4	87.81
333.629	94.81
333.857	112.81
334.085	119.81
334.314	106.81
334.542	108.81
334.771	105.81
334.999	85.81
335.227	98.81
335.455	112.81
335.684	90.81
335.912	83.81
336.14	96.81
336.369	110.81
336.597	109.81
336.825	102.81
337.053	91.81
337.281	87.81
337.51	90.81
337.738	88.81
337.966	95.81
338.194	101.81
338.422	85.81
338.65	90.81
338.878	97.81
339.106	86.81
339.334	103.81
339.562	90.81
339.79	99.81
340.018	81.81
340.246	95.81
340.474	96.81
340.702	94.81
340.93	94.81
341.158	98.81
341.386	94.81
341.614	106.81
341.842	81.81
342.07	78.81
342.298	109.81
342.526	91.81
342.754	87.81
342.981	78.81
343.209	88.81
343.437	88.81
343.665	103.81
343.893	90.81
344.12	92.81
344.348	86.81
344.576	87.81
344.804	85.81
345.031	89.81
345.259	95.81
345.487	96.81
345.714	95.81
345.942	89.81
346.17	70.81
346.397	81.81
346.625	94.81
346.853	80.81
347.08	75.81
347.308	87.81
347.535	97.81
347.763	80.81
347.99	104.81
348.218	101.81
348.445	101.81
348.673	86.81
348.9	87.81
349.128	92.81
349.355	87.81
349.583	87.81
349.81	79.81
350.037	90.81
350.265	91.81
350.492	76.81
350.72	93.81
350.947	105.81
351.174	102.81
351.402	111.81
351.629	99.81
351.856	103.81
352.083	109.81
352.311	121.81
352.538	113.81
352.765	112.81
352.992	118.81
353.22	122.81
353.447	118.81
353.674	93.81
353.901	99.81
354.128	103.81
354.355	90.81
354.583	98.81
354.81	99.81
355.037	79.81
355.264	84.81
355.491	86.81
355.718	92.81
355.945	87.81
356.172	91.81
356.399	90.81
356.626	83.81
356.853	91.81
357.08	83.81
357.307	82.81
357.534	90.81
357.761	95.81
357.988	94.81
358.215	86.81
358.441	85.81
358.668	79.81
358.895	103.81
359.122	80.81
359.349	83.81
359.576	90.81
359.802	120.81
360.029	130.81
360.256	121.81
360.483	101.81
360.709	82.81
360.936	84.81
361.163	83.81
361.39	96.81
361.616	95.81
361.843	82.81
362.07	100.81
362.296	107.81
362.523	80.81
362.749	90.81
362.976	86.81
363.203	86.81
363.429	78.81
363.656	91.81
363.882	92.81
364.109	80.81
364.335	95.81
364.562	95.81
364.788	92.81
365.015	88.81
365.241	107.81
365.468	99.81
365.694	109.81
365.92	99.81
366.147	93.81
366.373	81.81
366.599	78.81
366.826	82.81
367.052	87.81
367.278	78.81
367.505	85.81
367.731	101.81
367.957	81.81
368.184	90.81
368.41	93.81
368.636	124.81
368.862	124.81
369.089	97.81
369.315	83.81
369.541	95.81
369.767	94.81
369.993	90.81
370.219	82.81
370.445	69.81
370.672	88.81
370.898	92.81
371.124	69.81
371.35	94.81
371.576	88.81
371.802	77.81
372.028	75.81
372.254	90.81
372.48	92.81
372.706	74.81
372.932	81.81
373.158	96.81
373.384	96.81
373.61	95.81
373.835	86.81
374.061	91.81
374.287	90.81
374.513	93.81
374.739	82.81
374.965	79.81
375.191	78.81
375.416	84.81
375.642	100.81
375.868	96.81
376.094	78.81
376.319	76.81
376.545	89.81
376.771	86.81
376.997	86.81
377.222	97.81
377.448	88.81
377.674	80.81
377.899	89.81
378.125	83.81
378.35	80.81
378.576	101.81
378.802	83.81
379.027	85.81
379.253	91.81
379.478	94.81
379.704	94.81
379.929	98.81
380.155	94.81
380.38	93.81
380.606	87.81
380.831	103.81
381.057	109.81
381.282	102.81
381.507	76.81
381.733	92.81
381.958	94.81
382.184	92.81
382.409	88.81
382.634	107.81
382.86	93.81
383.085	95.81
383.31	107.81
383.535	104.81
383.761	106.81
383.986	98.81
384.211	91.81
384.436	80.81
384.662	96.81
384.887	104.81
385.112	96.81
385.337	101.81
385.562	104.81
385.787	110.81
386.013	118.81
386.238	125.81
386.463	115.81
386.688	111.81
386.913	107.81
387.138	106.81
387.363	92.81
387.588	104.81
387.813	84.81
388.038	107.81
388.263	112.81
388.488	108.81
388.713	94.81
388.938	92.81
389.163	98.81
389.387	108.81
389.612	87.81
389.837	93.81
390.062	80.81
390.287	92.81
390.512	88.81
390.736	77.81
390.961	92.81
391.186	80.81
391.411	111.81
391.636	83.81
391.86	79.81
392.085	94.81
392.31	81.81
392.534	81.81
392.759	74.81
392.984	81.81
393.208	90.81
393.433	94.81
393.658	91.81
393.882	77.81
394.107	68.81
394.331	86.81
394.556	85.81
394.78	79.81
395.005	71.81
395.229	70.81
395.454	83.81
395.678	82.81
395.903	73.81
396.127	85.81
396.352	79.81
396.576	83.81
396.801	83.81
397.025	101.81
397.249	76.81
397.474	80.81
397.698	86.81
397.922	85.81
398.147	84.81
398.371	90.81
398.595	100.81
398.82	88.81
399.044	83.81
399.268	77.81
399.492	73.81
399.717	89.81
399.941	77.81
400.165	78.81
400.389	83.81
400.613	90.81
400.837	81.81
401.062	97.81
401.286	87.81
401.51	81.81
401.734	83.81
401.958	102.81
402.182	138.81
402.406	177.81
402.63	136.81
402.854	114.81
403.078	84.81
403.302	73.81
403.526	78.81
403.75	86.81
403.974	88.81
404.198	83.81
404.422	84.81
404.645	103.81
404.869	87.81
405.093	107.81
405.317	95.81
405.541	98.81
405.765	107.81
405.988	127.81
406.212	201.81
406.436	291.81
406.66	165.81
406.883	118.81
407.107	110.81
407.331	93.81
407.555	106.81
407.778	99.81
408.002	90.81
408.226	81.81
408.449	78.81
408.673	74.81
408.896	90.81
409.12	83.81
409.344	83.81
409.567	66.81
409.791	90.81
410.014	93.81
410.238	103.81
410.461	89.81
410.685	96.81
410.908	97.81
411.132	108.81
411.355	108.81
411.578	91.81
411.802	86.81
412.025	93.81
412.249	91.81
412.472	85.81
412.695	94.81
412.919	83.81
413.142	81.81
413.365	81.81
413.589	85.81
413.812	85.81
414.035	89.81
414.258	95.81
414.482	81.81
414.705	86.81
414.928	82.81
415.151	88.81
415.374	79.81
415.597	91.81
415.821	88.81
416.044	83.81
416.267	79.81
416.49	82.81
416.713	82.81
416.936	95.81
417.159	74.81
417.382	95.81
417.605	98.81
417.828	88.81
418.051	98.81
418.274	71.81
418.497	72.81
418.72	75.81
418.943	95.81
419.166	80.81
419.389	83.81
419.611	84.81
419.834	90.81
420.057	72.81
420.28	78.81
420.503	77.81
420.726	79.81
420.948	82.81
421.171	99.81
421.394	102.81
421.617	88.81
421.839	86.81
422.062	94.81
422.285	90.81
422.507	98.81
422.73	98.81
422.953	105.81
423.175	82.81
423.398	89.81
423.621	84.81
423.843	90.81
424.066	74.81
424.288	78.81
424.511	86.81
424.733	93.81
424.956	106.81
425.178	97.81
425.401	106.81
425.623	107.81
425.846	105.81
426.068	94.81
426.291	86.81
426.513	105.81
426.735	103.81
426.958	90.81
427.18	111.81
427.402	167.81
427.625	203.81
427.847	138.81
428.069	95.81
428.292	79.81
428.514	101.81
428.736	82.81
428.958	92.81
429.181	87.81
429.403	86.81
429.625	77.81
429.847	90.81
430.069	101.81
430.292	95.81
430.514	89.81
430.736	81.81
430.958	84.81
431.18	82.81
431.402	91.81
431.624	88.81
431.846	89.81
432.068	82.81
432.29	80.81
432.512	92.81
432.734	94.81
432.956	92.81
433.178	97.81
433.4	99.81
433.622	88.81
433.844	75.81
434.066	88.81
434.287	102.81
434.509	92.81
434.731	102.81
434.953	82.81
435.175	79.81
435.397	87.81
435.618	77.81
435.84	117.81
436.062	135.81
436.284	125.81
436.505	113.81
436.727	103.81
436.949	89.81
437.17	76.81
437.392	86.81
437.614	107.81
437.835	104.81
438.057	135.81
438.278	121.81
438.5	117.81
438.721	134.81
438.943	99.81
439.165	77.81
439.386	79.81
439.608	103.81
439.829	102.81
440.05	157.81
440.272	151.81
440.493	98.81
440.715	89.81
440.936	79.81
441.158	81.81
441.379	85.81
441.6	94.81
441.822	87.81
442.043	102.81
442.264	92.81
442.486	95.81
442.707	90.81
442.928	100.81
443.149	134.81
443.371	139.81
443.592	121.81
443.813	118.81
444.034	104.81
444.255	97.81
444.476	74.81
444.698	85.81
444.919	88.81
445.14	117.81
445.361	109.81
445.582	137.81
445.803	148.81
446.024	159.81
446.245	174.81
446.466	122.81
446.687	87.81
446.908	92.81
447.129	79.81
447.35	92.81
447.571	85.81
447.792	83.81
448.013	106.81
448.234	94.81
448.455	88.81
448.675	110.81
448.896	119.81
449.117	111.81
449.338	98.81
449.559	147.81
449.779	139.81
450	92.81
450.221	69.81
450.442	86.81
450.662	97.81
450.883	117.81
451.104	118.81
451.324	77.81
451.545	95.81
451.766	78.81
451.986	88.81
452.207	96.81
452.428	80.81
452.648	103.81
452.869	105.81
453.089	102.81
453.31	140.81
453.53	104.81
453.751	101.81
453.971	94.81
454.192	110.81
454.412	107.81
454.633	84.81
454.853	92.81
455.073	83.81
455.294	80.81
455.514	102.81
455.734	72.81
455.955	77.81
456.175	87.81
456.395	94.81
456.616	81.81
456.836	67.81
457.056	87.81
457.276	82.81
457.497	74.81
457.717	76.81
457.937	91.81
458.157	85.81
458.377	103.81
458.598	115.81
458.818	180.81
459.038	162.81
459.258	131.81
459.478	93.81
459.698	96.81
459.918	86.81
460.138	83.81
460.358	82.81
460.578	94.81
460.798	77.81
461.018	85.81
461.238	77.81
461.458	82.81
461.678	83.81
461.898	80.81
462.118	70.81
462.338	87.81
462.558	91.81
462.777	71.81
462.997	75.81
463.217	87.81
463.437	80.81
463.657	90.81
463.876	101.81
464.096	93.81
464.316	109.81
464.536	102.81
464.755	89.81
464.975	121.81
465.195	212.81
465.414	207.81
465.634	113.81
465.854	78.81
466.073	80.81
466.293	96.81
466.512	70.81
466.732	82.81
466.951	88.81
467.171	87.81
467.391	90.81
467.61	109.81
467.829	88.81
468.049	88.81
468.268	100.81
468.488	91.81
468.707	81.81
468.927	78.81
469.146	90.81
469.365	82.81
469.585	77.81
469.804	94.81
470.023	111.81
470.243	88.81
470.462	110.81
470.681	117.81
470.901	80.81
471.12	77.81
471.339	79.81
471.558	83.81
471.777	88.81
471.997	77.81
472.216	89.81
472.435	119.81
472.654	81.81
472.873	101.81
473.092	87.81
473.311	75.81
473.53	96.81
473.749	90.81
473.968	97.81
474.187	100.81
474.406	93.81
474.625	87.81
474.844	89.81
475.063	87.81
475.282	88.81
475.501	78.81
475.72	92.81
475.939	83.81
476.158	77.81
476.377	89.81
476.596	75.81
476.814	86.81
477.033	79.81
477.252	83.81
477.471	94.81
477.69	89.81
477.908	89.81
478.127	80.81
478.346	89.81
478.564	87.81
478.783	92.81
479.002	103.81
479.22	90.81
479.439	112.81
479.658	107.81
479.876	81.81
480.095	87.81
480.313	93.81
480.532	86.81
480.751	89.81
480.969	85.81
481.188	137.81
481.406	123.81
481.624	92.81
481.843	81.81
482.061	90.81
482.28	99.81
482.498	74.81
482.717	72.81
482.935	81.81
483.153	80.81
483.372	91.81
483.59	68.81
483.808	75.81
484.027	82.81
484.245	78.81
484.463	83.81
484.681	91.81
484.9	93.81
485.118	95.81
485.336	91.81
485.554	89.81
485.772	100.81
485.99	106.81
486.209	102.81
486.427	117.81
486.645	115.81
486.863	114.81
487.081	106.81
487.299	97.81
487.517	95.81
487.735	93.81
487.953	86.81
488.171	85.81
488.389	92.81
488.607	103.81
488.825	93.81
489.043	93.81
489.261	92.81
489.479	74.81
489.696	89.81
489.914	79.81
490.132	88.81
490.35	93.81
490.568	100.81
490.786	82.81
491.003	70.81
491.221	92.81
491.439	88.81
491.657	89.81
491.874	88.81
492.092	80.81
492.31	91.81
492.527	90.81
492.745	91.81
492.963	80.81
493.18	93.81
493.398	88.81
493.615	97.81
493.833	101.81
494.05	98.81
494.268	81.81
494.485	79.81
494.703	94.81
494.92	83.81
495.138	80.81
495.355	75.81
495.573	78.81
495.79	84.81
496.008	76.81
496.225	96.81
496.442	94.81
496.66	92.81
496.877	85.81
497.094	81.81
497.312	77.81
497.529	85.81
497.746	99.81
497.963	98.81
498.181	73.81
498.398	87.81
498.615	124.81
498.832	94.81
499.049	93.81
499.267	98.81
499.484	92.81
499.701	96.81
499.918	97.81
500.135	76.81
500.352	88.81
500.569	89.81
500.786	82.81
501.003	76.81
501.22	88.81
501.437	89.81
501.654	101.81
501.871	111.81
502.088	98.81
502.305	78.81
502.522	77.81
502.739	87.81
502.956	88.81
503.172	87.81
503.389	89.81
503.606	122.81
503.823	98.81
504.04	86.81
504.256	86.81
504.473	83.81
504.69	83.81
504.907	83.81
505.123	87.81
505.34	97.81
505.557	78.81
505.773	75.81
505.99	84.81
506.207	82.81
506.423	77.81
506.64	80.81
506.856	87.81
507.073	95.81
507.289	105.81
507.506	87.81
507.722	121.81
507.939	126.81
508.155	95.81
508.372	86.81
508.588	102.81
508.805	99.81
509.021	97.81
509.238	95.81
509.454	102.81
509.67	97.81
509.887	114.81
510.103	150.81
510.319	246.81
510.536	928.81
510.752	3127.81
510.968	817.81
511.184	169.81
511.401	109.81
511.617	88.81
511.833	90.81
512.049	91.81
512.265	112.81
512.481	88.81
512.698	81.81
512.914	92.81
513.13	93.81
513.346	108.81
513.562	98.81
513.778	91.81
513.994	100.81
514.21	100.81
514.426	144.81
514.642	159.81
514.858	150.81
515.074	212.81
515.29	599.81
515.506	2113.81
515.721	765.81
515.937	189.81
