Data from Circ_2006_H10_HRD10591_00056.txt Node
Date: Wed Jan 03 10:26:15 EST 2024
User: Yrep
Spectrometer: HR+D1059
Trigger mode: 1
Integration Time (sec): 1.000000E-1
Scans to average: 1
Electric dark correction enabled: true
Nonlinearity correction enabled: false
Boxcar width: 0
XAxis mode: Wavelengths
Number of Pixels in Spectrum: 2048
>>>>>Begin Spectral Data<<<<<
223.165	-9.81
223.4	-9.81
223.635	-9.81
223.869	-23.81
224.104	-21.81
224.338	-13.81
224.573	-17.81
224.808	-7.81
225.042	-9.81
225.277	-1.81
225.511	-1.81
225.746	-17.81
225.98	10.19
226.215	26.19
226.449	17.19
226.683	19.19
226.918	22.19
227.152	31.19
227.387	38.19
227.621	32.19
227.856	50.19
228.09	50.19
228.324	40.19
228.559	53.19
228.793	57.19
229.027	73.19
229.262	79.19
229.496	73.19
229.73	84.19
229.964	95.19
230.199	81.19
230.433	64.19
230.667	79.19
230.901	76.19
231.136	88.19
231.37	97.19
231.604	87.19
231.838	89.19
232.072	73.19
232.306	78.19
232.541	81.19
232.775	107.19
233.009	94.19
233.243	86.19
233.477	74.19
233.711	95.19
233.945	86.19
234.179	88.19
234.413	79.19
234.647	82.19
234.881	76.19
235.115	69.19
235.349	88.19
235.583	86.19
235.817	69.19
236.051	72.19
236.285	77.19
236.519	70.19
236.753	86.19
236.987	79.19
237.221	96.19
237.455	97.19
237.689	86.19
237.922	76.19
238.156	77.19
238.39	89.19
238.624	78.19
238.858	81.19
239.091	93.19
239.325	86.19
239.559	97.19
239.793	89.19
240.027	79.19
240.26	85.19
240.494	69.19
240.728	87.19
240.961	70.19
241.195	86.19
241.429	73.19
241.662	76.19
241.896	79.19
242.13	87.19
242.363	68.19
242.597	70.19
242.83	91.19
243.064	95.19
243.298	72.19
243.531	75.19
243.765	78.19
243.998	85.19
244.232	82.19
244.465	94.19
244.699	88.19
244.932	89.19
245.166	73.19
245.399	94.19
245.633	85.19
245.866	80.19
246.099	77.19
246.333	84.19
246.566	90.19
246.8	66.19
247.033	81.19
247.266	90.19
247.5	89.19
247.733	73.19
247.966	81.19
248.2	79.19
248.433	83.19
248.666	90.19
248.899	85.19
249.133	82.19
249.366	87.19
249.599	105.19
249.832	89.19
250.066	77.19
250.299	82.19
250.532	82.19
250.765	77.19
250.998	76.19
251.231	73.19
251.465	80.19
251.698	78.19
251.931	81.19
252.164	80.19
252.397	89.19
252.63	81.19
252.863	77.19
253.096	73.19
253.329	80.19
253.562	85.19
253.795	82.19
254.028	86.19
254.261	86.19
254.494	90.19
254.727	88.19
254.96	84.19
255.193	85.19
255.426	90.19
255.659	73.19
255.892	79.19
256.124	85.19
256.357	73.19
256.59	105.19
256.823	85.19
257.056	90.19
257.289	86.19
257.521	77.19
257.754	74.19
257.987	94.19
258.22	77.19
258.452	83.19
258.685	84.19
258.918	82.19
259.151	85.19
259.383	87.19
259.616	90.19
259.849	78.19
260.081	90.19
260.314	82.19
260.547	84.19
260.779	84.19
261.012	77.19
261.244	91.19
261.477	95.19
261.71	105.19
261.942	142.19
262.175	138.19
262.407	105.19
262.64	103.19
262.872	73.19
263.105	88.19
263.337	76.19
263.57	83.19
263.802	88.19
264.035	74.19
264.267	85.19
264.499	82.19
264.732	85.19
264.964	84.19
265.197	85.19
265.429	98.19
265.661	86.19
265.894	104.19
266.126	82.19
266.358	84.19
266.591	89.19
266.823	81.19
267.055	86.19
267.287	96.19
267.52	89.19
267.752	94.19
267.984	94.19
268.216	78.19
268.448	84.19
268.681	78.19
268.913	96.19
269.145	88.19
269.377	95.19
269.609	82.19
269.841	89.19
270.073	84.19
270.306	76.19
270.538	90.19
270.77	84.19
271.002	83.19
271.234	91.19
271.466	91.19
271.698	84.19
271.93	97.19
272.162	94.19
272.394	86.19
272.626	97.19
272.858	91.19
273.09	97.19
273.322	88.19
273.553	68.19
273.785	65.19
274.017	79.19
274.249	95.19
274.481	98.19
274.713	80.19
274.945	88.19
275.176	95.19
275.408	108.19
275.64	89.19
275.872	102.19
276.104	92.19
276.335	92.19
276.567	118.19
276.799	136.19
277.031	117.19
277.262	104.19
277.494	97.19
277.726	96.19
277.957	90.19
278.189	110.19
278.421	86.19
278.652	79.19
278.884	84.19
279.115	95.19
279.347	101.19
279.579	89.19
279.81	100.19
280.042	88.19
280.273	92.19
280.505	85.19
280.736	90.19
280.968	95.19
281.199	90.19
281.431	91.19
281.662	108.19
281.894	98.19
282.125	105.19
282.356	149.19
282.588	168.19
282.819	141.19
283.051	105.19
283.282	95.19
283.513	90.19
283.745	95.19
283.976	84.19
284.207	102.19
284.439	79.19
284.67	79.19
284.901	85.19
285.132	100.19
285.364	89.19
285.595	99.19
285.826	80.19
286.057	88.19
286.288	102.19
286.52	90.19
286.751	94.19
286.982	89.19
287.213	107.19
287.444	97.19
287.675	94.19
287.906	89.19
288.138	98.19
288.369	93.19
288.6	90.19
288.831	90.19
289.062	97.19
289.293	100.19
289.524	93.19
289.755	94.19
289.986	87.19
290.217	100.19
290.448	87.19
290.679	103.19
290.91	97.19
291.141	107.19
291.371	99.19
291.602	91.19
291.833	101.19
292.064	97.19
292.295	93.19
292.526	85.19
292.757	91.19
292.987	90.19
293.218	99.19
293.449	87.19
293.68	87.19
293.91	72.19
294.141	89.19
294.372	87.19
294.603	96.19
294.833	97.19
295.064	97.19
295.295	84.19
295.525	103.19
295.756	116.19
295.987	122.19
296.217	183.19
296.448	145.19
296.679	104.19
296.909	89.19
297.14	86.19
297.37	96.19
297.601	97.19
297.831	85.19
298.062	87.19
298.292	90.19
298.523	95.19
298.753	82.19
298.984	94.19
299.214	80.19
299.445	88.19
299.675	86.19
299.905	94.19
300.136	97.19
300.366	89.19
300.597	110.19
300.827	97.19
301.057	115.19
301.288	129.19
301.518	112.19
301.748	94.19
301.979	96.19
302.209	104.19
302.439	92.19
302.669	91.19
302.9	94.19
303.13	103.19
303.36	105.19
303.59	116.19
303.82	100.19
304.051	94.19
304.281	73.19
304.511	84.19
304.741	94.19
304.971	92.19
305.201	95.19
305.431	92.19
305.661	100.19
305.891	89.19
306.121	110.19
306.352	106.19
306.582	118.19
306.812	108.19
307.042	102.19
307.272	106.19
307.502	101.19
307.731	102.19
307.961	93.19
308.191	108.19
308.421	105.19
308.651	97.19
308.881	81.19
309.111	96.19
309.341	95.19
309.571	116.19
309.8	117.19
310.03	103.19
310.26	113.19
310.49	102.19
310.72	116.19
310.949	117.19
311.179	111.19
311.409	92.19
311.639	88.19
311.868	105.19
312.098	96.19
312.328	92.19
312.557	120.19
312.787	128.19
313.017	96.19
313.246	87.19
313.476	89.19
313.706	97.19
313.935	105.19
314.165	116.19
314.394	95.19
314.624	117.19
314.853	110.19
315.083	112.19
315.312	84.19
315.542	102.19
315.771	93.19
316.001	93.19
316.23	94.19
316.46	93.19
316.689	91.19
316.919	97.19
317.148	106.19
317.377	88.19
317.607	101.19
317.836	107.19
318.065	99.19
318.295	101.19
318.524	99.19
318.753	87.19
318.983	102.19
319.212	114.19
319.441	109.19
319.67	116.19
319.9	119.19
320.129	106.19
320.358	96.19
320.587	96.19
320.816	116.19
321.046	117.19
321.275	88.19
321.504	86.19
321.733	114.19
321.962	112.19
322.191	121.19
322.42	112.19
322.649	119.19
322.878	141.19
323.108	142.19
323.337	151.19
323.566	166.19
323.795	214.19
324.024	290.19
324.253	602.19
324.482	1337.19
324.71	2832.19
324.939	3728.19
325.168	1286.19
325.397	345.19
325.626	194.19
325.855	160.19
326.084	155.19
326.313	168.19
326.542	194.19
326.77	332.19
326.999	704.19
327.228	1475.19
327.457	2782.19
327.686	2164.19
327.914	548.19
328.143	265.19
328.372	193.19
328.6	141.19
328.829	140.19
329.058	183.19
329.287	167.19
329.515	131.19
329.744	112.19
329.972	126.19
330.201	152.19
330.43	173.19
330.658	180.19
330.887	206.19
331.115	160.19
331.344	103.19
331.572	111.19
331.801	118.19
332.03	116.19
332.258	118.19
332.486	100.19
332.715	89.19
332.943	111.19
333.172	113.19
333.4	109.19
333.629	127.19
333.857	125.19
334.085	134.19
334.314	141.19
334.542	156.19
334.771	177.19
334.999	126.19
335.227	105.19
335.455	104.19
335.684	92.19
335.912	111.19
336.14	109.19
336.369	102.19
336.597	102.19
336.825	101.19
337.053	104.19
337.281	103.19
337.51	97.19
337.738	113.19
337.966	104.19
338.194	103.19
338.422	104.19
338.65	97.19
338.878	108.19
339.106	86.19
339.334	89.19
339.562	101.19
339.79	97.19
340.018	104.19
340.246	98.19
340.474	95.19
340.702	103.19
340.93	103.19
341.158	106.19
341.386	100.19
341.614	90.19
341.842	108.19
342.07	99.19
342.298	111.19
342.526	85.19
342.754	97.19
342.981	110.19
343.209	105.19
343.437	100.19
343.665	92.19
343.893	88.19
344.12	86.19
344.348	95.19
344.576	95.19
344.804	102.19
345.031	105.19
345.259	113.19
345.487	102.19
345.714	96.19
345.942	109.19
346.17	101.19
346.397	101.19
346.625	86.19
346.853	105.19
347.08	89.19
347.308	99.19
347.535	94.19
347.763	111.19
347.99	108.19
348.218	115.19
348.445	105.19
348.673	109.19
348.9	102.19
349.128	103.19
349.355	80.19
349.583	109.19
349.81	98.19
350.037	104.19
350.265	106.19
350.492	84.19
350.72	98.19
350.947	112.19
351.174	124.19
351.402	128.19
351.629	98.19
351.856	118.19
352.083	114.19
352.311	98.19
352.538	119.19
352.765	120.19
352.992	119.19
353.22	133.19
353.447	119.19
353.674	100.19
353.901	113.19
354.128	94.19
354.355	104.19
354.583	98.19
354.81	104.19
355.037	111.19
355.264	103.19
355.491	100.19
355.718	97.19
355.945	107.19
356.172	90.19
356.399	108.19
356.626	103.19
356.853	95.19
357.08	88.19
357.307	75.19
357.534	98.19
357.761	86.19
357.988	93.19
358.215	79.19
358.441	92.19
358.668	85.19
358.895	85.19
359.122	86.19
359.349	106.19
359.576	104.19
359.802	108.19
360.029	141.19
360.256	127.19
360.483	104.19
360.709	94.19
360.936	93.19
361.163	104.19
361.39	104.19
361.616	117.19
361.843	93.19
362.07	92.19
362.296	114.19
362.523	100.19
362.749	102.19
362.976	96.19
363.203	97.19
363.429	97.19
363.656	101.19
363.882	110.19
364.109	100.19
364.335	115.19
364.562	104.19
364.788	88.19
365.015	99.19
365.241	110.19
365.468	119.19
365.694	114.19
365.92	105.19
366.147	108.19
366.373	100.19
366.599	92.19
366.826	100.19
367.052	101.19
367.278	108.19
367.505	98.19
367.731	106.19
367.957	93.19
368.184	91.19
368.41	109.19
368.636	118.19
368.862	130.19
369.089	112.19
369.315	106.19
369.541	90.19
369.767	94.19
369.993	110.19
370.219	96.19
370.445	105.19
370.672	118.19
370.898	86.19
371.124	93.19
371.35	87.19
371.576	92.19
371.802	101.19
372.028	93.19
372.254	96.19
372.48	88.19
372.706	86.19
372.932	99.19
373.158	98.19
373.384	107.19
373.61	97.19
373.835	104.19
374.061	97.19
374.287	102.19
374.513	91.19
374.739	96.19
374.965	106.19
375.191	89.19
375.416	97.19
375.642	93.19
375.868	103.19
376.094	105.19
376.319	81.19
376.545	91.19
376.771	102.19
376.997	99.19
377.222	77.19
377.448	98.19
377.674	94.19
377.899	93.19
378.125	91.19
378.35	97.19
378.576	101.19
378.802	92.19
379.027	99.19
379.253	99.19
379.478	85.19
379.704	94.19
379.929	90.19
380.155	103.19
380.38	114.19
380.606	94.19
380.831	98.19
381.057	110.19
381.282	96.19
381.507	97.19
381.733	100.19
381.958	100.19
382.184	96.19
382.409	102.19
382.634	105.19
382.86	94.19
383.085	85.19
383.31	111.19
383.535	93.19
383.761	94.19
383.986	101.19
384.211	96.19
384.436	108.19
384.662	98.19
384.887	110.19
385.112	101.19
385.337	111.19
385.562	101.19
385.787	125.19
386.013	115.19
386.238	126.19
386.463	121.19
386.688	104.19
386.913	110.19
387.138	111.19
387.363	105.19
387.588	92.19
387.813	84.19
388.038	118.19
388.263	123.19
388.488	99.19
388.713	90.19
388.938	96.19
389.163	97.19
389.387	94.19
389.612	94.19
389.837	82.19
390.062	111.19
390.287	91.19
390.512	76.19
390.736	76.19
390.961	97.19
391.186	92.19
391.411	101.19
391.636	81.19
391.86	87.19
392.085	100.19
392.31	94.19
392.534	101.19
392.759	95.19
392.984	93.19
393.208	99.19
393.433	106.19
393.658	83.19
393.882	88.19
394.107	89.19
394.331	75.19
394.556	80.19
394.78	95.19
395.005	93.19
395.229	89.19
395.454	93.19
395.678	86.19
395.903	73.19
396.127	82.19
396.352	86.19
396.576	88.19
396.801	98.19
397.025	95.19
397.249	98.19
397.474	85.19
397.698	93.19
397.922	94.19
398.147	106.19
398.371	100.19
398.595	88.19
398.82	94.19
399.044	94.19
399.268	80.19
399.492	93.19
399.717	90.19
399.941	92.19
400.165	101.19
400.389	92.19
400.613	90.19
400.837	92.19
401.062	92.19
401.286	103.19
401.51	101.19
401.734	96.19
401.958	108.19
402.182	170.19
402.406	204.19
402.63	155.19
402.854	110.19
403.078	99.19
403.302	96.19
403.526	99.19
403.75	105.19
403.974	96.19
404.198	91.19
404.422	101.19
404.645	89.19
404.869	88.19
405.093	100.19
405.317	113.19
405.541	119.19
405.765	118.19
405.988	145.19
406.212	219.19
406.436	320.19
406.66	188.19
406.883	123.19
407.107	121.19
407.331	117.19
407.555	110.19
407.778	114.19
408.002	99.19
408.226	99.19
408.449	100.19
408.673	96.19
408.896	106.19
409.12	108.19
409.344	89.19
409.567	96.19
409.791	90.19
410.014	89.19
410.238	95.19
410.461	98.19
410.685	98.19
410.908	99.19
411.132	114.19
411.355	104.19
411.578	94.19
411.802	95.19
412.025	81.19
412.249	102.19
412.472	94.19
412.695	101.19
412.919	89.19
413.142	104.19
413.365	85.19
413.589	86.19
413.812	90.19
414.035	93.19
414.258	91.19
414.482	94.19
414.705	102.19
414.928	92.19
415.151	100.19
415.374	97.19
415.597	91.19
415.821	94.19
416.044	81.19
416.267	73.19
416.49	83.19
416.713	101.19
416.936	93.19
417.159	74.19
417.382	90.19
417.605	88.19
417.828	99.19
418.051	108.19
418.274	95.19
418.497	85.19
418.72	97.19
418.943	94.19
419.166	94.19
419.389	81.19
419.611	105.19
419.834	90.19
420.057	82.19
420.28	96.19
420.503	100.19
420.726	94.19
420.948	97.19
421.171	96.19
421.394	110.19
421.617	85.19
421.839	96.19
422.062	80.19
422.285	105.19
422.507	103.19
422.73	114.19
422.953	101.19
423.175	86.19
423.398	92.19
423.621	102.19
423.843	99.19
424.066	88.19
424.288	94.19
424.511	97.19
424.733	102.19
424.956	121.19
425.178	103.19
425.401	100.19
425.623	92.19
425.846	103.19
426.068	108.19
426.291	91.19
426.513	84.19
426.735	96.19
426.958	98.19
427.18	124.19
427.402	166.19
427.625	216.19
427.847	175.19
428.069	138.19
428.292	90.19
428.514	86.19
428.736	91.19
428.958	85.19
429.181	77.19
429.403	93.19
429.625	86.19
429.847	97.19
430.069	104.19
430.292	113.19
430.514	89.19
430.736	84.19
430.958	81.19
431.18	90.19
431.402	103.19
431.624	101.19
431.846	94.19
432.068	88.19
432.29	92.19
432.512	84.19
432.734	98.19
432.956	97.19
433.178	112.19
433.4	118.19
433.622	109.19
433.844	93.19
434.066	98.19
434.287	93.19
434.509	89.19
434.731	100.19
434.953	100.19
435.175	93.19
435.397	112.19
435.618	96.19
435.84	116.19
436.062	132.19
436.284	126.19
436.505	106.19
436.727	107.19
436.949	105.19
437.17	97.19
437.392	89.19
437.614	117.19
437.835	128.19
438.057	158.19
438.278	121.19
438.5	117.19
438.721	124.19
438.943	119.19
439.165	95.19
439.386	90.19
439.608	105.19
439.829	120.19
440.05	149.19
440.272	181.19
440.493	119.19
440.715	106.19
440.936	84.19
441.158	94.19
441.379	99.19
441.6	103.19
441.822	109.19
442.043	85.19
442.264	112.19
442.486	105.19
442.707	105.19
442.928	119.19
443.149	170.19
443.371	165.19
443.592	126.19
443.813	143.19
444.034	118.19
444.255	89.19
444.476	101.19
444.698	100.19
444.919	94.19
445.14	141.19
445.361	136.19
445.582	133.19
445.803	178.19
446.024	165.19
446.245	156.19
446.466	117.19
446.687	104.19
446.908	105.19
447.129	94.19
447.35	90.19
447.571	86.19
447.792	94.19
448.013	124.19
448.234	117.19
448.455	89.19
448.675	118.19
448.896	129.19
449.117	127.19
449.338	118.19
449.559	146.19
449.779	153.19
450	109.19
450.221	89.19
450.442	99.19
450.662	102.19
450.883	133.19
451.104	133.19
451.324	122.19
451.545	117.19
451.766	83.19
451.986	85.19
452.207	90.19
452.428	90.19
452.648	112.19
452.869	132.19
453.089	147.19
453.31	151.19
453.53	112.19
453.751	94.19
453.971	112.19
454.192	134.19
454.412	97.19
454.633	97.19
454.853	84.19
455.073	100.19
455.294	106.19
455.514	119.19
455.734	94.19
455.955	79.19
456.175	87.19
456.395	86.19
456.616	81.19
456.836	94.19
457.056	86.19
457.276	99.19
457.497	88.19
457.717	77.19
457.937	91.19
458.157	81.19
458.377	89.19
458.598	136.19
458.818	199.19
459.038	217.19
459.258	146.19
459.478	101.19
459.698	98.19
459.918	87.19
460.138	96.19
460.358	84.19
460.578	99.19
460.798	97.19
461.018	96.19
461.238	96.19
461.458	98.19
461.678	88.19
461.898	94.19
462.118	99.19
462.338	83.19
462.558	94.19
462.777	95.19
462.997	76.19
463.217	84.19
463.437	91.19
463.657	93.19
463.876	97.19
464.096	99.19
464.316	113.19
464.536	112.19
464.755	95.19
464.975	135.19
465.195	238.19
465.414	221.19
465.634	97.19
465.854	105.19
466.073	88.19
466.293	97.19
466.512	89.19
466.732	89.19
466.951	97.19
467.171	82.19
467.391	111.19
467.61	133.19
467.829	111.19
468.049	111.19
468.268	131.19
468.488	85.19
468.707	89.19
468.927	90.19
469.146	88.19
469.365	104.19
469.585	104.19
469.804	100.19
470.023	137.19
470.243	80.19
470.462	104.19
470.681	118.19
470.901	107.19
471.12	93.19
471.339	97.19
471.558	98.19
471.777	84.19
471.997	94.19
472.216	142.19
472.435	184.19
472.654	112.19
472.873	84.19
473.092	95.19
473.311	85.19
473.53	94.19
473.749	95.19
473.968	103.19
474.187	100.19
474.406	95.19
474.625	98.19
474.844	100.19
475.063	88.19
475.282	81.19
475.501	86.19
475.72	89.19
475.939	89.19
476.158	84.19
476.377	103.19
476.596	74.19
476.814	102.19
477.033	102.19
477.252	98.19
477.471	103.19
477.69	93.19
477.908	99.19
478.127	93.19
478.346	85.19
478.564	105.19
478.783	111.19
479.002	91.19
479.22	99.19
479.439	117.19
479.658	128.19
479.876	110.19
480.095	89.19
480.313	107.19
480.532	96.19
480.751	104.19
480.969	142.19
481.188	275.19
481.406	200.19
481.624	111.19
481.843	88.19
482.061	91.19
482.28	81.19
482.498	90.19
482.717	88.19
482.935	80.19
483.153	103.19
483.372	78.19
483.59	95.19
483.808	96.19
484.027	89.19
484.245	92.19
484.463	101.19
484.681	105.19
484.9	102.19
485.118	118.19
485.336	104.19
485.554	97.19
485.772	98.19
485.99	102.19
486.209	111.19
486.427	109.19
486.645	119.19
486.863	137.19
487.081	122.19
487.299	121.19
487.517	106.19
487.735	100.19
487.953	92.19
488.171	104.19
488.389	93.19
488.607	107.19
488.825	102.19
489.043	97.19
489.261	87.19
489.479	105.19
489.696	97.19
489.914	95.19
490.132	79.19
490.35	106.19
490.568	98.19
490.786	101.19
491.003	87.19
491.221	100.19
491.439	77.19
491.657	86.19
491.874	91.19
492.092	95.19
492.31	108.19
492.527	94.19
492.745	103.19
492.963	94.19
493.18	97.19
493.398	89.19
493.615	96.19
493.833	86.19
494.05	92.19
494.268	86.19
494.485	85.19
494.703	109.19
494.92	94.19
495.138	80.19
495.355	88.19
495.573	93.19
495.79	82.19
496.008	87.19
496.225	98.19
496.442	91.19
496.66	101.19
496.877	90.19
497.094	87.19
497.312	95.19
497.529	89.19
497.746	89.19
497.963	93.19
498.181	101.19
498.398	116.19
498.615	126.19
498.832	110.19
499.049	106.19
499.267	93.19
499.484	110.19
499.701	106.19
499.918	99.19
500.135	95.19
500.352	104.19
500.569	102.19
500.786	96.19
501.003	104.19
501.22	90.19
501.437	91.19
501.654	104.19
501.871	135.19
502.088	96.19
502.305	93.19
502.522	101.19
502.739	96.19
502.956	93.19
503.172	92.19
503.389	107.19
503.606	108.19
503.823	109.19
504.04	103.19
504.256	104.19
504.473	97.19
504.69	91.19
504.907	108.19
505.123	88.19
505.34	84.19
505.557	87.19
505.773	100.19
505.99	94.19
506.207	80.19
506.423	109.19
506.64	96.19
506.856	88.19
507.073	95.19
507.289	95.19
507.506	105.19
507.722	137.19
507.939	129.19
508.155	104.19
508.372	94.19
508.588	84.19
508.805	107.19
509.021	111.19
509.238	100.19
509.454	122.19
509.67	107.19
509.887	117.19
510.103	157.19
510.319	292.19
510.536	1073.19
510.752	3622.19
510.968	986.19
511.184	198.19
511.401	134.19
511.617	104.19
511.833	105.19
512.049	94.19
512.265	103.19
512.481	92.19
