Data from Circ_2006_H10_HRD10591_00078.txt Node
Date: Wed Jan 03 10:26:19 EST 2024
User: Yrep
Spectrometer: HR+D1059
Trigger mode: 1
Integration Time (sec): 1.000000E-1
Scans to average: 1
Electric dark correction enabled: true
Nonlinearity correction enabled: false
Boxcar width: 0
XAxis mode: Wavelengths
Number of Pixels in Spectrum: 2048
>>>>>Begin Spectral Data<<<<<
223.165	-12.81
223.4	-12.81
223.635	-12.81
223.869	-23.81
224.104	-2.81
224.338	-14.81
224.573	-15.81
224.808	-22.81
225.042	-23.81
225.277	5.19
225.511	-7.81
225.746	3.19
225.98	8.19
226.215	6.19
226.449	13.19
226.683	9.19
226.918	37.19
227.152	42.19
227.387	33.19
227.621	47.19
227.856	41.19
228.09	44.19
228.324	51.19
228.559	52.19
228.793	50.19
229.027	61.19
229.262	72.19
229.496	74.19
229.73	90.19
229.964	88.19
230.199	81.19
230.433	85.19
230.667	87.19
230.901	91.19
231.136	91.19
231.37	69.19
231.604	88.19
231.838	84.19
232.072	83.19
232.306	87.19
232.541	77.19
232.775	90.19
233.009	65.19
233.243	86.19
233.477	81.19
233.711	77.19
233.945	88.19
234.179	83.19
234.413	73.19
234.647	101.19
234.881	85.19
235.115	82.19
235.349	73.19
235.583	88.19
235.817	79.19
236.051	82.19
236.285	83.19
236.519	80.19
236.753	88.19
236.987	90.19
237.221	92.19
237.455	96.19
237.689	79.19
237.922	83.19
238.156	80.19
238.39	81.19
238.624	75.19
238.858	81.19
239.091	95.19
239.325	83.19
239.559	79.19
239.793	83.19
240.027	81.19
240.26	87.19
240.494	71.19
240.728	84.19
240.961	83.19
241.195	76.19
241.429	87.19
241.662	90.19
241.896	87.19
242.13	78.19
242.363	76.19
242.597	83.19
242.83	98.19
243.064	84.19
243.298	91.19
243.531	77.19
243.765	76.19
243.998	78.19
244.232	76.19
244.465	81.19
244.699	72.19
244.932	86.19
245.166	89.19
245.399	91.19
245.633	85.19
245.866	71.19
246.099	83.19
246.333	61.19
246.566	69.19
246.8	79.19
247.033	73.19
247.266	86.19
247.5	77.19
247.733	86.19
247.966	80.19
248.2	86.19
248.433	84.19
248.666	90.19
248.899	82.19
249.133	83.19
249.366	97.19
249.599	99.19
249.832	88.19
250.066	95.19
250.299	78.19
250.532	76.19
250.765	96.19
250.998	94.19
251.231	91.19
251.465	90.19
251.698	84.19
251.931	90.19
252.164	83.19
252.397	79.19
252.63	80.19
252.863	69.19
253.096	79.19
253.329	90.19
253.562	72.19
253.795	74.19
254.028	80.19
254.261	82.19
254.494	80.19
254.727	89.19
254.96	81.19
255.193	78.19
255.426	96.19
255.659	96.19
255.892	84.19
256.124	87.19
256.357	76.19
256.59	82.19
256.823	86.19
257.056	88.19
257.289	83.19
257.521	83.19
257.754	92.19
257.987	88.19
258.22	77.19
258.452	84.19
258.685	81.19
258.918	96.19
259.151	91.19
259.383	84.19
259.616	86.19
259.849	83.19
260.081	80.19
260.314	73.19
260.547	85.19
260.779	81.19
261.012	86.19
261.244	93.19
261.477	84.19
261.71	100.19
261.942	120.19
262.175	112.19
262.407	91.19
262.64	93.19
262.872	80.19
263.105	82.19
263.337	92.19
263.57	90.19
263.802	84.19
264.035	81.19
264.267	90.19
264.499	91.19
264.732	90.19
264.964	79.19
265.197	75.19
265.429	86.19
265.661	83.19
265.894	94.19
266.126	77.19
266.358	86.19
266.591	91.19
266.823	84.19
267.055	93.19
267.287	85.19
267.52	86.19
267.752	88.19
267.984	81.19
268.216	80.19
268.448	79.19
268.681	99.19
268.913	84.19
269.145	85.19
269.377	79.19
269.609	81.19
269.841	74.19
270.073	84.19
270.306	78.19
270.538	89.19
270.77	98.19
271.002	87.19
271.234	83.19
271.466	104.19
271.698	81.19
271.93	96.19
272.162	78.19
272.394	86.19
272.626	92.19
272.858	95.19
273.09	89.19
273.322	91.19
273.553	90.19
273.785	85.19
274.017	79.19
274.249	101.19
274.481	76.19
274.713	89.19
274.945	89.19
275.176	97.19
275.408	91.19
275.64	90.19
275.872	85.19
276.104	95.19
276.335	99.19
276.567	88.19
276.799	119.19
277.031	115.19
277.262	84.19
277.494	95.19
277.726	82.19
277.957	83.19
278.189	85.19
278.421	97.19
278.652	86.19
278.884	97.19
279.115	93.19
279.347	83.19
279.579	90.19
279.81	95.19
280.042	90.19
280.273	85.19
280.505	87.19
280.736	78.19
280.968	85.19
281.199	85.19
281.431	90.19
281.662	97.19
281.894	97.19
282.125	96.19
282.356	127.19
282.588	159.19
282.819	114.19
283.051	81.19
283.282	96.19
283.513	81.19
283.745	90.19
283.976	75.19
284.207	72.19
284.439	96.19
284.67	71.19
284.901	90.19
285.132	86.19
285.364	95.19
285.595	84.19
285.826	110.19
286.057	85.19
286.288	74.19
286.52	90.19
286.751	88.19
286.982	99.19
287.213	102.19
287.444	89.19
287.675	86.19
287.906	87.19
288.138	97.19
288.369	92.19
288.6	97.19
288.831	85.19
289.062	99.19
289.293	106.19
289.524	92.19
289.755	96.19
289.986	75.19
290.217	99.19
290.448	85.19
290.679	80.19
290.91	95.19
291.141	89.19
291.371	94.19
291.602	81.19
291.833	81.19
292.064	105.19
292.295	104.19
292.526	89.19
292.757	96.19
292.987	88.19
293.218	96.19
293.449	83.19
293.68	88.19
293.91	86.19
294.141	92.19
294.372	95.19
294.603	95.19
294.833	85.19
295.064	95.19
295.295	80.19
295.525	98.19
295.756	87.19
295.987	112.19
296.217	145.19
296.448	114.19
296.679	94.19
296.909	100.19
297.14	103.19
297.37	95.19
297.601	85.19
297.831	93.19
298.062	95.19
298.292	93.19
298.523	88.19
298.753	87.19
298.984	81.19
299.214	86.19
299.445	84.19
299.675	89.19
299.905	99.19
300.136	87.19
300.366	82.19
300.597	91.19
300.827	97.19
301.057	94.19
301.288	112.19
301.518	114.19
301.748	95.19
301.979	88.19
302.209	88.19
302.439	105.19
302.669	94.19
302.9	100.19
303.13	91.19
303.36	96.19
303.59	95.19
303.82	113.19
304.051	98.19
304.281	91.19
304.511	93.19
304.741	77.19
304.971	89.19
305.201	80.19
305.431	90.19
305.661	83.19
305.891	92.19
306.121	100.19
306.352	113.19
306.582	111.19
306.812	95.19
307.042	92.19
307.272	101.19
307.502	110.19
307.731	105.19
307.961	91.19
308.191	96.19
308.421	95.19
308.651	98.19
308.881	96.19
309.111	102.19
309.341	98.19
309.571	115.19
309.8	110.19
310.03	99.19
310.26	101.19
310.49	83.19
310.72	103.19
310.949	110.19
311.179	107.19
311.409	81.19
311.639	97.19
311.868	109.19
312.098	95.19
312.328	95.19
312.557	108.19
312.787	121.19
313.017	111.19
313.246	100.19
313.476	105.19
313.706	104.19
313.935	101.19
314.165	90.19
314.394	102.19
314.624	95.19
314.853	93.19
315.083	88.19
315.312	82.19
315.542	104.19
315.771	87.19
316.001	98.19
316.23	104.19
316.46	89.19
316.689	92.19
316.919	100.19
317.148	99.19
317.377	101.19
317.607	97.19
317.836	94.19
318.065	104.19
318.295	94.19
318.524	97.19
318.753	91.19
318.983	91.19
319.212	99.19
319.441	108.19
319.67	114.19
319.9	109.19
320.129	93.19
320.358	100.19
320.587	105.19
320.816	101.19
321.046	109.19
321.275	104.19
321.504	88.19
321.733	92.19
321.962	100.19
322.191	115.19
322.42	108.19
322.649	120.19
322.878	124.19
323.108	121.19
323.337	132.19
323.566	144.19
323.795	184.19
324.024	239.19
324.253	501.19
324.482	1052.19
324.71	2184.19
324.939	2877.19
325.168	1008.19
325.397	293.19
325.626	165.19
325.855	135.19
326.084	138.19
326.313	149.19
326.542	197.19
326.77	290.19
326.999	573.19
327.228	1204.19
327.457	2203.19
327.686	1718.19
327.914	450.19
328.143	215.19
328.372	169.19
328.6	144.19
328.829	132.19
329.058	148.19
329.287	146.19
329.515	117.19
329.744	109.19
329.972	127.19
330.201	131.19
330.43	168.19
330.658	141.19
330.887	164.19
331.115	125.19
331.344	104.19
331.572	114.19
331.801	106.19
332.03	105.19
332.258	107.19
332.486	94.19
332.715	94.19
332.943	90.19
333.172	87.19
333.4	94.19
333.629	102.19
333.857	130.19
334.085	126.19
334.314	120.19
334.542	160.19
334.771	161.19
334.999	119.19
335.227	95.19
335.455	106.19
335.684	92.19
335.912	108.19
336.14	107.19
336.369	107.19
336.597	115.19
336.825	115.19
337.053	87.19
337.281	88.19
337.51	103.19
337.738	97.19
337.966	101.19
338.194	105.19
338.422	98.19
338.65	97.19
338.878	107.19
339.106	81.19
339.334	102.19
339.562	89.19
339.79	99.19
340.018	92.19
340.246	100.19
340.474	101.19
340.702	95.19
340.93	97.19
341.158	68.19
341.386	106.19
341.614	110.19
341.842	103.19
342.07	94.19
342.298	105.19
342.526	97.19
342.754	94.19
342.981	90.19
343.209	100.19
343.437	99.19
343.665	97.19
343.893	97.19
344.12	97.19
344.348	91.19
344.576	104.19
344.804	94.19
345.031	93.19
345.259	95.19
345.487	101.19
345.714	102.19
345.942	90.19
346.17	83.19
346.397	97.19
346.625	89.19
346.853	92.19
347.08	104.19
347.308	103.19
347.535	105.19
347.763	97.19
347.99	106.19
348.218	102.19
348.445	101.19
348.673	101.19
348.9	107.19
349.128	104.19
349.355	95.19
349.583	109.19
349.81	96.19
350.037	99.19
350.265	95.19
350.492	97.19
350.72	113.19
350.947	102.19
351.174	125.19
351.402	117.19
351.629	105.19
351.856	97.19
352.083	104.19
352.311	113.19
352.538	114.19
352.765	106.19
352.992	125.19
353.22	121.19
353.447	103.19
353.674	104.19
353.901	97.19
354.128	92.19
354.355	99.19
354.583	98.19
354.81	84.19
355.037	101.19
355.264	87.19
355.491	105.19
355.718	99.19
355.945	91.19
356.172	88.19
356.399	104.19
356.626	94.19
356.853	105.19
357.08	91.19
357.307	93.19
357.534	95.19
357.761	108.19
357.988	105.19
358.215	95.19
358.441	110.19
358.668	91.19
358.895	93.19
359.122	93.19
359.349	74.19
359.576	85.19
359.802	102.19
360.029	126.19
360.256	124.19
360.483	102.19
360.709	83.19
360.936	85.19
361.163	89.19
361.39	102.19
361.616	105.19
361.843	94.19
362.07	99.19
362.296	107.19
362.523	99.19
362.749	91.19
362.976	95.19
363.203	99.19
363.429	98.19
363.656	100.19
363.882	86.19
364.109	88.19
364.335	86.19
364.562	91.19
364.788	94.19
365.015	103.19
365.241	96.19
365.468	120.19
365.694	119.19
365.92	102.19
366.147	102.19
366.373	94.19
366.599	109.19
366.826	106.19
367.052	90.19
367.278	92.19
367.505	106.19
367.731	103.19
367.957	98.19
368.184	97.19
368.41	111.19
368.636	119.19
368.862	121.19
369.089	110.19
369.315	88.19
369.541	94.19
369.767	97.19
369.993	89.19
370.219	96.19
370.445	99.19
370.672	88.19
370.898	95.19
371.124	91.19
371.35	98.19
371.576	91.19
371.802	96.19
372.028	97.19
372.254	80.19
372.48	93.19
372.706	85.19
372.932	103.19
373.158	93.19
373.384	89.19
373.61	89.19
373.835	87.19
374.061	97.19
374.287	90.19
374.513	96.19
374.739	84.19
374.965	106.19
375.191	100.19
375.416	106.19
375.642	91.19
375.868	98.19
376.094	99.19
376.319	82.19
376.545	92.19
376.771	112.19
376.997	97.19
377.222	84.19
377.448	84.19
377.674	90.19
377.899	88.19
378.125	91.19
378.35	94.19
378.576	85.19
378.802	87.19
379.027	102.19
379.253	105.19
379.478	101.19
379.704	95.19
379.929	110.19
380.155	92.19
380.38	106.19
380.606	110.19
380.831	97.19
381.057	113.19
381.282	98.19
381.507	96.19
381.733	94.19
381.958	89.19
382.184	91.19
382.409	109.19
382.634	116.19
382.86	102.19
383.085	107.19
383.31	100.19
383.535	93.19
383.761	104.19
383.986	106.19
384.211	105.19
384.436	99.19
384.662	104.19
384.887	110.19
385.112	116.19
385.337	105.19
385.562	115.19
385.787	103.19
386.013	97.19
386.238	107.19
386.463	111.19
386.688	109.19
386.913	109.19
387.138	102.19
387.363	106.19
387.588	101.19
387.813	103.19
388.038	115.19
388.263	120.19
388.488	100.19
388.713	106.19
388.938	111.19
389.163	107.19
389.387	106.19
389.612	85.19
389.837	88.19
390.062	100.19
390.287	112.19
390.512	91.19
390.736	102.19
390.961	96.19
391.186	101.19
391.411	96.19
391.636	87.19
391.86	72.19
392.085	72.19
392.31	86.19
392.534	89.19
392.759	82.19
392.984	97.19
393.208	90.19
393.433	103.19
393.658	95.19
393.882	84.19
394.107	86.19
394.331	83.19
394.556	96.19
394.78	96.19
395.005	90.19
395.229	94.19
395.454	89.19
395.678	88.19
395.903	88.19
396.127	83.19
396.352	97.19
396.576	91.19
396.801	96.19
397.025	96.19
397.249	86.19
397.474	91.19
397.698	90.19
397.922	96.19
398.147	82.19
398.371	103.19
398.595	98.19
398.82	87.19
399.044	87.19
399.268	88.19
399.492	96.19
399.717	99.19
399.941	85.19
400.165	91.19
400.389	100.19
400.613	87.19
400.837	77.19
401.062	95.19
401.286	87.19
401.51	90.19
401.734	92.19
401.958	109.19
402.182	130.19
402.406	169.19
402.63	128.19
402.854	97.19
403.078	91.19
403.302	106.19
403.526	91.19
403.75	96.19
403.974	90.19
404.198	94.19
404.422	97.19
404.645	89.19
404.869	84.19
405.093	90.19
405.317	104.19
405.541	105.19
405.765	106.19
405.988	133.19
406.212	175.19
406.436	269.19
406.66	177.19
406.883	118.19
407.107	106.19
407.331	98.19
407.555	101.19
407.778	97.19
408.002	90.19
408.226	93.19
408.449	85.19
408.673	97.19
408.896	87.19
409.12	99.19
409.344	102.19
409.567	98.19
409.791	96.19
410.014	91.19
410.238	110.19
410.461	96.19
410.685	110.19
410.908	88.19
411.132	96.19
411.355	99.19
411.578	102.19
411.802	102.19
412.025	96.19
412.249	95.19
412.472	105.19
412.695	105.19
412.919	95.19
413.142	78.19
413.365	101.19
413.589	80.19
413.812	99.19
414.035	101.19
414.258	96.19
414.482	85.19
414.705	96.19
414.928	93.19
415.151	83.19
415.374	93.19
415.597	93.19
415.821	82.19
416.044	93.19
416.267	102.19
416.49	93.19
416.713	95.19
416.936	93.19
417.159	97.19
417.382	88.19
417.605	101.19
417.828	113.19
418.051	91.19
418.274	93.19
418.497	106.19
418.72	94.19
418.943	102.19
419.166	102.19
419.389	96.19
419.611	107.19
419.834	89.19
420.057	93.19
420.28	87.19
420.503	95.19
420.726	104.19
420.948	85.19
421.171	90.19
421.394	93.19
421.617	105.19
421.839	85.19
422.062	91.19
422.285	102.19
422.507	111.19
422.73	97.19
422.953	101.19
423.175	94.19
423.398	85.19
423.621	102.19
423.843	87.19
424.066	94.19
424.288	109.19
424.511	102.19
424.733	96.19
424.956	121.19
425.178	106.19
425.401	113.19
425.623	104.19
425.846	104.19
426.068	99.19
426.291	89.19
426.513	100.19
426.735	97.19
426.958	101.19
427.18	113.19
427.402	165.19
427.625	189.19
427.847	141.19
428.069	120.19
428.292	102.19
428.514	98.19
428.736	90.19
428.958	87.19
429.181	92.19
429.403	87.19
429.625	99.19
429.847	108.19
430.069	104.19
430.292	100.19
430.514	90.19
430.736	98.19
430.958	99.19
431.18	84.19
431.402	97.19
431.624	86.19
431.846	95.19
432.068	93.19
432.29	99.19
432.512	83.19
432.734	94.19
432.956	97.19
433.178	114.19
433.4	103.19
433.622	93.19
433.844	102.19
434.066	91.19
434.287	101.19
434.509	91.19
434.731	97.19
434.953	107.19
435.175	99.19
435.397	78.19
435.618	100.19
435.84	96.19
436.062	146.19
436.284	145.19
436.505	103.19
436.727	114.19
436.949	96.19
437.17	79.19
437.392	92.19
437.614	99.19
437.835	102.19
438.057	114.19
438.278	113.19
438.5	97.19
438.721	136.19
438.943	103.19
439.165	106.19
439.386	83.19
439.608	84.19
439.829	116.19
440.05	144.19
440.272	164.19
440.493	116.19
440.715	97.19
440.936	97.19
441.158	94.19
441.379	73.19
441.6	98.19
441.822	106.19
442.043	114.19
442.264	118.19
442.486	110.19
442.707	125.19
442.928	106.19
443.149	146.19
443.371	156.19
443.592	115.19
443.813	118.19
444.034	120.19
444.255	95.19
444.476	88.19
444.698	89.19
444.919	96.19
445.14	131.19
445.361	127.19
445.582	126.19
445.803	152.19
446.024	146.19
446.245	160.19
446.466	133.19
446.687	103.19
446.908	93.19
447.129	97.19
447.35	85.19
447.571	97.19
447.792	103.19
448.013	93.19
448.234	107.19
448.455	108.19
448.675	121.19
448.896	130.19
449.117	97.19
449.338	95.19
449.559	147.19
449.779	147.19
450	101.19
450.221	98.19
450.442	97.19
450.662	113.19
450.883	109.19
451.104	126.19
451.324	102.19
451.545	93.19
451.766	91.19
451.986	91.19
452.207	100.19
452.428	93.19
452.648	95.19
452.869	101.19
453.089	111.19
453.31	126.19
453.53	98.19
453.751	101.19
453.971	100.19
454.192	113.19
454.412	102.19
454.633	85.19
454.853	93.19
455.073	88.19
455.294	108.19
455.514	114.19
455.734	95.19
455.955	93.19
456.175	85.19
456.395	95.19
456.616	79.19
456.836	81.19
457.056	96.19
457.276	95.19
457.497	92.19
457.717	91.19
457.937	95.19
458.157	102.19
458.377	103.19
458.598	130.19
458.818	160.19
459.038	174.19
459.258	123.19
459.478	103.19
459.698	82.19
459.918	103.19
460.138	83.19
460.358	96.19
460.578	87.19
460.798	96.19
461.018	92.19
461.238	86.19
461.458	91.19
461.678	90.19
461.898	84.19
462.118	71.19
462.338	105.19
462.558	88.19
462.777	90.19
462.997	90.19
463.217	96.19
463.437	94.19
463.657	100.19
463.876	100.19
464.096	92.19
464.316	95.19
464.536	112.19
464.755	99.19
464.975	118.19
465.195	182.19
465.414	175.19
465.634	111.19
465.854	83.19
466.073	76.19
466.293	86.19
466.512	104.19
466.732	87.19
466.951	88.19
467.171	93.19
467.391	94.19
467.61	123.19
467.829	105.19
468.049	118.19
468.268	126.19
468.488	97.19
468.707	80.19
468.927	90.19
469.146	99.19
469.365	96.19
469.585	104.19
469.804	100.19
470.023	110.19
470.243	99.19
470.462	104.19
470.681	120.19
470.901	95.19
471.12	87.19
471.339	83.19
471.558	84.19
471.777	81.19
471.997	94.19
472.216	138.19
472.435	195.19
472.654	113.19
472.873	90.19
473.092	89.19
473.311	94.19
473.53	85.19
473.749	80.19
473.968	98.19
474.187	107.19
474.406	101.19
474.625	100.19
474.844	103.19
475.063	94.19
475.282	89.19
475.501	83.19
475.72	99.19
475.939	89.19
476.158	93.19
476.377	91.19
476.596	87.19
476.814	98.19
477.033	103.19
477.252	82.19
477.471	102.19
477.69	95.19
477.908	103.19
478.127	99.19
478.346	84.19
478.564	98.19
478.783	109.19
479.002	85.19
479.22	107.19
479.439	100.19
479.658	109.19
479.876	108.19
480.095	93.19
480.313	102.19
480.532	108.19
480.751	105.19
480.969	136.19
481.188	280.19
481.406	212.19
481.624	113.19
481.843	82.19
482.061	92.19
482.28	90.19
482.498	91.19
482.717	98.19
482.935	87.19
483.153	87.19
483.372	75.19
483.59	98.19
483.808	89.19
484.027	84.19
484.245	100.19
484.463	102.19
484.681	98.19
484.9	91.19
485.118	91.19
485.336	106.19
485.554	102.19
485.772	98.19
485.99	97.19
486.209	109.19
486.427	122.19
486.645	127.19
486.863	115.19
487.081	106.19
487.299	129.19
487.517	90.19
487.735	102.19
487.953	88.19
488.171	97.19
488.389	99.19
488.607	97.19
488.825	88.19
489.043	96.19
489.261	102.19
489.479	98.19
489.696	101.19
489.914	91.19
490.132	99.19
490.35	97.19
490.568	102.19
490.786	89.19
491.003	88.19
491.221	100.19
491.439	82.19
491.657	101.19
491.874	106.19
492.092	88.19
492.31	100.19
492.527	86.19
492.745	75.19
492.963	80.19
493.18	86.19
493.398	105.19
493.615	98.19
493.833	107.19
494.05	97.19
494.268	94.19
494.485	97.19
494.703	86.19
494.92	91.19
495.138	97.19
495.355	93.19
495.573	96.19
495.79	99.19
496.008	94.19
496.225	99.19
496.442	96.19
496.66	99.19
496.877	102.19
497.094	116.19
497.312	105.19
497.529	101.19
497.746	93.19
497.963	102.19
498.181	102.19
498.398	97.19
498.615	101.19
498.832	115.19
499.049	91.19
499.267	91.19
499.484	78.19
499.701	92.19
499.918	87.19
500.135	88.19
500.352	97.19
500.569	106.19
500.786	94.19
501.003	91.19
501.22	95.19
501.437	100.19
501.654	98.19
501.871	125.19
502.088	90.19
502.305	99.19
502.522	97.19
502.739	88.19
502.956	95.19
503.172	85.19
503.389	93.19
503.606	125.19
503.823	97.19
504.04	96.19
504.256	102.19
504.473	101.19
504.69	84.19
504.907	90.19
505.123	97.19
505.34	112.19
505.557	91.19
505.773	96.19
505.99	91.19
506.207	97.19
506.423	84.19
506.64	94.19
506.856	85.19
507.073	86.19
507.289	88.19
507.506	94.19
507.722	114.19
507.939	115.19
508.155	101.19
508.372	100.19
508.588	93.19
508.805	95.19
509.021	98.19
509.238	98.19
509.454	87.19
509.67	87.19
509.887	111.19
510.103	134.19
510.319	239.19
510.536	877.19
510.752	2814.19
510.968	793.19
511.184	166.19
511.401	104.19
511.617	103.19
511.833	91.19
512.049	101.19
512.265	91.19
512.481	89.19
512.698	81.19
512.914	100.19
513.13	103.19
513.346	90.19
513.562	112.19
