Data from Circ_2006_H10_HRD10591_00027.txt Node
Date: Wed Jan 03 10:26:09 EST 2024
User: Yrep
Spectrometer: HR+D1059
Trigger mode: 1
Integration Time (sec): 1.000000E-1
Scans to average: 1
Electric dark correction enabled: true
Nonlinearity correction enabled: false
Boxcar width: 0
XAxis mode: Wavelengths
Number of Pixels in Spectrum: 2048
>>>>>Begin Spectral Data<<<<<
223.165	-13.62
223.4	-13.62
223.635	-13.62
223.869	-21.62
224.104	-20.62
224.338	-3.62
224.573	-14.62
224.808	-11.62
225.042	-14.62
225.277	-0.62
225.511	-3.62
225.746	0.38
225.98	12.38
226.215	17.38
226.449	2.38
226.683	22.38
226.918	19.38
227.152	30.38
227.387	26.38
227.621	43.38
227.856	48.38
228.09	41.38
228.324	51.38
228.559	66.38
228.793	45.38
229.027	68.38
229.262	70.38
229.496	84.38
229.73	99.38
229.964	89.38
230.199	82.38
230.433	69.38
230.667	84.38
230.901	79.38
231.136	71.38
231.37	71.38
231.604	93.38
231.838	78.38
232.072	82.38
232.306	81.38
232.541	74.38
232.775	80.38
233.009	91.38
233.243	82.38
233.477	77.38
233.711	80.38
233.945	63.38
234.179	68.38
234.413	70.38
234.647	76.38
234.881	65.38
235.115	106.38
235.349	73.38
235.583	74.38
235.817	71.38
236.051	70.38
236.285	64.38
236.519	86.38
236.753	83.38
236.987	80.38
237.221	80.38
237.455	80.38
237.689	85.38
237.922	68.38
238.156	81.38
238.39	69.38
238.624	85.38
238.858	81.38
239.091	63.38
239.325	79.38
239.559	78.38
239.793	82.38
240.027	81.38
240.26	81.38
240.494	71.38
240.728	78.38
240.961	78.38
241.195	88.38
241.429	59.38
241.662	89.38
241.896	72.38
242.13	80.38
242.363	77.38
242.597	81.38
242.83	83.38
243.064	70.38
243.298	80.38
243.531	78.38
243.765	72.38
243.998	80.38
244.232	76.38
244.465	83.38
244.699	69.38
244.932	76.38
245.166	76.38
245.399	57.38
245.633	72.38
245.866	82.38
246.099	89.38
246.333	64.38
246.566	77.38
246.8	71.38
247.033	81.38
247.266	68.38
247.5	77.38
247.733	69.38
247.966	66.38
248.2	70.38
248.433	82.38
248.666	90.38
248.899	67.38
249.133	96.38
249.366	108.38
249.599	104.38
249.832	76.38
250.066	90.38
250.299	75.38
250.532	80.38
250.765	80.38
250.998	87.38
251.231	83.38
251.465	85.38
251.698	75.38
251.931	66.38
252.164	70.38
252.397	80.38
252.63	83.38
252.863	72.38
253.096	83.38
253.329	78.38
253.562	79.38
253.795	80.38
254.028	67.38
254.261	83.38
254.494	84.38
254.727	84.38
254.96	85.38
255.193	90.38
255.426	70.38
255.659	81.38
255.892	94.38
256.124	82.38
256.357	79.38
256.59	77.38
256.823	80.38
257.056	84.38
257.289	95.38
257.521	86.38
257.754	90.38
257.987	89.38
258.22	77.38
258.452	100.38
258.685	80.38
258.918	85.38
259.151	78.38
259.383	94.38
259.616	94.38
259.849	74.38
260.081	77.38
260.314	75.38
260.547	92.38
260.779	89.38
261.012	82.38
261.244	84.38
261.477	73.38
261.71	104.38
261.942	117.38
262.175	115.38
262.407	84.38
262.64	77.38
262.872	66.38
263.105	102.38
263.337	92.38
263.57	95.38
263.802	89.38
264.035	78.38
264.267	63.38
264.499	94.38
264.732	92.38
264.964	94.38
265.197	88.38
265.429	91.38
265.661	87.38
265.894	92.38
266.126	74.38
266.358	83.38
266.591	82.38
266.823	81.38
267.055	76.38
267.287	85.38
267.52	75.38
267.752	97.38
267.984	88.38
268.216	91.38
268.448	71.38
268.681	81.38
268.913	67.38
269.145	91.38
269.377	94.38
269.609	78.38
269.841	92.38
270.073	88.38
270.306	88.38
270.538	92.38
270.77	78.38
271.002	73.38
271.234	76.38
271.466	78.38
271.698	85.38
271.93	86.38
272.162	68.38
272.394	88.38
272.626	77.38
272.858	85.38
273.09	83.38
273.322	94.38
273.553	90.38
273.785	92.38
274.017	76.38
274.249	74.38
274.481	93.38
274.713	82.38
274.945	75.38
275.176	95.38
275.408	73.38
275.64	83.38
275.872	81.38
276.104	100.38
276.335	101.38
276.567	101.38
276.799	112.38
277.031	113.38
277.262	92.38
277.494	96.38
277.726	72.38
277.957	73.38
278.189	75.38
278.421	75.38
278.652	93.38
278.884	77.38
279.115	85.38
279.347	76.38
279.579	90.38
279.81	65.38
280.042	73.38
280.273	96.38
280.505	83.38
280.736	88.38
280.968	98.38
281.199	82.38
281.431	88.38
281.662	77.38
281.894	80.38
282.125	99.38
282.356	130.38
282.588	146.38
282.819	120.38
283.051	84.38
283.282	89.38
283.513	99.38
283.745	87.38
283.976	73.38
284.207	74.38
284.439	92.38
284.67	93.38
284.901	86.38
285.132	77.38
285.364	101.38
285.595	74.38
285.826	84.38
286.057	81.38
286.288	100.38
286.52	89.38
286.751	85.38
286.982	84.38
287.213	91.38
287.444	86.38
287.675	70.38
287.906	97.38
288.138	91.38
288.369	88.38
288.6	86.38
288.831	86.38
289.062	91.38
289.293	93.38
289.524	93.38
289.755	91.38
289.986	97.38
290.217	82.38
290.448	73.38
290.679	76.38
290.91	77.38
291.141	71.38
291.371	98.38
291.602	90.38
291.833	92.38
292.064	93.38
292.295	97.38
292.526	86.38
292.757	74.38
292.987	98.38
293.218	81.38
293.449	87.38
293.68	103.38
293.91	97.38
294.141	86.38
294.372	85.38
294.603	86.38
294.833	105.38
295.064	86.38
295.295	89.38
295.525	98.38
295.756	110.38
295.987	119.38
296.217	170.38
296.448	121.38
296.679	115.38
296.909	92.38
297.14	101.38
297.37	89.38
297.601	81.38
297.831	82.38
298.062	95.38
298.292	70.38
298.523	92.38
298.753	98.38
298.984	82.38
299.214	97.38
299.445	90.38
299.675	99.38
299.905	93.38
300.136	80.38
300.366	69.38
300.597	85.38
300.827	86.38
301.057	96.38
301.288	112.38
301.518	100.38
301.748	91.38
301.979	101.38
302.209	95.38
302.439	85.38
302.669	76.38
302.9	80.38
303.13	83.38
303.36	90.38
303.59	105.38
303.82	110.38
304.051	100.38
304.281	85.38
304.511	86.38
304.741	97.38
304.971	87.38
305.201	92.38
305.431	87.38
305.661	84.38
305.891	87.38
306.121	83.38
306.352	108.38
306.582	107.38
306.812	98.38
307.042	96.38
307.272	94.38
307.502	98.38
307.731	101.38
307.961	96.38
308.191	90.38
308.421	103.38
308.651	90.38
308.881	100.38
309.111	91.38
309.341	97.38
309.571	99.38
309.8	99.38
310.03	99.38
310.26	95.38
310.49	98.38
310.72	112.38
310.949	101.38
311.179	104.38
311.409	95.38
311.639	87.38
311.868	99.38
312.098	97.38
312.328	104.38
312.557	108.38
312.787	115.38
313.017	105.38
313.246	101.38
313.476	94.38
313.706	79.38
313.935	100.38
314.165	99.38
314.394	104.38
314.624	110.38
314.853	106.38
315.083	101.38
315.312	99.38
315.542	91.38
315.771	98.38
316.001	97.38
316.23	87.38
316.46	86.38
316.689	92.38
316.919	101.38
317.148	108.38
317.377	97.38
317.607	108.38
317.836	94.38
318.065	94.38
318.295	78.38
318.524	89.38
318.753	102.38
318.983	105.38
319.212	113.38
319.441	122.38
319.67	120.38
319.9	88.38
320.129	108.38
320.358	99.38
320.587	107.38
320.816	102.38
321.046	99.38
321.275	104.38
321.504	108.38
321.733	110.38
321.962	116.38
322.191	104.38
322.42	109.38
322.649	114.38
322.878	114.38
323.108	124.38
323.337	140.38
323.566	144.38
323.795	174.38
324.024	259.38
324.253	535.38
324.482	1210.38
324.71	2552.38
324.939	3376.38
325.168	1208.38
325.397	332.38
325.626	193.38
325.855	146.38
326.084	163.38
326.313	141.38
326.542	185.38
326.77	295.38
326.999	648.38
327.228	1409.38
327.457	2581.38
327.686	2018.38
327.914	496.38
328.143	234.38
328.372	172.38
328.6	144.38
328.829	136.38
329.058	151.38
329.287	137.38
329.515	120.38
329.744	118.38
329.972	115.38
330.201	111.38
330.43	149.38
330.658	133.38
330.887	168.38
331.115	136.38
331.344	98.38
331.572	115.38
331.801	108.38
332.03	93.38
332.258	93.38
332.486	85.38
332.715	75.38
332.943	98.38
333.172	101.38
333.4	89.38
333.629	100.38
333.857	115.38
334.085	113.38
334.314	136.38
334.542	138.38
334.771	124.38
334.999	94.38
335.227	90.38
335.455	92.38
335.684	103.38
335.912	84.38
336.14	107.38
336.369	107.38
336.597	110.38
336.825	113.38
337.053	90.38
337.281	112.38
337.51	92.38
337.738	104.38
337.966	90.38
338.194	101.38
338.422	120.38
338.65	98.38
338.878	84.38
339.106	89.38
339.334	93.38
339.562	90.38
339.79	108.38
340.018	95.38
340.246	97.38
340.474	92.38
340.702	84.38
340.93	82.38
341.158	91.38
341.386	104.38
341.614	97.38
341.842	94.38
342.07	93.38
342.298	86.38
342.526	86.38
342.754	85.38
342.981	98.38
343.209	92.38
343.437	104.38
343.665	104.38
343.893	101.38
344.12	97.38
344.348	99.38
344.576	105.38
344.804	100.38
345.031	93.38
345.259	112.38
345.487	93.38
345.714	108.38
345.942	96.38
346.17	88.38
346.397	97.38
346.625	86.38
346.853	95.38
347.08	97.38
347.308	101.38
347.535	98.38
347.763	90.38
347.99	106.38
348.218	108.38
348.445	116.38
348.673	101.38
348.9	98.38
349.128	90.38
349.355	98.38
349.583	90.38
349.81	90.38
350.037	89.38
350.265	89.38
350.492	102.38
350.72	96.38
350.947	99.38
351.174	106.38
351.402	124.38
351.629	108.38
351.856	117.38
352.083	95.38
352.311	114.38
352.538	118.38
352.765	115.38
352.992	111.38
353.22	118.38
353.447	99.38
353.674	97.38
353.901	108.38
354.128	102.38
354.355	100.38
354.583	105.38
354.81	99.38
355.037	92.38
355.264	103.38
355.491	95.38
355.718	94.38
355.945	92.38
356.172	95.38
356.399	83.38
356.626	92.38
356.853	89.38
357.08	90.38
357.307	93.38
357.534	85.38
357.761	90.38
357.988	100.38
358.215	97.38
358.441	108.38
358.668	83.38
358.895	102.38
359.122	101.38
359.349	92.38
359.576	91.38
359.802	114.38
360.029	120.38
360.256	136.38
360.483	107.38
360.709	88.38
360.936	105.38
361.163	101.38
361.39	104.38
361.616	102.38
361.843	98.38
362.07	92.38
362.296	92.38
362.523	85.38
362.749	86.38
362.976	94.38
363.203	90.38
363.429	87.38
363.656	98.38
363.882	93.38
364.109	97.38
364.335	104.38
364.562	97.38
364.788	104.38
365.015	104.38
365.241	106.38
365.468	114.38
365.694	114.38
365.92	99.38
366.147	101.38
366.373	86.38
366.599	97.38
366.826	86.38
367.052	87.38
367.278	83.38
367.505	98.38
367.731	94.38
367.957	94.38
368.184	92.38
368.41	98.38
368.636	107.38
368.862	135.38
369.089	95.38
369.315	104.38
369.541	88.38
369.767	85.38
369.993	85.38
370.219	103.38
370.445	72.38
370.672	82.38
370.898	96.38
371.124	84.38
371.35	91.38
371.576	91.38
371.802	97.38
372.028	98.38
372.254	95.38
372.48	79.38
372.706	88.38
372.932	81.38
373.158	82.38
373.384	90.38
373.61	99.38
373.835	80.38
374.061	74.38
374.287	94.38
374.513	94.38
374.739	89.38
374.965	96.38
375.191	89.38
375.416	91.38
375.642	90.38
375.868	97.38
376.094	83.38
376.319	89.38
376.545	96.38
376.771	97.38
376.997	83.38
377.222	88.38
377.448	96.38
377.674	95.38
377.899	87.38
378.125	97.38
378.35	92.38
378.576	93.38
378.802	92.38
379.027	77.38
379.253	95.38
379.478	84.38
379.704	91.38
379.929	84.38
380.155	118.38
380.38	107.38
380.606	101.38
380.831	92.38
381.057	109.38
381.282	97.38
381.507	101.38
381.733	98.38
381.958	104.38
382.184	96.38
382.409	86.38
382.634	101.38
382.86	100.38
383.085	110.38
383.31	105.38
383.535	101.38
383.761	95.38
383.986	108.38
384.211	93.38
384.436	107.38
384.662	104.38
384.887	106.38
385.112	97.38
385.337	96.38
385.562	107.38
385.787	100.38
386.013	132.38
386.238	123.38
386.463	114.38
386.688	113.38
386.913	98.38
387.138	116.38
387.363	101.38
387.588	115.38
387.813	96.38
388.038	107.38
388.263	112.38
388.488	121.38
388.713	111.38
388.938	96.38
389.163	79.38
389.387	87.38
389.612	96.38
389.837	102.38
390.062	97.38
390.287	85.38
390.512	81.38
390.736	98.38
390.961	93.38
391.186	87.38
391.411	95.38
391.636	95.38
391.86	92.38
392.085	91.38
392.31	82.38
392.534	96.38
392.759	87.38
392.984	85.38
393.208	98.38
393.433	105.38
393.658	92.38
393.882	86.38
394.107	86.38
394.331	94.38
394.556	63.38
394.78	88.38
395.005	94.38
395.229	84.38
395.454	81.38
395.678	95.38
395.903	75.38
396.127	99.38
396.352	90.38
396.576	82.38
396.801	84.38
397.025	92.38
397.249	90.38
397.474	93.38
397.698	81.38
397.922	91.38
398.147	92.38
398.371	93.38
398.595	79.38
398.82	77.38
399.044	92.38
399.268	109.38
399.492	95.38
399.717	95.38
399.941	91.38
400.165	91.38
400.389	85.38
400.613	92.38
400.837	101.38
401.062	75.38
401.286	90.38
401.51	100.38
401.734	92.38
401.958	110.38
402.182	146.38
402.406	178.38
402.63	141.38
402.854	106.38
403.078	92.38
403.302	76.38
403.526	91.38
403.75	92.38
403.974	76.38
404.198	79.38
404.422	92.38
404.645	88.38
404.869	81.38
405.093	106.38
405.317	111.38
405.541	97.38
405.765	110.38
405.988	141.38
406.212	190.38
406.436	267.38
406.66	175.38
406.883	116.38
407.107	107.38
407.331	104.38
407.555	101.38
407.778	102.38
408.002	100.38
408.226	81.38
408.449	99.38
408.673	94.38
408.896	84.38
409.12	89.38
409.344	96.38
409.567	83.38
409.791	95.38
410.014	100.38
410.238	83.38
410.461	84.38
410.685	93.38
410.908	109.38
411.132	98.38
411.355	114.38
411.578	95.38
411.802	89.38
412.025	78.38
412.249	92.38
412.472	89.38
412.695	94.38
412.919	94.38
413.142	85.38
413.365	92.38
413.589	72.38
413.812	100.38
414.035	88.38
414.258	98.38
414.482	85.38
414.705	78.38
414.928	86.38
415.151	80.38
415.374	104.38
415.597	92.38
415.821	78.38
416.044	67.38
416.267	81.38
416.49	89.38
416.713	80.38
416.936	89.38
417.159	86.38
417.382	92.38
417.605	86.38
417.828	78.38
418.051	95.38
418.274	107.38
418.497	92.38
418.72	76.38
418.943	92.38
419.166	86.38
419.389	99.38
419.611	82.38
419.834	87.38
420.057	79.38
420.28	83.38
420.503	91.38
420.726	81.38
420.948	77.38
421.171	96.38
421.394	104.38
421.617	88.38
421.839	94.38
422.062	102.38
422.285	88.38
422.507	115.38
422.73	101.38
422.953	100.38
423.175	99.38
423.398	87.38
423.621	71.38
423.843	76.38
424.066	89.38
424.288	84.38
424.511	86.38
424.733	105.38
424.956	98.38
425.178	103.38
425.401	112.38
425.623	108.38
425.846	92.38
426.068	98.38
426.291	99.38
426.513	86.38
426.735	96.38
426.958	97.38
427.18	113.38
427.402	141.38
427.625	218.38
427.847	149.38
428.069	120.38
428.292	92.38
428.514	83.38
428.736	75.38
428.958	95.38
429.181	83.38
429.403	80.38
429.625	82.38
429.847	92.38
430.069	102.38
430.292	92.38
430.514	83.38
430.736	85.38
430.958	84.38
431.18	81.38
431.402	77.38
431.624	81.38
431.846	91.38
432.068	86.38
432.29	91.38
432.512	96.38
432.734	96.38
432.956	87.38
433.178	101.38
433.4	106.38
433.622	77.38
433.844	99.38
434.066	93.38
434.287	92.38
434.509	97.38
434.731	89.38
434.953	98.38
435.175	92.38
435.397	83.38
435.618	93.38
435.84	110.38
436.062	139.38
436.284	115.38
436.505	120.38
436.727	114.38
436.949	95.38
437.17	87.38
437.392	90.38
437.614	87.38
437.835	113.38
438.057	125.38
438.278	116.38
438.5	112.38
438.721	132.38
438.943	103.38
439.165	89.38
439.386	83.38
439.608	79.38
439.829	101.38
440.05	152.38
440.272	155.38
440.493	96.38
440.715	90.38
440.936	75.38
441.158	97.38
441.379	79.38
441.6	92.38
441.822	96.38
442.043	112.38
442.264	110.38
442.486	120.38
442.707	78.38
442.928	99.38
443.149	161.38
443.371	157.38
443.592	123.38
443.813	134.38
444.034	121.38
444.255	115.38
444.476	79.38
444.698	80.38
444.919	101.38
445.14	130.38
445.361	131.38
445.582	116.38
445.803	171.38
446.024	163.38
446.245	158.38
446.466	118.38
446.687	97.38
446.908	87.38
447.129	89.38
447.35	84.38
447.571	109.38
447.792	109.38
448.013	101.38
448.234	136.38
448.455	101.38
448.675	125.38
448.896	149.38
449.117	121.38
449.338	117.38
449.559	151.38
449.779	154.38
450	98.38
450.221	92.38
450.442	83.38
450.662	82.38
450.883	111.38
451.104	113.38
451.324	99.38
451.545	86.38
451.766	81.38
451.986	87.38
452.207	96.38
452.428	95.38
452.648	96.38
452.869	125.38
453.089	128.38
453.31	121.38
453.53	85.38
453.751	78.38
453.971	106.38
454.192	137.38
454.412	104.38
454.633	102.38
454.853	94.38
455.073	86.38
455.294	91.38
455.514	96.38
455.734	100.38
455.955	92.38
456.175	94.38
456.395	95.38
456.616	89.38
456.836	90.38
457.056	81.38
457.276	72.38
457.497	84.38
457.717	85.38
457.937	90.38
458.157	87.38
458.377	93.38
458.598	112.38
458.818	195.38
459.038	192.38
459.258	131.38
459.478	86.38
459.698	85.38
459.918	77.38
460.138	84.38
460.358	87.38
460.578	91.38
460.798	96.38
461.018	102.38
461.238	87.38
461.458	94.38
461.678	101.38
461.898	94.38
462.118	82.38
462.338	79.38
462.558	92.38
462.777	69.38
462.997	88.38
463.217	81.38
463.437	76.38
463.657	93.38
463.876	85.38
464.096	77.38
464.316	95.38
464.536	94.38
464.755	100.38
464.975	114.38
465.195	206.38
465.414	215.38
465.634	112.38
465.854	91.38
466.073	84.38
466.293	70.38
466.512	86.38
466.732	86.38
466.951	90.38
467.171	105.38
467.391	90.38
467.61	96.38
467.829	112.38
468.049	90.38
468.268	97.38
468.488	89.38
468.707	85.38
468.927	87.38
469.146	84.38
469.365	78.38
469.585	87.38
469.804	95.38
470.023	91.38
470.243	90.38
470.462	100.38
470.681	117.38
470.901	96.38
471.12	81.38
471.339	86.38
471.558	82.38
471.777	81.38
471.997	83.38
472.216	99.38
472.435	142.38
472.654	79.38
472.873	86.38
473.092	86.38
473.311	85.38
473.53	90.38
473.749	81.38
473.968	97.38
474.187	106.38
474.406	103.38
474.625	91.38
474.844	78.38
475.063	99.38
475.282	77.38
475.501	96.38
475.72	97.38
475.939	74.38
476.158	82.38
476.377	97.38
476.596	109.38
476.814	93.38
477.033	87.38
477.252	97.38
477.471	94.38
477.69	96.38
477.908	92.38
478.127	89.38
478.346	98.38
478.564	100.38
478.783	101.38
479.002	89.38
479.22	104.38
479.439	102.38
479.658	122.38
479.876	98.38
480.095	88.38
480.313	94.38
480.532	90.38
480.751	94.38
480.969	104.38
481.188	148.38
481.406	128.38
481.624	100.38
481.843	87.38
482.061	72.38
482.28	95.38
482.498	81.38
482.717	73.38
482.935	93.38
483.153	94.38
483.372	97.38
483.59	82.38
483.808	101.38
484.027	79.38
484.245	106.38
484.463	88.38
484.681	83.38
484.9	96.38
485.118	82.38
485.336	81.38
485.554	98.38
485.772	108.38
485.99	108.38
486.209	117.38
486.427	114.38
486.645	124.38
486.863	127.38
487.081	97.38
487.299	100.38
487.517	107.38
487.735	105.38
487.953	89.38
488.171	90.38
488.389	101.38
488.607	104.38
488.825	95.38
489.043	77.38
489.261	99.38
489.479	85.38
489.696	90.38
489.914	99.38
490.132	92.38
490.35	96.38
490.568	98.38
490.786	96.38
491.003	82.38
491.221	85.38
491.439	97.38
491.657	97.38
491.874	82.38
492.092	73.38
492.31	84.38
492.527	80.38
492.745	87.38
492.963	89.38
493.18	90.38
493.398	94.38
493.615	103.38
493.833	97.38
494.05	86.38
494.268	106.38
494.485	84.38
494.703	78.38
494.92	80.38
495.138	81.38
495.355	89.38
495.573	86.38
495.79	102.38
496.008	99.38
496.225	84.38
496.442	75.38
496.66	95.38
496.877	93.38
497.094	97.38
497.312	84.38
497.529	91.38
497.746	84.38
497.963	93.38
498.181	86.38
498.398	109.38
498.615	122.38
498.832	111.38
499.049	95.38
499.267	88.38
499.484	97.38
499.701	95.38
499.918	91.38
500.135	85.38
500.352	86.38
500.569	88.38
500.786	91.38
501.003	90.38
501.22	87.38
501.437	83.38
501.654	103.38
501.871	121.38
502.088	98.38
502.305	85.38
502.522	86.38
502.739	82.38
502.956	85.38
503.172	90.38
503.389	87.38
503.606	110.38
503.823	97.38
504.04	94.38
504.256	92.38
504.473	92.38
504.69	92.38
504.907	86.38
505.123	96.38
505.34	94.38
505.557	72.38
505.773	86.38
505.99	82.38
506.207	90.38
506.423	99.38
506.64	93.38
506.856	92.38
507.073	97.38
507.289	83.38
507.506	107.38
507.722	126.38
507.939	116.38
508.155	100.38
508.372	101.38
508.588	93.38
508.805	96.38
509.021	105.38
509.238	102.38
509.454	93.38
509.67	123.38
509.887	124.38
510.103	138.38
510.319	253.38
510.536	916.38
510.752	3054.38
510.968	820.38
511.184	173.38
511.401	114.38
511.617	103.38
511.833	93.38
512.049	84.38
512.265	76.38
512.481	94.38
512.698	81.38
512.914	91.38
513.13	97.38
513.346	104.38
513.562	92.38
513.778	114.38
513.994	113.38
514.21	107.38
514.426	118.38
514.642	157.38
