Data from Circ_2006_H10_HRD10591_00005.txt Node
Date: Wed Jan 03 10:26:04 EST 2024
User: Yrep
Spectrometer: HR+D1059
Trigger mode: 1
Integration Time (sec): 1.000000E-1
Scans to average: 1
Electric dark correction enabled: true
Nonlinearity correction enabled: false
Boxcar width: 0
XAxis mode: Wavelengths
Number of Pixels in Spectrum: 2048
>>>>>Begin Spectral Data<<<<<
223.165	-18.75
223.4	-18.75
223.635	-18.75
223.869	-29.75
224.104	-10.75
224.338	-13.75
224.573	-3.75
224.808	-0.75
225.042	-16.75
225.277	1.25
225.511	-23.75
225.746	7.25
225.98	4.25
226.215	20.25
226.449	11.25
226.683	14.25
226.918	22.25
227.152	37.25
227.387	47.25
227.621	29.25
227.856	52.25
228.09	37.25
228.324	49.25
228.559	61.25
228.793	70.25
229.027	55.25
229.262	65.25
229.496	69.25
229.73	75.25
229.964	86.25
230.199	73.25
230.433	75.25
230.667	87.25
230.901	77.25
231.136	77.25
231.37	88.25
231.604	82.25
231.838	73.25
232.072	70.25
232.306	78.25
232.541	72.25
232.775	86.25
233.009	82.25
233.243	80.25
233.477	71.25
233.711	78.25
233.945	65.25
234.179	66.25
234.413	73.25
234.647	70.25
234.881	84.25
235.115	71.25
235.349	82.25
235.583	59.25
235.817	79.25
236.051	72.25
236.285	52.25
236.519	76.25
236.753	94.25
236.987	83.25
237.221	86.25
237.455	85.25
237.689	60.25
237.922	71.25
238.156	69.25
238.39	78.25
238.624	77.25
238.858	79.25
239.091	66.25
239.325	73.25
239.559	87.25
239.793	69.25
240.027	79.25
240.26	60.25
240.494	75.25
240.728	70.25
240.961	72.25
241.195	78.25
241.429	73.25
241.662	77.25
241.896	74.25
242.13	82.25
242.363	75.25
242.597	75.25
242.83	74.25
243.064	86.25
243.298	83.25
243.531	85.25
243.765	78.25
243.998	75.25
244.232	74.25
244.465	89.25
244.699	79.25
244.932	94.25
245.166	83.25
245.399	84.25
245.633	77.25
245.866	83.25
246.099	86.25
246.333	71.25
246.566	79.25
246.8	94.25
247.033	77.25
247.266	87.25
247.5	84.25
247.733	63.25
247.966	83.25
248.2	84.25
248.433	87.25
248.666	78.25
248.899	85.25
249.133	94.25
249.366	94.25
249.599	97.25
249.832	74.25
250.066	80.25
250.299	74.25
250.532	76.25
250.765	71.25
250.998	74.25
251.231	87.25
251.465	77.25
251.698	71.25
251.931	83.25
252.164	95.25
252.397	76.25
252.63	76.25
252.863	90.25
253.096	78.25
253.329	76.25
253.562	73.25
253.795	74.25
254.028	69.25
254.261	67.25
254.494	78.25
254.727	87.25
254.96	85.25
255.193	80.25
255.426	88.25
255.659	79.25
255.892	70.25
256.124	77.25
256.357	94.25
256.59	85.25
256.823	82.25
257.056	70.25
257.289	85.25
257.521	83.25
257.754	76.25
257.987	82.25
258.22	83.25
258.452	94.25
258.685	81.25
258.918	88.25
259.151	80.25
259.383	80.25
259.616	79.25
259.849	92.25
260.081	73.25
260.314	82.25
260.547	78.25
260.779	65.25
261.012	92.25
261.244	102.25
261.477	90.25
261.71	95.25
261.942	115.25
262.175	108.25
262.407	91.25
262.64	83.25
262.872	82.25
263.105	97.25
263.337	75.25
263.57	80.25
263.802	81.25
264.035	81.25
264.267	70.25
264.499	81.25
264.732	77.25
264.964	77.25
265.197	82.25
265.429	82.25
265.661	69.25
265.894	73.25
266.126	89.25
266.358	78.25
266.591	91.25
266.823	77.25
267.055	89.25
267.287	84.25
267.52	89.25
267.752	78.25
267.984	96.25
268.216	87.25
268.448	93.25
268.681	84.25
268.913	81.25
269.145	85.25
269.377	85.25
269.609	94.25
269.841	75.25
270.073	92.25
270.306	86.25
270.538	86.25
270.77	78.25
271.002	87.25
271.234	75.25
271.466	77.25
271.698	91.25
271.93	67.25
272.162	90.25
272.394	72.25
272.626	78.25
272.858	85.25
273.09	94.25
273.322	90.25
273.553	79.25
273.785	67.25
274.017	73.25
274.249	77.25
274.481	78.25
274.713	92.25
274.945	79.25
275.176	85.25
275.408	82.25
275.64	71.25
275.872	81.25
276.104	78.25
276.335	88.25
276.567	100.25
276.799	125.25
277.031	108.25
277.262	97.25
277.494	92.25
277.726	84.25
277.957	99.25
278.189	87.25
278.421	86.25
278.652	86.25
278.884	79.25
279.115	78.25
279.347	91.25
279.579	81.25
279.81	74.25
280.042	77.25
280.273	95.25
280.505	91.25
280.736	102.25
280.968	90.25
281.199	101.25
281.431	97.25
281.662	91.25
281.894	95.25
282.125	99.25
282.356	122.25
282.588	141.25
282.819	115.25
283.051	86.25
283.282	84.25
283.513	89.25
283.745	70.25
283.976	83.25
284.207	83.25
284.439	98.25
284.67	88.25
284.901	87.25
285.132	84.25
285.364	100.25
285.595	93.25
285.826	82.25
286.057	84.25
286.288	84.25
286.52	81.25
286.751	96.25
286.982	77.25
287.213	106.25
287.444	96.25
287.675	82.25
287.906	78.25
288.138	88.25
288.369	89.25
288.6	84.25
288.831	77.25
289.062	98.25
289.293	89.25
289.524	92.25
289.755	85.25
289.986	83.25
290.217	90.25
290.448	95.25
290.679	80.25
290.91	78.25
291.141	81.25
291.371	79.25
291.602	92.25
291.833	73.25
292.064	83.25
292.295	83.25
292.526	87.25
292.757	83.25
292.987	90.25
293.218	72.25
293.449	77.25
293.68	78.25
293.91	82.25
294.141	84.25
294.372	94.25
294.603	84.25
294.833	94.25
295.064	87.25
295.295	88.25
295.525	91.25
295.756	111.25
295.987	121.25
296.217	129.25
296.448	116.25
296.679	94.25
296.909	74.25
297.14	97.25
297.37	87.25
297.601	94.25
297.831	80.25
298.062	88.25
298.292	79.25
298.523	78.25
298.753	90.25
298.984	94.25
299.214	77.25
299.445	89.25
299.675	83.25
299.905	107.25
300.136	95.25
300.366	91.25
300.597	92.25
300.827	108.25
301.057	108.25
301.288	97.25
301.518	91.25
301.748	94.25
301.979	95.25
302.209	84.25
302.439	93.25
302.669	93.25
302.9	91.25
303.13	88.25
303.36	90.25
303.59	114.25
303.82	109.25
304.051	85.25
304.281	110.25
304.511	91.25
304.741	90.25
304.971	87.25
305.201	95.25
305.431	95.25
305.661	82.25
305.891	78.25
306.121	101.25
306.352	104.25
306.582	110.25
306.812	104.25
307.042	94.25
307.272	92.25
307.502	83.25
307.731	101.25
307.961	92.25
308.191	96.25
308.421	78.25
308.651	83.25
308.881	91.25
309.111	101.25
309.341	79.25
309.571	102.25
309.8	103.25
310.03	106.25
310.26	101.25
310.49	101.25
310.72	96.25
310.949	96.25
311.179	87.25
311.409	93.25
311.639	87.25
311.868	111.25
312.098	71.25
312.328	93.25
312.557	92.25
312.787	88.25
313.017	97.25
313.246	88.25
313.476	112.25
313.706	92.25
313.935	106.25
314.165	90.25
314.394	102.25
314.624	92.25
314.853	99.25
315.083	84.25
315.312	92.25
315.542	80.25
315.771	87.25
316.001	87.25
316.23	82.25
316.46	89.25
316.689	97.25
316.919	88.25
317.148	103.25
317.377	97.25
317.607	89.25
317.836	89.25
318.065	94.25
318.295	102.25
318.524	85.25
318.753	97.25
318.983	84.25
319.212	98.25
319.441	95.25
319.67	107.25
319.9	101.25
320.129	103.25
320.358	111.25
320.587	104.25
320.816	91.25
321.046	95.25
321.275	90.25
321.504	88.25
321.733	98.25
321.962	121.25
322.191	101.25
322.42	109.25
322.649	103.25
322.878	102.25
323.108	117.25
323.337	133.25
323.566	135.25
323.795	152.25
324.024	228.25
324.253	435.25
324.482	983.25
324.71	2027.25
324.939	2697.25
325.168	961.25
325.397	267.25
325.626	155.25
325.855	137.25
326.084	132.25
326.313	149.25
326.542	156.25
326.77	254.25
326.999	534.25
327.228	1148.25
327.457	2061.25
327.686	1645.25
327.914	422.25
328.143	208.25
328.372	166.25
328.6	130.25
328.829	127.25
329.058	137.25
329.287	139.25
329.515	115.25
329.744	105.25
329.972	105.25
330.201	108.25
330.43	120.25
330.658	123.25
330.887	149.25
331.115	111.25
331.344	99.25
331.572	104.25
331.801	97.25
332.03	100.25
332.258	99.25
332.486	100.25
332.715	92.25
332.943	97.25
333.172	98.25
333.4	84.25
333.629	105.25
333.857	118.25
334.085	115.25
334.314	93.25
334.542	107.25
334.771	97.25
334.999	97.25
335.227	98.25
335.455	88.25
335.684	86.25
335.912	99.25
336.14	90.25
336.369	92.25
336.597	108.25
336.825	89.25
337.053	113.25
337.281	102.25
337.51	93.25
337.738	99.25
337.966	98.25
338.194	96.25
338.422	107.25
338.65	98.25
338.878	89.25
339.106	84.25
339.334	97.25
339.562	98.25
339.79	95.25
340.018	85.25
340.246	90.25
340.474	95.25
340.702	97.25
340.93	93.25
341.158	83.25
341.386	95.25
341.614	81.25
341.842	95.25
342.07	90.25
342.298	101.25
342.526	91.25
342.754	92.25
342.981	97.25
343.209	88.25
343.437	97.25
343.665	81.25
343.893	87.25
344.12	91.25
344.348	107.25
344.576	99.25
344.804	99.25
345.031	87.25
345.259	86.25
345.487	102.25
345.714	93.25
345.942	86.25
346.17	94.25
346.397	83.25
346.625	97.25
346.853	99.25
347.08	87.25
347.308	88.25
347.535	97.25
347.763	96.25
347.99	95.25
348.218	110.25
348.445	117.25
348.673	103.25
348.9	93.25
349.128	99.25
349.355	86.25
349.583	105.25
349.81	99.25
350.037	85.25
350.265	101.25
350.492	101.25
350.72	98.25
350.947	111.25
351.174	106.25
351.402	102.25
351.629	110.25
351.856	94.25
352.083	102.25
352.311	97.25
352.538	117.25
352.765	112.25
352.992	112.25
353.22	122.25
353.447	102.25
353.674	112.25
353.901	91.25
354.128	81.25
354.355	95.25
354.583	93.25
354.81	94.25
355.037	107.25
355.264	98.25
355.491	95.25
355.718	77.25
355.945	84.25
356.172	100.25
356.399	88.25
356.626	99.25
356.853	93.25
357.08	78.25
357.307	94.25
357.534	101.25
357.761	97.25
357.988	106.25
358.215	92.25
358.441	91.25
358.668	101.25
358.895	100.25
359.122	91.25
359.349	97.25
359.576	93.25
359.802	107.25
360.029	117.25
360.256	115.25
360.483	90.25
360.709	82.25
360.936	82.25
361.163	95.25
361.39	86.25
361.616	105.25
361.843	91.25
362.07	82.25
362.296	107.25
362.523	98.25
362.749	101.25
362.976	89.25
363.203	90.25
363.429	85.25
363.656	97.25
363.882	98.25
364.109	78.25
364.335	90.25
364.562	91.25
364.788	87.25
365.015	88.25
365.241	101.25
365.468	107.25
365.694	98.25
365.92	110.25
366.147	97.25
366.373	76.25
366.599	87.25
366.826	77.25
367.052	82.25
367.278	86.25
367.505	97.25
367.731	102.25
367.957	93.25
368.184	77.25
368.41	89.25
368.636	114.25
368.862	129.25
369.089	114.25
369.315	87.25
369.541	91.25
369.767	86.25
369.993	87.25
370.219	94.25
370.445	83.25
370.672	88.25
370.898	88.25
371.124	89.25
371.35	84.25
371.576	90.25
371.802	94.25
372.028	84.25
372.254	90.25
372.48	100.25
372.706	90.25
372.932	89.25
373.158	90.25
373.384	86.25
373.61	89.25
373.835	86.25
374.061	103.25
374.287	87.25
374.513	90.25
374.739	94.25
374.965	75.25
375.191	84.25
375.416	92.25
375.642	90.25
375.868	102.25
376.094	86.25
376.319	105.25
376.545	97.25
376.771	94.25
376.997	75.25
377.222	86.25
377.448	91.25
377.674	77.25
377.899	90.25
378.125	79.25
378.35	91.25
378.576	77.25
378.802	99.25
379.027	90.25
379.253	93.25
379.478	88.25
379.704	83.25
379.929	98.25
380.155	85.25
380.38	100.25
380.606	93.25
380.831	94.25
381.057	98.25
381.282	98.25
381.507	87.25
381.733	91.25
381.958	90.25
382.184	90.25
382.409	106.25
382.634	98.25
382.86	107.25
383.085	98.25
383.31	102.25
383.535	99.25
383.761	109.25
383.986	114.25
384.211	111.25
384.436	111.25
384.662	110.25
384.887	105.25
385.112	114.25
385.337	108.25
385.562	114.25
385.787	129.25
386.013	143.25
386.238	124.25
386.463	130.25
386.688	125.25
386.913	113.25
387.138	122.25
387.363	116.25
387.588	116.25
387.813	122.25
388.038	123.25
388.263	114.25
388.488	116.25
388.713	91.25
388.938	84.25
389.163	98.25
389.387	105.25
389.612	83.25
389.837	81.25
390.062	94.25
390.287	96.25
390.512	99.25
390.736	98.25
390.961	93.25
391.186	86.25
391.411	79.25
391.636	91.25
391.86	78.25
392.085	82.25
392.31	91.25
392.534	80.25
392.759	89.25
392.984	88.25
393.208	94.25
393.433	103.25
393.658	110.25
393.882	98.25
394.107	90.25
394.331	77.25
394.556	95.25
394.78	95.25
395.005	91.25
395.229	85.25
395.454	77.25
395.678	82.25
395.903	81.25
396.127	86.25
396.352	96.25
396.576	85.25
396.801	95.25
397.025	85.25
397.249	78.25
397.474	85.25
397.698	91.25
397.922	86.25
398.147	95.25
398.371	69.25
398.595	91.25
398.82	90.25
399.044	73.25
399.268	89.25
399.492	82.25
399.717	82.25
399.941	84.25
400.165	111.25
400.389	86.25
400.613	84.25
400.837	78.25
401.062	97.25
401.286	89.25
401.51	86.25
401.734	93.25
401.958	99.25
402.182	126.25
402.406	154.25
402.63	118.25
402.854	96.25
403.078	85.25
403.302	82.25
403.526	87.25
403.75	87.25
403.974	92.25
404.198	102.25
404.422	87.25
404.645	99.25
404.869	98.25
405.093	100.25
405.317	94.25
405.541	107.25
405.765	107.25
405.988	106.25
406.212	167.25
406.436	226.25
406.66	150.25
406.883	92.25
407.107	93.25
407.331	108.25
407.555	99.25
407.778	99.25
408.002	111.25
408.226	108.25
408.449	87.25
408.673	93.25
408.896	90.25
409.12	97.25
409.344	76.25
409.567	83.25
409.791	82.25
410.014	106.25
410.238	102.25
410.461	98.25
410.685	95.25
410.908	103.25
411.132	94.25
411.355	98.25
411.578	80.25
411.802	90.25
412.025	105.25
412.249	94.25
412.472	87.25
412.695	88.25
412.919	94.25
413.142	84.25
413.365	97.25
413.589	81.25
413.812	83.25
414.035	99.25
414.258	84.25
414.482	94.25
414.705	113.25
414.928	84.25
415.151	82.25
415.374	83.25
415.597	95.25
415.821	77.25
416.044	88.25
416.267	92.25
416.49	94.25
416.713	85.25
416.936	98.25
417.159	90.25
417.382	80.25
417.605	86.25
417.828	81.25
418.051	101.25
418.274	88.25
418.497	84.25
418.72	86.25
418.943	85.25
419.166	91.25
419.389	95.25
419.611	85.25
419.834	84.25
420.057	90.25
420.28	74.25
420.503	82.25
420.726	79.25
420.948	90.25
421.171	87.25
421.394	103.25
421.617	81.25
421.839	92.25
422.062	91.25
422.285	101.25
422.507	101.25
422.73	104.25
422.953	102.25
423.175	92.25
423.398	86.25
423.621	100.25
423.843	87.25
424.066	86.25
424.288	76.25
424.511	87.25
424.733	89.25
424.956	97.25
425.178	99.25
425.401	82.25
425.623	98.25
425.846	95.25
426.068	94.25
426.291	104.25
426.513	78.25
426.735	99.25
426.958	95.25
427.18	99.25
427.402	143.25
427.625	176.25
427.847	121.25
428.069	98.25
428.292	89.25
428.514	90.25
428.736	91.25
428.958	85.25
429.181	77.25
429.403	83.25
429.625	100.25
429.847	100.25
430.069	101.25
430.292	109.25
430.514	87.25
430.736	82.25
430.958	86.25
431.18	81.25
431.402	93.25
431.624	86.25
431.846	82.25
432.068	78.25
432.29	102.25
432.512	80.25
432.734	81.25
432.956	90.25
433.178	98.25
433.4	106.25
433.622	87.25
433.844	86.25
434.066	82.25
434.287	78.25
434.509	89.25
434.731	93.25
434.953	88.25
435.175	73.25
435.397	81.25
435.618	95.25
435.84	111.25
436.062	126.25
436.284	124.25
436.505	107.25
436.727	111.25
436.949	81.25
437.17	98.25
437.392	97.25
437.614	92.25
437.835	99.25
438.057	124.25
438.278	99.25
438.5	96.25
438.721	121.25
438.943	106.25
439.165	93.25
439.386	87.25
439.608	93.25
439.829	106.25
440.05	127.25
440.272	149.25
440.493	99.25
440.715	100.25
440.936	94.25
441.158	86.25
441.379	84.25
441.6	106.25
441.822	110.25
442.043	86.25
442.264	104.25
442.486	110.25
442.707	90.25
442.928	95.25
443.149	126.25
443.371	122.25
443.592	115.25
443.813	131.25
444.034	117.25
444.255	82.25
444.476	93.25
444.698	92.25
444.919	90.25
445.14	117.25
445.361	119.25
445.582	114.25
445.803	133.25
446.024	148.25
446.245	149.25
446.466	116.25
446.687	84.25
446.908	73.25
447.129	87.25
447.35	87.25
447.571	84.25
447.792	88.25
448.013	94.25
448.234	109.25
448.455	103.25
448.675	108.25
448.896	129.25
449.117	94.25
449.338	114.25
449.559	138.25
449.779	144.25
450	91.25
450.221	89.25
450.442	92.25
450.662	98.25
450.883	108.25
451.104	97.25
451.324	102.25
451.545	74.25
451.766	85.25
451.986	91.25
452.207	83.25
452.428	96.25
452.648	78.25
452.869	108.25
453.089	105.25
453.31	111.25
453.53	94.25
453.751	76.25
453.971	100.25
454.192	109.25
454.412	84.25
454.633	95.25
454.853	85.25
455.073	78.25
455.294	85.25
455.514	106.25
455.734	96.25
455.955	89.25
456.175	93.25
456.395	87.25
456.616	74.25
456.836	91.25
457.056	89.25
457.276	79.25
457.497	82.25
457.717	76.25
457.937	95.25
458.157	100.25
458.377	89.25
458.598	112.25
458.818	156.25
459.038	160.25
459.258	113.25
459.478	85.25
459.698	73.25
459.918	94.25
460.138	71.25
460.358	91.25
460.578	70.25
460.798	92.25
461.018	83.25
461.238	84.25
461.458	84.25
461.678	95.25
461.898	85.25
462.118	97.25
462.338	91.25
462.558	88.25
462.777	71.25
462.997	89.25
463.217	82.25
463.437	84.25
463.657	87.25
463.876	92.25
464.096	100.25
464.316	81.25
464.536	80.25
464.755	83.25
464.975	102.25
465.195	173.25
465.414	162.25
465.634	95.25
465.854	86.25
466.073	94.25
466.293	92.25
466.512	77.25
466.732	83.25
466.951	99.25
467.171	104.25
467.391	87.25
467.61	100.25
467.829	86.25
468.049	68.25
468.268	85.25
468.488	87.25
468.707	78.25
468.927	75.25
469.146	84.25
469.365	79.25
469.585	89.25
469.804	106.25
470.023	98.25
470.243	90.25
470.462	92.25
470.681	112.25
470.901	80.25
471.12	79.25
471.339	79.25
471.558	90.25
471.777	91.25
471.997	94.25
472.216	94.25
472.435	89.25
472.654	88.25
472.873	95.25
473.092	100.25
473.311	85.25
473.53	79.25
473.749	78.25
473.968	83.25
474.187	104.25
474.406	96.25
474.625	98.25
474.844	84.25
475.063	93.25
475.282	84.25
475.501	79.25
475.72	95.25
475.939	75.25
476.158	73.25
476.377	96.25
476.596	87.25
476.814	89.25
477.033	94.25
477.252	78.25
477.471	86.25
477.69	98.25
477.908	86.25
478.127	84.25
478.346	80.25
478.564	89.25
478.783	103.25
479.002	90.25
479.22	84.25
479.439	89.25
479.658	100.25
479.876	105.25
480.095	98.25
480.313	87.25
480.532	91.25
480.751	71.25
480.969	98.25
481.188	128.25
481.406	100.25
481.624	103.25
481.843	91.25
482.061	61.25
482.28	90.25
482.498	86.25
482.717	85.25
482.935	89.25
483.153	104.25
483.372	90.25
483.59	93.25
483.808	94.25
484.027	88.25
484.245	90.25
484.463	81.25
484.681	93.25
484.9	103.25
485.118	115.25
485.336	98.25
485.554	103.25
485.772	109.25
485.99	116.25
486.209	110.25
486.427	95.25
486.645	125.25
486.863	103.25
487.081	101.25
487.299	98.25
487.517	92.25
487.735	99.25
487.953	92.25
488.171	94.25
488.389	90.25
488.607	82.25
488.825	95.25
489.043	86.25
489.261	97.25
489.479	81.25
489.696	95.25
489.914	73.25
490.132	99.25
490.35	82.25
490.568	79.25
490.786	86.25
491.003	92.25
491.221	89.25
491.439	92.25
491.657	91.25
491.874	92.25
492.092	91.25
492.31	86.25
492.527	91.25
492.745	94.25
492.963	82.25
493.18	92.25
493.398	88.25
493.615	99.25
493.833	101.25
494.05	90.25
494.268	86.25
494.485	89.25
494.703	78.25
494.92	93.25
495.138	87.25
495.355	80.25
495.573	107.25
495.79	103.25
496.008	91.25
496.225	72.25
496.442	87.25
496.66	92.25
496.877	99.25
497.094	91.25
497.312	85.25
497.529	85.25
497.746	106.25
497.963	87.25
498.181	92.25
498.398	106.25
498.615	116.25
498.832	104.25
499.049	103.25
499.267	91.25
499.484	92.25
499.701	93.25
499.918	93.25
500.135	89.25
500.352	94.25
500.569	86.25
500.786	95.25
501.003	83.25
501.22	81.25
501.437	101.25
501.654	84.25
501.871	119.25
502.088	104.25
502.305	93.25
502.522	89.25
502.739	95.25
502.956	89.25
503.172	89.25
503.389	85.25
503.606	111.25
503.823	104.25
504.04	97.25
504.256	86.25
504.473	87.25
504.69	87.25
504.907	95.25
505.123	90.25
505.34	94.25
505.557	115.25
505.773	94.25
505.99	93.25
506.207	90.25
506.423	86.25
506.64	86.25
506.856	87.25
507.073	91.25
507.289	90.25
507.506	101.25
507.722	117.25
507.939	112.25
508.155	84.25
508.372	102.25
508.588	82.25
508.805	89.25
509.021	87.25
509.238	93.25
509.454	101.25
509.67	104.25
509.887	102.25
510.103	138.25
510.319	212.25
510.536	777.25
510.752	2495.25
510.968	718.25
511.184	167.25
511.401	107.25
511.617	109.25
511.833	93.25
512.049	102.25
512.265	97.25
512.481	96.25
512.698	103.25
512.914	91.25
513.13	100.25
513.346	94.25
513.562	100.25
513.778	92.25
513.994	93.25
514.21	97.25
514.426	122.25
514.642	123.25
514.858	127.25
515.074	154.25
515.29	465.25
515.506	1582.25
