Data from Circ_2006_H10_HRD10591_00069.txt Node
Date: Wed Jan 03 10:26:17 EST 2024
User: Yrep
Spectrometer: HR+D1059
Trigger mode: 1
Integration Time (sec): 1.000000E-1
Scans to average: 1
Electric dark correction enabled: true
Nonlinearity correction enabled: false
Boxcar width: 0
XAxis mode: Wavelengths
Number of Pixels in Spectrum: 2048
>>>>>Begin Spectral Data<<<<<
223.165	-20
223.4	-20
223.635	-20
223.869	-29
224.104	-33
224.338	-18
224.573	-7
224.808	-13
225.042	-7
225.277	-9
225.511	5
225.746	18
225.98	9
226.215	19
226.449	11
226.683	16
226.918	26
227.152	32
227.387	15
227.621	44
227.856	43
228.09	47
228.324	47
228.559	55
228.793	59
229.027	71
229.262	80
229.496	83
229.73	82
229.964	82
230.199	85
230.433	79
230.667	84
230.901	84
231.136	88
231.37	94
231.604	70
231.838	84
232.072	74
232.306	76
232.541	84
232.775	88
233.009	69
233.243	74
233.477	82
233.711	83
233.945	86
234.179	82
234.413	95
234.647	87
234.881	89
235.115	73
235.349	91
235.583	76
235.817	80
236.051	77
236.285	84
236.519	84
236.753	78
236.987	87
237.221	79
237.455	80
237.689	85
237.922	73
238.156	77
238.39	81
238.624	64
238.858	71
239.091	87
239.325	73
239.559	84
239.793	69
240.027	80
240.26	79
240.494	89
240.728	78
240.961	81
241.195	82
241.429	94
241.662	84
241.896	87
242.13	82
242.363	79
242.597	90
242.83	88
243.064	79
243.298	72
243.531	86
243.765	72
243.998	86
244.232	78
244.465	83
244.699	94
244.932	75
245.166	79
245.399	81
245.633	86
245.866	78
246.099	71
246.333	80
246.566	83
246.8	80
247.033	98
247.266	97
247.5	81
247.733	82
247.966	89
248.2	76
248.433	76
248.666	86
248.899	76
249.133	84
249.366	102
249.599	93
249.832	81
250.066	84
250.299	76
250.532	74
250.765	73
250.998	73
251.231	76
251.465	101
251.698	73
251.931	89
252.164	84
252.397	85
252.63	86
252.863	69
253.096	72
253.329	80
253.562	92
253.795	82
254.028	76
254.261	78
254.494	77
254.727	86
254.96	82
255.193	79
255.426	83
255.659	91
255.892	79
256.124	78
256.357	81
256.59	89
256.823	74
257.056	95
257.289	81
257.521	99
257.754	86
257.987	80
258.22	78
258.452	87
258.685	84
258.918	92
259.151	91
259.383	68
259.616	92
259.849	85
260.081	78
260.314	91
260.547	88
260.779	67
261.012	97
261.244	93
261.477	107
261.71	99
261.942	108
262.175	114
262.407	81
262.64	71
262.872	83
263.105	90
263.337	86
263.57	95
263.802	92
264.035	86
264.267	88
264.499	69
264.732	71
264.964	88
265.197	73
265.429	72
265.661	83
265.894	88
266.126	84
266.358	82
266.591	87
266.823	84
267.055	76
267.287	72
267.52	77
267.752	108
267.984	77
268.216	83
268.448	87
268.681	71
268.913	79
269.145	66
269.377	88
269.609	86
269.841	94
270.073	76
270.306	83
270.538	85
270.77	89
271.002	88
271.234	92
271.466	77
271.698	99
271.93	79
272.162	90
272.394	95
272.626	88
272.858	97
273.09	82
273.322	86
273.553	92
273.785	86
274.017	95
274.249	74
274.481	87
274.713	77
274.945	81
275.176	88
275.408	93
275.64	73
275.872	77
276.104	87
276.335	91
276.567	94
276.799	104
277.031	107
277.262	84
277.494	95
277.726	92
277.957	92
278.189	83
278.421	94
278.652	85
278.884	91
279.115	79
279.347	96
279.579	89
279.81	85
280.042	92
280.273	99
280.505	79
280.736	93
280.968	100
281.199	90
281.431	85
281.662	95
281.894	88
282.125	115
282.356	113
282.588	156
282.819	112
283.051	89
283.282	89
283.513	95
283.745	97
283.976	94
284.207	86
284.439	92
284.67	83
284.901	80
285.132	80
285.364	83
285.595	92
285.826	91
286.057	98
286.288	92
286.52	98
286.751	89
286.982	73
287.213	88
287.444	89
287.675	82
287.906	98
288.138	82
288.369	100
288.6	79
288.831	92
289.062	87
289.293	90
289.524	93
289.755	83
289.986	95
290.217	95
290.448	98
290.679	85
290.91	70
291.141	92
291.371	105
291.602	87
291.833	88
292.064	86
292.295	97
292.526	100
292.757	89
292.987	94
293.218	85
293.449	93
293.68	91
293.91	97
294.141	93
294.372	89
294.603	83
294.833	79
295.064	92
295.295	95
295.525	101
295.756	112
295.987	115
296.217	137
296.448	129
296.679	97
296.909	108
297.14	87
297.37	102
297.601	102
297.831	98
298.062	93
298.292	89
298.523	96
298.753	109
298.984	91
299.214	92
299.445	110
299.675	104
299.905	112
300.136	90
300.366	96
300.597	88
300.827	86
301.057	100
301.288	107
301.518	97
301.748	91
301.979	94
302.209	95
302.439	104
302.669	84
302.9	88
303.13	92
303.36	91
303.59	109
303.82	107
304.051	95
304.281	99
304.511	96
304.741	94
304.971	93
305.201	107
305.431	103
305.661	100
305.891	99
306.121	91
306.352	89
306.582	107
306.812	97
307.042	92
307.272	103
307.502	99
307.731	101
307.961	88
308.191	91
308.421	86
308.651	101
308.881	108
309.111	93
309.341	96
309.571	117
309.8	111
310.03	103
310.26	93
310.49	94
310.72	96
310.949	94
311.179	92
311.409	95
311.639	91
311.868	98
312.098	93
312.328	94
312.557	97
312.787	98
313.017	94
313.246	94
313.476	96
313.706	96
313.935	104
314.165	96
314.394	114
314.624	92
314.853	97
315.083	91
315.312	91
315.542	92
315.771	91
316.001	96
316.23	90
316.46	92
316.689	95
316.919	94
317.148	108
317.377	89
317.607	90
317.836	89
318.065	92
318.295	100
318.524	101
318.753	84
318.983	87
319.212	100
319.441	113
319.67	104
319.9	97
320.129	104
320.358	89
320.587	98
320.816	90
321.046	105
321.275	103
321.504	88
321.733	101
321.962	89
322.191	96
322.42	103
322.649	110
322.878	108
323.108	110
323.337	135
323.566	145
323.795	163
324.024	215
324.253	429
324.482	941
324.71	1956
324.939	2491
325.168	931
325.397	264
325.626	156
325.855	148
326.084	133
326.313	146
326.542	160
326.77	258
326.999	526
327.228	1098
327.457	1988
327.686	1531
327.914	403
328.143	202
328.372	162
328.6	130
328.829	116
329.058	136
329.287	123
329.515	117
329.744	115
329.972	120
330.201	128
330.43	132
330.658	131
330.887	137
331.115	131
331.344	103
331.572	108
331.801	102
332.03	105
332.258	88
332.486	87
332.715	100
332.943	105
333.172	92
333.4	109
333.629	114
333.857	107
334.085	118
334.314	107
334.542	161
334.771	138
334.999	101
335.227	101
335.455	103
335.684	92
335.912	98
336.14	100
336.369	82
336.597	106
336.825	99
337.053	97
337.281	103
337.51	104
337.738	104
337.966	92
338.194	109
338.422	93
338.65	105
338.878	91
339.106	87
339.334	92
339.562	85
339.79	100
340.018	96
340.246	105
340.474	94
340.702	86
340.93	87
341.158	98
341.386	103
341.614	109
341.842	100
342.07	93
342.298	94
342.526	106
342.754	87
342.981	99
343.209	99
343.437	95
343.665	83
343.893	87
344.12	95
344.348	104
344.576	113
344.804	85
345.031	94
345.259	90
345.487	87
345.714	97
345.942	97
346.17	89
346.397	96
346.625	103
346.853	102
347.08	101
347.308	101
347.535	98
347.763	95
347.99	107
348.218	95
348.445	109
348.673	102
348.9	97
349.128	80
349.355	112
349.583	95
349.81	100
350.037	110
350.265	92
350.492	88
350.72	99
350.947	98
351.174	112
351.402	103
351.629	105
351.856	108
352.083	103
352.311	110
352.538	109
352.765	103
352.992	115
353.22	104
353.447	108
353.674	108
353.901	102
354.128	99
354.355	110
354.583	106
354.81	95
355.037	103
355.264	85
355.491	96
355.718	89
355.945	107
356.172	110
356.399	100
356.626	110
356.853	98
357.08	104
357.307	95
357.534	103
357.761	100
357.988	99
358.215	97
358.441	94
358.668	88
358.895	97
359.122	88
359.349	95
359.576	93
359.802	90
360.029	107
360.256	109
360.483	97
360.709	83
360.936	107
361.163	89
361.39	95
361.616	100
361.843	94
362.07	91
362.296	102
362.523	90
362.749	84
362.976	103
363.203	95
363.429	89
363.656	85
363.882	90
364.109	86
364.335	103
364.562	96
364.788	92
365.015	97
365.241	100
365.468	112
365.694	87
365.92	96
366.147	88
366.373	86
366.599	101
366.826	109
367.052	94
367.278	88
367.505	93
367.731	94
367.957	105
368.184	96
368.41	109
368.636	109
368.862	122
369.089	103
369.315	98
369.541	83
369.767	104
369.993	91
370.219	84
370.445	97
370.672	92
370.898	77
371.124	94
371.35	91
371.576	83
371.802	92
372.028	86
372.254	90
372.48	82
372.706	95
372.932	88
373.158	83
373.384	80
373.61	85
373.835	105
374.061	93
374.287	100
374.513	94
374.739	95
374.965	106
375.191	95
375.416	93
375.642	85
375.868	102
376.094	89
376.319	93
376.545	94
376.771	104
376.997	96
377.222	86
377.448	84
377.674	98
377.899	107
378.125	93
378.35	98
378.576	109
378.802	112
379.027	95
379.253	89
379.478	96
379.704	88
379.929	102
380.155	96
380.38	94
380.606	100
380.831	94
381.057	111
381.282	82
381.507	99
381.733	101
381.958	104
382.184	89
382.409	108
382.634	105
382.86	96
383.085	96
383.31	101
383.535	97
383.761	100
383.986	103
384.211	108
384.436	88
384.662	103
384.887	109
385.112	95
385.337	107
385.562	109
385.787	107
386.013	123
386.238	115
386.463	107
386.688	108
386.913	116
387.138	104
387.363	109
387.588	123
387.813	101
388.038	99
388.263	110
388.488	112
388.713	90
388.938	108
389.163	94
389.387	96
389.612	89
389.837	96
390.062	104
390.287	100
390.512	88
390.736	89
390.961	98
391.186	85
391.411	96
391.636	93
391.86	79
392.085	93
392.31	108
392.534	94
392.759	83
392.984	92
393.208	79
393.433	89
393.658	99
393.882	89
394.107	89
394.331	86
394.556	81
394.78	98
395.005	94
395.229	83
395.454	101
395.678	86
395.903	91
396.127	93
396.352	101
396.576	96
396.801	98
397.025	92
397.249	81
397.474	86
397.698	99
397.922	79
398.147	76
398.371	85
398.595	85
398.82	87
399.044	81
399.268	83
399.492	82
399.717	84
399.941	98
400.165	100
400.389	69
400.613	88
400.837	85
401.062	99
401.286	95
401.51	87
401.734	94
401.958	113
402.182	125
402.406	154
402.63	115
402.854	93
403.078	89
403.302	95
403.526	72
403.75	90
403.974	90
404.198	80
404.422	77
404.645	92
404.869	83
405.093	103
405.317	103
405.541	101
405.765	99
405.988	116
406.212	169
406.436	217
406.66	149
406.883	108
407.107	101
407.331	94
407.555	117
407.778	93
408.002	80
408.226	95
408.449	100
408.673	97
408.896	98
409.12	94
409.344	85
409.567	97
409.791	96
410.014	102
410.238	87
410.461	112
410.685	92
410.908	101
411.132	104
411.355	103
411.578	97
411.802	99
412.025	92
412.249	86
412.472	107
412.695	103
412.919	80
413.142	93
413.365	92
413.589	96
413.812	97
414.035	77
414.258	92
414.482	95
414.705	95
414.928	89
415.151	92
415.374	86
415.597	95
415.821	83
416.044	91
416.267	89
416.49	96
416.713	89
416.936	83
417.159	83
417.382	99
417.605	86
417.828	93
418.051	90
418.274	82
418.497	98
418.72	77
418.943	80
419.166	86
419.389	89
419.611	98
419.834	97
420.057	96
420.28	88
420.503	76
420.726	71
420.948	78
421.171	85
421.394	90
421.617	93
421.839	93
422.062	97
422.285	96
422.507	102
422.73	94
422.953	99
423.175	102
423.398	81
423.621	88
423.843	96
424.066	83
424.288	88
424.511	111
424.733	94
424.956	108
425.178	107
425.401	98
425.623	101
425.846	97
426.068	84
426.291	78
426.513	97
426.735	86
426.958	89
427.18	122
427.402	147
427.625	161
427.847	143
428.069	109
428.292	89
428.514	94
428.736	95
428.958	85
429.181	88
429.403	69
429.625	100
429.847	100
430.069	99
430.292	93
430.514	75
430.736	92
430.958	96
431.18	98
431.402	100
431.624	84
431.846	84
432.068	75
432.29	85
432.512	86
432.734	89
432.956	103
433.178	98
433.4	102
433.622	79
433.844	87
434.066	96
434.287	100
434.509	90
434.731	99
434.953	87
435.175	84
435.397	92
435.618	93
435.84	106
436.062	116
436.284	109
436.505	117
436.727	105
436.949	99
437.17	112
437.392	83
437.614	86
437.835	101
438.057	111
438.278	116
438.5	112
438.721	118
438.943	112
439.165	97
439.386	81
439.608	96
439.829	98
440.05	137
440.272	137
440.493	83
440.715	83
440.936	98
441.158	81
441.379	75
441.6	108
441.822	93
442.043	99
442.264	111
442.486	103
442.707	87
442.928	107
443.149	117
443.371	124
443.592	123
443.813	104
444.034	100
444.255	98
444.476	100
444.698	88
444.919	75
445.14	136
445.361	111
445.582	112
445.803	144
446.024	142
446.245	139
446.466	117
446.687	80
446.908	89
447.129	87
447.35	93
447.571	109
447.792	85
448.013	88
448.234	110
448.455	99
448.675	119
448.896	124
449.117	96
449.338	111
449.559	126
449.779	132
450	94
450.221	96
450.442	105
450.662	86
450.883	105
451.104	117
451.324	89
451.545	79
451.766	83
451.986	101
452.207	102
452.428	88
452.648	107
452.869	126
453.089	120
453.31	120
453.53	99
453.751	94
453.971	106
454.192	113
454.412	99
454.633	93
454.853	84
455.073	94
455.294	94
455.514	102
455.734	96
455.955	89
456.175	91
456.395	97
456.616	93
456.836	77
457.056	86
457.276	87
457.497	91
457.717	87
457.937	87
458.157	79
458.377	99
458.598	110
458.818	153
459.038	161
459.258	118
459.478	87
459.698	99
459.918	93
460.138	90
460.358	81
460.578	104
460.798	84
461.018	80
461.238	85
461.458	81
461.678	87
461.898	92
462.118	88
462.338	80
462.558	88
462.777	94
462.997	95
463.217	86
463.437	96
463.657	94
463.876	84
464.096	87
464.316	94
464.536	90
464.755	105
464.975	87
465.195	148
465.414	149
465.634	100
465.854	86
466.073	87
466.293	89
466.512	97
466.732	83
466.951	82
467.171	99
467.391	88
467.61	99
467.829	91
468.049	104
468.268	103
468.488	86
468.707	92
468.927	88
469.146	67
469.365	76
469.585	82
469.804	105
470.023	96
470.243	95
470.462	92
470.681	105
470.901	97
471.12	87
471.339	93
471.558	83
471.777	87
471.997	97
472.216	130
472.435	167
472.654	103
472.873	105
473.092	92
473.311	83
473.53	96
473.749	108
473.968	99
474.187	93
474.406	92
474.625	104
474.844	94
475.063	82
475.282	83
475.501	90
475.72	96
475.939	88
476.158	78
476.377	84
476.596	96
476.814	91
477.033	93
477.252	101
477.471	97
477.69	104
477.908	92
478.127	109
478.346	96
478.564	102
478.783	96
479.002	81
479.22	94
479.439	92
479.658	108
479.876	94
480.095	82
480.313	99
480.532	85
480.751	105
480.969	139
481.188	269
481.406	191
481.624	103
481.843	86
482.061	86
482.28	102
482.498	95
482.717	81
482.935	79
483.153	96
483.372	94
483.59	84
483.808	100
484.027	87
484.245	100
484.463	81
484.681	100
484.9	110
485.118	111
485.336	96
485.554	97
485.772	108
485.99	107
486.209	114
486.427	108
486.645	107
486.863	112
487.081	117
487.299	103
487.517	93
487.735	93
487.953	93
488.171	99
488.389	93
488.607	94
488.825	88
489.043	84
489.261	107
489.479	95
489.696	95
489.914	96
490.132	83
490.35	77
490.568	85
490.786	93
491.003	97
491.221	89
491.439	91
491.657	87
491.874	88
492.092	97
492.31	80
492.527	93
492.745	97
492.963	85
493.18	85
493.398	102
493.615	94
493.833	94
494.05	91
494.268	95
494.485	92
494.703	93
494.92	85
495.138	92
495.355	83
495.573	93
495.79	82
496.008	87
496.225	77
496.442	88
496.66	94
496.877	105
497.094	94
497.312	99
497.529	98
497.746	89
497.963	89
498.181	101
498.398	95
498.615	125
498.832	87
499.049	91
499.267	98
499.484	89
499.701	90
499.918	82
500.135	105
500.352	99
500.569	102
500.786	83
501.003	99
501.22	102
501.437	82
501.654	102
501.871	99
502.088	91
502.305	102
502.522	96
502.739	88
502.956	87
503.172	98
503.389	101
503.606	90
503.823	90
504.04	91
504.256	89
504.473	111
504.69	102
504.907	107
505.123	104
505.34	82
505.557	93
505.773	94
505.99	89
506.207	84
506.423	92
506.64	99
506.856	88
507.073	87
507.289	103
507.506	96
507.722	116
507.939	111
508.155	93
508.372	76
508.588	88
508.805	90
509.021	96
509.238	89
509.454	109
509.67	99
509.887	112
510.103	143
510.319	233
510.536	806
510.752	2562
510.968	715
511.184	163
511.401	118
511.617	103
511.833	97
512.049	85
512.265	83
512.481	73
512.698	92
512.914	88
513.13	87
513.346	96
513.562	100
513.778	96
513.994	95
514.21	95
514.426	120
514.642	139
514.858	116
515.074	175
515.29	484
515.506	1579
515.721	580
515.937	171
516.153	110
516.369	88
516.585	96
516.801	102
517.016	92
517.232	97
517.448	102
517.664	88
517.879	104
518.095	103
518.311	94
518.527	88
518.742	89
518.958	100
519.173	95
519.389	82
519.605	93
519.82	109
520.036	117
520.251	115
520.467	110
520.682	102
520.898	107
521.113	121
521.329	141
521.544	212
521.76	584
521.975	2585
522.19	1561
522.406	340
522.621	116
522.836	95
523.052	102
523.267	95
523.482	97
523.698	93
523.913	117
524.128	94
524.343	98
524.559	102
524.774	92
524.989	112
525.204	128
525.419	99
525.634	99
525.849	83
526.064	74
526.28	89
526.495	87
526.71	92
526.925	92
527.14	94
527.355	90
527.57	96
527.785	85
527.999	94
528.214	100
528.429	102
528.644	90
528.859	87
529.074	112
529.289	117
529.503	199
529.718	95
529.933	99
530.148	106
530.363	103
530.577	96
530.792	85
531.007	93
531.221	106
531.436	86
531.651	92
531.865	95
532.08	108
532.295	105
532.509	99
532.724	108
532.938	97
533.153	85
533.367	78
533.582	71
533.796	96
534.011	101
534.225	92
534.44	96
534.654	77
534.868	83
535.083	92
535.297	95
535.511	91
535.726	104
535.94	111
536.154	108
536.369	92
536.583	88
536.797	101
537.011	97
537.225	93
537.44	103
537.654	93
537.868	79
538.082	88
538.296	96
538.51	78
538.724	92
538.938	84
539.153	104
539.367	108
539.581	94
539.795	104
540.009	87
540.222	98
540.436	86
540.65	90
540.864	85
541.078	88
541.292	86
541.506	93
541.72	96
541.934	89
542.147	83
542.361	96
542.575	102
542.789	94
543.002	108
543.216	87
543.43	101
543.644	97
543.857	104
544.071	93
544.285	100
544.498	96
544.712	75
544.925	90
545.139	98
545.352	93
545.566	82
545.779	93
545.993	85
546.206	82
546.42	83
546.633	118
546.847	91
547.06	86
547.274	103
547.487	91
547.7	94
547.914	94
548.127	99
548.34	88
548.554	95
548.767	99
548.98	76
549.193	97
549.407	97
549.62	95
549.833	101
550.046	96
550.259	95
550.473	83
550.686	72
550.899	87
551.112	96
551.325	85
551.538	105
551.751	89
551.964	95
552.177	97
552.39	91
552.603	101
552.816	93
553.029	92
553.242	100
553.455	88
553.667	120
553.88	107
554.093	96
554.306	110
554.519	94
554.732	102
554.944	88
555.157	94
555.37	102
555.583	77
555.795	90
556.008	89
556.221	85
556.433	92
556.646	81
556.859	91
557.071	86
557.284	86
557.496	96
557.709	97
557.921	98
558.134	102
558.346	95
558.559	111
558.771	83
558.984	86
559.196	90
559.409	81
559.621	106
559.833	75
560.046	96
560.258	89
560.47	96
560.683	88
560.895	85
561.107	85
561.32	94
561.532	88
561.744	98
561.956	96
562.168	82
562.381	87
562.593	95
562.805	99
563.017	88
563.229	93
563.441	93
563.653	94
563.865	85
564.077	89
564.289	92
564.501	90
564.713	89
564.925	96
565.137	95
565.349	95
565.561	78
565.773	91
565.985	101
566.197	82
566.408	86
566.62	80
566.832	83
567.044	98
567.255	72
567.467	84
567.679	99
567.891	93
568.102	92
568.314	88
568.526	82
568.737	88
568.949	107
569.161	69
569.372	96
569.584	89
569.795	100
570.007	126
570.218	263
570.43	142
570.641	97
570.853	96
571.064	85
571.276	93
571.487	76
571.698	89
571.91	90
572.121	90
572.333	84
572.544	93
572.755	80
572.966	89
573.178	86
573.389	108
573.6	92
573.811	82
574.023	84
574.234	88
574.445	92
574.656	95
574.867	86
575.078	98
575.289	89
575.501	91
575.712	80
575.923	91
576.134	92
576.345	93
576.556	90
576.767	92
576.978	102
577.188	101
577.399	85
577.61	77
577.821	98
578.032	121
578.243	272
578.454	794
578.665	223
578.875	102
579.086	94
579.297	94
579.508	87
579.718	95
579.929	102
580.14	89
580.35	79
580.561	88
580.772	89
580.982	91
581.193	97
581.403	89
581.614	100
581.825	95
582.035	89
582.246	106
582.456	91
582.667	68
