Data from Circ_2006_H10_HRD10591_00088.txt Node
Date: Wed Jan 03 10:26:21 EST 2024
User: Yrep
Spectrometer: HR+D1059
Trigger mode: 1
Integration Time (sec): 1.000000E-1
Scans to average: 1
Electric dark correction enabled: true
Nonlinearity correction enabled: false
Boxcar width: 0
XAxis mode: Wavelengths
Number of Pixels in Spectrum: 2048
>>>>>Begin Spectral Data<<<<<
223.165	-19.88
223.4	-19.88
223.635	-19.88
223.869	-26.88
224.104	-24.88
224.338	-22.88
224.573	-3.88
224.808	-24.88
225.042	-12.88
225.277	-6.88
225.511	8.12
225.746	2.12
225.98	17.12
226.215	6.12
226.449	16.12
226.683	28.12
226.918	26.12
227.152	39.12
227.387	41.12
227.621	45.12
227.856	26.12
228.09	43.12
228.324	45.12
228.559	43.12
228.793	58.12
229.027	78.12
229.262	57.12
229.496	65.12
229.73	84.12
229.964	76.12
230.199	67.12
230.433	84.12
230.667	82.12
230.901	71.12
231.136	76.12
231.37	76.12
231.604	68.12
231.838	70.12
232.072	83.12
232.306	84.12
232.541	91.12
232.775	69.12
233.009	74.12
233.243	80.12
233.477	70.12
233.711	87.12
233.945	73.12
234.179	60.12
234.413	80.12
234.647	86.12
234.881	72.12
235.115	67.12
235.349	71.12
235.583	68.12
235.817	81.12
236.051	76.12
236.285	74.12
236.519	61.12
236.753	68.12
236.987	78.12
237.221	65.12
237.455	71.12
237.689	74.12
237.922	70.12
238.156	81.12
238.39	82.12
238.624	72.12
238.858	64.12
239.091	82.12
239.325	91.12
239.559	70.12
239.793	86.12
240.027	75.12
240.26	54.12
240.494	64.12
240.728	70.12
240.961	75.12
241.195	77.12
241.429	80.12
241.662	71.12
241.896	66.12
242.13	97.12
242.363	79.12
242.597	74.12
242.83	78.12
243.064	65.12
243.298	72.12
243.531	63.12
243.765	80.12
243.998	81.12
244.232	74.12
244.465	80.12
244.699	79.12
244.932	67.12
245.166	68.12
245.399	75.12
245.633	82.12
245.866	70.12
246.099	75.12
246.333	84.12
246.566	76.12
246.8	66.12
247.033	75.12
247.266	73.12
247.5	91.12
247.733	79.12
247.966	78.12
248.2	75.12
248.433	69.12
248.666	67.12
248.899	87.12
249.133	77.12
249.366	83.12
249.599	91.12
249.832	65.12
250.066	73.12
250.299	81.12
250.532	75.12
250.765	71.12
250.998	71.12
251.231	67.12
251.465	83.12
251.698	81.12
251.931	69.12
252.164	72.12
252.397	81.12
252.63	77.12
252.863	81.12
253.096	66.12
253.329	72.12
253.562	62.12
253.795	74.12
254.028	83.12
254.261	84.12
254.494	75.12
254.727	90.12
254.96	75.12
255.193	82.12
255.426	66.12
255.659	76.12
255.892	77.12
256.124	79.12
256.357	74.12
256.59	51.12
256.823	83.12
257.056	87.12
257.289	82.12
257.521	74.12
257.754	89.12
257.987	80.12
258.22	81.12
258.452	65.12
258.685	82.12
258.918	88.12
259.151	82.12
259.383	79.12
259.616	67.12
259.849	77.12
260.081	78.12
260.314	68.12
260.547	78.12
260.779	57.12
261.012	81.12
261.244	84.12
261.477	78.12
261.71	106.12
261.942	111.12
262.175	127.12
262.407	79.12
262.64	89.12
262.872	81.12
263.105	75.12
263.337	88.12
263.57	90.12
263.802	78.12
264.035	74.12
264.267	78.12
264.499	79.12
264.732	72.12
264.964	80.12
265.197	81.12
265.429	94.12
265.661	74.12
265.894	90.12
266.126	70.12
266.358	81.12
266.591	75.12
266.823	77.12
267.055	88.12
267.287	67.12
267.52	85.12
267.752	78.12
267.984	82.12
268.216	78.12
268.448	84.12
268.681	81.12
268.913	76.12
269.145	87.12
269.377	75.12
269.609	77.12
269.841	82.12
270.073	72.12
270.306	74.12
270.538	75.12
270.77	73.12
271.002	91.12
271.234	73.12
271.466	77.12
271.698	88.12
271.93	75.12
272.162	94.12
272.394	84.12
272.626	77.12
272.858	74.12
273.09	79.12
273.322	80.12
273.553	82.12
273.785	90.12
274.017	83.12
274.249	86.12
274.481	84.12
274.713	94.12
274.945	91.12
275.176	79.12
275.408	97.12
275.64	78.12
275.872	85.12
276.104	85.12
276.335	78.12
276.567	96.12
276.799	108.12
277.031	107.12
277.262	96.12
277.494	75.12
277.726	91.12
277.957	80.12
278.189	92.12
278.421	94.12
278.652	84.12
278.884	78.12
279.115	60.12
279.347	68.12
279.579	67.12
279.81	89.12
280.042	86.12
280.273	91.12
280.505	74.12
280.736	75.12
280.968	91.12
281.199	93.12
281.431	77.12
281.662	61.12
281.894	97.12
282.125	107.12
282.356	123.12
282.588	139.12
282.819	119.12
283.051	95.12
283.282	73.12
283.513	83.12
283.745	75.12
283.976	83.12
284.207	89.12
284.439	78.12
284.67	93.12
284.901	90.12
285.132	79.12
285.364	85.12
285.595	92.12
285.826	77.12
286.057	72.12
286.288	90.12
286.52	81.12
286.751	96.12
286.982	92.12
287.213	81.12
287.444	89.12
287.675	88.12
287.906	114.12
288.138	92.12
288.369	102.12
288.6	89.12
288.831	70.12
289.062	77.12
289.293	83.12
289.524	89.12
289.755	86.12
289.986	71.12
290.217	93.12
290.448	80.12
290.679	83.12
290.91	80.12
291.141	84.12
291.371	94.12
291.602	76.12
291.833	95.12
292.064	96.12
292.295	87.12
292.526	75.12
292.757	87.12
292.987	96.12
293.218	86.12
293.449	84.12
293.68	87.12
293.91	74.12
294.141	93.12
294.372	83.12
294.603	80.12
294.833	83.12
295.064	79.12
295.295	107.12
295.525	78.12
295.756	100.12
295.987	122.12
296.217	143.12
296.448	128.12
296.679	89.12
296.909	78.12
297.14	84.12
297.37	86.12
297.601	81.12
297.831	83.12
298.062	94.12
298.292	94.12
298.523	87.12
298.753	95.12
298.984	90.12
299.214	91.12
299.445	85.12
299.675	85.12
299.905	96.12
300.136	90.12
300.366	91.12
300.597	83.12
300.827	93.12
301.057	92.12
301.288	103.12
301.518	96.12
301.748	87.12
301.979	98.12
302.209	75.12
302.439	88.12
302.669	74.12
302.9	93.12
303.13	86.12
303.36	96.12
303.59	106.12
303.82	89.12
304.051	91.12
304.281	91.12
304.511	95.12
304.741	95.12
304.971	76.12
305.201	82.12
305.431	79.12
305.661	92.12
305.891	92.12
306.121	83.12
306.352	89.12
306.582	105.12
306.812	93.12
307.042	88.12
307.272	96.12
307.502	100.12
307.731	85.12
307.961	102.12
308.191	94.12
308.421	89.12
308.651	93.12
308.881	96.12
309.111	91.12
309.341	81.12
309.571	79.12
309.8	92.12
310.03	100.12
310.26	99.12
310.49	83.12
310.72	105.12
310.949	101.12
311.179	95.12
311.409	83.12
311.639	96.12
311.868	92.12
312.098	100.12
312.328	103.12
312.557	110.12
312.787	114.12
313.017	95.12
313.246	94.12
313.476	92.12
313.706	93.12
313.935	102.12
314.165	96.12
314.394	95.12
314.624	111.12
314.853	80.12
315.083	98.12
315.312	90.12
315.542	94.12
315.771	89.12
316.001	93.12
316.23	95.12
316.46	80.12
316.689	87.12
316.919	92.12
317.148	78.12
317.377	92.12
317.607	98.12
317.836	91.12
318.065	79.12
318.295	94.12
318.524	85.12
318.753	86.12
318.983	91.12
319.212	94.12
319.441	104.12
319.67	103.12
319.9	93.12
320.129	64.12
320.358	90.12
320.587	98.12
320.816	99.12
321.046	99.12
321.275	96.12
321.504	90.12
321.733	78.12
321.962	114.12
322.191	114.12
322.42	89.12
322.649	108.12
322.878	100.12
323.108	108.12
323.337	116.12
323.566	127.12
323.795	167.12
324.024	239.12
324.253	460.12
324.482	992.12
324.71	2028.12
324.939	2648.12
325.168	962.12
325.397	284.12
325.626	143.12
325.855	138.12
326.084	134.12
326.313	132.12
326.542	159.12
326.77	249.12
326.999	526.12
327.228	1090.12
327.457	1992.12
327.686	1593.12
327.914	431.12
328.143	239.12
328.372	185.12
328.6	158.12
328.829	130.12
329.058	132.12
329.287	135.12
329.515	114.12
329.744	105.12
329.972	125.12
330.201	136.12
330.43	171.12
330.658	141.12
330.887	157.12
331.115	141.12
331.344	104.12
331.572	100.12
331.801	106.12
332.03	109.12
332.258	103.12
332.486	82.12
332.715	91.12
332.943	71.12
333.172	84.12
333.4	101.12
333.629	119.12
333.857	128.12
334.085	128.12
334.314	126.12
334.542	193.12
334.771	198.12
334.999	108.12
335.227	91.12
335.455	111.12
335.684	97.12
335.912	83.12
336.14	90.12
336.369	88.12
336.597	107.12
336.825	101.12
337.053	78.12
337.281	84.12
337.51	76.12
337.738	96.12
337.966	90.12
338.194	94.12
338.422	91.12
338.65	91.12
338.878	97.12
339.106	68.12
339.334	92.12
339.562	68.12
339.79	89.12
340.018	93.12
340.246	96.12
340.474	74.12
340.702	99.12
340.93	92.12
341.158	92.12
341.386	76.12
341.614	94.12
341.842	89.12
342.07	94.12
342.298	105.12
342.526	87.12
342.754	80.12
342.981	84.12
343.209	79.12
343.437	94.12
343.665	79.12
343.893	87.12
344.12	102.12
344.348	84.12
344.576	79.12
344.804	89.12
345.031	91.12
345.259	82.12
345.487	97.12
345.714	89.12
345.942	99.12
346.17	85.12
346.397	78.12
346.625	82.12
346.853	82.12
347.08	81.12
347.308	87.12
347.535	95.12
347.763	82.12
347.99	106.12
348.218	111.12
348.445	114.12
348.673	89.12
348.9	75.12
349.128	81.12
349.355	90.12
349.583	78.12
349.81	99.12
350.037	105.12
350.265	82.12
350.492	82.12
350.72	91.12
350.947	94.12
351.174	111.12
351.402	112.12
351.629	102.12
351.856	94.12
352.083	102.12
352.311	103.12
352.538	108.12
352.765	104.12
352.992	119.12
353.22	113.12
353.447	92.12
353.674	89.12
353.901	97.12
354.128	97.12
354.355	95.12
354.583	89.12
354.81	102.12
355.037	100.12
355.264	95.12
355.491	78.12
355.718	87.12
355.945	98.12
356.172	103.12
356.399	104.12
356.626	84.12
356.853	71.12
357.08	83.12
357.307	82.12
357.534	95.12
357.761	95.12
357.988	96.12
358.215	98.12
358.441	89.12
358.668	98.12
358.895	90.12
359.122	84.12
359.349	87.12
359.576	102.12
359.802	104.12
360.029	124.12
360.256	113.12
360.483	103.12
360.709	93.12
360.936	91.12
361.163	81.12
361.39	89.12
361.616	94.12
361.843	94.12
362.07	94.12
362.296	98.12
362.523	78.12
362.749	80.12
362.976	99.12
363.203	94.12
363.429	95.12
363.656	112.12
363.882	95.12
364.109	113.12
364.335	88.12
364.562	86.12
364.788	82.12
365.015	91.12
365.241	105.12
365.468	102.12
365.694	97.12
365.92	91.12
366.147	94.12
366.373	85.12
366.599	75.12
366.826	84.12
367.052	87.12
367.278	100.12
367.505	108.12
367.731	91.12
367.957	89.12
368.184	82.12
368.41	79.12
368.636	118.12
368.862	99.12
369.089	100.12
369.315	96.12
369.541	92.12
369.767	93.12
369.993	93.12
370.219	84.12
370.445	79.12
370.672	88.12
370.898	89.12
371.124	100.12
371.35	68.12
371.576	84.12
371.802	76.12
372.028	86.12
372.254	81.12
372.48	79.12
372.706	78.12
372.932	79.12
373.158	86.12
373.384	88.12
373.61	82.12
373.835	86.12
374.061	91.12
374.287	87.12
374.513	78.12
374.739	83.12
374.965	95.12
375.191	92.12
375.416	86.12
375.642	82.12
375.868	86.12
376.094	76.12
376.319	103.12
376.545	79.12
376.771	91.12
376.997	82.12
377.222	83.12
377.448	94.12
377.674	90.12
377.899	78.12
378.125	89.12
378.35	84.12
378.576	71.12
378.802	92.12
379.027	93.12
379.253	95.12
379.478	77.12
379.704	87.12
379.929	90.12
380.155	81.12
380.38	75.12
380.606	86.12
380.831	94.12
381.057	104.12
381.282	87.12
381.507	90.12
381.733	70.12
381.958	88.12
382.184	90.12
382.409	93.12
382.634	104.12
382.86	92.12
383.085	89.12
383.31	91.12
383.535	76.12
383.761	87.12
383.986	97.12
384.211	84.12
384.436	86.12
384.662	97.12
384.887	108.12
385.112	105.12
385.337	98.12
385.562	91.12
385.787	107.12
386.013	115.12
386.238	129.12
386.463	98.12
386.688	103.12
386.913	82.12
387.138	103.12
387.363	99.12
387.588	96.12
387.813	88.12
388.038	105.12
388.263	112.12
388.488	98.12
388.713	96.12
388.938	94.12
389.163	73.12
389.387	92.12
389.612	99.12
389.837	85.12
390.062	97.12
390.287	82.12
390.512	97.12
390.736	107.12
390.961	89.12
391.186	88.12
391.411	100.12
391.636	93.12
391.86	65.12
392.085	75.12
392.31	77.12
392.534	87.12
392.759	67.12
392.984	81.12
393.208	82.12
393.433	88.12
393.658	80.12
393.882	79.12
394.107	82.12
394.331	80.12
394.556	95.12
394.78	82.12
395.005	94.12
395.229	84.12
395.454	87.12
395.678	84.12
395.903	73.12
396.127	77.12
396.352	93.12
396.576	81.12
396.801	79.12
397.025	87.12
397.249	74.12
397.474	65.12
397.698	85.12
397.922	76.12
398.147	89.12
398.371	74.12
398.595	87.12
398.82	80.12
399.044	85.12
399.268	89.12
399.492	84.12
399.717	92.12
399.941	75.12
400.165	93.12
400.389	94.12
400.613	96.12
400.837	92.12
401.062	79.12
401.286	89.12
401.51	79.12
401.734	93.12
401.958	94.12
402.182	129.12
402.406	163.12
402.63	115.12
402.854	75.12
403.078	99.12
403.302	95.12
403.526	76.12
403.75	92.12
403.974	76.12
404.198	82.12
404.422	78.12
404.645	75.12
404.869	106.12
405.093	99.12
405.317	103.12
405.541	91.12
405.765	100.12
405.988	112.12
406.212	196.12
406.436	251.12
406.66	151.12
406.883	105.12
407.107	88.12
407.331	108.12
407.555	97.12
407.778	99.12
408.002	71.12
408.226	84.12
408.449	89.12
408.673	89.12
408.896	94.12
409.12	93.12
409.344	87.12
409.567	75.12
409.791	74.12
410.014	91.12
410.238	101.12
410.461	100.12
410.685	89.12
410.908	91.12
411.132	90.12
411.355	88.12
411.578	78.12
411.802	88.12
412.025	95.12
412.249	84.12
412.472	94.12
412.695	102.12
412.919	89.12
413.142	81.12
413.365	82.12
413.589	88.12
413.812	99.12
414.035	102.12
414.258	93.12
414.482	94.12
414.705	88.12
414.928	86.12
415.151	87.12
415.374	92.12
415.597	87.12
415.821	84.12
416.044	82.12
416.267	82.12
416.49	82.12
416.713	82.12
416.936	87.12
417.159	95.12
417.382	94.12
417.605	86.12
417.828	92.12
418.051	85.12
418.274	91.12
418.497	81.12
418.72	72.12
418.943	88.12
419.166	91.12
419.389	76.12
419.611	92.12
419.834	102.12
420.057	90.12
420.28	87.12
420.503	74.12
420.726	94.12
420.948	70.12
421.171	83.12
421.394	89.12
421.617	83.12
421.839	81.12
422.062	91.12
422.285	87.12
422.507	96.12
422.73	94.12
422.953	89.12
423.175	81.12
423.398	81.12
423.621	100.12
423.843	78.12
424.066	85.12
424.288	84.12
424.511	82.12
424.733	92.12
424.956	114.12
425.178	98.12
425.401	94.12
425.623	106.12
425.846	105.12
426.068	97.12
426.291	90.12
426.513	95.12
426.735	89.12
426.958	79.12
427.18	108.12
427.402	125.12
427.625	184.12
427.847	146.12
428.069	123.12
428.292	83.12
428.514	83.12
428.736	82.12
428.958	92.12
429.181	86.12
429.403	91.12
429.625	88.12
429.847	94.12
430.069	101.12
430.292	74.12
430.514	82.12
430.736	85.12
430.958	96.12
431.18	87.12
431.402	75.12
431.624	89.12
431.846	98.12
432.068	78.12
432.29	64.12
432.512	87.12
432.734	82.12
432.956	92.12
433.178	98.12
433.4	107.12
433.622	90.12
433.844	85.12
434.066	85.12
434.287	80.12
434.509	88.12
434.731	86.12
434.953	98.12
435.175	87.12
435.397	95.12
435.618	84.12
435.84	88.12
436.062	114.12
436.284	103.12
436.505	96.12
436.727	99.12
436.949	86.12
437.17	88.12
437.392	95.12
437.614	99.12
437.835	107.12
438.057	111.12
438.278	109.12
438.5	108.12
438.721	106.12
438.943	99.12
439.165	90.12
439.386	72.12
439.608	91.12
439.829	79.12
440.05	120.12
440.272	136.12
440.493	105.12
440.715	76.12
440.936	79.12
441.158	90.12
441.379	86.12
441.6	99.12
441.822	105.12
442.043	92.12
442.264	100.12
442.486	90.12
442.707	87.12
442.928	112.12
443.149	143.12
443.371	145.12
443.592	114.12
443.813	120.12
444.034	110.12
444.255	81.12
444.476	87.12
444.698	90.12
444.919	93.12
445.14	144.12
445.361	122.12
445.582	113.12
445.803	144.12
446.024	140.12
446.245	131.12
446.466	105.12
446.687	80.12
446.908	79.12
447.129	98.12
447.35	81.12
447.571	100.12
447.792	86.12
448.013	103.12
448.234	119.12
448.455	98.12
448.675	119.12
448.896	126.12
449.117	96.12
449.338	95.12
449.559	124.12
449.779	131.12
450	92.12
450.221	87.12
450.442	75.12
450.662	90.12
450.883	107.12
451.104	105.12
451.324	97.12
451.545	87.12
451.766	89.12
451.986	92.12
452.207	87.12
452.428	94.12
452.648	103.12
452.869	102.12
453.089	105.12
453.31	123.12
453.53	94.12
453.751	80.12
453.971	93.12
454.192	113.12
454.412	83.12
454.633	85.12
454.853	77.12
455.073	82.12
455.294	87.12
455.514	108.12
455.734	90.12
455.955	88.12
456.175	81.12
456.395	66.12
456.616	91.12
456.836	74.12
457.056	81.12
457.276	73.12
457.497	77.12
457.717	82.12
457.937	83.12
458.157	102.12
458.377	79.12
458.598	94.12
458.818	159.12
459.038	160.12
459.258	115.12
459.478	88.12
459.698	83.12
459.918	71.12
460.138	77.12
460.358	71.12
460.578	92.12
460.798	73.12
461.018	98.12
461.238	88.12
461.458	88.12
461.678	87.12
461.898	88.12
462.118	90.12
462.338	73.12
462.558	88.12
462.777	90.12
462.997	80.12
463.217	71.12
463.437	83.12
463.657	75.12
463.876	82.12
464.096	93.12
464.316	89.12
464.536	79.12
464.755	77.12
464.975	102.12
465.195	184.12
465.414	186.12
465.634	107.12
465.854	86.12
466.073	83.12
466.293	82.12
466.512	79.12
466.732	73.12
466.951	82.12
467.171	87.12
467.391	91.12
467.61	107.12
467.829	90.12
468.049	122.12
468.268	122.12
468.488	72.12
468.707	74.12
468.927	80.12
469.146	97.12
469.365	101.12
469.585	75.12
469.804	87.12
470.023	85.12
470.243	85.12
470.462	102.12
470.681	98.12
470.901	87.12
471.12	89.12
471.339	82.12
471.558	88.12
471.777	91.12
471.997	87.12
472.216	142.12
472.435	231.12
472.654	119.12
472.873	77.12
473.092	80.12
473.311	90.12
473.53	87.12
473.749	79.12
473.968	90.12
474.187	92.12
474.406	86.12
474.625	97.12
474.844	85.12
475.063	88.12
475.282	93.12
475.501	84.12
475.72	97.12
475.939	80.12
476.158	90.12
476.377	81.12
476.596	84.12
476.814	85.12
477.033	102.12
477.252	87.12
477.471	75.12
477.69	75.12
477.908	91.12
478.127	74.12
478.346	86.12
478.564	101.12
478.783	98.12
479.002	77.12
479.22	86.12
479.439	106.12
479.658	95.12
479.876	92.12
480.095	95.12
480.313	94.12
480.532	90.12
480.751	103.12
480.969	158.12
481.188	364.12
481.406	241.12
481.624	110.12
481.843	90.12
482.061	85.12
482.28	91.12
482.498	88.12
482.717	86.12
482.935	80.12
483.153	92.12
483.372	97.12
483.59	84.12
483.808	103.12
484.027	95.12
484.245	95.12
484.463	104.12
484.681	81.12
484.9	92.12
485.118	83.12
485.336	93.12
485.554	93.12
485.772	94.12
485.99	91.12
486.209	98.12
486.427	98.12
486.645	103.12
486.863	119.12
487.081	107.12
487.299	93.12
487.517	96.12
487.735	103.12
487.953	88.12
488.171	92.12
488.389	99.12
488.607	98.12
488.825	87.12
489.043	97.12
489.261	90.12
489.479	85.12
489.696	84.12
489.914	77.12
490.132	78.12
490.35	98.12
490.568	90.12
490.786	85.12
491.003	90.12
491.221	84.12
491.439	76.12
491.657	89.12
491.874	90.12
492.092	93.12
492.31	95.12
492.527	83.12
492.745	91.12
492.963	75.12
493.18	89.12
493.398	86.12
493.615	90.12
493.833	87.12
494.05	81.12
494.268	93.12
494.485	80.12
494.703	88.12
494.92	87.12
495.138	85.12
495.355	82.12
495.573	92.12
495.79	91.12
496.008	96.12
496.225	99.12
496.442	82.12
496.66	92.12
496.877	79.12
497.094	97.12
497.312	92.12
497.529	78.12
497.746	96.12
497.963	95.12
498.181	87.12
498.398	118.12
498.615	104.12
498.832	105.12
499.049	75.12
499.267	93.12
499.484	82.12
499.701	87.12
499.918	99.12
500.135	89.12
500.352	83.12
500.569	74.12
500.786	97.12
501.003	84.12
501.22	86.12
501.437	89.12
501.654	104.12
501.871	122.12
502.088	96.12
502.305	94.12
502.522	76.12
502.739	79.12
502.956	94.12
503.172	80.12
503.389	90.12
503.606	101.12
503.823	97.12
504.04	74.12
504.256	81.12
504.473	89.12
504.69	96.12
504.907	84.12
505.123	90.12
505.34	86.12
505.557	72.12
505.773	96.12
505.99	90.12
506.207	74.12
506.423	85.12
506.64	98.12
506.856	73.12
507.073	88.12
507.289	84.12
507.506	99.12
507.722	111.12
507.939	120.12
508.155	85.12
508.372	90.12
508.588	82.12
508.805	99.12
509.021	95.12
509.238	99.12
509.454	100.12
509.67	105.12
509.887	97.12
510.103	145.12
510.319	234.12
510.536	891.12
510.752	2964.12
510.968	785.12
511.184	164.12
511.401	123.12
511.617	88.12
511.833	82.12
512.049	81.12
512.265	84.12
512.481	89.12
512.698	87.12
512.914	86.12
513.13	96.12
513.346	88.12
513.562	92.12
513.778	116.12
513.994	101.12
514.21	109.12
514.426	118.12
514.642	138.12
514.858	110.12
515.074	168.12
515.29	572.12
515.506	1918.12
515.721	695.12
515.937	182.12
516.153	106.12
516.369	100.12
