Data from Circ_2006_H10_HRD10591_00058.txt Node
Date: Wed Jan 03 10:26:15 EST 2024
User: Yrep
Spectrometer: HR+D1059
Trigger mode: 1
Integration Time (sec): 1.000000E-1
Scans to average: 1
Electric dark correction enabled: true
Nonlinearity correction enabled: false
Boxcar width: 0
XAxis mode: Wavelengths
Number of Pixels in Spectrum: 2048
>>>>>Begin Spectral Data<<<<<
223.165	-19
223.4	-19
223.635	-19
223.869	-19
224.104	-17
224.338	-20
224.573	-11
224.808	-15
225.042	-1
225.277	-3
225.511	0
225.746	10
225.98	5
226.215	8
226.449	4
226.683	19
226.918	21
227.152	38
227.387	37
227.621	40
227.856	52
228.09	63
228.324	48
228.559	46
228.793	48
229.027	67
229.262	79
229.496	80
229.73	98
229.964	85
230.199	72
230.433	85
230.667	84
230.901	98
231.136	70
231.37	77
231.604	82
231.838	94
232.072	81
232.306	84
232.541	92
232.775	78
233.009	76
233.243	70
233.477	76
233.711	78
233.945	72
234.179	71
234.413	86
234.647	85
234.881	91
235.115	76
235.349	86
235.583	72
235.817	78
236.051	68
236.285	87
236.519	70
236.753	88
236.987	67
237.221	86
237.455	84
237.689	75
237.922	84
238.156	94
238.39	80
238.624	77
238.858	67
239.091	85
239.325	83
239.559	86
239.793	72
240.027	80
240.26	79
240.494	78
240.728	79
240.961	67
241.195	79
241.429	82
241.662	64
241.896	72
242.13	69
242.363	78
242.597	68
242.83	69
243.064	82
243.298	82
243.531	68
243.765	85
243.998	77
244.232	85
244.465	93
244.699	93
244.932	81
245.166	83
245.399	73
245.633	72
245.866	68
246.099	76
246.333	74
246.566	77
246.8	76
247.033	81
247.266	80
247.5	78
247.733	87
247.966	83
248.2	73
248.433	87
248.666	78
248.899	95
249.133	83
249.366	96
249.599	83
249.832	70
250.066	83
250.299	86
250.532	89
250.765	86
250.998	80
251.231	83
251.465	77
251.698	75
251.931	69
252.164	82
252.397	79
252.63	86
252.863	76
253.096	71
253.329	86
253.562	77
253.795	96
254.028	74
254.261	79
254.494	83
254.727	83
254.96	88
255.193	83
255.426	82
255.659	65
255.892	85
256.124	85
256.357	76
256.59	77
256.823	73
257.056	79
257.289	88
257.521	94
257.754	85
257.987	81
258.22	85
258.452	86
258.685	94
258.918	72
259.151	92
259.383	74
259.616	66
259.849	76
260.081	93
260.314	81
260.547	96
260.779	83
261.012	87
261.244	92
261.477	90
261.71	99
261.942	130
262.175	132
262.407	95
262.64	91
262.872	75
263.105	80
263.337	82
263.57	77
263.802	92
264.035	80
264.267	80
264.499	70
264.732	76
264.964	84
265.197	83
265.429	77
265.661	86
265.894	82
266.126	94
266.358	88
266.591	80
266.823	81
267.055	82
267.287	77
267.52	70
267.752	83
267.984	92
268.216	91
268.448	95
268.681	87
268.913	94
269.145	70
269.377	89
269.609	85
269.841	79
270.073	81
270.306	100
270.538	79
270.77	90
271.002	84
271.234	87
271.466	86
271.698	92
271.93	83
272.162	80
272.394	88
272.626	89
272.858	82
273.09	99
273.322	88
273.553	83
273.785	72
274.017	84
274.249	86
274.481	78
274.713	87
274.945	92
275.176	100
275.408	95
275.64	92
275.872	74
276.104	87
276.335	94
276.567	118
276.799	123
277.031	106
277.262	101
277.494	96
277.726	92
277.957	91
278.189	87
278.421	92
278.652	95
278.884	87
279.115	78
279.347	77
279.579	71
279.81	99
280.042	78
280.273	65
280.505	92
280.736	93
280.968	94
281.199	91
281.431	91
281.662	95
281.894	98
282.125	106
282.356	142
282.588	162
282.819	128
283.051	101
283.282	81
283.513	90
283.745	91
283.976	94
284.207	80
284.439	85
284.67	98
284.901	80
285.132	87
285.364	86
285.595	87
285.826	86
286.057	93
286.288	83
286.52	71
286.751	96
286.982	87
287.213	80
287.444	94
287.675	85
287.906	98
288.138	92
288.369	89
288.6	103
288.831	94
289.062	87
289.293	88
289.524	86
289.755	81
289.986	80
290.217	99
290.448	92
290.679	88
290.91	94
291.141	77
291.371	86
291.602	91
291.833	93
292.064	84
292.295	92
292.526	84
292.757	93
292.987	83
293.218	80
293.449	72
293.68	73
293.91	85
294.141	94
294.372	88
294.603	86
294.833	86
295.064	102
295.295	94
295.525	98
295.756	111
295.987	131
296.217	179
296.448	140
296.679	95
296.909	73
297.14	97
297.37	74
297.601	92
297.831	98
298.062	105
298.292	94
298.523	91
298.753	94
298.984	76
299.214	82
299.445	78
299.675	104
299.905	88
300.136	77
300.366	86
300.597	93
300.827	93
301.057	105
301.288	120
301.518	101
301.748	95
301.979	101
302.209	98
302.439	97
302.669	84
302.9	96
303.13	90
303.36	94
303.59	110
303.82	121
304.051	98
304.281	98
304.511	96
304.741	79
304.971	93
305.201	91
305.431	98
305.661	96
305.891	89
306.121	102
306.352	117
306.582	108
306.812	90
307.042	100
307.272	103
307.502	102
307.731	97
307.961	82
308.191	94
308.421	96
308.651	93
308.881	89
309.111	90
309.341	105
309.571	111
309.8	107
310.03	93
310.26	96
310.49	93
310.72	103
310.949	103
311.179	98
311.409	102
311.639	91
311.868	105
312.098	112
312.328	94
312.557	102
312.787	115
313.017	92
313.246	104
313.476	100
313.706	86
313.935	96
314.165	112
314.394	112
314.624	108
314.853	105
315.083	99
315.312	93
315.542	98
315.771	89
316.001	88
316.23	88
316.46	99
316.689	100
316.919	109
317.148	102
317.377	97
317.607	95
317.836	104
318.065	101
318.295	96
318.524	118
318.753	98
318.983	108
319.212	104
319.441	117
319.67	122
319.9	86
320.129	95
320.358	90
320.587	113
320.816	105
321.046	109
321.275	94
321.504	99
321.733	105
321.962	116
322.191	112
322.42	105
322.649	122
322.878	130
323.108	118
323.337	146
323.566	163
323.795	183
324.024	263
324.253	553
324.482	1277
324.71	2672
324.939	3494
325.168	1226
325.397	333
325.626	173
325.855	168
326.084	166
326.313	152
326.542	180
326.77	312
326.999	652
327.228	1420
327.457	2627
327.686	2059
327.914	529
328.143	271
328.372	189
328.6	154
328.829	129
329.058	149
329.287	150
329.515	113
329.744	112
329.972	119
330.201	150
330.43	165
330.658	147
330.887	172
331.115	123
331.344	109
331.572	112
331.801	118
332.03	99
332.258	119
332.486	94
332.715	76
332.943	93
333.172	112
333.4	110
333.629	102
333.857	127
334.085	132
334.314	134
334.542	170
334.771	178
334.999	112
335.227	100
335.455	102
335.684	109
335.912	107
336.14	105
336.369	92
336.597	97
336.825	103
337.053	103
337.281	103
337.51	94
337.738	94
337.966	93
338.194	109
338.422	89
338.65	106
338.878	99
339.106	87
339.334	93
339.562	111
339.79	99
340.018	96
340.246	100
340.474	95
340.702	103
340.93	94
341.158	98
341.386	107
341.614	99
341.842	107
342.07	95
342.298	100
342.526	92
342.754	84
342.981	88
343.209	102
343.437	93
343.665	99
343.893	107
344.12	101
344.348	90
344.576	79
344.804	84
345.031	106
345.259	113
345.487	103
345.714	83
345.942	90
346.17	99
346.397	99
346.625	81
346.853	101
347.08	94
347.308	108
347.535	103
347.763	99
347.99	96
348.218	115
348.445	121
348.673	90
348.9	94
349.128	107
349.355	99
349.583	94
349.81	109
350.037	79
350.265	98
350.492	99
350.72	103
350.947	109
351.174	109
351.402	134
351.629	104
351.856	104
352.083	93
352.311	115
352.538	114
352.765	117
352.992	112
353.22	105
353.447	114
353.674	106
353.901	109
354.128	103
354.355	101
354.583	101
354.81	100
355.037	95
355.264	110
355.491	93
355.718	100
355.945	96
356.172	99
356.399	101
356.626	103
356.853	97
357.08	103
357.307	94
357.534	98
357.761	93
357.988	97
358.215	86
358.441	114
358.668	107
358.895	90
359.122	96
359.349	103
359.576	107
359.802	106
360.029	111
360.256	115
360.483	101
360.709	107
360.936	117
361.163	100
361.39	107
361.616	91
361.843	95
362.07	102
362.296	93
362.523	93
362.749	102
362.976	88
363.203	105
363.429	87
363.656	90
363.882	87
364.109	85
364.335	115
364.562	92
364.788	88
365.015	96
365.241	99
365.468	110
365.694	117
365.92	106
366.147	93
366.373	101
366.599	93
366.826	98
367.052	86
367.278	99
367.505	92
367.731	107
367.957	111
368.184	99
368.41	109
368.636	142
368.862	133
369.089	126
369.315	101
369.541	96
369.767	81
369.993	91
370.219	84
370.445	93
370.672	89
370.898	92
371.124	102
371.35	92
371.576	85
371.802	88
372.028	93
372.254	89
372.48	80
372.706	74
372.932	75
373.158	93
373.384	96
373.61	108
373.835	99
374.061	90
374.287	83
374.513	90
374.739	100
374.965	90
375.191	82
375.416	96
375.642	98
375.868	103
376.094	87
376.319	90
376.545	102
376.771	83
376.997	74
377.222	99
377.448	97
377.674	88
377.899	82
378.125	86
378.35	86
378.576	76
378.802	91
379.027	92
379.253	70
379.478	75
379.704	99
379.929	97
380.155	92
380.38	92
380.606	104
380.831	95
381.057	107
381.282	91
381.507	87
381.733	101
381.958	92
382.184	103
382.409	102
382.634	96
382.86	90
383.085	95
383.31	95
383.535	115
383.761	109
383.986	120
384.211	100
384.436	95
384.662	102
384.887	112
385.112	108
385.337	118
385.562	102
385.787	112
386.013	114
386.238	122
386.463	101
386.688	117
386.913	115
387.138	101
387.363	106
387.588	88
387.813	101
388.038	109
388.263	113
388.488	113
388.713	98
388.938	102
389.163	89
389.387	90
389.612	88
389.837	81
390.062	82
390.287	90
390.512	86
390.736	103
390.961	94
391.186	101
391.411	85
391.636	96
391.86	99
392.085	92
392.31	82
392.534	98
392.759	79
392.984	99
393.208	84
393.433	99
393.658	90
393.882	79
394.107	103
394.331	85
394.556	88
394.78	93
395.005	94
395.229	80
395.454	82
395.678	80
395.903	84
396.127	90
396.352	84
396.576	97
396.801	96
397.025	98
397.249	75
397.474	83
397.698	84
397.922	86
398.147	85
398.371	92
398.595	93
398.82	92
399.044	81
399.268	85
399.492	91
399.717	89
399.941	80
400.165	100
400.389	111
400.613	76
400.837	80
401.062	94
401.286	95
401.51	92
401.734	80
401.958	116
402.182	149
402.406	202
402.63	140
402.854	102
403.078	68
403.302	91
403.526	100
403.75	88
403.974	96
404.198	102
404.422	85
404.645	83
404.869	95
405.093	93
405.317	106
405.541	103
405.765	94
405.988	111
406.212	198
406.436	301
406.66	169
406.883	93
407.107	98
407.331	100
407.555	101
407.778	100
408.002	101
408.226	107
408.449	86
408.673	99
408.896	94
409.12	107
409.344	95
409.567	88
409.791	91
410.014	93
410.238	89
410.461	88
410.685	98
410.908	83
411.132	105
411.355	97
411.578	89
411.802	88
412.025	98
412.249	104
412.472	84
412.695	94
412.919	96
413.142	101
413.365	92
413.589	92
413.812	85
414.035	105
414.258	94
414.482	93
414.705	90
414.928	84
415.151	84
415.374	111
415.597	88
415.821	74
416.044	79
416.267	86
416.49	94
416.713	86
416.936	87
417.159	96
417.382	85
417.605	88
417.828	101
418.051	98
418.274	88
418.497	103
418.72	84
418.943	91
419.166	75
419.389	89
419.611	90
419.834	85
420.057	84
420.28	84
420.503	99
420.726	93
420.948	90
421.171	89
421.394	97
421.617	88
421.839	86
422.062	85
422.285	93
422.507	108
422.73	84
422.953	96
423.175	78
423.398	80
423.621	88
423.843	90
424.066	96
424.288	85
424.511	94
424.733	117
424.956	113
425.178	102
425.401	111
425.623	123
425.846	105
426.068	93
426.291	98
426.513	101
426.735	78
426.958	103
427.18	138
427.402	156
427.625	216
427.847	170
428.069	126
428.292	99
428.514	87
428.736	90
428.958	100
429.181	93
429.403	82
429.625	77
429.847	88
430.069	103
430.292	113
430.514	86
430.736	85
430.958	85
431.18	94
431.402	86
431.624	86
431.846	93
432.068	90
432.29	83
432.512	94
432.734	91
432.956	103
433.178	100
433.4	110
433.622	110
433.844	106
434.066	86
434.287	89
434.509	93
434.731	97
434.953	95
435.175	90
435.397	87
435.618	97
435.84	108
436.062	152
436.284	155
436.505	118
436.727	118
436.949	92
437.17	92
437.392	88
437.614	84
437.835	117
438.057	138
438.278	106
438.5	114
438.721	131
438.943	113
439.165	80
439.386	95
439.608	83
439.829	109
440.05	143
440.272	166
440.493	112
440.715	100
440.936	99
441.158	79
441.379	90
441.6	102
441.822	108
442.043	98
442.264	113
442.486	104
442.707	103
442.928	130
443.149	152
443.371	166
443.592	124
443.813	122
444.034	117
444.255	92
444.476	103
444.698	82
444.919	91
445.14	134
445.361	124
445.582	123
445.803	160
446.024	142
446.245	152
446.466	131
446.687	94
446.908	84
447.129	92
447.35	92
447.571	96
447.792	89
448.013	112
448.234	130
448.455	102
448.675	125
448.896	142
449.117	111
449.338	111
449.559	152
449.779	135
450	90
450.221	87
450.442	82
450.662	104
450.883	126
451.104	126
451.324	100
451.545	84
451.766	90
451.986	102
452.207	78
452.428	96
452.648	98
452.869	116
453.089	111
453.31	146
453.53	94
453.751	87
453.971	127
454.192	128
454.412	104
454.633	91
454.853	89
455.073	78
455.294	76
455.514	103
455.734	93
455.955	86
456.175	71
456.395	88
456.616	87
456.836	95
457.056	94
457.276	87
457.497	79
457.717	83
457.937	85
458.157	102
458.377	97
458.598	114
458.818	179
459.038	192
459.258	117
459.478	103
459.698	93
459.918	78
460.138	88
460.358	94
460.578	87
460.798	92
461.018	97
461.238	78
461.458	64
461.678	87
461.898	83
462.118	94
462.338	85
462.558	88
462.777	76
462.997	81
463.217	92
463.437	99
463.657	73
463.876	95
464.096	98
464.316	91
464.536	107
464.755	92
464.975	122
465.195	208
465.414	212
465.634	101
465.854	92
466.073	79
466.293	88
466.512	98
466.732	88
466.951	96
467.171	88
467.391	96
467.61	119
467.829	117
468.049	105
468.268	112
468.488	93
468.707	94
468.927	91
469.146	77
469.365	86
469.585	84
469.804	103
470.023	106
470.243	96
470.462	106
470.681	128
470.901	103
471.12	78
471.339	88
471.558	88
471.777	83
471.997	84
472.216	143
472.435	196
472.654	109
472.873	95
473.092	89
473.311	96
473.53	86
473.749	93
473.968	88
474.187	101
474.406	109
474.625	71
474.844	93
475.063	91
475.282	98
475.501	93
475.72	103
475.939	87
476.158	93
476.377	83
476.596	83
476.814	95
477.033	100
477.252	101
477.471	88
477.69	97
477.908	84
478.127	92
478.346	92
478.564	91
478.783	106
479.002	103
479.22	95
479.439	96
479.658	109
479.876	108
480.095	88
480.313	93
480.532	87
480.751	107
480.969	132
481.188	284
481.406	217
481.624	104
481.843	103
482.061	87
482.28	91
482.498	92
482.717	74
482.935	84
483.153	100
483.372	95
483.59	92
483.808	86
484.027	97
484.245	99
484.463	90
484.681	100
484.9	101
485.118	109
485.336	96
485.554	108
485.772	96
485.99	107
486.209	99
486.427	98
486.645	125
486.863	115
487.081	102
487.299	108
487.517	82
487.735	103
487.953	92
488.171	98
488.389	88
488.607	109
488.825	90
489.043	87
489.261	86
489.479	87
489.696	86
489.914	90
490.132	94
490.35	99
490.568	88
490.786	83
491.003	84
491.221	75
491.439	83
491.657	88
491.874	98
492.092	87
492.31	88
492.527	97
492.745	104
492.963	102
493.18	91
493.398	90
493.615	102
493.833	88
494.05	83
494.268	101
494.485	85
494.703	89
494.92	93
495.138	94
495.355	98
495.573	91
495.79	102
496.008	92
496.225	94
496.442	88
496.66	92
496.877	98
497.094	88
497.312	94
497.529	104
497.746	87
497.963	100
498.181	94
498.398	94
498.615	113
498.832	106
499.049	114
499.267	95
499.484	77
499.701	91
499.918	92
500.135	93
500.352	99
500.569	94
500.786	101
501.003	91
501.22	93
501.437	83
501.654	107
501.871	110
502.088	96
502.305	97
502.522	89
502.739	89
502.956	88
503.172	90
503.389	113
503.606	124
503.823	111
504.04	102
504.256	95
504.473	93
504.69	93
504.907	91
505.123	81
505.34	102
505.557	107
505.773	94
505.99	91
506.207	106
506.423	100
506.64	82
506.856	81
507.073	98
507.289	112
507.506	111
507.722	135
507.939	116
508.155	115
508.372	102
508.588	98
508.805	95
509.021	95
509.238	107
509.454	88
509.67	115
509.887	113
510.103	139
510.319	258
510.536	1036
510.752	3455
510.968	893
511.184	195
511.401	128
511.617	108
511.833	89
512.049	91
512.265	95
512.481	93
512.698	96
512.914	102
513.13	88
513.346	95
513.562	95
513.778	85
513.994	103
514.21	121
514.426	142
514.642	159
514.858	149
515.074	216
515.29	669
515.506	2322
515.721	818
515.937	194
516.153	138
516.369	104
516.585	90
516.801	86
517.016	111
517.232	91
517.448	96
517.664	93
517.879	103
518.095	88
518.311	95
518.527	111
518.742	99
518.958	99
519.173	93
519.389	102
519.605	99
519.82	117
520.036	114
520.251	130
520.467	122
520.682	121
520.898	132
521.113	149
521.329	166
521.544	269
521.76	862
521.975	3821
522.19	2262
522.406	449
522.621	156
522.836	120
523.052	100
523.267	103
523.482	99
523.698	113
523.913	134
524.128	112
524.343	98
524.559	95
524.774	96
524.989	104
525.204	111
525.419	113
525.634	92
525.849	101
526.064	90
526.28	93
526.495	83
526.71	98
526.925	78
527.14	104
527.355	88
527.57	89
527.785	86
527.999	92
528.214	85
528.429	95
528.644	98
528.859	95
529.074	93
529.289	145
529.503	220
529.718	104
529.933	82
530.148	86
530.363	109
530.577	86
530.792	106
531.007	85
531.221	83
531.436	108
531.651	92
531.865	76
532.08	88
532.295	84
532.509	84
532.724	87
532.938	88
533.153	95
533.367	96
533.582	89
533.796	83
534.011	95
534.225	101
534.44	93
534.654	78
534.868	88
535.083	89
535.297	103
535.511	107
535.726	91
535.94	107
536.154	103
536.369	89
536.583	85
536.797	82
537.011	85
537.225	102
537.44	94
537.654	79
537.868	86
538.082	84
538.296	109
538.51	92
538.724	86
538.938	91
539.153	116
539.367	117
539.581	114
539.795	78
540.009	106
540.222	107
540.436	96
540.65	92
540.864	95
541.078	85
541.292	88
541.506	81
541.72	98
541.934	87
542.147	111
542.361	70
542.575	114
542.789	94
543.002	96
543.216	94
543.43	103
543.644	96
543.857	96
544.071	90
544.285	97
544.498	94
544.712	98
544.925	88
545.139	100
545.352	92
545.566	91
545.779	81
545.993	101
546.206	90
546.42	93
546.633	93
546.847	98
547.06	87
547.274	101
547.487	98
547.7	80
547.914	101
548.127	85
548.34	95
548.554	92
548.767	95
548.98	93
549.193	93
549.407	102
549.62	85
549.833	86
550.046	94
550.259	78
550.473	80
550.686	86
550.899	84
551.112	84
551.325	94
551.538	82
551.751	92
551.964	87
552.177	87
552.39	89
552.603	83
552.816	95
553.029	90
553.242	94
553.455	94
553.667	89
553.88	103
554.093	89
554.306	80
554.519	84
554.732	96
554.944	102
555.157	99
555.37	101
555.583	100
555.795	100
556.008	83
556.221	95
556.433	100
556.646	97
556.859	85
557.071	82
557.284	97
557.496	86
557.709	77
557.921	96
558.134	91
558.346	81
558.559	92
558.771	96
558.984	88
559.196	103
559.409	82
559.621	93
559.833	78
560.046	90
560.258	102
560.47	102
560.683	80
560.895	90
561.107	79
561.32	88
561.532	81
561.744	90
561.956	96
562.168	83
562.381	100
562.593	104
562.805	93
563.017	94
563.229	88
563.441	103
563.653	101
563.865	101
564.077	110
564.289	101
564.501	86
564.713	78
564.925	86
565.137	124
565.349	99
565.561	90
565.773	97
565.985	76
566.197	88
566.408	88
566.62	90
566.832	102
567.044	83
567.255	89
567.467	86
567.679	79
567.891	93
568.102	97
568.314	86
568.526	88
568.737	89
568.949	72
569.161	113
569.372	95
569.584	83
569.795	90
570.007	118
570.218	321
570.43	156
570.641	87
570.853	92
571.064	92
571.276	95
571.487	81
571.698	96
571.91	105
572.121	96
572.333	97
572.544	78
572.755	88
572.966	94
573.178	98
573.389	97
573.6	96
573.811	79
574.023	93
574.234	82
574.445	90
574.656	85
574.867	88
575.078	92
575.289	93
575.501	101
575.712	83
575.923	93
576.134	86
576.345	101
576.556	84
576.767	88
576.978	85
577.188	101
577.399	96
577.61	92
577.821	103
578.032	140
578.243	353
578.454	1075
578.665	265
578.875	105
579.086	86
579.297	86
579.508	87
579.718	94
579.929	82
580.14	80
580.35	80
580.561	99
580.772	84
580.982	108
581.193	81
581.403	85
581.614	92
