Data from Circ_2006_H10_HRD10591_00016.txt Node
Date: Wed Jan 03 10:26:07 EST 2024
User: Yrep
Spectrometer: HR+D1059
Trigger mode: 1
Integration Time (sec): 1.000000E-1
Scans to average: 1
Electric dark correction enabled: true
Nonlinearity correction enabled: false
Boxcar width: 0
XAxis mode: Wavelengths
Number of Pixels in Spectrum: 2048
>>>>>Begin Spectral Data<<<<<
223.165	-19.12
223.4	-19.12
223.635	-19.12
223.869	-15.12
224.104	-21.12
224.338	-31.12
224.573	-5.12
224.808	-11.12
225.042	-9.12
225.277	-0.12
225.511	0.88
225.746	6.88
225.98	-4.12
226.215	7.88
226.449	6.88
226.683	31.88
226.918	26.88
227.152	34.88
227.387	33.88
227.621	20.88
227.856	61.88
228.09	51.88
228.324	58.88
228.559	57.88
228.793	55.88
229.027	72.88
229.262	71.88
229.496	72.88
229.73	80.88
229.964	84.88
230.199	79.88
230.433	73.88
230.667	84.88
230.901	72.88
231.136	83.88
231.37	81.88
231.604	69.88
231.838	76.88
232.072	96.88
232.306	90.88
232.541	77.88
232.775	75.88
233.009	87.88
233.243	77.88
233.477	90.88
233.711	91.88
233.945	97.88
234.179	78.88
234.413	84.88
234.647	84.88
234.881	80.88
235.115	78.88
235.349	94.88
235.583	77.88
235.817	71.88
236.051	84.88
236.285	86.88
236.519	85.88
236.753	70.88
236.987	81.88
237.221	93.88
237.455	95.88
237.689	85.88
237.922	75.88
238.156	75.88
238.39	68.88
238.624	77.88
238.858	71.88
239.091	86.88
239.325	74.88
239.559	84.88
239.793	69.88
240.027	81.88
240.26	82.88
240.494	71.88
240.728	69.88
240.961	69.88
241.195	82.88
241.429	75.88
241.662	67.88
241.896	77.88
242.13	77.88
242.363	80.88
242.597	73.88
242.83	69.88
243.064	71.88
243.298	70.88
243.531	90.88
243.765	82.88
243.998	76.88
244.232	73.88
244.465	81.88
244.699	75.88
244.932	80.88
245.166	90.88
245.399	67.88
245.633	69.88
245.866	85.88
246.099	72.88
246.333	71.88
246.566	82.88
246.8	68.88
247.033	74.88
247.266	84.88
247.5	77.88
247.733	79.88
247.966	72.88
248.2	74.88
248.433	86.88
248.666	65.88
248.899	73.88
249.133	87.88
249.366	106.88
249.599	105.88
249.832	76.88
250.066	81.88
250.299	81.88
250.532	66.88
250.765	86.88
250.998	87.88
251.231	86.88
251.465	79.88
251.698	71.88
251.931	70.88
252.164	80.88
252.397	59.88
252.63	70.88
252.863	60.88
253.096	80.88
253.329	85.88
253.562	85.88
253.795	93.88
254.028	86.88
254.261	86.88
254.494	67.88
254.727	75.88
254.96	87.88
255.193	86.88
255.426	89.88
255.659	91.88
255.892	77.88
256.124	94.88
256.357	72.88
256.59	73.88
256.823	101.88
257.056	84.88
257.289	74.88
257.521	85.88
257.754	80.88
257.987	92.88
258.22	82.88
258.452	84.88
258.685	73.88
258.918	89.88
259.151	91.88
259.383	85.88
259.616	68.88
259.849	83.88
260.081	66.88
260.314	75.88
260.547	81.88
260.779	86.88
261.012	81.88
261.244	80.88
261.477	101.88
261.71	100.88
261.942	116.88
262.175	129.88
262.407	95.88
262.64	85.88
262.872	83.88
263.105	74.88
263.337	94.88
263.57	78.88
263.802	73.88
264.035	94.88
264.267	89.88
264.499	86.88
264.732	81.88
264.964	85.88
265.197	78.88
265.429	99.88
265.661	74.88
265.894	85.88
266.126	91.88
266.358	86.88
266.591	87.88
266.823	77.88
267.055	76.88
267.287	80.88
267.52	90.88
267.752	77.88
267.984	86.88
268.216	97.88
268.448	83.88
268.681	92.88
268.913	85.88
269.145	93.88
269.377	90.88
269.609	75.88
269.841	75.88
270.073	78.88
270.306	93.88
270.538	86.88
270.77	70.88
271.002	68.88
271.234	83.88
271.466	84.88
271.698	77.88
271.93	97.88
272.162	84.88
272.394	98.88
272.626	89.88
272.858	74.88
273.09	83.88
273.322	86.88
273.553	68.88
273.785	82.88
274.017	74.88
274.249	74.88
274.481	88.88
274.713	80.88
274.945	86.88
275.176	89.88
275.408	91.88
275.64	77.88
275.872	85.88
276.104	88.88
276.335	86.88
276.567	126.88
276.799	112.88
277.031	124.88
277.262	95.88
277.494	86.88
277.726	78.88
277.957	71.88
278.189	85.88
278.421	91.88
278.652	90.88
278.884	75.88
279.115	87.88
279.347	94.88
279.579	84.88
279.81	77.88
280.042	86.88
280.273	86.88
280.505	90.88
280.736	88.88
280.968	97.88
281.199	95.88
281.431	82.88
281.662	95.88
281.894	75.88
282.125	104.88
282.356	137.88
282.588	158.88
282.819	128.88
283.051	87.88
283.282	97.88
283.513	74.88
283.745	84.88
283.976	76.88
284.207	87.88
284.439	72.88
284.67	80.88
284.901	83.88
285.132	89.88
285.364	78.88
285.595	92.88
285.826	83.88
286.057	89.88
286.288	92.88
286.52	74.88
286.751	70.88
286.982	77.88
287.213	79.88
287.444	85.88
287.675	91.88
287.906	103.88
288.138	82.88
288.369	92.88
288.6	79.88
288.831	86.88
289.062	100.88
289.293	94.88
289.524	81.88
289.755	94.88
289.986	91.88
290.217	88.88
290.448	91.88
290.679	87.88
290.91	81.88
291.141	78.88
291.371	82.88
291.602	90.88
291.833	84.88
292.064	90.88
292.295	81.88
292.526	82.88
292.757	94.88
292.987	89.88
293.218	77.88
293.449	93.88
293.68	89.88
293.91	92.88
294.141	99.88
294.372	84.88
294.603	89.88
294.833	92.88
295.064	87.88
295.295	98.88
295.525	108.88
295.756	98.88
295.987	122.88
296.217	176.88
296.448	153.88
296.679	94.88
296.909	93.88
297.14	86.88
297.37	80.88
297.601	87.88
297.831	92.88
298.062	90.88
298.292	89.88
298.523	84.88
298.753	87.88
298.984	85.88
299.214	86.88
299.445	95.88
299.675	82.88
299.905	100.88
300.136	96.88
300.366	86.88
300.597	85.88
300.827	108.88
301.057	111.88
301.288	116.88
301.518	95.88
301.748	95.88
301.979	113.88
302.209	97.88
302.439	87.88
302.669	77.88
302.9	93.88
303.13	82.88
303.36	91.88
303.59	113.88
303.82	116.88
304.051	94.88
304.281	89.88
304.511	94.88
304.741	107.88
304.971	85.88
305.201	97.88
305.431	83.88
305.661	94.88
305.891	93.88
306.121	96.88
306.352	125.88
306.582	112.88
306.812	94.88
307.042	91.88
307.272	116.88
307.502	96.88
307.731	101.88
307.961	85.88
308.191	86.88
308.421	100.88
308.651	105.88
308.881	86.88
309.111	102.88
309.341	87.88
309.571	110.88
309.8	104.88
310.03	92.88
310.26	91.88
310.49	96.88
310.72	104.88
310.949	91.88
311.179	116.88
311.409	86.88
311.639	95.88
311.868	96.88
312.098	86.88
312.328	98.88
312.557	120.88
312.787	125.88
313.017	117.88
313.246	94.88
313.476	105.88
313.706	105.88
313.935	102.88
314.165	98.88
314.394	98.88
314.624	106.88
314.853	106.88
315.083	99.88
315.312	89.88
315.542	93.88
315.771	86.88
316.001	84.88
316.23	100.88
316.46	79.88
316.689	87.88
316.919	102.88
317.148	92.88
317.377	112.88
317.607	102.88
317.836	99.88
318.065	92.88
318.295	85.88
318.524	107.88
318.753	101.88
318.983	102.88
319.212	101.88
319.441	108.88
319.67	139.88
319.9	81.88
320.129	94.88
320.358	96.88
320.587	106.88
320.816	106.88
321.046	107.88
321.275	93.88
321.504	100.88
321.733	102.88
321.962	99.88
322.191	86.88
322.42	110.88
322.649	112.88
322.878	133.88
323.108	115.88
323.337	142.88
323.566	158.88
323.795	194.88
324.024	262.88
324.253	579.88
324.482	1240.88
324.71	2674.88
324.939	3449.88
325.168	1163.88
325.397	328.88
325.626	174.88
325.855	152.88
326.084	128.88
326.313	153.88
326.542	182.88
326.77	276.88
326.999	695.88
327.228	1427.88
327.457	2630.88
327.686	2046.88
327.914	517.88
328.143	252.88
328.372	180.88
328.6	156.88
328.829	134.88
329.058	148.88
329.287	155.88
329.515	129.88
329.744	122.88
329.972	116.88
330.201	123.88
330.43	141.88
330.658	152.88
330.887	180.88
331.115	144.88
331.344	112.88
331.572	99.88
331.801	118.88
332.03	97.88
332.258	94.88
332.486	87.88
332.715	94.88
332.943	89.88
333.172	108.88
333.4	109.88
333.629	110.88
333.857	107.88
334.085	126.88
334.314	103.88
334.542	130.88
334.771	119.88
334.999	89.88
335.227	91.88
335.455	99.88
335.684	107.88
335.912	105.88
336.14	96.88
336.369	102.88
336.597	101.88
336.825	102.88
337.053	97.88
337.281	105.88
337.51	93.88
337.738	94.88
337.966	100.88
338.194	108.88
338.422	95.88
338.65	102.88
338.878	83.88
339.106	101.88
339.334	81.88
339.562	101.88
339.79	91.88
340.018	107.88
340.246	102.88
340.474	97.88
340.702	93.88
340.93	97.88
341.158	99.88
341.386	114.88
341.614	98.88
341.842	94.88
342.07	104.88
342.298	90.88
342.526	97.88
342.754	106.88
342.981	84.88
343.209	75.88
343.437	105.88
343.665	94.88
343.893	98.88
344.12	83.88
344.348	97.88
344.576	93.88
344.804	94.88
345.031	111.88
345.259	112.88
345.487	89.88
345.714	97.88
345.942	82.88
346.17	92.88
346.397	101.88
346.625	97.88
346.853	98.88
347.08	77.88
347.308	101.88
347.535	101.88
347.763	116.88
347.99	98.88
348.218	114.88
348.445	99.88
348.673	104.88
348.9	85.88
349.128	85.88
349.355	93.88
349.583	80.88
349.81	97.88
350.037	107.88
350.265	93.88
350.492	96.88
350.72	103.88
350.947	103.88
351.174	113.88
351.402	123.88
351.629	101.88
351.856	121.88
352.083	110.88
352.311	110.88
352.538	116.88
352.765	117.88
352.992	102.88
353.22	117.88
353.447	110.88
353.674	98.88
353.901	97.88
354.128	99.88
354.355	92.88
354.583	114.88
354.81	92.88
355.037	89.88
355.264	103.88
355.491	91.88
355.718	81.88
355.945	102.88
356.172	101.88
356.399	102.88
356.626	95.88
356.853	97.88
357.08	93.88
357.307	100.88
357.534	105.88
357.761	86.88
357.988	97.88
358.215	106.88
358.441	98.88
358.668	98.88
358.895	92.88
359.122	107.88
359.349	99.88
359.576	94.88
359.802	101.88
360.029	128.88
360.256	127.88
360.483	110.88
360.709	96.88
360.936	103.88
361.163	84.88
361.39	98.88
361.616	95.88
361.843	98.88
362.07	84.88
362.296	105.88
362.523	100.88
362.749	109.88
362.976	94.88
363.203	96.88
363.429	98.88
363.656	90.88
363.882	86.88
364.109	99.88
364.335	105.88
364.562	94.88
364.788	111.88
365.015	113.88
365.241	115.88
365.468	122.88
365.694	117.88
365.92	115.88
366.147	91.88
366.373	98.88
366.599	80.88
366.826	91.88
367.052	100.88
367.278	93.88
367.505	96.88
367.731	95.88
367.957	92.88
368.184	89.88
368.41	100.88
368.636	112.88
368.862	132.88
369.089	127.88
369.315	98.88
369.541	91.88
369.767	107.88
369.993	98.88
370.219	90.88
370.445	86.88
370.672	100.88
370.898	88.88
371.124	93.88
371.35	97.88
371.576	84.88
371.802	82.88
372.028	91.88
372.254	91.88
372.48	97.88
372.706	93.88
372.932	79.88
373.158	86.88
373.384	91.88
373.61	101.88
373.835	89.88
374.061	101.88
374.287	92.88
374.513	87.88
374.739	96.88
374.965	67.88
375.191	91.88
375.416	93.88
375.642	96.88
375.868	110.88
376.094	85.88
376.319	91.88
376.545	84.88
376.771	92.88
376.997	92.88
377.222	91.88
377.448	96.88
377.674	95.88
377.899	93.88
378.125	71.88
378.35	100.88
378.576	93.88
378.802	84.88
379.027	82.88
379.253	86.88
379.478	88.88
379.704	89.88
379.929	102.88
380.155	97.88
380.38	99.88
380.606	106.88
380.831	95.88
381.057	106.88
381.282	91.88
381.507	111.88
381.733	108.88
381.958	103.88
382.184	101.88
382.409	108.88
382.634	112.88
382.86	102.88
383.085	103.88
383.31	98.88
383.535	106.88
383.761	103.88
383.986	92.88
384.211	98.88
384.436	97.88
384.662	108.88
384.887	98.88
385.112	114.88
385.337	106.88
385.562	111.88
385.787	119.88
386.013	116.88
386.238	133.88
386.463	115.88
386.688	98.88
386.913	115.88
387.138	117.88
387.363	99.88
387.588	99.88
387.813	108.88
388.038	99.88
388.263	114.88
388.488	131.88
388.713	96.88
388.938	86.88
389.163	89.88
389.387	100.88
389.612	94.88
389.837	99.88
390.062	91.88
390.287	88.88
390.512	94.88
390.736	93.88
390.961	85.88
391.186	96.88
391.411	86.88
391.636	91.88
391.86	98.88
392.085	77.88
392.31	80.88
392.534	92.88
392.759	90.88
392.984	93.88
393.208	91.88
393.433	100.88
393.658	110.88
393.882	83.88
394.107	86.88
394.331	88.88
394.556	86.88
394.78	94.88
395.005	79.88
395.229	74.88
395.454	91.88
395.678	86.88
395.903	92.88
396.127	88.88
396.352	100.88
396.576	83.88
396.801	98.88
397.025	86.88
397.249	91.88
397.474	92.88
397.698	97.88
397.922	103.88
398.147	96.88
398.371	94.88
398.595	96.88
398.82	87.88
399.044	74.88
399.268	109.88
399.492	100.88
399.717	102.88
399.941	92.88
400.165	85.88
400.389	97.88
400.613	83.88
400.837	104.88
401.062	108.88
401.286	92.88
401.51	93.88
401.734	93.88
401.958	106.88
402.182	146.88
402.406	198.88
402.63	145.88
402.854	95.88
403.078	94.88
403.302	95.88
403.526	84.88
403.75	86.88
403.974	92.88
404.198	99.88
404.422	102.88
404.645	96.88
404.869	102.88
405.093	90.88
405.317	108.88
405.541	93.88
405.765	101.88
405.988	136.88
406.212	198.88
406.436	278.88
406.66	163.88
406.883	111.88
407.107	122.88
407.331	95.88
407.555	109.88
407.778	121.88
408.002	110.88
408.226	88.88
408.449	77.88
408.673	91.88
408.896	97.88
409.12	96.88
409.344	81.88
409.567	91.88
409.791	99.88
410.014	101.88
410.238	96.88
410.461	95.88
410.685	94.88
410.908	103.88
411.132	115.88
411.355	107.88
411.578	92.88
411.802	87.88
412.025	92.88
412.249	99.88
412.472	93.88
412.695	99.88
412.919	90.88
413.142	100.88
413.365	98.88
413.589	83.88
413.812	98.88
414.035	95.88
414.258	80.88
414.482	98.88
414.705	75.88
414.928	95.88
415.151	104.88
415.374	105.88
415.597	87.88
415.821	101.88
416.044	94.88
416.267	86.88
416.49	75.88
416.713	93.88
416.936	106.88
417.159	95.88
417.382	80.88
417.605	101.88
417.828	107.88
418.051	114.88
418.274	83.88
418.497	90.88
418.72	88.88
418.943	93.88
419.166	84.88
419.389	79.88
419.611	102.88
419.834	97.88
420.057	89.88
420.28	86.88
420.503	77.88
420.726	76.88
420.948	77.88
421.171	85.88
421.394	92.88
421.617	94.88
421.839	85.88
422.062	84.88
422.285	89.88
422.507	101.88
422.73	122.88
422.953	103.88
423.175	97.88
423.398	92.88
423.621	89.88
423.843	91.88
424.066	81.88
424.288	87.88
424.511	98.88
424.733	103.88
424.956	117.88
425.178	105.88
425.401	115.88
425.623	112.88
425.846	81.88
426.068	103.88
426.291	81.88
426.513	95.88
426.735	89.88
426.958	108.88
427.18	102.88
427.402	157.88
427.625	201.88
427.847	144.88
428.069	114.88
428.292	96.88
428.514	80.88
428.736	89.88
428.958	83.88
429.181	89.88
429.403	91.88
429.625	98.88
429.847	102.88
430.069	99.88
430.292	96.88
430.514	79.88
430.736	97.88
430.958	96.88
431.18	80.88
431.402	77.88
431.624	93.88
431.846	84.88
432.068	87.88
432.29	80.88
432.512	84.88
432.734	75.88
432.956	97.88
433.178	107.88
433.4	106.88
433.622	87.88
433.844	83.88
434.066	103.88
434.287	91.88
434.509	91.88
434.731	90.88
434.953	97.88
435.175	97.88
435.397	91.88
435.618	93.88
435.84	113.88
436.062	134.88
436.284	117.88
436.505	116.88
436.727	117.88
436.949	91.88
437.17	80.88
437.392	90.88
437.614	109.88
437.835	98.88
438.057	114.88
438.278	117.88
438.5	119.88
438.721	121.88
438.943	108.88
439.165	95.88
439.386	85.88
439.608	102.88
439.829	115.88
440.05	143.88
440.272	170.88
440.493	109.88
440.715	84.88
440.936	90.88
441.158	98.88
441.379	102.88
441.6	97.88
441.822	90.88
442.043	98.88
442.264	105.88
442.486	110.88
442.707	109.88
442.928	111.88
443.149	163.88
443.371	168.88
443.592	121.88
443.813	118.88
444.034	110.88
444.255	91.88
444.476	103.88
444.698	93.88
444.919	94.88
445.14	135.88
445.361	137.88
445.582	125.88
445.803	159.88
446.024	150.88
446.245	153.88
446.466	118.88
446.687	89.88
446.908	87.88
447.129	93.88
447.35	91.88
447.571	109.88
447.792	93.88
448.013	105.88
448.234	103.88
448.455	96.88
448.675	115.88
448.896	125.88
449.117	117.88
449.338	121.88
449.559	146.88
449.779	144.88
450	91.88
450.221	85.88
450.442	89.88
450.662	107.88
450.883	112.88
451.104	105.88
451.324	91.88
451.545	92.88
451.766	95.88
451.986	87.88
452.207	88.88
452.428	113.88
452.648	98.88
452.869	130.88
453.089	126.88
453.31	129.88
453.53	121.88
453.751	105.88
453.971	102.88
454.192	110.88
454.412	85.88
454.633	86.88
454.853	102.88
455.073	97.88
455.294	96.88
455.514	90.88
455.734	85.88
455.955	78.88
456.175	90.88
456.395	86.88
456.616	105.88
456.836	94.88
457.056	84.88
457.276	81.88
457.497	89.88
457.717	102.88
457.937	89.88
458.157	89.88
458.377	90.88
458.598	110.88
458.818	185.88
459.038	203.88
459.258	144.88
459.478	102.88
459.698	78.88
459.918	75.88
460.138	76.88
460.358	87.88
460.578	100.88
460.798	88.88
461.018	94.88
461.238	92.88
461.458	102.88
461.678	95.88
461.898	95.88
462.118	88.88
462.338	86.88
462.558	89.88
462.777	91.88
462.997	97.88
463.217	93.88
463.437	84.88
463.657	86.88
463.876	68.88
464.096	90.88
464.316	86.88
464.536	89.88
464.755	114.88
464.975	139.88
465.195	191.88
465.414	203.88
465.634	111.88
465.854	77.88
466.073	88.88
466.293	107.88
466.512	90.88
466.732	89.88
466.951	92.88
467.171	103.88
467.391	94.88
467.61	125.88
467.829	112.88
468.049	113.88
468.268	95.88
468.488	82.88
468.707	81.88
468.927	95.88
469.146	86.88
469.365	87.88
469.585	103.88
469.804	109.88
470.023	102.88
470.243	87.88
470.462	105.88
470.681	113.88
470.901	91.88
471.12	79.88
471.339	81.88
471.558	84.88
471.777	86.88
471.997	95.88
472.216	101.88
472.435	130.88
472.654	108.88
472.873	87.88
473.092	84.88
473.311	77.88
473.53	83.88
473.749	82.88
473.968	98.88
474.187	105.88
474.406	80.88
474.625	70.88
474.844	100.88
475.063	91.88
475.282	66.88
475.501	81.88
475.72	90.88
475.939	83.88
476.158	100.88
476.377	79.88
476.596	82.88
476.814	89.88
477.033	112.88
477.252	89.88
477.471	85.88
477.69	86.88
477.908	80.88
478.127	85.88
478.346	93.88
478.564	93.88
478.783	91.88
479.002	87.88
479.22	90.88
479.439	116.88
479.658	122.88
479.876	105.88
480.095	106.88
480.313	102.88
480.532	87.88
480.751	91.88
480.969	102.88
481.188	151.88
481.406	119.88
481.624	95.88
481.843	86.88
482.061	86.88
482.28	92.88
482.498	81.88
482.717	78.88
482.935	99.88
483.153	89.88
483.372	84.88
483.59	86.88
483.808	81.88
484.027	85.88
484.245	92.88
484.463	80.88
484.681	101.88
484.9	95.88
485.118	101.88
485.336	103.88
485.554	109.88
485.772	102.88
485.99	99.88
486.209	97.88
486.427	112.88
486.645	116.88
486.863	121.88
487.081	103.88
487.299	88.88
487.517	108.88
487.735	93.88
487.953	90.88
488.171	85.88
488.389	107.88
488.607	97.88
488.825	103.88
489.043	101.88
489.261	87.88
489.479	94.88
489.696	104.88
489.914	86.88
490.132	93.88
490.35	84.88
490.568	84.88
490.786	85.88
491.003	73.88
491.221	101.88
491.439	85.88
491.657	91.88
491.874	106.88
492.092	82.88
492.31	100.88
492.527	93.88
492.745	97.88
492.963	99.88
493.18	90.88
493.398	90.88
493.615	102.88
493.833	100.88
494.05	97.88
494.268	99.88
494.485	95.88
494.703	89.88
494.92	87.88
495.138	93.88
495.355	78.88
495.573	101.88
495.79	79.88
496.008	84.88
496.225	93.88
496.442	70.88
496.66	88.88
496.877	97.88
497.094	79.88
497.312	82.88
497.529	94.88
497.746	92.88
497.963	87.88
498.181	92.88
498.398	89.88
498.615	114.88
498.832	112.88
499.049	89.88
499.267	91.88
499.484	80.88
499.701	100.88
499.918	85.88
500.135	85.88
500.352	88.88
500.569	90.88
500.786	91.88
501.003	99.88
501.22	85.88
501.437	97.88
501.654	109.88
501.871	125.88
502.088	89.88
502.305	93.88
502.522	92.88
502.739	74.88
502.956	84.88
503.172	90.88
503.389	93.88
503.606	107.88
503.823	96.88
504.04	90.88
504.256	91.88
504.473	83.88
504.69	82.88
504.907	79.88
505.123	84.88
505.34	79.88
505.557	99.88
505.773	86.88
505.99	83.88
506.207	89.88
506.423	93.88
506.64	91.88
506.856	98.88
507.073	92.88
507.289	91.88
507.506	111.88
507.722	118.88
507.939	117.88
508.155	97.88
508.372	98.88
508.588	97.88
508.805	93.88
509.021	86.88
509.238	92.88
509.454	102.88
509.67	99.88
509.887	140.88
510.103	143.88
510.319	249.88
510.536	927.88
510.752	3163.88
510.968	842.88
511.184	180.88
511.401	112.88
511.617	90.88
511.833	88.88
512.049	85.88
512.265	98.88
512.481	87.88
512.698	96.88
512.914	87.88
513.13	100.88
513.346	87.88
513.562	112.88
513.778	96.88
513.994	104.88
514.21	103.88
