Data from Circ_2006_H10_HRD10591_00091.txt Node
Date: Wed Jan 03 10:26:22 EST 2024
User: Yrep
Spectrometer: HR+D1059
Trigger mode: 1
Integration Time (sec): 1.000000E-1
Scans to average: 1
Electric dark correction enabled: true
Nonlinearity correction enabled: false
Boxcar width: 0
XAxis mode: Wavelengths
Number of Pixels in Spectrum: 2048
>>>>>Begin Spectral Data<<<<<
223.165	-20.69
223.4	-20.69
223.635	-20.69
223.869	-15.69
224.104	-20.69
224.338	-7.69
224.573	-4.69
224.808	-18.69
225.042	-1.69
225.277	-1.69
225.511	-15.69
225.746	-3.69
225.98	21.31
226.215	14.31
226.449	27.31
226.683	1.31
226.918	16.31
227.152	30.31
227.387	43.31
227.621	46.31
227.856	54.31
228.09	67.31
228.324	51.31
228.559	47.31
228.793	41.31
229.027	64.31
229.262	82.31
229.496	71.31
229.73	84.31
229.964	82.31
230.199	71.31
230.433	71.31
230.667	75.31
230.901	75.31
231.136	80.31
231.37	77.31
231.604	88.31
231.838	76.31
232.072	74.31
232.306	79.31
232.541	73.31
232.775	89.31
233.009	71.31
233.243	79.31
233.477	64.31
233.711	75.31
233.945	86.31
234.179	67.31
234.413	79.31
234.647	80.31
234.881	92.31
235.115	86.31
235.349	75.31
235.583	76.31
235.817	85.31
236.051	72.31
236.285	70.31
236.519	70.31
236.753	86.31
236.987	77.31
237.221	87.31
237.455	79.31
237.689	72.31
237.922	77.31
238.156	66.31
238.39	82.31
238.624	75.31
238.858	79.31
239.091	83.31
239.325	78.31
239.559	95.31
239.793	76.31
240.027	82.31
240.26	92.31
240.494	85.31
240.728	85.31
240.961	69.31
241.195	85.31
241.429	75.31
241.662	82.31
241.896	92.31
242.13	78.31
242.363	89.31
242.597	85.31
242.83	69.31
243.064	75.31
243.298	85.31
243.531	72.31
243.765	88.31
243.998	75.31
244.232	85.31
244.465	81.31
244.699	80.31
244.932	78.31
245.166	78.31
245.399	80.31
245.633	58.31
245.866	70.31
246.099	69.31
246.333	73.31
246.566	68.31
246.8	85.31
247.033	76.31
247.266	93.31
247.5	90.31
247.733	82.31
247.966	78.31
248.2	81.31
248.433	84.31
248.666	84.31
248.899	103.31
249.133	81.31
249.366	99.31
249.599	114.31
249.832	76.31
250.066	101.31
250.299	78.31
250.532	90.31
250.765	78.31
250.998	88.31
251.231	95.31
251.465	78.31
251.698	71.31
251.931	82.31
252.164	75.31
252.397	69.31
252.63	79.31
252.863	70.31
253.096	81.31
253.329	74.31
253.562	94.31
253.795	83.31
254.028	91.31
254.261	86.31
254.494	83.31
254.727	98.31
254.96	88.31
255.193	89.31
255.426	75.31
255.659	82.31
255.892	85.31
256.124	76.31
256.357	83.31
256.59	97.31
256.823	92.31
257.056	86.31
257.289	78.31
257.521	66.31
257.754	78.31
257.987	87.31
258.22	84.31
258.452	74.31
258.685	85.31
258.918	85.31
259.151	87.31
259.383	84.31
259.616	85.31
259.849	89.31
260.081	80.31
260.314	80.31
260.547	91.31
260.779	85.31
261.012	86.31
261.244	91.31
261.477	83.31
261.71	89.31
261.942	110.31
262.175	120.31
262.407	104.31
262.64	85.31
262.872	91.31
263.105	81.31
263.337	90.31
263.57	95.31
263.802	66.31
264.035	71.31
264.267	78.31
264.499	76.31
264.732	82.31
264.964	70.31
265.197	87.31
265.429	86.31
265.661	92.31
265.894	77.31
266.126	75.31
266.358	80.31
266.591	90.31
266.823	97.31
267.055	84.31
267.287	79.31
267.52	77.31
267.752	71.31
267.984	85.31
268.216	87.31
268.448	98.31
268.681	84.31
268.913	94.31
269.145	86.31
269.377	82.31
269.609	72.31
269.841	83.31
270.073	69.31
270.306	86.31
270.538	97.31
270.77	84.31
271.002	92.31
271.234	97.31
271.466	85.31
271.698	71.31
271.93	88.31
272.162	81.31
272.394	79.31
272.626	93.31
272.858	87.31
273.09	87.31
273.322	88.31
273.553	72.31
273.785	83.31
274.017	81.31
274.249	89.31
274.481	83.31
274.713	87.31
274.945	75.31
275.176	97.31
275.408	78.31
275.64	93.31
275.872	86.31
276.104	74.31
276.335	75.31
276.567	91.31
276.799	109.31
277.031	109.31
277.262	88.31
277.494	82.31
277.726	100.31
277.957	83.31
278.189	88.31
278.421	78.31
278.652	77.31
278.884	97.31
279.115	86.31
279.347	72.31
279.579	86.31
279.81	66.31
280.042	94.31
280.273	91.31
280.505	91.31
280.736	91.31
280.968	82.31
281.199	88.31
281.431	89.31
281.662	83.31
281.894	86.31
282.125	104.31
282.356	123.31
282.588	146.31
282.819	114.31
283.051	91.31
283.282	103.31
283.513	90.31
283.745	87.31
283.976	87.31
284.207	94.31
284.439	101.31
284.67	82.31
284.901	79.31
285.132	95.31
285.364	83.31
285.595	84.31
285.826	94.31
286.057	80.31
286.288	79.31
286.52	82.31
286.751	84.31
286.982	94.31
287.213	77.31
287.444	84.31
287.675	83.31
287.906	88.31
288.138	93.31
288.369	83.31
288.6	102.31
288.831	82.31
289.062	79.31
289.293	96.31
289.524	95.31
289.755	77.31
289.986	83.31
290.217	96.31
290.448	100.31
290.679	95.31
290.91	88.31
291.141	84.31
291.371	102.31
291.602	82.31
291.833	80.31
292.064	85.31
292.295	93.31
292.526	83.31
292.757	85.31
292.987	99.31
293.218	79.31
293.449	77.31
293.68	93.31
293.91	94.31
294.141	85.31
294.372	87.31
294.603	93.31
294.833	110.31
295.064	92.31
295.295	74.31
295.525	87.31
295.756	102.31
295.987	129.31
296.217	160.31
296.448	129.31
296.679	99.31
296.909	87.31
297.14	90.31
297.37	82.31
297.601	94.31
297.831	83.31
298.062	86.31
298.292	87.31
298.523	101.31
298.753	101.31
298.984	89.31
299.214	82.31
299.445	96.31
299.675	82.31
299.905	86.31
300.136	91.31
300.366	86.31
300.597	93.31
300.827	99.31
301.057	91.31
301.288	103.31
301.518	97.31
301.748	101.31
301.979	100.31
302.209	94.31
302.439	95.31
302.669	85.31
302.9	91.31
303.13	101.31
303.36	104.31
303.59	94.31
303.82	99.31
304.051	95.31
304.281	88.31
304.511	96.31
304.741	75.31
304.971	103.31
305.201	96.31
305.431	98.31
305.661	99.31
305.891	87.31
306.121	107.31
306.352	103.31
306.582	110.31
306.812	103.31
307.042	77.31
307.272	95.31
307.502	92.31
307.731	102.31
307.961	86.31
308.191	88.31
308.421	90.31
308.651	90.31
308.881	105.31
309.111	101.31
309.341	100.31
309.571	108.31
309.8	99.31
310.03	98.31
310.26	106.31
310.49	85.31
310.72	87.31
310.949	110.31
311.179	99.31
311.409	95.31
311.639	105.31
311.868	102.31
312.098	88.31
312.328	107.31
312.557	114.31
312.787	109.31
313.017	109.31
313.246	89.31
313.476	97.31
313.706	99.31
313.935	91.31
314.165	99.31
314.394	98.31
314.624	108.31
314.853	100.31
315.083	100.31
315.312	80.31
315.542	87.31
315.771	100.31
316.001	88.31
316.23	95.31
316.46	106.31
316.689	92.31
316.919	90.31
317.148	99.31
317.377	111.31
317.607	90.31
317.836	78.31
318.065	87.31
318.295	83.31
318.524	92.31
318.753	101.31
318.983	95.31
319.212	110.31
319.441	102.31
319.67	113.31
319.9	103.31
320.129	87.31
320.358	81.31
320.587	100.31
320.816	110.31
321.046	103.31
321.275	104.31
321.504	99.31
321.733	100.31
321.962	103.31
322.191	98.31
322.42	115.31
322.649	114.31
322.878	112.31
323.108	127.31
323.337	130.31
323.566	129.31
323.795	148.31
324.024	224.31
324.253	466.31
324.482	991.31
324.71	2034.31
324.939	2742.31
325.168	961.31
325.397	262.31
325.626	148.31
325.855	138.31
326.084	122.31
326.313	140.31
326.542	174.31
326.77	246.31
326.999	530.31
327.228	1121.31
327.457	2048.31
327.686	1608.31
327.914	426.31
328.143	241.31
328.372	188.31
328.6	151.31
328.829	144.31
329.058	147.31
329.287	119.31
329.515	114.31
329.744	107.31
329.972	126.31
330.201	168.31
330.43	206.31
330.658	174.31
330.887	152.31
331.115	132.31
331.344	112.31
331.572	101.31
331.801	100.31
332.03	107.31
332.258	114.31
332.486	116.31
332.715	101.31
332.943	109.31
333.172	91.31
333.4	116.31
333.629	117.31
333.857	129.31
334.085	136.31
334.314	151.31
334.542	214.31
334.771	212.31
334.999	118.31
335.227	98.31
335.455	92.31
335.684	99.31
335.912	102.31
336.14	104.31
336.369	85.31
336.597	103.31
336.825	94.31
337.053	88.31
337.281	93.31
337.51	101.31
337.738	89.31
337.966	100.31
338.194	91.31
338.422	96.31
338.65	95.31
338.878	102.31
339.106	94.31
339.334	108.31
339.562	80.31
339.79	80.31
340.018	91.31
340.246	94.31
340.474	102.31
340.702	104.31
340.93	79.31
341.158	99.31
341.386	100.31
341.614	110.31
341.842	95.31
342.07	88.31
342.298	92.31
342.526	87.31
342.754	84.31
342.981	105.31
343.209	99.31
343.437	104.31
343.665	84.31
343.893	94.31
344.12	94.31
344.348	92.31
344.576	103.31
344.804	99.31
345.031	110.31
345.259	97.31
345.487	90.31
345.714	103.31
345.942	89.31
346.17	92.31
346.397	99.31
346.625	80.31
346.853	89.31
347.08	95.31
347.308	82.31
347.535	102.31
347.763	97.31
347.99	113.31
348.218	96.31
348.445	106.31
348.673	93.31
348.9	116.31
349.128	105.31
349.355	78.31
349.583	82.31
349.81	99.31
350.037	85.31
350.265	103.31
350.492	81.31
350.72	116.31
350.947	111.31
351.174	128.31
351.402	114.31
351.629	96.31
351.856	97.31
352.083	113.31
352.311	106.31
352.538	108.31
352.765	106.31
352.992	111.31
353.22	109.31
353.447	104.31
353.674	113.31
353.901	95.31
354.128	91.31
354.355	93.31
354.583	99.31
354.81	96.31
355.037	95.31
355.264	90.31
355.491	86.31
355.718	76.31
355.945	98.31
356.172	86.31
356.399	115.31
356.626	98.31
356.853	87.31
357.08	88.31
357.307	93.31
357.534	79.31
357.761	96.31
357.988	100.31
358.215	78.31
358.441	103.31
358.668	92.31
358.895	95.31
359.122	95.31
359.349	98.31
359.576	91.31
359.802	104.31
360.029	116.31
360.256	124.31
360.483	97.31
360.709	99.31
360.936	100.31
361.163	75.31
361.39	103.31
361.616	103.31
361.843	109.31
362.07	105.31
362.296	86.31
362.523	87.31
362.749	90.31
362.976	88.31
363.203	91.31
363.429	97.31
363.656	89.31
363.882	92.31
364.109	102.31
364.335	94.31
364.562	86.31
364.788	88.31
365.015	88.31
365.241	99.31
365.468	116.31
365.694	103.31
365.92	88.31
366.147	72.31
366.373	96.31
366.599	92.31
366.826	78.31
367.052	76.31
367.278	86.31
367.505	82.31
367.731	95.31
367.957	109.31
368.184	97.31
368.41	95.31
368.636	123.31
368.862	116.31
369.089	106.31
369.315	91.31
369.541	96.31
369.767	83.31
369.993	95.31
370.219	103.31
370.445	82.31
370.672	93.31
370.898	77.31
371.124	90.31
371.35	85.31
371.576	84.31
371.802	93.31
372.028	92.31
372.254	100.31
372.48	94.31
372.706	90.31
372.932	89.31
373.158	96.31
373.384	98.31
373.61	97.31
373.835	91.31
374.061	93.31
374.287	100.31
374.513	92.31
374.739	88.31
374.965	91.31
375.191	80.31
375.416	64.31
375.642	92.31
375.868	92.31
376.094	92.31
376.319	95.31
376.545	101.31
376.771	94.31
376.997	97.31
377.222	84.31
377.448	78.31
377.674	93.31
377.899	80.31
378.125	86.31
378.35	103.31
378.576	85.31
378.802	90.31
379.027	95.31
379.253	106.31
379.478	78.31
379.704	86.31
379.929	91.31
380.155	88.31
380.38	87.31
380.606	86.31
380.831	95.31
381.057	97.31
381.282	101.31
381.507	82.31
381.733	101.31
381.958	97.31
382.184	93.31
382.409	111.31
382.634	88.31
382.86	102.31
383.085	98.31
383.31	102.31
383.535	89.31
383.761	113.31
383.986	91.31
384.211	99.31
384.436	97.31
384.662	92.31
384.887	94.31
385.112	101.31
385.337	90.31
385.562	84.31
385.787	100.31
386.013	107.31
386.238	109.31
386.463	107.31
386.688	94.31
386.913	108.31
387.138	93.31
387.363	99.31
387.588	99.31
387.813	101.31
388.038	102.31
388.263	119.31
388.488	114.31
388.713	85.31
388.938	100.31
389.163	100.31
389.387	94.31
389.612	84.31
389.837	105.31
390.062	101.31
390.287	100.31
390.512	91.31
390.736	92.31
390.961	81.31
391.186	90.31
391.411	103.31
391.636	82.31
391.86	84.31
392.085	85.31
392.31	89.31
392.534	82.31
392.759	85.31
392.984	90.31
393.208	92.31
393.433	97.31
393.658	71.31
393.882	77.31
394.107	91.31
394.331	77.31
394.556	79.31
394.78	97.31
395.005	94.31
395.229	109.31
395.454	99.31
395.678	84.31
395.903	80.31
396.127	86.31
396.352	82.31
396.576	89.31
396.801	101.31
397.025	90.31
397.249	86.31
397.474	89.31
397.698	92.31
397.922	83.31
398.147	84.31
398.371	83.31
398.595	95.31
398.82	86.31
399.044	85.31
399.268	77.31
399.492	109.31
399.717	79.31
399.941	88.31
400.165	88.31
400.389	93.31
400.613	90.31
400.837	90.31
401.062	83.31
401.286	98.31
401.51	78.31
401.734	80.31
401.958	91.31
402.182	136.31
402.406	186.31
402.63	118.31
402.854	95.31
403.078	99.31
403.302	86.31
403.526	90.31
403.75	97.31
403.974	79.31
404.198	82.31
404.422	85.31
404.645	91.31
404.869	86.31
405.093	99.31
405.317	94.31
405.541	103.31
405.765	97.31
405.988	138.31
406.212	195.31
406.436	262.31
406.66	163.31
406.883	112.31
407.107	85.31
407.331	98.31
407.555	112.31
407.778	94.31
408.002	89.31
408.226	90.31
408.449	92.31
408.673	90.31
408.896	86.31
409.12	90.31
409.344	88.31
409.567	90.31
409.791	90.31
410.014	88.31
410.238	97.31
410.461	94.31
410.685	96.31
410.908	88.31
411.132	86.31
411.355	99.31
411.578	87.31
411.802	98.31
412.025	90.31
412.249	86.31
412.472	109.31
412.695	113.31
412.919	86.31
413.142	99.31
413.365	93.31
413.589	88.31
413.812	92.31
414.035	86.31
414.258	82.31
414.482	88.31
414.705	89.31
414.928	93.31
415.151	92.31
415.374	77.31
415.597	76.31
415.821	77.31
416.044	87.31
416.267	93.31
416.49	83.31
416.713	95.31
416.936	95.31
417.159	98.31
417.382	88.31
417.605	97.31
417.828	98.31
418.051	104.31
418.274	86.31
418.497	94.31
418.72	102.31
418.943	95.31
419.166	85.31
419.389	91.31
419.611	99.31
419.834	93.31
420.057	101.31
420.28	86.31
420.503	99.31
420.726	91.31
420.948	94.31
421.171	94.31
421.394	93.31
421.617	98.31
421.839	87.31
422.062	93.31
422.285	98.31
422.507	97.31
422.73	104.31
422.953	98.31
423.175	84.31
423.398	87.31
423.621	93.31
423.843	99.31
424.066	86.31
424.288	88.31
424.511	91.31
424.733	98.31
424.956	113.31
425.178	113.31
425.401	93.31
425.623	109.31
425.846	96.31
426.068	88.31
426.291	93.31
426.513	111.31
426.735	102.31
426.958	88.31
427.18	112.31
427.402	140.31
427.625	167.31
427.847	134.31
428.069	113.31
428.292	98.31
428.514	81.31
428.736	70.31
428.958	94.31
429.181	88.31
429.403	92.31
429.625	88.31
429.847	99.31
430.069	91.31
430.292	106.31
430.514	80.31
430.736	118.31
430.958	90.31
431.18	83.31
431.402	80.31
431.624	97.31
431.846	102.31
432.068	78.31
432.29	86.31
432.512	80.31
432.734	79.31
432.956	92.31
433.178	91.31
433.4	102.31
433.622	106.31
433.844	76.31
434.066	97.31
434.287	99.31
434.509	91.31
434.731	96.31
434.953	108.31
435.175	92.31
435.397	96.31
435.618	102.31
435.84	109.31
436.062	108.31
436.284	137.31
436.505	109.31
436.727	100.31
436.949	98.31
437.17	76.31
437.392	94.31
437.614	96.31
437.835	108.31
438.057	129.31
438.278	110.31
438.5	107.31
438.721	115.31
438.943	113.31
439.165	93.31
439.386	83.31
439.608	87.31
439.829	111.31
440.05	130.31
440.272	157.31
440.493	91.31
440.715	92.31
440.936	95.31
441.158	89.31
441.379	88.31
441.6	87.31
441.822	106.31
442.043	98.31
442.264	104.31
442.486	106.31
442.707	81.31
442.928	106.31
443.149	140.31
443.371	141.31
443.592	106.31
443.813	114.31
444.034	100.31
444.255	92.31
444.476	98.31
444.698	87.31
444.919	81.31
445.14	137.31
445.361	119.31
445.582	127.31
445.803	148.31
446.024	142.31
446.245	131.31
446.466	101.31
446.687	102.31
446.908	96.31
447.129	87.31
447.35	105.31
447.571	101.31
447.792	106.31
448.013	104.31
448.234	98.31
448.455	107.31
448.675	115.31
448.896	135.31
449.117	106.31
449.338	104.31
449.559	132.31
449.779	153.31
450	107.31
450.221	86.31
450.442	94.31
450.662	90.31
450.883	109.31
451.104	114.31
451.324	109.31
451.545	96.31
451.766	99.31
451.986	82.31
452.207	87.31
452.428	86.31
452.648	109.31
452.869	108.31
453.089	126.31
453.31	126.31
453.53	93.31
453.751	92.31
453.971	108.31
454.192	112.31
454.412	94.31
454.633	94.31
454.853	92.31
455.073	93.31
455.294	103.31
455.514	112.31
455.734	93.31
455.955	79.31
456.175	85.31
456.395	89.31
456.616	99.31
456.836	107.31
457.056	100.31
457.276	89.31
457.497	74.31
457.717	80.31
457.937	78.31
458.157	91.31
458.377	100.31
458.598	95.31
458.818	168.31
459.038	178.31
459.258	114.31
459.478	103.31
459.698	74.31
459.918	92.31
460.138	85.31
460.358	95.31
460.578	99.31
460.798	95.31
461.018	89.31
461.238	88.31
461.458	74.31
461.678	81.31
461.898	87.31
462.118	97.31
462.338	84.31
462.558	82.31
462.777	84.31
462.997	92.31
463.217	87.31
463.437	94.31
463.657	87.31
463.876	87.31
464.096	85.31
464.316	92.31
464.536	90.31
464.755	89.31
464.975	111.31
465.195	164.31
465.414	181.31
465.634	112.31
465.854	83.31
466.073	98.31
466.293	102.31
466.512	91.31
466.732	91.31
466.951	83.31
467.171	90.31
467.391	94.31
467.61	104.31
467.829	94.31
468.049	119.31
468.268	134.31
468.488	91.31
468.707	85.31
468.927	97.31
469.146	86.31
469.365	91.31
469.585	88.31
469.804	91.31
470.023	97.31
470.243	108.31
470.462	92.31
470.681	114.31
470.901	93.31
471.12	94.31
471.339	87.31
471.558	99.31
471.777	94.31
471.997	98.31
472.216	159.31
472.435	258.31
472.654	113.31
472.873	106.31
473.092	78.31
473.311	75.31
473.53	77.31
473.749	83.31
473.968	92.31
474.187	111.31
474.406	92.31
474.625	79.31
474.844	86.31
475.063	78.31
475.282	92.31
475.501	79.31
475.72	90.31
475.939	74.31
476.158	76.31
476.377	71.31
476.596	85.31
476.814	108.31
477.033	79.31
477.252	81.31
477.471	99.31
477.69	79.31
477.908	84.31
478.127	86.31
478.346	95.31
478.564	91.31
478.783	102.31
479.002	96.31
479.22	96.31
479.439	104.31
479.658	111.31
479.876	87.31
480.095	97.31
480.313	72.31
480.532	98.31
480.751	96.31
480.969	166.31
481.188	426.31
481.406	288.31
481.624	128.31
481.843	96.31
482.061	82.31
482.28	82.31
482.498	88.31
482.717	87.31
482.935	93.31
483.153	92.31
483.372	98.31
483.59	77.31
483.808	92.31
484.027	94.31
484.245	97.31
484.463	81.31
484.681	118.31
484.9	102.31
485.118	103.31
485.336	105.31
485.554	102.31
485.772	108.31
485.99	110.31
486.209	111.31
486.427	127.31
486.645	116.31
486.863	117.31
487.081	94.31
487.299	104.31
487.517	107.31
487.735	86.31
487.953	83.31
488.171	97.31
488.389	100.31
488.607	96.31
488.825	88.31
489.043	86.31
489.261	80.31
489.479	88.31
489.696	79.31
489.914	79.31
490.132	90.31
490.35	104.31
490.568	92.31
490.786	101.31
491.003	78.31
491.221	74.31
491.439	86.31
491.657	87.31
491.874	104.31
492.092	83.31
492.31	79.31
492.527	86.31
492.745	101.31
492.963	94.31
493.18	88.31
493.398	98.31
493.615	91.31
493.833	94.31
494.05	85.31
494.268	84.31
494.485	84.31
494.703	82.31
494.92	96.31
495.138	99.31
495.355	98.31
495.573	88.31
495.79	91.31
496.008	104.31
496.225	90.31
496.442	100.31
496.66	87.31
496.877	88.31
497.094	89.31
497.312	97.31
497.529	97.31
497.746	90.31
497.963	87.31
498.181	94.31
498.398	100.31
498.615	100.31
498.832	107.31
499.049	98.31
499.267	93.31
499.484	84.31
499.701	103.31
499.918	94.31
500.135	84.31
500.352	90.31
500.569	97.31
500.786	84.31
501.003	83.31
501.22	91.31
501.437	94.31
501.654	77.31
501.871	95.31
502.088	106.31
502.305	95.31
502.522	86.31
502.739	98.31
502.956	81.31
503.172	80.31
503.389	102.31
503.606	116.31
503.823	98.31
504.04	102.31
504.256	99.31
504.473	88.31
504.69	96.31
504.907	85.31
505.123	99.31
505.34	88.31
505.557	98.31
505.773	87.31
505.99	91.31
506.207	84.31
506.423	92.31
506.64	88.31
506.856	103.31
507.073	95.31
507.289	91.31
507.506	104.31
507.722	115.31
507.939	116.31
508.155	114.31
508.372	88.31
508.588	93.31
508.805	106.31
509.021	108.31
509.238	97.31
509.454	107.31
509.67	113.31
509.887	122.31
510.103	145.31
510.319	222.31
510.536	884.31
510.752	2924.31
510.968	810.31
511.184	187.31
511.401	127.31
511.617	111.31
511.833	93.31
512.049	99.31
512.265	95.31
512.481	87.31
512.698	84.31
512.914	86.31
513.13	87.31
513.346	83.31
513.562	101.31
513.778	100.31
513.994	111.31
514.21	99.31
514.426	121.31
514.642	144.31
514.858	138.31
