Data from Circ_2006_H10_HRD10591_00085.txt Node
Date: Wed Jan 03 10:26:20 EST 2024
User: Yrep
Spectrometer: HR+D1059
Trigger mode: 1
Integration Time (sec): 1.000000E-1
Scans to average: 1
Electric dark correction enabled: true
Nonlinearity correction enabled: false
Boxcar width: 0
XAxis mode: Wavelengths
Number of Pixels in Spectrum: 2048
>>>>>Begin Spectral Data<<<<<
223.165	-26.12
223.4	-26.12
223.635	-26.12
223.869	-21.12
224.104	-5.12
224.338	1.88
224.573	-17.12
224.808	-21.12
225.042	-1.12
225.277	0.88
225.511	-15.12
225.746	3.88
225.98	-1.12
226.215	15.88
226.449	24.88
226.683	15.88
226.918	16.88
227.152	27.88
227.387	15.88
227.621	44.88
227.856	41.88
228.09	46.88
228.324	49.88
228.559	63.88
228.793	62.88
229.027	60.88
229.262	62.88
229.496	80.88
229.73	90.88
229.964	94.88
230.199	81.88
230.433	76.88
230.667	88.88
230.901	59.88
231.136	76.88
231.37	80.88
231.604	76.88
231.838	97.88
232.072	92.88
232.306	79.88
232.541	90.88
232.775	90.88
233.009	68.88
233.243	89.88
233.477	88.88
233.711	99.88
233.945	86.88
234.179	79.88
234.413	79.88
234.647	81.88
234.881	82.88
235.115	89.88
235.349	89.88
235.583	85.88
235.817	83.88
236.051	79.88
236.285	85.88
236.519	82.88
236.753	82.88
236.987	84.88
237.221	82.88
237.455	88.88
237.689	97.88
237.922	92.88
238.156	73.88
238.39	86.88
238.624	63.88
238.858	66.88
239.091	78.88
239.325	78.88
239.559	77.88
239.793	75.88
240.027	83.88
240.26	87.88
240.494	70.88
240.728	73.88
240.961	68.88
241.195	87.88
241.429	96.88
241.662	84.88
241.896	78.88
242.13	79.88
242.363	95.88
242.597	84.88
242.83	81.88
243.064	95.88
243.298	89.88
243.531	71.88
243.765	86.88
243.998	73.88
244.232	88.88
244.465	93.88
244.699	77.88
244.932	88.88
245.166	78.88
245.399	73.88
245.633	83.88
245.866	80.88
246.099	91.88
246.333	91.88
246.566	79.88
246.8	93.88
247.033	85.88
247.266	74.88
247.5	66.88
247.733	86.88
247.966	81.88
248.2	76.88
248.433	83.88
248.666	90.88
248.899	97.88
249.133	94.88
249.366	106.88
249.599	102.88
249.832	81.88
250.066	68.88
250.299	70.88
250.532	74.88
250.765	87.88
250.998	77.88
251.231	77.88
251.465	79.88
251.698	73.88
251.931	78.88
252.164	80.88
252.397	84.88
252.63	72.88
252.863	76.88
253.096	76.88
253.329	89.88
253.562	75.88
253.795	75.88
254.028	86.88
254.261	94.88
254.494	86.88
254.727	76.88
254.96	95.88
255.193	76.88
255.426	82.88
255.659	82.88
255.892	85.88
256.124	85.88
256.357	86.88
256.59	78.88
256.823	75.88
257.056	86.88
257.289	79.88
257.521	74.88
257.754	88.88
257.987	82.88
258.22	94.88
258.452	83.88
258.685	103.88
258.918	88.88
259.151	83.88
259.383	99.88
259.616	83.88
259.849	82.88
260.081	76.88
260.314	84.88
260.547	95.88
260.779	82.88
261.012	69.88
261.244	86.88
261.477	89.88
261.71	90.88
261.942	120.88
262.175	126.88
262.407	96.88
262.64	87.88
262.872	79.88
263.105	90.88
263.337	85.88
263.57	80.88
263.802	82.88
264.035	76.88
264.267	97.88
264.499	82.88
264.732	79.88
264.964	88.88
265.197	86.88
265.429	99.88
265.661	87.88
265.894	75.88
266.126	89.88
266.358	71.88
266.591	89.88
266.823	90.88
267.055	96.88
267.287	102.88
267.52	91.88
267.752	92.88
267.984	87.88
268.216	91.88
268.448	82.88
268.681	90.88
268.913	92.88
269.145	96.88
269.377	84.88
269.609	80.88
269.841	82.88
270.073	84.88
270.306	80.88
270.538	87.88
270.77	78.88
271.002	77.88
271.234	79.88
271.466	81.88
271.698	102.88
271.93	89.88
272.162	97.88
272.394	88.88
272.626	101.88
272.858	95.88
273.09	92.88
273.322	85.88
273.553	93.88
273.785	89.88
274.017	103.88
274.249	91.88
274.481	97.88
274.713	82.88
274.945	92.88
275.176	74.88
275.408	85.88
275.64	93.88
275.872	90.88
276.104	82.88
276.335	94.88
276.567	101.88
276.799	107.88
277.031	112.88
277.262	83.88
277.494	91.88
277.726	85.88
277.957	87.88
278.189	84.88
278.421	84.88
278.652	104.88
278.884	85.88
279.115	94.88
279.347	88.88
279.579	80.88
279.81	86.88
280.042	91.88
280.273	111.88
280.505	97.88
280.736	99.88
280.968	89.88
281.199	87.88
281.431	89.88
281.662	84.88
281.894	100.88
282.125	103.88
282.356	114.88
282.588	137.88
282.819	124.88
283.051	102.88
283.282	91.88
283.513	101.88
283.745	77.88
283.976	90.88
284.207	84.88
284.439	83.88
284.67	85.88
284.901	77.88
285.132	94.88
285.364	89.88
285.595	85.88
285.826	80.88
286.057	86.88
286.288	100.88
286.52	93.88
286.751	91.88
286.982	92.88
287.213	93.88
287.444	75.88
287.675	94.88
287.906	84.88
288.138	100.88
288.369	100.88
288.6	90.88
288.831	90.88
289.062	88.88
289.293	85.88
289.524	93.88
289.755	88.88
289.986	89.88
290.217	95.88
290.448	91.88
290.679	88.88
290.91	99.88
291.141	95.88
291.371	89.88
291.602	93.88
291.833	77.88
292.064	97.88
292.295	79.88
292.526	90.88
292.757	90.88
292.987	94.88
293.218	85.88
293.449	96.88
293.68	92.88
293.91	100.88
294.141	102.88
294.372	85.88
294.603	93.88
294.833	86.88
295.064	97.88
295.295	92.88
295.525	89.88
295.756	110.88
295.987	125.88
296.217	168.88
296.448	134.88
296.679	99.88
296.909	87.88
297.14	84.88
297.37	85.88
297.601	82.88
297.831	91.88
298.062	80.88
298.292	89.88
298.523	90.88
298.753	98.88
298.984	92.88
299.214	86.88
299.445	103.88
299.675	98.88
299.905	97.88
300.136	102.88
300.366	87.88
300.597	104.88
300.827	83.88
301.057	101.88
301.288	108.88
301.518	98.88
301.748	104.88
301.979	99.88
302.209	106.88
302.439	100.88
302.669	101.88
302.9	90.88
303.13	98.88
303.36	87.88
303.59	98.88
303.82	116.88
304.051	104.88
304.281	102.88
304.511	91.88
304.741	104.88
304.971	101.88
305.201	93.88
305.431	94.88
305.661	89.88
305.891	88.88
306.121	98.88
306.352	116.88
306.582	102.88
306.812	102.88
307.042	100.88
307.272	106.88
307.502	126.88
307.731	90.88
307.961	104.88
308.191	78.88
308.421	88.88
308.651	103.88
308.881	86.88
309.111	92.88
309.341	95.88
309.571	114.88
309.8	88.88
310.03	101.88
310.26	101.88
310.49	81.88
310.72	97.88
310.949	110.88
311.179	118.88
311.409	97.88
311.639	83.88
311.868	108.88
312.098	117.88
312.328	105.88
312.557	118.88
312.787	109.88
313.017	106.88
313.246	92.88
313.476	104.88
313.706	101.88
313.935	95.88
314.165	97.88
314.394	98.88
314.624	96.88
314.853	113.88
315.083	104.88
315.312	99.88
315.542	75.88
315.771	98.88
316.001	98.88
316.23	83.88
316.46	93.88
316.689	78.88
316.919	110.88
317.148	88.88
317.377	80.88
317.607	111.88
317.836	118.88
318.065	95.88
318.295	96.88
318.524	103.88
318.753	102.88
318.983	102.88
319.212	94.88
319.441	110.88
319.67	121.88
319.9	104.88
320.129	92.88
320.358	98.88
320.587	90.88
320.816	100.88
321.046	110.88
321.275	94.88
321.504	108.88
321.733	106.88
321.962	101.88
322.191	101.88
322.42	109.88
322.649	103.88
322.878	122.88
323.108	127.88
323.337	130.88
323.566	155.88
323.795	185.88
324.024	262.88
324.253	489.88
324.482	1052.88
324.71	2223.88
324.939	2976.88
325.168	1061.88
325.397	292.88
325.626	172.88
325.855	140.88
326.084	131.88
326.313	151.88
326.542	173.88
326.77	270.88
326.999	567.88
327.228	1187.88
327.457	2277.88
327.686	1773.88
327.914	468.88
328.143	247.88
328.372	204.88
328.6	148.88
328.829	124.88
329.058	130.88
329.287	139.88
329.515	113.88
329.744	127.88
329.972	133.88
330.201	172.88
330.43	208.88
330.658	167.88
330.887	172.88
331.115	152.88
331.344	108.88
331.572	115.88
331.801	109.88
332.03	115.88
332.258	96.88
332.486	98.88
332.715	88.88
332.943	97.88
333.172	105.88
333.4	104.88
333.629	115.88
333.857	118.88
334.085	142.88
334.314	171.88
334.542	233.88
334.771	236.88
334.999	128.88
335.227	109.88
335.455	90.88
335.684	97.88
335.912	94.88
336.14	113.88
336.369	96.88
336.597	103.88
336.825	99.88
337.053	89.88
337.281	96.88
337.51	96.88
337.738	103.88
337.966	102.88
338.194	103.88
338.422	106.88
338.65	92.88
338.878	96.88
339.106	79.88
339.334	95.88
339.562	92.88
339.79	95.88
340.018	93.88
340.246	106.88
340.474	92.88
340.702	97.88
340.93	95.88
341.158	92.88
341.386	94.88
341.614	99.88
341.842	106.88
342.07	97.88
342.298	101.88
342.526	103.88
342.754	89.88
342.981	94.88
343.209	82.88
343.437	107.88
343.665	100.88
343.893	84.88
344.12	95.88
344.348	89.88
344.576	82.88
344.804	94.88
345.031	118.88
345.259	101.88
345.487	101.88
345.714	94.88
345.942	88.88
346.17	88.88
346.397	109.88
346.625	106.88
346.853	95.88
347.08	97.88
347.308	95.88
347.535	100.88
347.763	102.88
347.99	100.88
348.218	99.88
348.445	105.88
348.673	104.88
348.9	85.88
349.128	91.88
349.355	105.88
349.583	94.88
349.81	93.88
350.037	102.88
350.265	85.88
350.492	103.88
350.72	82.88
350.947	106.88
351.174	116.88
351.402	132.88
351.629	112.88
351.856	105.88
352.083	108.88
352.311	121.88
352.538	113.88
352.765	113.88
352.992	131.88
353.22	124.88
353.447	111.88
353.674	97.88
353.901	100.88
354.128	107.88
354.355	109.88
354.583	95.88
354.81	105.88
355.037	94.88
355.264	103.88
355.491	97.88
355.718	94.88
355.945	100.88
356.172	98.88
356.399	96.88
356.626	107.88
356.853	101.88
357.08	94.88
357.307	90.88
357.534	96.88
357.761	94.88
357.988	88.88
358.215	95.88
358.441	105.88
358.668	94.88
358.895	93.88
359.122	96.88
359.349	97.88
359.576	101.88
359.802	109.88
360.029	108.88
360.256	105.88
360.483	115.88
360.709	96.88
360.936	100.88
361.163	100.88
361.39	116.88
361.616	108.88
361.843	110.88
362.07	109.88
362.296	85.88
362.523	106.88
362.749	93.88
362.976	81.88
363.203	93.88
363.429	95.88
363.656	95.88
363.882	100.88
364.109	99.88
364.335	92.88
364.562	86.88
364.788	91.88
365.015	88.88
365.241	101.88
365.468	105.88
365.694	117.88
365.92	106.88
366.147	102.88
366.373	95.88
366.599	88.88
366.826	75.88
367.052	94.88
367.278	104.88
367.505	100.88
367.731	86.88
367.957	89.88
368.184	99.88
368.41	99.88
368.636	116.88
368.862	141.88
369.089	108.88
369.315	94.88
369.541	108.88
369.767	101.88
369.993	91.88
370.219	89.88
370.445	94.88
370.672	113.88
370.898	83.88
371.124	102.88
371.35	103.88
371.576	96.88
371.802	102.88
372.028	82.88
372.254	100.88
372.48	78.88
372.706	84.88
372.932	95.88
373.158	84.88
373.384	102.88
373.61	98.88
373.835	78.88
374.061	96.88
374.287	104.88
374.513	89.88
374.739	89.88
374.965	91.88
375.191	87.88
375.416	83.88
375.642	104.88
375.868	93.88
376.094	72.88
376.319	79.88
376.545	88.88
376.771	90.88
376.997	95.88
377.222	108.88
377.448	96.88
377.674	89.88
377.899	99.88
378.125	95.88
378.35	94.88
378.576	85.88
378.802	76.88
379.027	89.88
379.253	94.88
379.478	101.88
379.704	93.88
379.929	101.88
380.155	93.88
380.38	112.88
380.606	96.88
380.831	87.88
381.057	88.88
381.282	95.88
381.507	88.88
381.733	99.88
381.958	101.88
382.184	95.88
382.409	98.88
382.634	97.88
382.86	92.88
383.085	88.88
383.31	103.88
383.535	116.88
383.761	98.88
383.986	107.88
384.211	91.88
384.436	96.88
384.662	99.88
384.887	96.88
385.112	113.88
385.337	100.88
385.562	108.88
385.787	94.88
386.013	109.88
386.238	114.88
386.463	111.88
386.688	114.88
386.913	107.88
387.138	105.88
387.363	97.88
387.588	105.88
387.813	97.88
388.038	107.88
388.263	101.88
388.488	106.88
388.713	99.88
388.938	110.88
389.163	101.88
389.387	89.88
389.612	85.88
389.837	83.88
390.062	100.88
390.287	84.88
390.512	92.88
390.736	95.88
390.961	89.88
391.186	103.88
391.411	104.88
391.636	92.88
391.86	77.88
392.085	82.88
392.31	102.88
392.534	83.88
392.759	84.88
392.984	85.88
393.208	80.88
393.433	92.88
393.658	96.88
393.882	101.88
394.107	88.88
394.331	89.88
394.556	76.88
394.78	102.88
395.005	88.88
395.229	95.88
395.454	85.88
395.678	71.88
395.903	92.88
396.127	92.88
396.352	100.88
396.576	89.88
396.801	90.88
397.025	95.88
397.249	89.88
397.474	86.88
397.698	81.88
397.922	99.88
398.147	87.88
398.371	90.88
398.595	85.88
398.82	95.88
399.044	78.88
399.268	99.88
399.492	80.88
399.717	96.88
399.941	89.88
400.165	80.88
400.389	85.88
400.613	98.88
400.837	92.88
401.062	79.88
401.286	85.88
401.51	88.88
401.734	93.88
401.958	94.88
402.182	126.88
402.406	180.88
402.63	124.88
402.854	86.88
403.078	92.88
403.302	93.88
403.526	97.88
403.75	105.88
403.974	89.88
404.198	97.88
404.422	92.88
404.645	98.88
404.869	85.88
405.093	101.88
405.317	112.88
405.541	102.88
405.765	92.88
405.988	124.88
406.212	196.88
406.436	257.88
406.66	160.88
406.883	120.88
407.107	89.88
407.331	97.88
407.555	113.88
407.778	87.88
408.002	97.88
408.226	86.88
408.449	99.88
408.673	102.88
408.896	93.88
409.12	85.88
409.344	84.88
409.567	80.88
409.791	97.88
410.014	93.88
410.238	92.88
410.461	95.88
410.685	98.88
410.908	96.88
411.132	104.88
411.355	103.88
411.578	84.88
411.802	94.88
412.025	82.88
412.249	94.88
412.472	109.88
412.695	109.88
412.919	90.88
413.142	90.88
413.365	79.88
413.589	86.88
413.812	101.88
414.035	89.88
414.258	93.88
414.482	83.88
414.705	88.88
414.928	92.88
415.151	94.88
415.374	96.88
415.597	96.88
415.821	89.88
416.044	81.88
416.267	97.88
416.49	94.88
416.713	100.88
416.936	91.88
417.159	83.88
417.382	106.88
417.605	78.88
417.828	85.88
418.051	90.88
418.274	88.88
418.497	100.88
418.72	77.88
418.943	74.88
419.166	79.88
419.389	94.88
419.611	87.88
419.834	88.88
420.057	89.88
420.28	83.88
420.503	98.88
420.726	83.88
420.948	99.88
421.171	101.88
421.394	86.88
421.617	85.88
421.839	87.88
422.062	93.88
422.285	93.88
422.507	90.88
422.73	104.88
422.953	91.88
423.175	93.88
423.398	103.88
423.621	94.88
423.843	96.88
424.066	84.88
424.288	90.88
424.511	96.88
424.733	89.88
424.956	118.88
425.178	119.88
425.401	105.88
425.623	103.88
425.846	103.88
426.068	102.88
426.291	102.88
426.513	94.88
426.735	107.88
426.958	85.88
427.18	112.88
427.402	153.88
427.625	194.88
427.847	159.88
428.069	117.88
428.292	96.88
428.514	83.88
428.736	77.88
428.958	72.88
429.181	94.88
429.403	84.88
429.625	74.88
429.847	101.88
430.069	95.88
430.292	102.88
430.514	87.88
430.736	92.88
430.958	78.88
431.18	77.88
431.402	101.88
431.624	80.88
431.846	94.88
432.068	82.88
432.29	85.88
432.512	83.88
432.734	97.88
432.956	76.88
433.178	105.88
433.4	117.88
433.622	94.88
433.844	89.88
434.066	103.88
434.287	107.88
434.509	89.88
434.731	119.88
434.953	98.88
435.175	103.88
435.397	93.88
435.618	108.88
435.84	106.88
436.062	132.88
436.284	112.88
436.505	121.88
436.727	97.88
436.949	91.88
437.17	94.88
437.392	87.88
437.614	108.88
437.835	105.88
438.057	119.88
438.278	117.88
438.5	102.88
438.721	132.88
438.943	97.88
439.165	101.88
439.386	97.88
439.608	102.88
439.829	100.88
440.05	134.88
440.272	176.88
440.493	106.88
440.715	83.88
440.936	100.88
441.158	85.88
441.379	94.88
441.6	102.88
441.822	86.88
442.043	106.88
442.264	110.88
442.486	119.88
442.707	106.88
442.928	109.88
443.149	146.88
443.371	142.88
443.592	122.88
443.813	118.88
444.034	121.88
444.255	88.88
444.476	89.88
444.698	86.88
444.919	87.88
445.14	136.88
445.361	128.88
445.582	133.88
445.803	155.88
446.024	157.88
446.245	155.88
446.466	124.88
446.687	120.88
446.908	82.88
447.129	89.88
447.35	78.88
447.571	105.88
447.792	89.88
448.013	97.88
448.234	107.88
448.455	102.88
448.675	126.88
448.896	112.88
449.117	101.88
449.338	117.88
449.559	151.88
449.779	154.88
450	110.88
450.221	98.88
450.442	93.88
450.662	107.88
450.883	110.88
451.104	115.88
451.324	96.88
451.545	84.88
451.766	79.88
451.986	103.88
452.207	74.88
452.428	98.88
452.648	87.88
452.869	115.88
453.089	114.88
453.31	127.88
453.53	107.88
453.751	96.88
453.971	113.88
454.192	113.88
454.412	106.88
454.633	91.88
454.853	92.88
455.073	98.88
455.294	98.88
455.514	103.88
455.734	93.88
455.955	81.88
456.175	81.88
456.395	97.88
456.616	88.88
456.836	96.88
457.056	85.88
457.276	90.88
457.497	87.88
457.717	106.88
457.937	95.88
458.157	90.88
458.377	80.88
458.598	106.88
458.818	167.88
459.038	176.88
459.258	127.88
459.478	97.88
459.698	112.88
459.918	100.88
460.138	88.88
460.358	90.88
460.578	87.88
460.798	97.88
461.018	103.88
461.238	101.88
461.458	90.88
461.678	92.88
461.898	82.88
462.118	85.88
462.338	89.88
462.558	84.88
462.777	94.88
462.997	97.88
463.217	97.88
463.437	93.88
463.657	94.88
463.876	104.88
464.096	103.88
464.316	93.88
464.536	91.88
464.755	86.88
464.975	114.88
465.195	186.88
465.414	197.88
465.634	103.88
465.854	90.88
466.073	95.88
466.293	76.88
466.512	80.88
466.732	101.88
466.951	90.88
467.171	94.88
467.391	95.88
467.61	109.88
467.829	103.88
468.049	124.88
468.268	134.88
468.488	95.88
468.707	85.88
468.927	90.88
469.146	81.88
469.365	81.88
469.585	100.88
469.804	98.88
470.023	115.88
470.243	90.88
470.462	98.88
470.681	121.88
470.901	97.88
471.12	95.88
471.339	98.88
471.558	95.88
471.777	99.88
471.997	104.88
472.216	181.88
472.435	290.88
472.654	148.88
472.873	85.88
473.092	86.88
473.311	95.88
473.53	94.88
473.749	94.88
473.968	95.88
474.187	103.88
474.406	90.88
474.625	84.88
474.844	90.88
475.063	99.88
475.282	85.88
475.501	77.88
475.72	90.88
475.939	95.88
476.158	86.88
476.377	96.88
476.596	89.88
476.814	102.88
477.033	99.88
477.252	83.88
477.471	88.88
477.69	86.88
477.908	90.88
478.127	105.88
478.346	90.88
478.564	90.88
478.783	99.88
479.002	98.88
479.22	86.88
479.439	97.88
479.658	105.88
479.876	93.88
480.095	101.88
480.313	98.88
480.532	104.88
480.751	122.88
480.969	165.88
481.188	445.88
481.406	332.88
481.624	115.88
481.843	111.88
482.061	91.88
482.28	87.88
482.498	100.88
482.717	102.88
482.935	78.88
483.153	103.88
483.372	100.88
483.59	86.88
483.808	86.88
484.027	98.88
484.245	90.88
484.463	90.88
484.681	103.88
484.9	93.88
485.118	103.88
485.336	111.88
485.554	105.88
485.772	112.88
485.99	113.88
486.209	110.88
486.427	102.88
486.645	118.88
486.863	105.88
487.081	98.88
487.299	95.88
487.517	85.88
487.735	96.88
487.953	91.88
488.171	97.88
488.389	99.88
488.607	114.88
488.825	99.88
489.043	90.88
489.261	85.88
489.479	84.88
489.696	85.88
489.914	101.88
490.132	102.88
490.35	72.88
490.568	86.88
490.786	75.88
491.003	100.88
491.221	89.88
491.439	102.88
491.657	91.88
491.874	101.88
492.092	99.88
492.31	104.88
492.527	98.88
492.745	93.88
492.963	89.88
493.18	97.88
493.398	96.88
493.615	94.88
493.833	106.88
494.05	93.88
494.268	83.88
494.485	96.88
494.703	100.88
494.92	73.88
495.138	93.88
495.355	96.88
495.573	104.88
495.79	96.88
496.008	86.88
496.225	86.88
496.442	78.88
496.66	91.88
496.877	92.88
497.094	86.88
497.312	86.88
497.529	97.88
497.746	89.88
497.963	85.88
498.181	87.88
498.398	92.88
498.615	110.88
498.832	110.88
499.049	95.88
499.267	100.88
499.484	109.88
499.701	102.88
499.918	101.88
500.135	88.88
500.352	87.88
500.569	88.88
500.786	78.88
501.003	83.88
501.22	89.88
501.437	94.88
501.654	103.88
501.871	114.88
502.088	119.88
502.305	101.88
502.522	108.88
502.739	96.88
502.956	97.88
503.172	85.88
503.389	89.88
503.606	96.88
503.823	101.88
504.04	96.88
504.256	80.88
504.473	78.88
504.69	71.88
504.907	97.88
505.123	88.88
505.34	89.88
505.557	102.88
505.773	101.88
505.99	94.88
506.207	108.88
506.423	102.88
506.64	102.88
506.856	97.88
507.073	96.88
507.289	114.88
507.506	99.88
507.722	121.88
507.939	116.88
508.155	97.88
508.372	99.88
508.588	105.88
508.805	90.88
509.021	89.88
509.238	104.88
509.454	97.88
509.67	110.88
509.887	109.88
510.103	146.88
510.319	216.88
510.536	872.88
510.752	2861.88
510.968	784.88
511.184	174.88
511.401	108.88
511.617	82.88
511.833	110.88
512.049	90.88
512.265	92.88
512.481	95.88
512.698	109.88
512.914	97.88
513.13	99.88
513.346	101.88
513.562	98.88
