Data from Circ_2006_H10_HRD10591_00043.txt Node
Date: Wed Jan 03 10:26:12 EST 2024
User: Yrep
Spectrometer: HR+D1059
Trigger mode: 1
Integration Time (sec): 1.000000E-1
Scans to average: 1
Electric dark correction enabled: true
Nonlinearity correction enabled: false
Boxcar width: 0
XAxis mode: Wavelengths
Number of Pixels in Spectrum: 2048
>>>>>Begin Spectral Data<<<<<
223.165	-20.44
223.4	-20.44
223.635	-20.44
223.869	-4.44
224.104	-27.44
224.338	-6.44
224.573	-10.44
224.808	-14.44
225.042	-1.44
225.277	-6.44
225.511	-12.44
225.746	0.56
225.98	0.56
226.215	15.56
226.449	14.56
226.683	12.56
226.918	32.56
227.152	27.56
227.387	40.56
227.621	49.56
227.856	46.56
228.09	36.56
228.324	56.56
228.559	51.56
228.793	54.56
229.027	64.56
229.262	67.56
229.496	63.56
229.73	90.56
229.964	82.56
230.199	65.56
230.433	76.56
230.667	76.56
230.901	70.56
231.136	83.56
231.37	82.56
231.604	66.56
231.838	73.56
232.072	82.56
232.306	73.56
232.541	83.56
232.775	87.56
233.009	68.56
233.243	65.56
233.477	76.56
233.711	87.56
233.945	81.56
234.179	74.56
234.413	85.56
234.647	83.56
234.881	70.56
235.115	74.56
235.349	75.56
235.583	84.56
235.817	75.56
236.051	75.56
236.285	73.56
236.519	83.56
236.753	79.56
236.987	82.56
237.221	75.56
237.455	83.56
237.689	82.56
237.922	80.56
238.156	78.56
238.39	66.56
238.624	80.56
238.858	74.56
239.091	69.56
239.325	85.56
239.559	70.56
239.793	82.56
240.027	82.56
240.26	70.56
240.494	86.56
240.728	84.56
240.961	81.56
241.195	87.56
241.429	76.56
241.662	71.56
241.896	81.56
242.13	84.56
242.363	82.56
242.597	76.56
242.83	71.56
243.064	71.56
243.298	80.56
243.531	71.56
243.765	70.56
243.998	74.56
244.232	83.56
244.465	74.56
244.699	86.56
244.932	87.56
245.166	71.56
245.399	94.56
245.633	70.56
245.866	70.56
246.099	73.56
246.333	80.56
246.566	94.56
246.8	88.56
247.033	83.56
247.266	64.56
247.5	83.56
247.733	85.56
247.966	77.56
248.2	87.56
248.433	87.56
248.666	77.56
248.899	83.56
249.133	92.56
249.366	100.56
249.599	91.56
249.832	85.56
250.066	74.56
250.299	60.56
250.532	69.56
250.765	85.56
250.998	91.56
251.231	82.56
251.465	91.56
251.698	89.56
251.931	81.56
252.164	75.56
252.397	79.56
252.63	77.56
252.863	73.56
253.096	81.56
253.329	81.56
253.562	93.56
253.795	79.56
254.028	79.56
254.261	85.56
254.494	86.56
254.727	97.56
254.96	90.56
255.193	76.56
255.426	83.56
255.659	89.56
255.892	81.56
256.124	79.56
256.357	64.56
256.59	91.56
256.823	86.56
257.056	84.56
257.289	81.56
257.521	73.56
257.754	78.56
257.987	76.56
258.22	74.56
258.452	78.56
258.685	84.56
258.918	74.56
259.151	82.56
259.383	74.56
259.616	79.56
259.849	87.56
260.081	75.56
260.314	75.56
260.547	91.56
260.779	78.56
261.012	87.56
261.244	82.56
261.477	85.56
261.71	88.56
261.942	112.56
262.175	124.56
262.407	91.56
262.64	71.56
262.872	85.56
263.105	77.56
263.337	96.56
263.57	82.56
263.802	91.56
264.035	79.56
264.267	85.56
264.499	85.56
264.732	76.56
264.964	78.56
265.197	83.56
265.429	92.56
265.661	87.56
265.894	73.56
266.126	86.56
266.358	86.56
266.591	92.56
266.823	70.56
267.055	68.56
267.287	64.56
267.52	78.56
267.752	80.56
267.984	72.56
268.216	83.56
268.448	94.56
268.681	92.56
268.913	69.56
269.145	86.56
269.377	88.56
269.609	87.56
269.841	90.56
270.073	86.56
270.306	79.56
270.538	71.56
270.77	73.56
271.002	77.56
271.234	84.56
271.466	82.56
271.698	79.56
271.93	84.56
272.162	79.56
272.394	94.56
272.626	87.56
272.858	91.56
273.09	78.56
273.322	94.56
273.553	77.56
273.785	103.56
274.017	78.56
274.249	85.56
274.481	88.56
274.713	80.56
274.945	79.56
275.176	87.56
275.408	82.56
275.64	81.56
275.872	73.56
276.104	84.56
276.335	87.56
276.567	99.56
276.799	117.56
277.031	107.56
277.262	95.56
277.494	94.56
277.726	98.56
277.957	84.56
278.189	72.56
278.421	85.56
278.652	85.56
278.884	87.56
279.115	83.56
279.347	86.56
279.579	92.56
279.81	87.56
280.042	82.56
280.273	83.56
280.505	88.56
280.736	88.56
280.968	85.56
281.199	96.56
281.431	73.56
281.662	88.56
281.894	101.56
282.125	97.56
282.356	126.56
282.588	156.56
282.819	110.56
283.051	82.56
283.282	93.56
283.513	99.56
283.745	72.56
283.976	84.56
284.207	95.56
284.439	74.56
284.67	94.56
284.901	95.56
285.132	70.56
285.364	88.56
285.595	87.56
285.826	87.56
286.057	93.56
286.288	81.56
286.52	84.56
286.751	84.56
286.982	83.56
287.213	86.56
287.444	87.56
287.675	76.56
287.906	101.56
288.138	98.56
288.369	88.56
288.6	94.56
288.831	89.56
289.062	83.56
289.293	94.56
289.524	90.56
289.755	78.56
289.986	87.56
290.217	80.56
290.448	90.56
290.679	88.56
290.91	83.56
291.141	86.56
291.371	92.56
291.602	97.56
291.833	77.56
292.064	75.56
292.295	80.56
292.526	87.56
292.757	94.56
292.987	95.56
293.218	82.56
293.449	85.56
293.68	100.56
293.91	95.56
294.141	100.56
294.372	92.56
294.603	86.56
294.833	84.56
295.064	111.56
295.295	104.56
295.525	89.56
295.756	110.56
295.987	116.56
296.217	140.56
296.448	132.56
296.679	93.56
296.909	99.56
297.14	83.56
297.37	94.56
297.601	81.56
297.831	60.56
298.062	107.56
298.292	85.56
298.523	86.56
298.753	86.56
298.984	100.56
299.214	91.56
299.445	96.56
299.675	102.56
299.905	96.56
300.136	96.56
300.366	80.56
300.597	83.56
300.827	93.56
301.057	100.56
301.288	96.56
301.518	101.56
301.748	86.56
301.979	104.56
302.209	87.56
302.439	87.56
302.669	87.56
302.9	86.56
303.13	79.56
303.36	87.56
303.59	104.56
303.82	114.56
304.051	83.56
304.281	86.56
304.511	85.56
304.741	84.56
304.971	86.56
305.201	90.56
305.431	105.56
305.661	81.56
305.891	78.56
306.121	94.56
306.352	98.56
306.582	104.56
306.812	111.56
307.042	64.56
307.272	86.56
307.502	99.56
307.731	84.56
307.961	94.56
308.191	87.56
308.421	78.56
308.651	96.56
308.881	95.56
309.111	95.56
309.341	87.56
309.571	112.56
309.8	96.56
310.03	106.56
310.26	95.56
310.49	96.56
310.72	97.56
310.949	108.56
311.179	116.56
311.409	92.56
311.639	90.56
311.868	101.56
312.098	97.56
312.328	88.56
312.557	109.56
312.787	104.56
313.017	112.56
313.246	102.56
313.476	93.56
313.706	91.56
313.935	99.56
314.165	103.56
314.394	107.56
314.624	95.56
314.853	102.56
315.083	99.56
315.312	87.56
315.542	98.56
315.771	100.56
316.001	90.56
316.23	82.56
316.46	85.56
316.689	87.56
316.919	95.56
317.148	95.56
317.377	97.56
317.607	110.56
317.836	99.56
318.065	80.56
318.295	90.56
318.524	100.56
318.753	101.56
318.983	81.56
319.212	96.56
319.441	110.56
319.67	116.56
319.9	97.56
320.129	100.56
320.358	83.56
320.587	98.56
320.816	101.56
321.046	100.56
321.275	114.56
321.504	85.56
321.733	96.56
321.962	74.56
322.191	95.56
322.42	103.56
322.649	125.56
322.878	121.56
323.108	128.56
323.337	135.56
323.566	152.56
323.795	174.56
324.024	251.56
324.253	537.56
324.482	1199.56
324.71	2507.56
324.939	3288.56
325.168	1126.56
325.397	303.56
325.626	158.56
325.855	162.56
326.084	143.56
326.313	150.56
326.542	175.56
326.77	288.56
326.999	652.56
327.228	1340.56
327.457	2503.56
327.686	1919.56
327.914	482.56
328.143	226.56
328.372	180.56
328.6	152.56
328.829	136.56
329.058	120.56
329.287	142.56
329.515	117.56
329.744	109.56
329.972	122.56
330.201	115.56
330.43	132.56
330.658	133.56
330.887	166.56
331.115	138.56
331.344	94.56
331.572	105.56
331.801	108.56
332.03	117.56
332.258	101.56
332.486	80.56
332.715	98.56
332.943	88.56
333.172	99.56
333.4	97.56
333.629	104.56
333.857	120.56
334.085	110.56
334.314	111.56
334.542	113.56
334.771	124.56
334.999	108.56
335.227	102.56
335.455	98.56
335.684	88.56
335.912	94.56
336.14	106.56
336.369	96.56
336.597	87.56
336.825	106.56
337.053	98.56
337.281	89.56
337.51	88.56
337.738	87.56
337.966	90.56
338.194	98.56
338.422	97.56
338.65	92.56
338.878	101.56
339.106	88.56
339.334	98.56
339.562	98.56
339.79	89.56
340.018	92.56
340.246	95.56
340.474	86.56
340.702	95.56
340.93	95.56
341.158	93.56
341.386	94.56
341.614	98.56
341.842	107.56
342.07	91.56
342.298	102.56
342.526	89.56
342.754	95.56
342.981	96.56
343.209	94.56
343.437	85.56
343.665	90.56
343.893	90.56
344.12	78.56
344.348	96.56
344.576	96.56
344.804	87.56
345.031	87.56
345.259	97.56
345.487	105.56
345.714	109.56
345.942	108.56
346.17	81.56
346.397	78.56
346.625	84.56
346.853	90.56
347.08	99.56
347.308	88.56
347.535	100.56
347.763	93.56
347.99	105.56
348.218	116.56
348.445	106.56
348.673	97.56
348.9	80.56
349.128	94.56
349.355	84.56
349.583	90.56
349.81	84.56
350.037	93.56
350.265	105.56
350.492	106.56
350.72	102.56
350.947	110.56
351.174	110.56
351.402	119.56
351.629	111.56
351.856	104.56
352.083	116.56
352.311	108.56
352.538	109.56
352.765	108.56
352.992	109.56
353.22	107.56
353.447	117.56
353.674	98.56
353.901	102.56
354.128	100.56
354.355	104.56
354.583	105.56
354.81	100.56
355.037	108.56
355.264	97.56
355.491	88.56
355.718	102.56
355.945	97.56
356.172	92.56
356.399	94.56
356.626	109.56
356.853	80.56
357.08	103.56
357.307	83.56
357.534	94.56
357.761	98.56
357.988	101.56
358.215	94.56
358.441	104.56
358.668	82.56
358.895	79.56
359.122	98.56
359.349	81.56
359.576	99.56
359.802	102.56
360.029	124.56
360.256	123.56
360.483	88.56
360.709	98.56
360.936	95.56
361.163	93.56
361.39	92.56
361.616	94.56
361.843	94.56
362.07	94.56
362.296	100.56
362.523	99.56
362.749	98.56
362.976	98.56
363.203	89.56
363.429	86.56
363.656	92.56
363.882	109.56
364.109	94.56
364.335	87.56
364.562	105.56
364.788	95.56
365.015	95.56
365.241	104.56
365.468	124.56
365.694	112.56
365.92	93.56
366.147	103.56
366.373	85.56
366.599	87.56
366.826	91.56
367.052	97.56
367.278	98.56
367.505	87.56
367.731	103.56
367.957	100.56
368.184	87.56
368.41	92.56
368.636	118.56
368.862	126.56
369.089	118.56
369.315	108.56
369.541	85.56
369.767	87.56
369.993	99.56
370.219	84.56
370.445	91.56
370.672	93.56
370.898	99.56
371.124	82.56
371.35	100.56
371.576	88.56
371.802	85.56
372.028	102.56
372.254	84.56
372.48	84.56
372.706	88.56
372.932	86.56
373.158	91.56
373.384	102.56
373.61	96.56
373.835	102.56
374.061	79.56
374.287	91.56
374.513	86.56
374.739	86.56
374.965	72.56
375.191	94.56
375.416	92.56
375.642	96.56
375.868	87.56
376.094	95.56
376.319	80.56
376.545	84.56
376.771	72.56
376.997	81.56
377.222	79.56
377.448	95.56
377.674	85.56
377.899	88.56
378.125	87.56
378.35	91.56
378.576	82.56
378.802	97.56
379.027	102.56
379.253	98.56
379.478	92.56
379.704	95.56
379.929	99.56
380.155	107.56
380.38	93.56
380.606	100.56
380.831	98.56
381.057	98.56
381.282	104.56
381.507	92.56
381.733	109.56
381.958	92.56
382.184	113.56
382.409	101.56
382.634	112.56
382.86	88.56
383.085	108.56
383.31	83.56
383.535	115.56
383.761	93.56
383.986	99.56
384.211	82.56
384.436	101.56
384.662	94.56
384.887	101.56
385.112	109.56
385.337	107.56
385.562	103.56
385.787	103.56
386.013	119.56
386.238	120.56
386.463	95.56
386.688	127.56
386.913	108.56
387.138	107.56
387.363	117.56
387.588	92.56
387.813	115.56
388.038	106.56
388.263	106.56
388.488	111.56
388.713	90.56
388.938	89.56
389.163	88.56
389.387	89.56
389.612	85.56
389.837	103.56
390.062	109.56
390.287	94.56
390.512	88.56
390.736	115.56
390.961	94.56
391.186	103.56
391.411	118.56
391.636	96.56
391.86	83.56
392.085	79.56
392.31	88.56
392.534	90.56
392.759	90.56
392.984	95.56
393.208	87.56
393.433	87.56
393.658	84.56
393.882	88.56
394.107	89.56
394.331	98.56
394.556	89.56
394.78	84.56
395.005	97.56
395.229	88.56
395.454	79.56
395.678	80.56
395.903	96.56
396.127	86.56
396.352	80.56
396.576	89.56
396.801	92.56
397.025	93.56
397.249	73.56
397.474	95.56
397.698	92.56
397.922	101.56
398.147	87.56
398.371	81.56
398.595	91.56
398.82	88.56
399.044	88.56
399.268	93.56
399.492	97.56
399.717	94.56
399.941	92.56
400.165	98.56
400.389	84.56
400.613	87.56
400.837	98.56
401.062	100.56
401.286	77.56
401.51	84.56
401.734	98.56
401.958	103.56
402.182	144.56
402.406	160.56
402.63	146.56
402.854	93.56
403.078	97.56
403.302	82.56
403.526	108.56
403.75	87.56
403.974	90.56
404.198	96.56
404.422	90.56
404.645	91.56
404.869	103.56
405.093	88.56
405.317	104.56
405.541	84.56
405.765	96.56
405.988	123.56
406.212	193.56
406.436	278.56
406.66	152.56
406.883	109.56
407.107	96.56
407.331	100.56
407.555	114.56
407.778	101.56
408.002	107.56
408.226	87.56
408.449	103.56
408.673	88.56
408.896	98.56
409.12	110.56
409.344	94.56
409.567	88.56
409.791	91.56
410.014	109.56
410.238	100.56
410.461	105.56
410.685	68.56
410.908	93.56
411.132	99.56
411.355	84.56
411.578	87.56
411.802	100.56
412.025	86.56
412.249	86.56
412.472	85.56
412.695	87.56
412.919	86.56
413.142	95.56
413.365	94.56
413.589	76.56
413.812	94.56
414.035	95.56
414.258	84.56
414.482	89.56
414.705	94.56
414.928	98.56
415.151	87.56
415.374	96.56
415.597	85.56
415.821	86.56
416.044	86.56
416.267	99.56
416.49	97.56
416.713	87.56
416.936	83.56
417.159	94.56
417.382	85.56
417.605	93.56
417.828	93.56
418.051	97.56
418.274	83.56
418.497	91.56
418.72	84.56
418.943	91.56
419.166	100.56
419.389	86.56
419.611	88.56
419.834	89.56
420.057	76.56
420.28	103.56
420.503	91.56
420.726	93.56
420.948	87.56
421.171	76.56
421.394	102.56
421.617	87.56
421.839	84.56
422.062	85.56
422.285	77.56
422.507	101.56
422.73	102.56
422.953	93.56
423.175	94.56
423.398	94.56
423.621	92.56
423.843	95.56
424.066	90.56
424.288	90.56
424.511	82.56
424.733	96.56
424.956	95.56
425.178	115.56
425.401	108.56
425.623	108.56
425.846	100.56
426.068	111.56
426.291	90.56
426.513	101.56
426.735	87.56
426.958	106.56
427.18	124.56
427.402	146.56
427.625	187.56
427.847	155.56
428.069	128.56
428.292	93.56
428.514	99.56
428.736	96.56
428.958	83.56
429.181	91.56
429.403	91.56
429.625	91.56
429.847	87.56
430.069	111.56
430.292	96.56
430.514	93.56
430.736	91.56
430.958	75.56
431.18	92.56
431.402	80.56
431.624	91.56
431.846	87.56
432.068	99.56
432.29	87.56
432.512	96.56
432.734	81.56
432.956	90.56
433.178	96.56
433.4	99.56
433.622	97.56
433.844	87.56
434.066	86.56
434.287	88.56
434.509	95.56
434.731	96.56
434.953	79.56
435.175	93.56
435.397	88.56
435.618	95.56
435.84	112.56
436.062	142.56
436.284	124.56
436.505	112.56
436.727	123.56
436.949	93.56
437.17	78.56
437.392	90.56
437.614	84.56
437.835	113.56
438.057	123.56
438.278	102.56
438.5	92.56
438.721	115.56
438.943	104.56
439.165	99.56
439.386	91.56
439.608	96.56
439.829	96.56
440.05	135.56
440.272	159.56
440.493	97.56
440.715	86.56
440.936	94.56
441.158	99.56
441.379	97.56
441.6	95.56
441.822	93.56
442.043	96.56
442.264	114.56
442.486	109.56
442.707	95.56
442.928	123.56
443.149	155.56
443.371	134.56
443.592	106.56
443.813	119.56
444.034	108.56
444.255	95.56
444.476	79.56
444.698	93.56
444.919	101.56
445.14	134.56
445.361	143.56
445.582	130.56
445.803	164.56
446.024	159.56
446.245	143.56
446.466	126.56
446.687	89.56
446.908	78.56
447.129	92.56
447.35	110.56
447.571	98.56
447.792	92.56
448.013	107.56
448.234	122.56
448.455	107.56
448.675	106.56
448.896	116.56
449.117	114.56
449.338	111.56
449.559	145.56
449.779	158.56
450	99.56
450.221	94.56
450.442	97.56
450.662	102.56
450.883	113.56
451.104	101.56
451.324	94.56
451.545	99.56
451.766	86.56
451.986	80.56
452.207	93.56
452.428	96.56
452.648	93.56
452.869	119.56
453.089	124.56
453.31	145.56
453.53	102.56
453.751	80.56
453.971	102.56
454.192	109.56
454.412	92.56
454.633	85.56
454.853	80.56
455.073	90.56
455.294	102.56
455.514	104.56
455.734	82.56
455.955	81.56
456.175	99.56
456.395	75.56
456.616	84.56
456.836	92.56
457.056	96.56
457.276	92.56
457.497	84.56
457.717	87.56
457.937	86.56
458.157	96.56
458.377	102.56
458.598	127.56
458.818	172.56
459.038	202.56
459.258	122.56
459.478	99.56
459.698	87.56
459.918	85.56
460.138	94.56
460.358	86.56
460.578	84.56
460.798	92.56
461.018	99.56
461.238	95.56
461.458	84.56
461.678	85.56
461.898	78.56
462.118	102.56
462.338	85.56
462.558	76.56
462.777	84.56
462.997	84.56
463.217	79.56
463.437	95.56
463.657	99.56
463.876	95.56
464.096	93.56
464.316	104.56
464.536	101.56
464.755	101.56
464.975	117.56
465.195	199.56
465.414	180.56
465.634	107.56
465.854	80.56
466.073	76.56
466.293	86.56
466.512	81.56
466.732	94.56
466.951	88.56
467.171	101.56
467.391	95.56
467.61	114.56
467.829	99.56
468.049	111.56
468.268	101.56
468.488	90.56
468.707	87.56
468.927	88.56
469.146	95.56
469.365	90.56
469.585	83.56
469.804	90.56
470.023	96.56
470.243	87.56
470.462	90.56
470.681	108.56
470.901	94.56
471.12	91.56
471.339	94.56
471.558	85.56
471.777	93.56
471.997	85.56
472.216	104.56
472.435	128.56
472.654	95.56
472.873	85.56
473.092	92.56
473.311	88.56
473.53	105.56
473.749	98.56
473.968	104.56
474.187	106.56
474.406	94.56
474.625	88.56
474.844	76.56
475.063	76.56
475.282	78.56
475.501	87.56
475.72	100.56
475.939	96.56
476.158	83.56
476.377	76.56
476.596	82.56
476.814	87.56
477.033	100.56
477.252	94.56
477.471	94.56
477.69	87.56
477.908	98.56
478.127	103.56
478.346	87.56
478.564	99.56
478.783	88.56
479.002	99.56
479.22	104.56
479.439	95.56
479.658	113.56
479.876	117.56
480.095	82.56
480.313	91.56
480.532	89.56
480.751	98.56
480.969	104.56
481.188	198.56
481.406	145.56
481.624	93.56
481.843	84.56
482.061	94.56
482.28	86.56
482.498	97.56
482.717	90.56
482.935	96.56
483.153	90.56
483.372	83.56
483.59	81.56
483.808	92.56
484.027	94.56
484.245	92.56
484.463	83.56
484.681	92.56
484.9	94.56
485.118	95.56
485.336	91.56
485.554	101.56
485.772	107.56
485.99	116.56
486.209	96.56
486.427	109.56
486.645	134.56
486.863	118.56
487.081	111.56
487.299	91.56
487.517	96.56
487.735	93.56
487.953	92.56
488.171	90.56
488.389	91.56
488.607	92.56
488.825	104.56
489.043	87.56
489.261	104.56
489.479	88.56
489.696	89.56
489.914	89.56
490.132	100.56
490.35	94.56
490.568	99.56
490.786	93.56
491.003	86.56
491.221	96.56
491.439	103.56
491.657	97.56
491.874	98.56
492.092	94.56
492.31	97.56
492.527	100.56
492.745	83.56
492.963	100.56
493.18	83.56
493.398	104.56
493.615	85.56
493.833	92.56
494.05	93.56
494.268	100.56
494.485	92.56
494.703	97.56
494.92	99.56
495.138	92.56
495.355	97.56
495.573	91.56
495.79	88.56
496.008	89.56
496.225	85.56
496.442	83.56
496.66	91.56
496.877	96.56
497.094	74.56
497.312	96.56
497.529	95.56
497.746	89.56
497.963	95.56
498.181	93.56
498.398	108.56
498.615	114.56
498.832	107.56
499.049	97.56
499.267	88.56
499.484	79.56
499.701	81.56
499.918	87.56
500.135	84.56
500.352	92.56
500.569	91.56
500.786	81.56
501.003	98.56
501.22	96.56
501.437	92.56
501.654	95.56
501.871	117.56
502.088	102.56
502.305	95.56
502.522	102.56
502.739	100.56
502.956	93.56
503.172	86.56
503.389	102.56
503.606	107.56
503.823	122.56
504.04	98.56
504.256	83.56
504.473	94.56
504.69	88.56
504.907	100.56
505.123	88.56
505.34	95.56
505.557	81.56
505.773	98.56
505.99	91.56
506.207	98.56
506.423	81.56
506.64	108.56
506.856	91.56
507.073	97.56
507.289	89.56
507.506	102.56
507.722	119.56
507.939	103.56
508.155	88.56
508.372	103.56
508.588	101.56
508.805	90.56
509.021	91.56
509.238	101.56
509.454	95.56
509.67	93.56
509.887	114.56
510.103	144.56
510.319	237.56
510.536	892.56
510.752	2959.56
510.968	820.56
511.184	180.56
511.401	115.56
511.617	112.56
511.833	90.56
512.049	78.56
512.265	94.56
512.481	108.56
512.698	84.56
512.914	101.56
513.13	87.56
513.346	88.56
513.562	83.56
513.778	112.56
513.994	89.56
514.21	110.56
514.426	127.56
514.642	146.56
514.858	137.56
