Data from Circ_2006_H10_HRD10591_00074.txt Node
Date: Wed Jan 03 10:26:18 EST 2024
User: Yrep
Spectrometer: HR+D1059
Trigger mode: 1
Integration Time (sec): 1.000000E-1
Scans to average: 1
Electric dark correction enabled: true
Nonlinearity correction enabled: false
Boxcar width: 0
XAxis mode: Wavelengths
Number of Pixels in Spectrum: 2048
>>>>>Begin Spectral Data<<<<<
223.165	-9.88
223.4	-9.88
223.635	-9.88
223.869	-12.88
224.104	-30.88
224.338	-21.88
224.573	-10.88
224.808	2.12
225.042	-5.88
225.277	-23.88
225.511	6.12
225.746	8.12
225.98	5.12
226.215	15.12
226.449	7.12
226.683	18.12
226.918	31.12
227.152	23.12
227.387	45.12
227.621	57.12
227.856	42.12
228.09	34.12
228.324	43.12
228.559	52.12
228.793	58.12
229.027	65.12
229.262	62.12
229.496	76.12
229.73	88.12
229.964	78.12
230.199	76.12
230.433	70.12
230.667	92.12
230.901	79.12
231.136	76.12
231.37	66.12
231.604	82.12
231.838	73.12
232.072	83.12
232.306	83.12
232.541	61.12
232.775	80.12
233.009	92.12
233.243	86.12
233.477	74.12
233.711	89.12
233.945	80.12
234.179	91.12
234.413	89.12
234.647	87.12
234.881	76.12
235.115	85.12
235.349	58.12
235.583	76.12
235.817	87.12
236.051	77.12
236.285	75.12
236.519	71.12
236.753	75.12
236.987	81.12
237.221	80.12
237.455	88.12
237.689	67.12
237.922	81.12
238.156	75.12
238.39	79.12
238.624	76.12
238.858	79.12
239.091	71.12
239.325	77.12
239.559	55.12
239.793	67.12
240.027	79.12
240.26	80.12
240.494	77.12
240.728	86.12
240.961	87.12
241.195	80.12
241.429	91.12
241.662	74.12
241.896	73.12
242.13	75.12
242.363	87.12
242.597	82.12
242.83	81.12
243.064	68.12
243.298	67.12
243.531	72.12
243.765	67.12
243.998	72.12
244.232	82.12
244.465	85.12
244.699	78.12
244.932	77.12
245.166	67.12
245.399	77.12
245.633	80.12
245.866	87.12
246.099	62.12
246.333	79.12
246.566	80.12
246.8	72.12
247.033	74.12
247.266	75.12
247.5	66.12
247.733	78.12
247.966	93.12
248.2	91.12
248.433	72.12
248.666	88.12
248.899	72.12
249.133	78.12
249.366	104.12
249.599	87.12
249.832	94.12
250.066	89.12
250.299	95.12
250.532	79.12
250.765	96.12
250.998	84.12
251.231	68.12
251.465	82.12
251.698	83.12
251.931	70.12
252.164	81.12
252.397	89.12
252.63	74.12
252.863	72.12
253.096	74.12
253.329	72.12
253.562	83.12
253.795	71.12
254.028	69.12
254.261	97.12
254.494	70.12
254.727	91.12
254.96	69.12
255.193	84.12
255.426	86.12
255.659	80.12
255.892	81.12
256.124	94.12
256.357	74.12
256.59	66.12
256.823	82.12
257.056	86.12
257.289	89.12
257.521	76.12
257.754	85.12
257.987	72.12
258.22	96.12
258.452	71.12
258.685	95.12
258.918	71.12
259.151	86.12
259.383	76.12
259.616	82.12
259.849	78.12
260.081	80.12
260.314	82.12
260.547	65.12
260.779	74.12
261.012	82.12
261.244	79.12
261.477	96.12
261.71	102.12
261.942	99.12
262.175	111.12
262.407	98.12
262.64	83.12
262.872	85.12
263.105	84.12
263.337	95.12
263.57	78.12
263.802	69.12
264.035	70.12
264.267	82.12
264.499	98.12
264.732	83.12
264.964	68.12
265.197	86.12
265.429	82.12
265.661	75.12
265.894	70.12
266.126	82.12
266.358	87.12
266.591	83.12
266.823	91.12
267.055	83.12
267.287	91.12
267.52	89.12
267.752	84.12
267.984	73.12
268.216	83.12
268.448	87.12
268.681	84.12
268.913	79.12
269.145	81.12
269.377	83.12
269.609	77.12
269.841	71.12
270.073	84.12
270.306	90.12
270.538	84.12
270.77	95.12
271.002	85.12
271.234	88.12
271.466	84.12
271.698	90.12
271.93	88.12
272.162	80.12
272.394	87.12
272.626	93.12
272.858	88.12
273.09	93.12
273.322	93.12
273.553	79.12
273.785	86.12
274.017	97.12
274.249	94.12
274.481	93.12
274.713	91.12
274.945	101.12
275.176	84.12
275.408	97.12
275.64	79.12
275.872	95.12
276.104	88.12
276.335	90.12
276.567	91.12
276.799	102.12
277.031	114.12
277.262	78.12
277.494	89.12
277.726	73.12
277.957	85.12
278.189	79.12
278.421	80.12
278.652	84.12
278.884	96.12
279.115	98.12
279.347	91.12
279.579	82.12
279.81	91.12
280.042	89.12
280.273	95.12
280.505	87.12
280.736	95.12
280.968	79.12
281.199	83.12
281.431	88.12
281.662	86.12
281.894	85.12
282.125	95.12
282.356	131.12
282.588	145.12
282.819	123.12
283.051	99.12
283.282	74.12
283.513	90.12
283.745	80.12
283.976	80.12
284.207	103.12
284.439	91.12
284.67	95.12
284.901	86.12
285.132	79.12
285.364	78.12
285.595	88.12
285.826	87.12
286.057	104.12
286.288	79.12
286.52	94.12
286.751	78.12
286.982	78.12
287.213	95.12
287.444	78.12
287.675	86.12
287.906	94.12
288.138	86.12
288.369	85.12
288.6	87.12
288.831	97.12
289.062	86.12
289.293	84.12
289.524	89.12
289.755	85.12
289.986	94.12
290.217	93.12
290.448	93.12
290.679	88.12
290.91	85.12
291.141	88.12
291.371	92.12
291.602	80.12
291.833	74.12
292.064	79.12
292.295	93.12
292.526	94.12
292.757	102.12
292.987	81.12
293.218	80.12
293.449	86.12
293.68	79.12
293.91	98.12
294.141	92.12
294.372	76.12
294.603	84.12
294.833	91.12
295.064	88.12
295.295	82.12
295.525	99.12
295.756	97.12
295.987	110.12
296.217	137.12
296.448	119.12
296.679	99.12
296.909	92.12
297.14	80.12
297.37	95.12
297.601	72.12
297.831	94.12
298.062	94.12
298.292	94.12
298.523	87.12
298.753	82.12
298.984	76.12
299.214	103.12
299.445	82.12
299.675	86.12
299.905	92.12
300.136	83.12
300.366	86.12
300.597	82.12
300.827	92.12
301.057	99.12
301.288	102.12
301.518	100.12
301.748	91.12
301.979	95.12
302.209	88.12
302.439	94.12
302.669	83.12
302.9	72.12
303.13	83.12
303.36	84.12
303.59	97.12
303.82	117.12
304.051	98.12
304.281	104.12
304.511	95.12
304.741	100.12
304.971	83.12
305.201	88.12
305.431	78.12
305.661	91.12
305.891	97.12
306.121	94.12
306.352	110.12
306.582	103.12
306.812	95.12
307.042	81.12
307.272	95.12
307.502	83.12
307.731	97.12
307.961	96.12
308.191	98.12
308.421	87.12
308.651	92.12
308.881	99.12
309.111	81.12
309.341	94.12
309.571	108.12
309.8	96.12
310.03	98.12
310.26	97.12
310.49	96.12
310.72	112.12
310.949	94.12
311.179	105.12
311.409	93.12
311.639	102.12
311.868	88.12
312.098	95.12
312.328	93.12
312.557	124.12
312.787	106.12
313.017	106.12
313.246	94.12
313.476	87.12
313.706	93.12
313.935	103.12
314.165	94.12
314.394	108.12
314.624	95.12
314.853	95.12
315.083	97.12
315.312	91.12
315.542	79.12
315.771	106.12
316.001	94.12
316.23	90.12
316.46	95.12
316.689	80.12
316.919	100.12
317.148	93.12
317.377	94.12
317.607	95.12
317.836	88.12
318.065	78.12
318.295	87.12
318.524	88.12
318.753	84.12
318.983	91.12
319.212	94.12
319.441	118.12
319.67	109.12
319.9	90.12
320.129	90.12
320.358	86.12
320.587	82.12
320.816	108.12
321.046	106.12
321.275	93.12
321.504	96.12
321.733	87.12
321.962	89.12
322.191	99.12
322.42	102.12
322.649	113.12
322.878	123.12
323.108	121.12
323.337	127.12
323.566	139.12
323.795	153.12
324.024	207.12
324.253	420.12
324.482	894.12
324.71	1843.12
324.939	2366.12
325.168	855.12
325.397	247.12
325.626	145.12
325.855	139.12
326.084	116.12
326.313	125.12
326.542	165.12
326.77	248.12
326.999	486.12
327.228	1013.12
327.457	1900.12
327.686	1499.12
327.914	398.12
328.143	220.12
328.372	166.12
328.6	126.12
328.829	109.12
329.058	125.12
329.287	127.12
329.515	97.12
329.744	94.12
329.972	126.12
330.201	142.12
330.43	163.12
330.658	131.12
330.887	136.12
331.115	119.12
331.344	108.12
331.572	99.12
331.801	106.12
332.03	114.12
332.258	101.12
332.486	92.12
332.715	103.12
332.943	99.12
333.172	98.12
333.4	94.12
333.629	106.12
333.857	122.12
334.085	123.12
334.314	136.12
334.542	174.12
334.771	174.12
334.999	109.12
335.227	90.12
335.455	86.12
335.684	114.12
335.912	95.12
336.14	106.12
336.369	100.12
336.597	92.12
336.825	88.12
337.053	96.12
337.281	93.12
337.51	89.12
337.738	90.12
337.966	77.12
338.194	92.12
338.422	113.12
338.65	89.12
338.878	91.12
339.106	97.12
339.334	83.12
339.562	96.12
339.79	96.12
340.018	93.12
340.246	94.12
340.474	94.12
340.702	90.12
340.93	95.12
341.158	90.12
341.386	80.12
341.614	92.12
341.842	100.12
342.07	86.12
342.298	86.12
342.526	87.12
342.754	87.12
342.981	84.12
343.209	100.12
343.437	106.12
343.665	97.12
343.893	85.12
344.12	87.12
344.348	96.12
344.576	83.12
344.804	87.12
345.031	95.12
345.259	100.12
345.487	102.12
345.714	85.12
345.942	82.12
346.17	102.12
346.397	91.12
346.625	97.12
346.853	108.12
347.08	77.12
347.308	104.12
347.535	96.12
347.763	96.12
347.99	110.12
348.218	99.12
348.445	116.12
348.673	86.12
348.9	93.12
349.128	99.12
349.355	87.12
349.583	96.12
349.81	95.12
350.037	97.12
350.265	102.12
350.492	94.12
350.72	87.12
350.947	92.12
351.174	104.12
351.402	109.12
351.629	95.12
351.856	97.12
352.083	102.12
352.311	111.12
352.538	101.12
352.765	112.12
352.992	119.12
353.22	113.12
353.447	109.12
353.674	108.12
353.901	91.12
354.128	81.12
354.355	102.12
354.583	90.12
354.81	82.12
355.037	96.12
355.264	85.12
355.491	99.12
355.718	88.12
355.945	102.12
356.172	101.12
356.399	81.12
356.626	93.12
356.853	85.12
357.08	106.12
357.307	97.12
357.534	93.12
357.761	100.12
357.988	84.12
358.215	94.12
358.441	85.12
358.668	82.12
358.895	97.12
359.122	96.12
359.349	79.12
359.576	86.12
359.802	109.12
360.029	117.12
360.256	128.12
360.483	93.12
360.709	86.12
360.936	84.12
361.163	95.12
361.39	102.12
361.616	86.12
361.843	94.12
362.07	100.12
362.296	108.12
362.523	98.12
362.749	97.12
362.976	88.12
363.203	97.12
363.429	90.12
363.656	92.12
363.882	90.12
364.109	100.12
364.335	99.12
364.562	92.12
364.788	87.12
365.015	94.12
365.241	112.12
365.468	127.12
365.694	122.12
365.92	111.12
366.147	97.12
366.373	87.12
366.599	83.12
366.826	105.12
367.052	86.12
367.278	100.12
367.505	89.12
367.731	88.12
367.957	92.12
368.184	84.12
368.41	106.12
368.636	111.12
368.862	110.12
369.089	100.12
369.315	82.12
369.541	97.12
369.767	95.12
369.993	91.12
370.219	88.12
370.445	88.12
370.672	84.12
370.898	92.12
371.124	91.12
371.35	108.12
371.576	95.12
371.802	97.12
372.028	89.12
372.254	94.12
372.48	94.12
372.706	79.12
372.932	92.12
373.158	79.12
373.384	101.12
373.61	98.12
373.835	84.12
374.061	88.12
374.287	103.12
374.513	90.12
374.739	95.12
374.965	95.12
375.191	98.12
375.416	90.12
375.642	82.12
375.868	110.12
376.094	85.12
376.319	81.12
376.545	94.12
376.771	94.12
376.997	92.12
377.222	96.12
377.448	98.12
377.674	87.12
377.899	97.12
378.125	84.12
378.35	101.12
378.576	90.12
378.802	84.12
379.027	70.12
379.253	100.12
379.478	90.12
379.704	91.12
379.929	86.12
380.155	105.12
380.38	93.12
380.606	101.12
380.831	86.12
381.057	101.12
381.282	109.12
381.507	106.12
381.733	88.12
381.958	100.12
382.184	96.12
382.409	90.12
382.634	91.12
382.86	112.12
383.085	93.12
383.31	90.12
383.535	113.12
383.761	99.12
383.986	100.12
384.211	97.12
384.436	99.12
384.662	108.12
384.887	102.12
385.112	94.12
385.337	112.12
385.562	109.12
385.787	99.12
386.013	118.12
386.238	109.12
386.463	107.12
386.688	94.12
386.913	103.12
387.138	113.12
387.363	90.12
387.588	110.12
387.813	98.12
388.038	104.12
388.263	115.12
388.488	111.12
388.713	110.12
388.938	88.12
389.163	96.12
389.387	98.12
389.612	97.12
389.837	103.12
390.062	90.12
390.287	76.12
390.512	93.12
390.736	107.12
390.961	97.12
391.186	111.12
391.411	91.12
391.636	91.12
391.86	85.12
392.085	95.12
392.31	92.12
392.534	87.12
392.759	92.12
392.984	78.12
393.208	94.12
393.433	87.12
393.658	106.12
393.882	96.12
394.107	92.12
394.331	77.12
394.556	87.12
394.78	94.12
395.005	83.12
395.229	88.12
395.454	94.12
395.678	90.12
395.903	95.12
396.127	81.12
396.352	87.12
396.576	85.12
396.801	92.12
397.025	102.12
397.249	103.12
397.474	90.12
397.698	94.12
397.922	92.12
398.147	95.12
398.371	70.12
398.595	109.12
398.82	79.12
399.044	85.12
399.268	92.12
399.492	86.12
399.717	75.12
399.941	87.12
400.165	92.12
400.389	88.12
400.613	94.12
400.837	98.12
401.062	90.12
401.286	84.12
401.51	88.12
401.734	96.12
401.958	95.12
402.182	133.12
402.406	149.12
402.63	132.12
402.854	84.12
403.078	89.12
403.302	84.12
403.526	92.12
403.75	64.12
403.974	72.12
404.198	83.12
404.422	88.12
404.645	87.12
404.869	91.12
405.093	85.12
405.317	105.12
405.541	95.12
405.765	111.12
405.988	127.12
406.212	172.12
406.436	218.12
406.66	153.12
406.883	108.12
407.107	81.12
407.331	101.12
407.555	102.12
407.778	89.12
408.002	98.12
408.226	89.12
408.449	88.12
408.673	94.12
408.896	107.12
409.12	86.12
409.344	86.12
409.567	82.12
409.791	91.12
410.014	95.12
410.238	93.12
410.461	98.12
410.685	105.12
410.908	99.12
411.132	103.12
411.355	111.12
411.578	105.12
411.802	85.12
412.025	98.12
412.249	91.12
412.472	108.12
412.695	106.12
412.919	98.12
413.142	96.12
413.365	80.12
413.589	79.12
413.812	87.12
414.035	92.12
414.258	96.12
414.482	93.12
414.705	96.12
414.928	99.12
415.151	91.12
415.374	100.12
415.597	82.12
415.821	86.12
416.044	92.12
416.267	90.12
416.49	94.12
416.713	75.12
416.936	82.12
417.159	98.12
417.382	85.12
417.605	81.12
417.828	97.12
418.051	98.12
418.274	96.12
418.497	86.12
418.72	83.12
418.943	86.12
419.166	82.12
419.389	87.12
419.611	95.12
419.834	92.12
420.057	88.12
420.28	88.12
420.503	99.12
420.726	88.12
420.948	75.12
421.171	98.12
421.394	97.12
421.617	94.12
421.839	89.12
422.062	88.12
422.285	108.12
422.507	102.12
422.73	109.12
422.953	89.12
423.175	94.12
423.398	99.12
423.621	97.12
423.843	87.12
424.066	81.12
424.288	79.12
424.511	83.12
424.733	107.12
424.956	88.12
425.178	104.12
425.401	104.12
425.623	85.12
425.846	87.12
426.068	94.12
426.291	94.12
426.513	98.12
426.735	84.12
426.958	99.12
427.18	103.12
427.402	141.12
427.625	164.12
427.847	142.12
428.069	133.12
428.292	80.12
428.514	96.12
428.736	92.12
428.958	74.12
429.181	92.12
429.403	87.12
429.625	101.12
429.847	88.12
430.069	97.12
430.292	82.12
430.514	92.12
430.736	77.12
430.958	96.12
431.18	74.12
431.402	92.12
431.624	83.12
431.846	91.12
432.068	88.12
432.29	102.12
432.512	90.12
432.734	91.12
432.956	94.12
433.178	83.12
433.4	120.12
433.622	98.12
433.844	95.12
434.066	114.12
434.287	99.12
434.509	90.12
434.731	85.12
434.953	86.12
435.175	85.12
435.397	88.12
435.618	90.12
435.84	108.12
436.062	125.12
436.284	120.12
436.505	108.12
436.727	99.12
436.949	86.12
437.17	94.12
437.392	81.12
437.614	91.12
437.835	105.12
438.057	104.12
438.278	98.12
438.5	100.12
438.721	120.12
438.943	117.12
439.165	84.12
439.386	85.12
439.608	99.12
439.829	103.12
440.05	122.12
440.272	146.12
440.493	101.12
440.715	86.12
440.936	98.12
441.158	94.12
441.379	95.12
441.6	91.12
441.822	95.12
442.043	94.12
442.264	102.12
442.486	107.12
442.707	101.12
442.928	103.12
443.149	118.12
443.371	130.12
443.592	124.12
443.813	123.12
444.034	101.12
444.255	96.12
444.476	91.12
444.698	83.12
444.919	94.12
445.14	124.12
445.361	121.12
445.582	117.12
445.803	144.12
446.024	138.12
446.245	155.12
446.466	121.12
446.687	104.12
446.908	80.12
447.129	93.12
447.35	81.12
447.571	87.12
447.792	94.12
448.013	94.12
448.234	118.12
448.455	92.12
448.675	127.12
448.896	117.12
449.117	100.12
449.338	101.12
449.559	139.12
449.779	141.12
450	108.12
450.221	91.12
450.442	88.12
450.662	114.12
450.883	104.12
451.104	107.12
451.324	86.12
451.545	76.12
451.766	79.12
451.986	92.12
452.207	85.12
452.428	96.12
452.648	86.12
452.869	106.12
453.089	115.12
453.31	118.12
453.53	83.12
453.751	87.12
453.971	118.12
454.192	110.12
454.412	74.12
454.633	99.12
454.853	84.12
455.073	103.12
455.294	95.12
455.514	87.12
455.734	90.12
455.955	94.12
456.175	79.12
456.395	94.12
456.616	98.12
456.836	79.12
457.056	82.12
457.276	83.12
457.497	86.12
457.717	91.12
457.937	84.12
458.157	79.12
458.377	109.12
458.598	99.12
458.818	151.12
459.038	158.12
459.258	117.12
459.478	84.12
459.698	79.12
459.918	82.12
460.138	97.12
460.358	91.12
460.578	103.12
460.798	94.12
461.018	96.12
461.238	97.12
461.458	86.12
461.678	79.12
461.898	81.12
462.118	85.12
462.338	77.12
462.558	94.12
462.777	97.12
462.997	72.12
463.217	88.12
463.437	93.12
463.657	87.12
463.876	97.12
464.096	93.12
464.316	98.12
464.536	116.12
464.755	100.12
464.975	96.12
465.195	149.12
465.414	154.12
465.634	103.12
465.854	81.12
466.073	93.12
466.293	94.12
466.512	93.12
466.732	91.12
466.951	75.12
467.171	92.12
467.391	103.12
467.61	103.12
467.829	110.12
468.049	119.12
468.268	116.12
468.488	92.12
468.707	82.12
468.927	88.12
469.146	93.12
469.365	99.12
469.585	100.12
469.804	100.12
470.023	106.12
470.243	99.12
470.462	97.12
470.681	123.12
470.901	88.12
471.12	81.12
471.339	79.12
471.558	93.12
471.777	97.12
471.997	128.12
472.216	151.12
472.435	205.12
472.654	91.12
472.873	102.12
473.092	97.12
473.311	96.12
473.53	84.12
473.749	107.12
473.968	95.12
474.187	111.12
474.406	95.12
474.625	84.12
474.844	76.12
475.063	93.12
475.282	91.12
475.501	103.12
475.72	88.12
475.939	90.12
476.158	100.12
476.377	88.12
476.596	87.12
476.814	91.12
477.033	97.12
477.252	86.12
477.471	93.12
477.69	99.12
477.908	81.12
478.127	88.12
478.346	83.12
478.564	98.12
478.783	97.12
479.002	90.12
479.22	112.12
479.439	95.12
479.658	97.12
479.876	100.12
480.095	98.12
480.313	79.12
480.532	102.12
480.751	90.12
480.969	144.12
481.188	313.12
481.406	218.12
481.624	106.12
481.843	97.12
482.061	88.12
482.28	95.12
482.498	86.12
482.717	100.12
482.935	96.12
483.153	96.12
483.372	88.12
483.59	85.12
483.808	85.12
484.027	93.12
484.245	96.12
484.463	100.12
484.681	102.12
484.9	79.12
485.118	97.12
485.336	88.12
485.554	100.12
485.772	108.12
485.99	101.12
486.209	93.12
486.427	111.12
486.645	133.12
486.863	113.12
487.081	106.12
487.299	115.12
487.517	106.12
487.735	82.12
487.953	94.12
488.171	94.12
488.389	97.12
488.607	108.12
488.825	96.12
489.043	96.12
489.261	99.12
489.479	88.12
489.696	88.12
489.914	100.12
490.132	107.12
490.35	82.12
490.568	93.12
490.786	99.12
491.003	82.12
491.221	87.12
491.439	96.12
491.657	99.12
491.874	93.12
492.092	92.12
492.31	94.12
492.527	93.12
492.745	99.12
492.963	89.12
493.18	66.12
493.398	84.12
493.615	98.12
493.833	87.12
494.05	88.12
494.268	100.12
494.485	94.12
494.703	80.12
494.92	93.12
495.138	80.12
495.355	86.12
495.573	94.12
495.79	92.12
496.008	99.12
496.225	101.12
496.442	91.12
496.66	88.12
496.877	88.12
497.094	84.12
497.312	93.12
497.529	80.12
497.746	102.12
497.963	87.12
498.181	93.12
498.398	95.12
498.615	107.12
498.832	119.12
499.049	97.12
499.267	97.12
499.484	94.12
499.701	80.12
499.918	100.12
500.135	85.12
500.352	107.12
500.569	98.12
500.786	100.12
501.003	85.12
501.22	103.12
501.437	102.12
501.654	96.12
501.871	93.12
502.088	105.12
502.305	88.12
502.522	87.12
502.739	90.12
502.956	101.12
503.172	106.12
503.389	97.12
503.606	95.12
503.823	116.12
504.04	94.12
504.256	85.12
504.473	96.12
504.69	99.12
504.907	107.12
505.123	94.12
505.34	102.12
505.557	92.12
505.773	100.12
505.99	99.12
506.207	100.12
506.423	94.12
506.64	82.12
506.856	85.12
507.073	87.12
507.289	104.12
507.506	115.12
507.722	121.12
507.939	121.12
508.155	85.12
508.372	98.12
508.588	98.12
508.805	99.12
509.021	97.12
509.238	98.12
509.454	106.12
509.67	105.12
509.887	123.12
510.103	127.12
510.319	224.12
510.536	778.12
510.752	2456.12
510.968	718.12
511.184	160.12
511.401	126.12
511.617	94.12
511.833	74.12
512.049	100.12
512.265	86.12
512.481	87.12
512.698	101.12
512.914	102.12
513.13	99.12
513.346	107.12
513.562	85.12
513.778	89.12
513.994	107.12
514.21	93.12
514.426	118.12
514.642	130.12
514.858	129.12
515.074	177.12
515.29	462.12
