Data from Circ_2006_H10_HRD10591_00098.txt Node
Date: Wed Jan 03 10:26:23 EST 2024
User: Yrep
Spectrometer: HR+D1059
Trigger mode: 1
Integration Time (sec): 1.000000E-1
Scans to average: 1
Electric dark correction enabled: true
Nonlinearity correction enabled: false
Boxcar width: 0
XAxis mode: Wavelengths
Number of Pixels in Spectrum: 2048
>>>>>Begin Spectral Data<<<<<
223.165	-14.56
223.4	-14.56
223.635	-14.56
223.869	-32.56
224.104	-24.56
224.338	-6.56
224.573	-15.56
224.808	-18.56
225.042	-7.56
225.277	-8.56
225.511	-3.56
225.746	4.44
225.98	12.44
226.215	16.44
226.449	10.44
226.683	13.44
226.918	36.44
227.152	38.44
227.387	37.44
227.621	36.44
227.856	48.44
228.09	34.44
228.324	40.44
228.559	55.44
228.793	52.44
229.027	57.44
229.262	70.44
229.496	70.44
229.73	95.44
229.964	94.44
230.199	79.44
230.433	84.44
230.667	78.44
230.901	80.44
231.136	81.44
231.37	77.44
231.604	80.44
231.838	95.44
232.072	74.44
232.306	73.44
232.541	79.44
232.775	85.44
233.009	88.44
233.243	86.44
233.477	85.44
233.711	75.44
233.945	71.44
234.179	69.44
234.413	78.44
234.647	75.44
234.881	86.44
235.115	76.44
235.349	86.44
235.583	82.44
235.817	90.44
236.051	81.44
236.285	83.44
236.519	87.44
236.753	69.44
236.987	84.44
237.221	92.44
237.455	84.44
237.689	76.44
237.922	70.44
238.156	72.44
238.39	70.44
238.624	82.44
238.858	78.44
239.091	64.44
239.325	95.44
239.559	57.44
239.793	78.44
240.027	81.44
240.26	85.44
240.494	89.44
240.728	82.44
240.961	76.44
241.195	95.44
241.429	90.44
241.662	71.44
241.896	76.44
242.13	66.44
242.363	71.44
242.597	88.44
242.83	69.44
243.064	69.44
243.298	62.44
243.531	80.44
243.765	56.44
243.998	81.44
244.232	78.44
244.465	83.44
244.699	84.44
244.932	85.44
245.166	86.44
245.399	81.44
245.633	92.44
245.866	67.44
246.099	70.44
246.333	69.44
246.566	72.44
246.8	79.44
247.033	72.44
247.266	86.44
247.5	98.44
247.733	95.44
247.966	77.44
248.2	74.44
248.433	85.44
248.666	89.44
248.899	87.44
249.133	90.44
249.366	86.44
249.599	91.44
249.832	83.44
250.066	102.44
250.299	85.44
250.532	88.44
250.765	84.44
250.998	77.44
251.231	84.44
251.465	84.44
251.698	74.44
251.931	79.44
252.164	82.44
252.397	77.44
252.63	80.44
252.863	81.44
253.096	80.44
253.329	76.44
253.562	91.44
253.795	64.44
254.028	66.44
254.261	83.44
254.494	97.44
254.727	89.44
254.96	97.44
255.193	74.44
255.426	77.44
255.659	77.44
255.892	94.44
256.124	94.44
256.357	91.44
256.59	73.44
256.823	77.44
257.056	88.44
257.289	87.44
257.521	77.44
257.754	72.44
257.987	97.44
258.22	84.44
258.452	96.44
258.685	85.44
258.918	84.44
259.151	81.44
259.383	80.44
259.616	76.44
259.849	67.44
260.081	77.44
260.314	75.44
260.547	89.44
260.779	87.44
261.012	84.44
261.244	79.44
261.477	80.44
261.71	86.44
261.942	112.44
262.175	129.44
262.407	85.44
262.64	76.44
262.872	89.44
263.105	78.44
263.337	74.44
263.57	97.44
263.802	83.44
264.035	83.44
264.267	76.44
264.499	79.44
264.732	84.44
264.964	86.44
265.197	78.44
265.429	99.44
265.661	84.44
265.894	82.44
266.126	87.44
266.358	82.44
266.591	81.44
266.823	85.44
267.055	85.44
267.287	88.44
267.52	85.44
267.752	94.44
267.984	72.44
268.216	65.44
268.448	88.44
268.681	78.44
268.913	89.44
269.145	92.44
269.377	80.44
269.609	75.44
269.841	72.44
270.073	80.44
270.306	83.44
270.538	88.44
270.77	102.44
271.002	81.44
271.234	85.44
271.466	91.44
271.698	95.44
271.93	83.44
272.162	88.44
272.394	89.44
272.626	95.44
272.858	86.44
273.09	98.44
273.322	86.44
273.553	94.44
273.785	80.44
274.017	93.44
274.249	84.44
274.481	80.44
274.713	68.44
274.945	75.44
275.176	90.44
275.408	81.44
275.64	92.44
275.872	87.44
276.104	107.44
276.335	97.44
276.567	98.44
276.799	115.44
277.031	112.44
277.262	111.44
277.494	93.44
277.726	90.44
277.957	77.44
278.189	97.44
278.421	83.44
278.652	88.44
278.884	93.44
279.115	97.44
279.347	95.44
279.579	80.44
279.81	82.44
280.042	89.44
280.273	116.44
280.505	109.44
280.736	93.44
280.968	81.44
281.199	105.44
281.431	86.44
281.662	89.44
281.894	101.44
282.125	103.44
282.356	121.44
282.588	158.44
282.819	113.44
283.051	87.44
283.282	97.44
283.513	93.44
283.745	93.44
283.976	90.44
284.207	93.44
284.439	80.44
284.67	87.44
284.901	78.44
285.132	79.44
285.364	92.44
285.595	84.44
285.826	82.44
286.057	94.44
286.288	88.44
286.52	80.44
286.751	90.44
286.982	96.44
287.213	79.44
287.444	93.44
287.675	79.44
287.906	104.44
288.138	89.44
288.369	97.44
288.6	92.44
288.831	95.44
289.062	97.44
289.293	76.44
289.524	81.44
289.755	86.44
289.986	86.44
290.217	97.44
290.448	71.44
290.679	79.44
290.91	78.44
291.141	91.44
291.371	96.44
291.602	86.44
291.833	79.44
292.064	92.44
292.295	88.44
292.526	93.44
292.757	100.44
292.987	90.44
293.218	85.44
293.449	87.44
293.68	87.44
293.91	95.44
294.141	84.44
294.372	100.44
294.603	90.44
294.833	105.44
295.064	93.44
295.295	90.44
295.525	88.44
295.756	104.44
295.987	119.44
296.217	147.44
296.448	135.44
296.679	97.44
296.909	80.44
297.14	88.44
297.37	89.44
297.601	99.44
297.831	90.44
298.062	86.44
298.292	97.44
298.523	93.44
298.753	88.44
298.984	90.44
299.214	95.44
299.445	99.44
299.675	89.44
299.905	96.44
300.136	85.44
300.366	93.44
300.597	101.44
300.827	108.44
301.057	98.44
301.288	113.44
301.518	97.44
301.748	83.44
301.979	102.44
302.209	100.44
302.439	98.44
302.669	94.44
302.9	97.44
303.13	85.44
303.36	97.44
303.59	103.44
303.82	96.44
304.051	98.44
304.281	88.44
304.511	101.44
304.741	92.44
304.971	97.44
305.201	97.44
305.431	82.44
305.661	93.44
305.891	77.44
306.121	103.44
306.352	106.44
306.582	114.44
306.812	102.44
307.042	100.44
307.272	112.44
307.502	111.44
307.731	102.44
307.961	99.44
308.191	81.44
308.421	97.44
308.651	77.44
308.881	103.44
309.111	91.44
309.341	97.44
309.571	98.44
309.8	114.44
310.03	94.44
310.26	113.44
310.49	100.44
310.72	92.44
310.949	122.44
311.179	112.44
311.409	84.44
311.639	105.44
311.868	97.44
312.098	91.44
312.328	110.44
312.557	119.44
312.787	104.44
313.017	95.44
313.246	100.44
313.476	90.44
313.706	87.44
313.935	88.44
314.165	92.44
314.394	103.44
314.624	96.44
314.853	97.44
315.083	100.44
315.312	92.44
315.542	102.44
315.771	101.44
316.001	90.44
316.23	94.44
316.46	83.44
316.689	91.44
316.919	111.44
317.148	94.44
317.377	102.44
317.607	87.44
317.836	106.44
318.065	103.44
318.295	105.44
318.524	90.44
318.753	95.44
318.983	103.44
319.212	110.44
319.441	104.44
319.67	114.44
319.9	95.44
320.129	103.44
320.358	92.44
320.587	88.44
320.816	106.44
321.046	111.44
321.275	108.44
321.504	88.44
321.733	98.44
321.962	90.44
322.191	95.44
322.42	111.44
322.649	107.44
322.878	117.44
323.108	126.44
323.337	125.44
323.566	147.44
323.795	171.44
324.024	236.44
324.253	498.44
324.482	1062.44
324.71	2195.44
324.939	2967.44
325.168	1040.44
325.397	300.44
325.626	170.44
325.855	144.44
326.084	140.44
326.313	152.44
326.542	185.44
326.77	307.44
326.999	587.44
327.228	1202.44
327.457	2217.44
327.686	1779.44
327.914	475.44
328.143	254.44
328.372	236.44
328.6	169.44
328.829	144.44
329.058	145.44
329.287	153.44
329.515	130.44
329.744	134.44
329.972	157.44
330.201	237.44
330.43	313.44
330.658	207.44
330.887	160.44
331.115	153.44
331.344	106.44
331.572	96.44
331.801	109.44
332.03	102.44
332.258	95.44
332.486	95.44
332.715	92.44
332.943	83.44
333.172	101.44
333.4	99.44
333.629	111.44
333.857	132.44
334.085	156.44
334.314	217.44
334.542	355.44
334.771	369.44
334.999	172.44
335.227	114.44
335.455	97.44
335.684	102.44
335.912	104.44
336.14	96.44
336.369	86.44
336.597	98.44
336.825	119.44
337.053	94.44
337.281	100.44
337.51	93.44
337.738	102.44
337.966	104.44
338.194	102.44
338.422	83.44
338.65	113.44
338.878	108.44
339.106	93.44
339.334	86.44
339.562	85.44
339.79	84.44
340.018	84.44
340.246	109.44
340.474	100.44
340.702	99.44
340.93	96.44
341.158	94.44
341.386	77.44
341.614	101.44
341.842	105.44
342.07	99.44
342.298	105.44
342.526	91.44
342.754	93.44
342.981	96.44
343.209	99.44
343.437	88.44
343.665	85.44
343.893	99.44
344.12	101.44
344.348	90.44
344.576	94.44
344.804	95.44
345.031	100.44
345.259	108.44
345.487	99.44
345.714	104.44
345.942	96.44
346.17	95.44
346.397	96.44
346.625	107.44
346.853	91.44
347.08	91.44
347.308	117.44
347.535	103.44
347.763	92.44
347.99	106.44
348.218	107.44
348.445	113.44
348.673	104.44
348.9	103.44
349.128	108.44
349.355	89.44
349.583	88.44
349.81	94.44
350.037	107.44
350.265	108.44
350.492	97.44
350.72	92.44
350.947	99.44
351.174	106.44
351.402	114.44
351.629	104.44
351.856	102.44
352.083	112.44
352.311	106.44
352.538	98.44
352.765	121.44
352.992	127.44
353.22	114.44
353.447	105.44
353.674	100.44
353.901	96.44
354.128	88.44
354.355	105.44
354.583	112.44
354.81	89.44
355.037	94.44
355.264	87.44
355.491	93.44
355.718	95.44
355.945	100.44
356.172	97.44
356.399	98.44
356.626	92.44
356.853	90.44
357.08	103.44
357.307	85.44
357.534	94.44
357.761	104.44
357.988	98.44
358.215	89.44
358.441	100.44
358.668	95.44
358.895	90.44
359.122	77.44
359.349	79.44
359.576	94.44
359.802	101.44
360.029	121.44
360.256	135.44
360.483	114.44
360.709	89.44
360.936	93.44
361.163	103.44
361.39	100.44
361.616	109.44
361.843	110.44
362.07	102.44
362.296	110.44
362.523	94.44
362.749	96.44
362.976	88.44
363.203	94.44
363.429	80.44
363.656	98.44
363.882	85.44
364.109	80.44
364.335	109.44
364.562	106.44
364.788	93.44
365.015	84.44
365.241	111.44
365.468	112.44
365.694	101.44
365.92	90.44
366.147	113.44
366.373	89.44
366.599	102.44
366.826	100.44
367.052	81.44
367.278	89.44
367.505	102.44
367.731	85.44
367.957	97.44
368.184	89.44
368.41	100.44
368.636	115.44
368.862	144.44
369.089	116.44
369.315	92.44
369.541	103.44
369.767	103.44
369.993	104.44
370.219	102.44
370.445	94.44
370.672	82.44
370.898	91.44
371.124	95.44
371.35	89.44
371.576	97.44
371.802	96.44
372.028	95.44
372.254	101.44
372.48	100.44
372.706	89.44
372.932	99.44
373.158	93.44
373.384	92.44
373.61	90.44
373.835	86.44
374.061	90.44
374.287	95.44
374.513	98.44
374.739	75.44
374.965	94.44
375.191	113.44
375.416	102.44
375.642	104.44
375.868	90.44
376.094	88.44
376.319	73.44
376.545	80.44
376.771	80.44
376.997	87.44
377.222	90.44
377.448	90.44
377.674	100.44
377.899	102.44
378.125	89.44
378.35	100.44
378.576	105.44
378.802	99.44
379.027	94.44
379.253	108.44
379.478	99.44
379.704	85.44
379.929	102.44
380.155	89.44
380.38	97.44
380.606	93.44
380.831	97.44
381.057	97.44
381.282	103.44
381.507	100.44
381.733	100.44
381.958	93.44
382.184	103.44
382.409	111.44
382.634	99.44
382.86	104.44
383.085	109.44
383.31	101.44
383.535	108.44
383.761	95.44
383.986	99.44
384.211	97.44
384.436	88.44
384.662	100.44
384.887	86.44
385.112	94.44
385.337	105.44
385.562	111.44
385.787	108.44
386.013	113.44
386.238	113.44
386.463	103.44
386.688	118.44
386.913	118.44
387.138	97.44
387.363	110.44
387.588	95.44
387.813	105.44
388.038	118.44
388.263	99.44
388.488	117.44
388.713	94.44
388.938	105.44
389.163	95.44
389.387	99.44
389.612	109.44
389.837	108.44
390.062	102.44
390.287	92.44
390.512	101.44
390.736	86.44
390.961	98.44
391.186	96.44
391.411	89.44
391.636	87.44
391.86	71.44
392.085	97.44
392.31	94.44
392.534	92.44
392.759	97.44
392.984	97.44
393.208	95.44
393.433	104.44
393.658	89.44
393.882	97.44
394.107	89.44
394.331	106.44
394.556	71.44
394.78	92.44
395.005	93.44
395.229	64.44
395.454	84.44
395.678	98.44
395.903	90.44
396.127	96.44
396.352	112.44
396.576	97.44
396.801	94.44
397.025	90.44
397.249	110.44
397.474	111.44
397.698	89.44
397.922	92.44
398.147	95.44
398.371	87.44
398.595	93.44
398.82	104.44
399.044	94.44
399.268	81.44
399.492	95.44
399.717	100.44
399.941	92.44
400.165	102.44
400.389	85.44
400.613	100.44
400.837	88.44
401.062	87.44
401.286	79.44
401.51	94.44
401.734	98.44
401.958	113.44
402.182	144.44
402.406	181.44
402.63	152.44
402.854	106.44
403.078	96.44
403.302	101.44
403.526	95.44
403.75	99.44
403.974	91.44
404.198	97.44
404.422	86.44
404.645	90.44
404.869	108.44
405.093	101.44
405.317	132.44
405.541	105.44
405.765	102.44
405.988	115.44
406.212	199.44
406.436	282.44
406.66	183.44
406.883	120.44
407.107	90.44
407.331	112.44
407.555	108.44
407.778	93.44
408.002	92.44
408.226	81.44
408.449	104.44
408.673	85.44
408.896	99.44
409.12	106.44
409.344	92.44
409.567	102.44
409.791	96.44
410.014	98.44
410.238	95.44
410.461	87.44
410.685	92.44
410.908	97.44
411.132	107.44
411.355	93.44
411.578	97.44
411.802	100.44
412.025	95.44
412.249	92.44
412.472	105.44
412.695	109.44
412.919	96.44
413.142	94.44
413.365	90.44
413.589	89.44
413.812	95.44
414.035	101.44
414.258	84.44
414.482	101.44
414.705	87.44
414.928	101.44
415.151	98.44
415.374	90.44
415.597	99.44
415.821	88.44
416.044	78.44
416.267	98.44
416.49	99.44
416.713	88.44
416.936	83.44
417.159	94.44
417.382	82.44
417.605	89.44
417.828	95.44
418.051	109.44
418.274	93.44
418.497	99.44
418.72	107.44
418.943	105.44
419.166	90.44
419.389	105.44
419.611	86.44
419.834	105.44
420.057	110.44
420.28	89.44
420.503	92.44
420.726	93.44
420.948	86.44
421.171	103.44
421.394	92.44
421.617	115.44
421.839	89.44
422.062	91.44
422.285	103.44
422.507	101.44
422.73	100.44
422.953	89.44
423.175	98.44
423.398	98.44
423.621	95.44
423.843	87.44
424.066	80.44
424.288	85.44
424.511	97.44
424.733	113.44
424.956	111.44
425.178	101.44
425.401	113.44
425.623	112.44
425.846	93.44
426.068	105.44
426.291	101.44
426.513	93.44
426.735	93.44
426.958	100.44
427.18	105.44
427.402	160.44
427.625	210.44
427.847	195.44
428.069	163.44
428.292	84.44
428.514	103.44
428.736	84.44
428.958	94.44
429.181	104.44
429.403	111.44
429.625	96.44
429.847	95.44
430.069	105.44
430.292	102.44
430.514	87.44
430.736	93.44
430.958	83.44
431.18	84.44
431.402	84.44
431.624	83.44
431.846	97.44
432.068	74.44
432.29	79.44
432.512	79.44
432.734	75.44
432.956	93.44
433.178	89.44
433.4	100.44
433.622	92.44
433.844	90.44
434.066	93.44
434.287	88.44
434.509	85.44
434.731	89.44
434.953	107.44
435.175	90.44
435.397	106.44
435.618	87.44
435.84	103.44
436.062	122.44
436.284	149.44
436.505	108.44
436.727	103.44
436.949	108.44
437.17	100.44
437.392	100.44
437.614	98.44
437.835	109.44
438.057	110.44
438.278	115.44
438.5	124.44
438.721	147.44
438.943	109.44
439.165	92.44
439.386	98.44
439.608	99.44
439.829	107.44
440.05	138.44
440.272	176.44
440.493	109.44
440.715	81.44
440.936	101.44
441.158	78.44
441.379	96.44
441.6	79.44
441.822	101.44
442.043	100.44
442.264	113.44
442.486	109.44
442.707	96.44
442.928	120.44
443.149	154.44
443.371	149.44
443.592	130.44
443.813	137.44
444.034	116.44
444.255	98.44
444.476	79.44
444.698	91.44
444.919	90.44
445.14	144.44
445.361	137.44
445.582	133.44
445.803	162.44
446.024	163.44
446.245	147.44
446.466	140.44
446.687	97.44
446.908	96.44
447.129	100.44
447.35	84.44
447.571	105.44
447.792	107.44
448.013	108.44
448.234	115.44
448.455	109.44
448.675	133.44
448.896	139.44
449.117	106.44
449.338	124.44
449.559	140.44
449.779	141.44
450	108.44
450.221	101.44
450.442	114.44
450.662	91.44
450.883	105.44
451.104	124.44
451.324	116.44
451.545	94.44
451.766	88.44
451.986	83.44
452.207	89.44
452.428	89.44
452.648	113.44
452.869	123.44
453.089	119.44
453.31	122.44
453.53	103.44
453.751	96.44
453.971	98.44
454.192	125.44
454.412	96.44
454.633	87.44
454.853	97.44
455.073	92.44
455.294	90.44
455.514	111.44
455.734	94.44
455.955	99.44
456.175	96.44
456.395	87.44
456.616	92.44
456.836	85.44
457.056	100.44
457.276	90.44
457.497	86.44
457.717	94.44
457.937	85.44
458.157	92.44
458.377	90.44
458.598	98.44
458.818	173.44
459.038	179.44
459.258	113.44
459.478	85.44
459.698	85.44
459.918	88.44
460.138	94.44
460.358	83.44
460.578	92.44
460.798	84.44
461.018	86.44
461.238	93.44
461.458	90.44
461.678	94.44
461.898	98.44
462.118	89.44
462.338	83.44
462.558	106.44
462.777	88.44
462.997	102.44
463.217	92.44
463.437	92.44
463.657	104.44
463.876	103.44
464.096	99.44
464.316	98.44
464.536	103.44
464.755	97.44
464.975	97.44
465.195	190.44
465.414	172.44
465.634	94.44
465.854	89.44
466.073	78.44
466.293	84.44
466.512	89.44
466.732	88.44
466.951	94.44
467.171	109.44
467.391	99.44
467.61	114.44
467.829	109.44
468.049	156.44
468.268	183.44
468.488	111.44
468.707	90.44
468.927	95.44
469.146	78.44
469.365	86.44
469.585	86.44
469.804	104.44
470.023	104.44
470.243	89.44
470.462	110.44
470.681	116.44
470.901	93.44
471.12	92.44
471.339	94.44
471.558	81.44
471.777	101.44
471.997	133.44
472.216	236.44
472.435	434.44
472.654	158.44
472.873	99.44
473.092	101.44
473.311	89.44
473.53	92.44
473.749	93.44
473.968	111.44
474.187	115.44
474.406	87.44
474.625	92.44
474.844	77.44
475.063	79.44
475.282	89.44
475.501	95.44
475.72	92.44
475.939	93.44
476.158	79.44
476.377	84.44
476.596	92.44
476.814	92.44
477.033	101.44
477.252	96.44
477.471	95.44
477.69	96.44
477.908	81.44
478.127	84.44
478.346	96.44
478.564	76.44
478.783	104.44
479.002	104.44
479.22	109.44
479.439	101.44
479.658	103.44
479.876	112.44
480.095	87.44
480.313	87.44
480.532	103.44
480.751	126.44
480.969	222.44
481.188	703.44
481.406	473.44
481.624	130.44
481.843	92.44
482.061	86.44
482.28	101.44
482.498	88.44
482.717	79.44
482.935	95.44
483.153	92.44
483.372	86.44
483.59	78.44
483.808	84.44
484.027	98.44
484.245	86.44
484.463	108.44
484.681	94.44
484.9	88.44
485.118	101.44
485.336	84.44
485.554	93.44
485.772	101.44
485.99	91.44
486.209	82.44
486.427	113.44
486.645	114.44
486.863	125.44
487.081	103.44
487.299	109.44
487.517	101.44
487.735	92.44
487.953	101.44
488.171	94.44
488.389	93.44
488.607	101.44
488.825	103.44
489.043	92.44
489.261	97.44
489.479	83.44
489.696	88.44
489.914	92.44
490.132	94.44
490.35	94.44
490.568	89.44
490.786	98.44
491.003	86.44
491.221	107.44
491.439	97.44
491.657	90.44
491.874	96.44
492.092	111.44
492.31	90.44
492.527	84.44
492.745	90.44
492.963	90.44
493.18	93.44
493.398	112.44
493.615	94.44
493.833	96.44
494.05	89.44
494.268	91.44
494.485	95.44
494.703	92.44
494.92	97.44
495.138	93.44
495.355	102.44
495.573	88.44
495.79	76.44
496.008	93.44
496.225	88.44
496.442	97.44
496.66	103.44
496.877	87.44
497.094	86.44
497.312	88.44
497.529	93.44
497.746	100.44
497.963	77.44
498.181	93.44
498.398	99.44
498.615	114.44
498.832	120.44
499.049	98.44
499.267	98.44
499.484	101.44
499.701	95.44
499.918	102.44
500.135	73.44
500.352	88.44
500.569	85.44
500.786	106.44
501.003	86.44
501.22	94.44
501.437	100.44
501.654	112.44
501.871	111.44
502.088	84.44
502.305	87.44
502.522	104.44
502.739	82.44
502.956	102.44
503.172	83.44
503.389	98.44
503.606	108.44
503.823	111.44
504.04	78.44
504.256	96.44
504.473	96.44
504.69	89.44
504.907	75.44
505.123	88.44
505.34	103.44
505.557	85.44
505.773	96.44
505.99	96.44
506.207	81.44
506.423	87.44
506.64	95.44
506.856	89.44
507.073	100.44
507.289	100.44
507.506	88.44
507.722	121.44
507.939	131.44
508.155	102.44
508.372	90.44
508.588	102.44
508.805	104.44
509.021	92.44
509.238	93.44
509.454	110.44
509.67	89.44
509.887	112.44
510.103	126.44
510.319	215.44
510.536	822.44
510.752	2686.44
510.968	768.44
511.184	176.44
511.401	128.44
511.617	88.44
511.833	105.44
512.049	90.44
512.265	98.44
512.481	105.44
512.698	99.44
512.914	94.44
513.13	106.44
513.346	101.44
513.562	97.44
