Data from Circ_2006_H10_HRD10591_00090.txt Node
Date: Wed Jan 03 10:26:21 EST 2024
User: Yrep
Spectrometer: HR+D1059
Trigger mode: 1
Integration Time (sec): 1.000000E-1
Scans to average: 1
Electric dark correction enabled: true
Nonlinearity correction enabled: false
Boxcar width: 0
XAxis mode: Wavelengths
Number of Pixels in Spectrum: 2048
>>>>>Begin Spectral Data<<<<<
223.165	-22.75
223.4	-22.75
223.635	-22.75
223.869	-13.75
224.104	-19.75
224.338	-7.75
224.573	-10.75
224.808	-8.75
225.042	6.25
225.277	-3.75
225.511	-16.75
225.746	3.25
225.98	7.25
226.215	9.25
226.449	19.25
226.683	13.25
226.918	21.25
227.152	24.25
227.387	27.25
227.621	39.25
227.856	45.25
228.09	44.25
228.324	40.25
228.559	61.25
228.793	60.25
229.027	66.25
229.262	75.25
229.496	74.25
229.73	89.25
229.964	101.25
230.199	70.25
230.433	67.25
230.667	87.25
230.901	79.25
231.136	73.25
231.37	88.25
231.604	82.25
231.838	74.25
232.072	82.25
232.306	88.25
232.541	91.25
232.775	90.25
233.009	93.25
233.243	84.25
233.477	84.25
233.711	73.25
233.945	73.25
234.179	80.25
234.413	76.25
234.647	71.25
234.881	86.25
235.115	81.25
235.349	80.25
235.583	62.25
235.817	76.25
236.051	89.25
236.285	76.25
236.519	73.25
236.753	75.25
236.987	87.25
237.221	91.25
237.455	98.25
237.689	82.25
237.922	71.25
238.156	67.25
238.39	69.25
238.624	69.25
238.858	89.25
239.091	73.25
239.325	72.25
239.559	83.25
239.793	72.25
240.027	77.25
240.26	78.25
240.494	77.25
240.728	75.25
240.961	68.25
241.195	67.25
241.429	70.25
241.662	85.25
241.896	62.25
242.13	84.25
242.363	88.25
242.597	82.25
242.83	82.25
243.064	82.25
243.298	74.25
243.531	74.25
243.765	82.25
243.998	73.25
244.232	81.25
244.465	85.25
244.699	80.25
244.932	72.25
245.166	97.25
245.399	80.25
245.633	76.25
245.866	69.25
246.099	79.25
246.333	69.25
246.566	71.25
246.8	73.25
247.033	73.25
247.266	91.25
247.5	81.25
247.733	63.25
247.966	83.25
248.2	84.25
248.433	74.25
248.666	83.25
248.899	79.25
249.133	93.25
249.366	92.25
249.599	94.25
249.832	79.25
250.066	82.25
250.299	72.25
250.532	78.25
250.765	69.25
250.998	85.25
251.231	69.25
251.465	75.25
251.698	78.25
251.931	75.25
252.164	63.25
252.397	87.25
252.63	77.25
252.863	86.25
253.096	81.25
253.329	67.25
253.562	80.25
253.795	80.25
254.028	68.25
254.261	77.25
254.494	85.25
254.727	83.25
254.96	83.25
255.193	93.25
255.426	73.25
255.659	61.25
255.892	89.25
256.124	68.25
256.357	82.25
256.59	87.25
256.823	76.25
257.056	81.25
257.289	95.25
257.521	84.25
257.754	85.25
257.987	74.25
258.22	85.25
258.452	83.25
258.685	75.25
258.918	76.25
259.151	89.25
259.383	72.25
259.616	85.25
259.849	68.25
260.081	77.25
260.314	90.25
260.547	83.25
260.779	72.25
261.012	80.25
261.244	80.25
261.477	108.25
261.71	91.25
261.942	121.25
262.175	142.25
262.407	85.25
262.64	87.25
262.872	76.25
263.105	82.25
263.337	103.25
263.57	81.25
263.802	72.25
264.035	71.25
264.267	90.25
264.499	71.25
264.732	81.25
264.964	88.25
265.197	74.25
265.429	69.25
265.661	75.25
265.894	84.25
266.126	79.25
266.358	70.25
266.591	82.25
266.823	88.25
267.055	77.25
267.287	91.25
267.52	75.25
267.752	75.25
267.984	70.25
268.216	88.25
268.448	81.25
268.681	98.25
268.913	95.25
269.145	85.25
269.377	82.25
269.609	76.25
269.841	79.25
270.073	77.25
270.306	96.25
270.538	84.25
270.77	93.25
271.002	91.25
271.234	71.25
271.466	91.25
271.698	87.25
271.93	71.25
272.162	77.25
272.394	94.25
272.626	78.25
272.858	92.25
273.09	83.25
273.322	87.25
273.553	88.25
273.785	87.25
274.017	85.25
274.249	87.25
274.481	86.25
274.713	87.25
274.945	78.25
275.176	78.25
275.408	77.25
275.64	89.25
275.872	79.25
276.104	93.25
276.335	97.25
276.567	115.25
276.799	113.25
277.031	115.25
277.262	111.25
277.494	82.25
277.726	69.25
277.957	73.25
278.189	85.25
278.421	89.25
278.652	78.25
278.884	88.25
279.115	90.25
279.347	91.25
279.579	94.25
279.81	74.25
280.042	102.25
280.273	88.25
280.505	73.25
280.736	78.25
280.968	77.25
281.199	88.25
281.431	91.25
281.662	89.25
281.894	94.25
282.125	110.25
282.356	137.25
282.588	197.25
282.819	138.25
283.051	99.25
283.282	85.25
283.513	65.25
283.745	81.25
283.976	71.25
284.207	81.25
284.439	91.25
284.67	94.25
284.901	91.25
285.132	75.25
285.364	98.25
285.595	80.25
285.826	89.25
286.057	68.25
286.288	95.25
286.52	66.25
286.751	75.25
286.982	94.25
287.213	100.25
287.444	82.25
287.675	91.25
287.906	96.25
288.138	96.25
288.369	98.25
288.6	86.25
288.831	85.25
289.062	73.25
289.293	91.25
289.524	81.25
289.755	84.25
289.986	98.25
290.217	79.25
290.448	101.25
290.679	78.25
290.91	80.25
291.141	98.25
291.371	105.25
291.602	86.25
291.833	93.25
292.064	87.25
292.295	83.25
292.526	84.25
292.757	100.25
292.987	89.25
293.218	81.25
293.449	90.25
293.68	96.25
293.91	87.25
294.141	85.25
294.372	91.25
294.603	83.25
294.833	92.25
295.064	81.25
295.295	85.25
295.525	81.25
295.756	105.25
295.987	134.25
296.217	175.25
296.448	149.25
296.679	95.25
296.909	91.25
297.14	78.25
297.37	91.25
297.601	80.25
297.831	97.25
298.062	83.25
298.292	89.25
298.523	98.25
298.753	83.25
298.984	81.25
299.214	94.25
299.445	102.25
299.675	95.25
299.905	91.25
300.136	91.25
300.366	89.25
300.597	88.25
300.827	97.25
301.057	99.25
301.288	104.25
301.518	95.25
301.748	86.25
301.979	119.25
302.209	90.25
302.439	106.25
302.669	103.25
302.9	91.25
303.13	76.25
303.36	102.25
303.59	117.25
303.82	123.25
304.051	108.25
304.281	94.25
304.511	98.25
304.741	91.25
304.971	81.25
305.201	88.25
305.431	94.25
305.661	81.25
305.891	105.25
306.121	106.25
306.352	114.25
306.582	112.25
306.812	101.25
307.042	84.25
307.272	99.25
307.502	104.25
307.731	91.25
307.961	112.25
308.191	100.25
308.421	75.25
308.651	92.25
308.881	105.25
309.111	115.25
309.341	96.25
309.571	103.25
309.8	114.25
310.03	107.25
310.26	101.25
310.49	99.25
310.72	101.25
310.949	105.25
311.179	114.25
311.409	104.25
311.639	99.25
311.868	99.25
312.098	105.25
312.328	108.25
312.557	125.25
312.787	116.25
313.017	122.25
313.246	120.25
313.476	99.25
313.706	92.25
313.935	104.25
314.165	107.25
314.394	113.25
314.624	104.25
314.853	94.25
315.083	114.25
315.312	92.25
315.542	105.25
315.771	84.25
316.001	83.25
316.23	91.25
316.46	97.25
316.689	89.25
316.919	101.25
317.148	103.25
317.377	111.25
317.607	89.25
317.836	103.25
318.065	81.25
318.295	102.25
318.524	109.25
318.753	94.25
318.983	108.25
319.212	114.25
319.441	125.25
319.67	132.25
319.9	101.25
320.129	96.25
320.358	98.25
320.587	105.25
320.816	109.25
321.046	100.25
321.275	93.25
321.504	96.25
321.733	106.25
321.962	101.25
322.191	105.25
322.42	112.25
322.649	126.25
322.878	132.25
323.108	142.25
323.337	148.25
323.566	145.25
323.795	220.25
324.024	297.25
324.253	626.25
324.482	1359.25
324.71	2843.25
324.939	3654.25
325.168	1282.25
325.397	354.25
325.626	191.25
325.855	157.25
326.084	158.25
326.313	155.25
326.542	211.25
326.77	309.25
326.999	718.25
327.228	1479.25
327.457	2670.25
327.686	2092.25
327.914	539.25
328.143	277.25
328.372	243.25
328.6	158.25
328.829	136.25
329.058	179.25
329.287	191.25
329.515	142.25
329.744	118.25
329.972	143.25
330.201	175.25
330.43	233.25
330.658	192.25
330.887	212.25
331.115	149.25
331.344	97.25
331.572	101.25
331.801	121.25
332.03	109.25
332.258	111.25
332.486	94.25
332.715	117.25
332.943	92.25
333.172	104.25
333.4	109.25
333.629	125.25
333.857	148.25
334.085	136.25
334.314	185.25
334.542	235.25
334.771	236.25
334.999	124.25
335.227	109.25
335.455	107.25
335.684	110.25
335.912	99.25
336.14	91.25
336.369	105.25
336.597	100.25
336.825	108.25
337.053	107.25
337.281	82.25
337.51	85.25
337.738	92.25
337.966	87.25
338.194	104.25
338.422	97.25
338.65	98.25
338.878	96.25
339.106	88.25
339.334	95.25
339.562	101.25
339.79	97.25
340.018	94.25
340.246	98.25
340.474	99.25
340.702	93.25
340.93	97.25
341.158	94.25
341.386	109.25
341.614	99.25
341.842	103.25
342.07	81.25
342.298	103.25
342.526	99.25
342.754	84.25
342.981	86.25
343.209	79.25
343.437	83.25
343.665	91.25
343.893	89.25
344.12	96.25
344.348	78.25
344.576	98.25
344.804	98.25
345.031	104.25
345.259	112.25
345.487	96.25
345.714	95.25
345.942	98.25
346.17	93.25
346.397	99.25
346.625	96.25
346.853	84.25
347.08	105.25
347.308	96.25
347.535	101.25
347.763	90.25
347.99	100.25
348.218	108.25
348.445	104.25
348.673	97.25
348.9	101.25
349.128	83.25
349.355	89.25
349.583	89.25
349.81	102.25
350.037	79.25
350.265	100.25
350.492	93.25
350.72	94.25
350.947	108.25
351.174	122.25
351.402	108.25
351.629	107.25
351.856	97.25
352.083	114.25
352.311	103.25
352.538	128.25
352.765	126.25
352.992	119.25
353.22	124.25
353.447	106.25
353.674	111.25
353.901	105.25
354.128	100.25
354.355	97.25
354.583	96.25
354.81	97.25
355.037	90.25
355.264	99.25
355.491	83.25
355.718	84.25
355.945	99.25
356.172	99.25
356.399	89.25
356.626	84.25
356.853	72.25
357.08	79.25
357.307	96.25
357.534	93.25
357.761	97.25
357.988	85.25
358.215	101.25
358.441	93.25
358.668	90.25
358.895	95.25
359.122	91.25
359.349	87.25
359.576	103.25
359.802	112.25
360.029	156.25
360.256	145.25
360.483	116.25
360.709	93.25
360.936	92.25
361.163	103.25
361.39	117.25
361.616	107.25
361.843	93.25
362.07	113.25
362.296	101.25
362.523	96.25
362.749	96.25
362.976	83.25
363.203	84.25
363.429	97.25
363.656	97.25
363.882	98.25
364.109	93.25
364.335	95.25
364.562	103.25
364.788	105.25
365.015	95.25
365.241	84.25
365.468	110.25
365.694	119.25
365.92	105.25
366.147	112.25
366.373	88.25
366.599	89.25
366.826	94.25
367.052	101.25
367.278	83.25
367.505	81.25
367.731	102.25
367.957	92.25
368.184	100.25
368.41	97.25
368.636	113.25
368.862	121.25
369.089	120.25
369.315	104.25
369.541	102.25
369.767	100.25
369.993	110.25
370.219	92.25
370.445	89.25
370.672	84.25
370.898	69.25
371.124	79.25
371.35	86.25
371.576	81.25
371.802	94.25
372.028	91.25
372.254	89.25
372.48	79.25
372.706	92.25
372.932	85.25
373.158	80.25
373.384	97.25
373.61	87.25
373.835	88.25
374.061	104.25
374.287	94.25
374.513	91.25
374.739	97.25
374.965	81.25
375.191	79.25
375.416	72.25
375.642	88.25
375.868	103.25
376.094	100.25
376.319	88.25
376.545	89.25
376.771	85.25
376.997	87.25
377.222	106.25
377.448	98.25
377.674	91.25
377.899	80.25
378.125	84.25
378.35	94.25
378.576	81.25
378.802	84.25
379.027	88.25
379.253	94.25
379.478	97.25
379.704	96.25
379.929	82.25
380.155	99.25
380.38	88.25
380.606	91.25
380.831	99.25
381.057	80.25
381.282	87.25
381.507	99.25
381.733	88.25
381.958	96.25
382.184	109.25
382.409	93.25
382.634	105.25
382.86	92.25
383.085	106.25
383.31	91.25
383.535	93.25
383.761	102.25
383.986	100.25
384.211	95.25
384.436	94.25
384.662	88.25
384.887	88.25
385.112	100.25
385.337	103.25
385.562	94.25
385.787	103.25
386.013	112.25
386.238	114.25
386.463	111.25
386.688	101.25
386.913	95.25
387.138	118.25
387.363	95.25
387.588	95.25
387.813	95.25
388.038	98.25
388.263	92.25
388.488	106.25
388.713	111.25
388.938	110.25
389.163	106.25
389.387	107.25
389.612	79.25
389.837	105.25
390.062	89.25
390.287	94.25
390.512	88.25
390.736	93.25
390.961	76.25
391.186	103.25
391.411	88.25
391.636	84.25
391.86	90.25
392.085	78.25
392.31	85.25
392.534	96.25
392.759	81.25
392.984	85.25
393.208	93.25
393.433	78.25
393.658	81.25
393.882	79.25
394.107	95.25
394.331	81.25
394.556	84.25
394.78	76.25
395.005	74.25
395.229	74.25
395.454	92.25
395.678	85.25
395.903	106.25
396.127	101.25
396.352	87.25
396.576	87.25
396.801	84.25
397.025	79.25
397.249	79.25
397.474	88.25
397.698	80.25
397.922	73.25
398.147	89.25
398.371	79.25
398.595	82.25
398.82	82.25
399.044	86.25
399.268	74.25
399.492	80.25
399.717	83.25
399.941	87.25
400.165	88.25
400.389	87.25
400.613	92.25
400.837	76.25
401.062	88.25
401.286	87.25
401.51	89.25
401.734	97.25
401.958	114.25
402.182	160.25
402.406	235.25
402.63	149.25
402.854	107.25
403.078	89.25
403.302	84.25
403.526	89.25
403.75	80.25
403.974	86.25
404.198	87.25
404.422	95.25
404.645	101.25
404.869	106.25
405.093	102.25
405.317	112.25
405.541	115.25
405.765	116.25
405.988	137.25
406.212	251.25
406.436	347.25
406.66	211.25
406.883	110.25
407.107	99.25
407.331	107.25
407.555	109.25
407.778	96.25
408.002	98.25
408.226	96.25
408.449	84.25
408.673	89.25
408.896	102.25
409.12	90.25
409.344	98.25
409.567	89.25
409.791	87.25
410.014	77.25
410.238	95.25
410.461	84.25
410.685	97.25
410.908	104.25
411.132	108.25
411.355	122.25
411.578	92.25
411.802	91.25
412.025	87.25
412.249	94.25
412.472	88.25
412.695	102.25
412.919	94.25
413.142	91.25
413.365	85.25
413.589	70.25
413.812	82.25
414.035	86.25
414.258	83.25
414.482	105.25
414.705	86.25
414.928	87.25
415.151	103.25
415.374	83.25
415.597	78.25
415.821	93.25
416.044	84.25
416.267	83.25
416.49	83.25
416.713	90.25
416.936	102.25
417.159	88.25
417.382	85.25
417.605	86.25
417.828	92.25
418.051	96.25
418.274	94.25
418.497	86.25
418.72	97.25
418.943	93.25
419.166	88.25
419.389	78.25
419.611	79.25
419.834	92.25
420.057	92.25
420.28	92.25
420.503	83.25
420.726	82.25
420.948	86.25
421.171	88.25
421.394	93.25
421.617	82.25
421.839	85.25
422.062	108.25
422.285	96.25
422.507	91.25
422.73	101.25
422.953	93.25
423.175	80.25
423.398	85.25
423.621	85.25
423.843	78.25
424.066	84.25
424.288	106.25
424.511	100.25
424.733	111.25
424.956	116.25
425.178	110.25
425.401	104.25
425.623	106.25
425.846	104.25
426.068	119.25
426.291	92.25
426.513	91.25
426.735	89.25
426.958	97.25
427.18	108.25
427.402	196.25
427.625	238.25
427.847	172.25
428.069	143.25
428.292	98.25
428.514	86.25
428.736	81.25
428.958	87.25
429.181	93.25
429.403	83.25
429.625	102.25
429.847	82.25
430.069	99.25
430.292	90.25
430.514	98.25
430.736	92.25
430.958	90.25
431.18	96.25
431.402	82.25
431.624	82.25
431.846	76.25
432.068	82.25
432.29	80.25
432.512	91.25
432.734	73.25
432.956	83.25
433.178	102.25
433.4	111.25
433.622	100.25
433.844	97.25
434.066	89.25
434.287	101.25
434.509	83.25
434.731	94.25
434.953	98.25
435.175	95.25
435.397	93.25
435.618	113.25
435.84	117.25
436.062	149.25
436.284	125.25
436.505	105.25
436.727	106.25
436.949	97.25
437.17	76.25
437.392	89.25
437.614	96.25
437.835	141.25
438.057	147.25
438.278	133.25
438.5	116.25
438.721	131.25
438.943	104.25
439.165	83.25
439.386	75.25
439.608	86.25
439.829	101.25
440.05	152.25
440.272	185.25
440.493	114.25
440.715	100.25
440.936	76.25
441.158	74.25
441.379	91.25
441.6	91.25
441.822	100.25
442.043	94.25
442.264	94.25
442.486	117.25
442.707	96.25
442.928	110.25
443.149	177.25
443.371	173.25
443.592	147.25
443.813	127.25
444.034	110.25
444.255	95.25
444.476	85.25
444.698	72.25
444.919	78.25
445.14	145.25
445.361	141.25
445.582	147.25
445.803	199.25
446.024	171.25
446.245	162.25
446.466	111.25
446.687	104.25
446.908	92.25
447.129	99.25
447.35	96.25
447.571	92.25
447.792	101.25
448.013	99.25
448.234	128.25
448.455	114.25
448.675	135.25
448.896	138.25
449.117	98.25
449.338	108.25
449.559	137.25
449.779	135.25
450	100.25
450.221	82.25
450.442	94.25
450.662	89.25
450.883	126.25
451.104	141.25
451.324	113.25
451.545	98.25
451.766	80.25
451.986	93.25
452.207	91.25
452.428	96.25
452.648	105.25
452.869	114.25
453.089	141.25
453.31	149.25
453.53	99.25
453.751	88.25
453.971	122.25
454.192	142.25
454.412	80.25
454.633	91.25
454.853	84.25
455.073	74.25
455.294	96.25
455.514	104.25
455.734	80.25
455.955	94.25
456.175	85.25
456.395	92.25
456.616	91.25
456.836	79.25
457.056	95.25
457.276	79.25
457.497	73.25
457.717	91.25
457.937	85.25
458.157	90.25
458.377	101.25
458.598	124.25
458.818	210.25
459.038	216.25
459.258	149.25
459.478	103.25
459.698	87.25
459.918	79.25
460.138	72.25
460.358	68.25
460.578	83.25
460.798	88.25
461.018	90.25
461.238	79.25
461.458	65.25
461.678	85.25
461.898	81.25
462.118	83.25
462.338	95.25
462.558	88.25
462.777	99.25
462.997	87.25
463.217	85.25
463.437	91.25
463.657	91.25
463.876	93.25
464.096	77.25
464.316	99.25
464.536	109.25
464.755	100.25
464.975	119.25
465.195	232.25
465.414	240.25
465.634	105.25
465.854	79.25
466.073	85.25
466.293	89.25
466.512	75.25
466.732	81.25
466.951	89.25
467.171	91.25
467.391	96.25
467.61	127.25
467.829	117.25
468.049	129.25
468.268	134.25
468.488	99.25
468.707	94.25
468.927	93.25
469.146	95.25
469.365	79.25
469.585	80.25
469.804	101.25
470.023	113.25
470.243	89.25
470.462	107.25
470.681	145.25
470.901	95.25
471.12	92.25
471.339	82.25
471.558	100.25
471.777	91.25
471.997	107.25
472.216	183.25
472.435	282.25
472.654	129.25
472.873	103.25
473.092	81.25
473.311	90.25
473.53	91.25
473.749	84.25
473.968	100.25
474.187	129.25
474.406	98.25
474.625	80.25
474.844	83.25
475.063	82.25
475.282	85.25
475.501	79.25
475.72	78.25
475.939	72.25
476.158	83.25
476.377	90.25
476.596	88.25
476.814	92.25
477.033	104.25
477.252	89.25
477.471	89.25
477.69	85.25
477.908	89.25
478.127	95.25
478.346	77.25
478.564	88.25
478.783	98.25
479.002	109.25
479.22	96.25
479.439	114.25
479.658	133.25
479.876	105.25
480.095	88.25
480.313	92.25
480.532	88.25
480.751	92.25
480.969	178.25
481.188	463.25
481.406	286.25
481.624	119.25
481.843	78.25
482.061	96.25
482.28	83.25
482.498	83.25
482.717	92.25
482.935	90.25
483.153	93.25
483.372	95.25
483.59	81.25
483.808	86.25
484.027	99.25
484.245	97.25
484.463	107.25
484.681	96.25
484.9	95.25
485.118	85.25
485.336	90.25
485.554	95.25
485.772	117.25
485.99	108.25
486.209	102.25
486.427	108.25
486.645	108.25
486.863	131.25
487.081	108.25
487.299	107.25
487.517	93.25
487.735	89.25
487.953	101.25
488.171	102.25
488.389	87.25
488.607	117.25
488.825	86.25
489.043	95.25
489.261	103.25
489.479	91.25
489.696	93.25
489.914	80.25
490.132	71.25
490.35	103.25
490.568	81.25
490.786	93.25
491.003	91.25
491.221	85.25
491.439	82.25
491.657	94.25
491.874	84.25
492.092	100.25
492.31	94.25
492.527	87.25
492.745	80.25
492.963	92.25
493.18	80.25
493.398	89.25
493.615	96.25
493.833	100.25
494.05	95.25
494.268	88.25
494.485	96.25
494.703	76.25
494.92	98.25
495.138	94.25
495.355	95.25
495.573	93.25
495.79	93.25
496.008	108.25
496.225	83.25
496.442	83.25
496.66	81.25
496.877	96.25
497.094	91.25
497.312	83.25
497.529	75.25
497.746	85.25
497.963	100.25
498.181	94.25
498.398	107.25
498.615	116.25
498.832	106.25
499.049	85.25
499.267	73.25
499.484	88.25
499.701	89.25
499.918	88.25
500.135	100.25
500.352	103.25
500.569	95.25
500.786	85.25
501.003	105.25
501.22	82.25
501.437	97.25
501.654	102.25
501.871	125.25
502.088	99.25
502.305	83.25
502.522	90.25
502.739	89.25
502.956	88.25
503.172	97.25
503.389	93.25
503.606	123.25
503.823	104.25
504.04	81.25
504.256	94.25
504.473	98.25
504.69	91.25
504.907	93.25
505.123	97.25
505.34	96.25
505.557	99.25
505.773	92.25
505.99	92.25
506.207	89.25
506.423	94.25
506.64	92.25
506.856	94.25
507.073	88.25
507.289	108.25
507.506	103.25
507.722	124.25
507.939	144.25
508.155	104.25
508.372	79.25
508.588	96.25
508.805	106.25
509.021	94.25
509.238	99.25
509.454	102.25
509.67	129.25
509.887	126.25
510.103	155.25
510.319	272.25
510.536	1140.25
510.752	3906.25
510.968	1021.25
511.184	205.25
511.401	138.25
511.617	113.25
511.833	89.25
512.049	92.25
512.265	84.25
512.481	81.25
512.698	98.25
512.914	86.25
513.13	95.25
513.346	118.25
513.562	109.25
513.778	106.25
513.994	101.25
514.21	104.25
