Data from Circ_2006_H10_HRD10591_00067.txt Node
Date: Wed Jan 03 10:26:17 EST 2024
User: Yrep
Spectrometer: HR+D1059
Trigger mode: 1
Integration Time (sec): 1.000000E-1
Scans to average: 1
Electric dark correction enabled: true
Nonlinearity correction enabled: false
Boxcar width: 0
XAxis mode: Wavelengths
Number of Pixels in Spectrum: 2048
>>>>>Begin Spectral Data<<<<<
223.165	-22.31
223.4	-22.31
223.635	-22.31
223.869	-2.31
224.104	-26.31
224.338	-17.31
224.573	-19.31
224.808	-36.31
225.042	-3.31
225.277	9.69
225.511	9.69
225.746	-6.31
225.98	7.69
226.215	0.69
226.449	21.69
226.683	19.69
226.918	35.69
227.152	28.69
227.387	40.69
227.621	47.69
227.856	43.69
228.09	45.69
228.324	57.69
228.559	51.69
228.793	53.69
229.027	54.69
229.262	74.69
229.496	66.69
229.73	79.69
229.964	94.69
230.199	74.69
230.433	51.69
230.667	68.69
230.901	73.69
231.136	70.69
231.37	76.69
231.604	85.69
231.838	94.69
232.072	82.69
232.306	73.69
232.541	67.69
232.775	85.69
233.009	83.69
233.243	72.69
233.477	60.69
233.711	78.69
233.945	96.69
234.179	65.69
234.413	76.69
234.647	80.69
234.881	70.69
235.115	77.69
235.349	63.69
235.583	85.69
235.817	75.69
236.051	70.69
236.285	66.69
236.519	71.69
236.753	75.69
236.987	63.69
237.221	77.69
237.455	80.69
237.689	90.69
237.922	79.69
238.156	73.69
238.39	73.69
238.624	85.69
238.858	78.69
239.091	72.69
239.325	78.69
239.559	68.69
239.793	75.69
240.027	76.69
240.26	71.69
240.494	78.69
240.728	61.69
240.961	83.69
241.195	73.69
241.429	85.69
241.662	85.69
241.896	72.69
242.13	77.69
242.363	73.69
242.597	62.69
242.83	67.69
243.064	77.69
243.298	81.69
243.531	69.69
243.765	87.69
243.998	75.69
244.232	80.69
244.465	89.69
244.699	68.69
244.932	58.69
245.166	77.69
245.399	90.69
245.633	73.69
245.866	66.69
246.099	72.69
246.333	82.69
246.566	72.69
246.8	79.69
247.033	69.69
247.266	81.69
247.5	58.69
247.733	66.69
247.966	69.69
248.2	66.69
248.433	77.69
248.666	69.69
248.899	72.69
249.133	88.69
249.366	98.69
249.599	94.69
249.832	83.69
250.066	75.69
250.299	73.69
250.532	80.69
250.765	81.69
250.998	68.69
251.231	86.69
251.465	76.69
251.698	76.69
251.931	88.69
252.164	73.69
252.397	79.69
252.63	83.69
252.863	75.69
253.096	85.69
253.329	76.69
253.562	72.69
253.795	75.69
254.028	101.69
254.261	89.69
254.494	72.69
254.727	71.69
254.96	70.69
255.193	82.69
255.426	73.69
255.659	65.69
255.892	88.69
256.124	74.69
256.357	68.69
256.59	78.69
256.823	83.69
257.056	81.69
257.289	74.69
257.521	78.69
257.754	76.69
257.987	68.69
258.22	81.69
258.452	79.69
258.685	76.69
258.918	78.69
259.151	72.69
259.383	72.69
259.616	82.69
259.849	89.69
260.081	88.69
260.314	84.69
260.547	84.69
260.779	72.69
261.012	77.69
261.244	73.69
261.477	75.69
261.71	102.69
261.942	110.69
262.175	115.69
262.407	83.69
262.64	74.69
262.872	76.69
263.105	66.69
263.337	88.69
263.57	76.69
263.802	89.69
264.035	76.69
264.267	91.69
264.499	85.69
264.732	86.69
264.964	80.69
265.197	83.69
265.429	75.69
265.661	78.69
265.894	76.69
266.126	75.69
266.358	74.69
266.591	71.69
266.823	81.69
267.055	87.69
267.287	89.69
267.52	77.69
267.752	79.69
267.984	74.69
268.216	89.69
268.448	83.69
268.681	88.69
268.913	82.69
269.145	83.69
269.377	78.69
269.609	83.69
269.841	89.69
270.073	81.69
270.306	86.69
270.538	73.69
270.77	81.69
271.002	71.69
271.234	92.69
271.466	78.69
271.698	79.69
271.93	78.69
272.162	69.69
272.394	82.69
272.626	72.69
272.858	77.69
273.09	83.69
273.322	81.69
273.553	73.69
273.785	73.69
274.017	83.69
274.249	83.69
274.481	85.69
274.713	76.69
274.945	80.69
275.176	80.69
275.408	85.69
275.64	83.69
275.872	84.69
276.104	90.69
276.335	89.69
276.567	103.69
276.799	108.69
277.031	101.69
277.262	86.69
277.494	76.69
277.726	73.69
277.957	87.69
278.189	81.69
278.421	89.69
278.652	75.69
278.884	77.69
279.115	69.69
279.347	84.69
279.579	95.69
279.81	70.69
280.042	85.69
280.273	96.69
280.505	86.69
280.736	83.69
280.968	79.69
281.199	98.69
281.431	101.69
281.662	81.69
281.894	89.69
282.125	97.69
282.356	137.69
282.588	148.69
282.819	114.69
283.051	94.69
283.282	80.69
283.513	85.69
283.745	98.69
283.976	86.69
284.207	82.69
284.439	88.69
284.67	79.69
284.901	91.69
285.132	83.69
285.364	85.69
285.595	82.69
285.826	91.69
286.057	86.69
286.288	92.69
286.52	109.69
286.751	79.69
286.982	78.69
287.213	85.69
287.444	89.69
287.675	76.69
287.906	93.69
288.138	91.69
288.369	86.69
288.6	89.69
288.831	84.69
289.062	82.69
289.293	85.69
289.524	76.69
289.755	85.69
289.986	93.69
290.217	79.69
290.448	73.69
290.679	73.69
290.91	88.69
291.141	72.69
291.371	88.69
291.602	77.69
291.833	85.69
292.064	82.69
292.295	77.69
292.526	89.69
292.757	84.69
292.987	90.69
293.218	89.69
293.449	80.69
293.68	88.69
293.91	86.69
294.141	79.69
294.372	87.69
294.603	88.69
294.833	78.69
295.064	92.69
295.295	88.69
295.525	92.69
295.756	94.69
295.987	102.69
296.217	142.69
296.448	138.69
296.679	98.69
296.909	86.69
297.14	94.69
297.37	85.69
297.601	83.69
297.831	92.69
298.062	98.69
298.292	93.69
298.523	91.69
298.753	77.69
298.984	87.69
299.214	93.69
299.445	87.69
299.675	91.69
299.905	92.69
300.136	87.69
300.366	94.69
300.597	82.69
300.827	93.69
301.057	89.69
301.288	108.69
301.518	85.69
301.748	82.69
301.979	87.69
302.209	87.69
302.439	90.69
302.669	82.69
302.9	77.69
303.13	80.69
303.36	90.69
303.59	104.69
303.82	112.69
304.051	89.69
304.281	88.69
304.511	99.69
304.741	103.69
304.971	81.69
305.201	81.69
305.431	84.69
305.661	87.69
305.891	86.69
306.121	93.69
306.352	102.69
306.582	109.69
306.812	90.69
307.042	87.69
307.272	86.69
307.502	89.69
307.731	86.69
307.961	89.69
308.191	81.69
308.421	89.69
308.651	91.69
308.881	82.69
309.111	91.69
309.341	85.69
309.571	99.69
309.8	99.69
310.03	82.69
310.26	82.69
310.49	80.69
310.72	91.69
310.949	98.69
311.179	102.69
311.409	87.69
311.639	91.69
311.868	102.69
312.098	74.69
312.328	96.69
312.557	113.69
312.787	100.69
313.017	83.69
313.246	91.69
313.476	71.69
313.706	88.69
313.935	95.69
314.165	99.69
314.394	90.69
314.624	113.69
314.853	111.69
315.083	88.69
315.312	88.69
315.542	85.69
315.771	89.69
316.001	79.69
316.23	82.69
316.46	90.69
316.689	76.69
316.919	98.69
317.148	97.69
317.377	99.69
317.607	78.69
317.836	85.69
318.065	89.69
318.295	94.69
318.524	94.69
318.753	92.69
318.983	83.69
319.212	95.69
319.441	104.69
319.67	105.69
319.9	79.69
320.129	91.69
320.358	101.69
320.587	85.69
320.816	94.69
321.046	96.69
321.275	94.69
321.504	90.69
321.733	104.69
321.962	104.69
322.191	101.69
322.42	105.69
322.649	105.69
322.878	107.69
323.108	119.69
323.337	121.69
323.566	141.69
323.795	179.69
324.024	253.69
324.253	481.69
324.482	1048.69
324.71	2185.69
324.939	2862.69
325.168	1023.69
325.397	293.69
325.626	161.69
325.855	133.69
326.084	122.69
326.313	141.69
326.542	165.69
326.77	286.69
326.999	583.69
327.228	1229.69
327.457	2232.69
327.686	1707.69
327.914	453.69
328.143	232.69
328.372	163.69
328.6	136.69
328.829	112.69
329.058	127.69
329.287	142.69
329.515	111.69
329.744	107.69
329.972	116.69
330.201	134.69
330.43	167.69
330.658	139.69
330.887	146.69
331.115	123.69
331.344	93.69
331.572	86.69
331.801	101.69
332.03	103.69
332.258	107.69
332.486	95.69
332.715	109.69
332.943	94.69
333.172	104.69
333.4	99.69
333.629	117.69
333.857	114.69
334.085	111.69
334.314	144.69
334.542	157.69
334.771	151.69
334.999	105.69
335.227	98.69
335.455	92.69
335.684	90.69
335.912	92.69
336.14	87.69
336.369	89.69
336.597	92.69
336.825	80.69
337.053	96.69
337.281	80.69
337.51	82.69
337.738	84.69
337.966	88.69
338.194	94.69
338.422	93.69
338.65	105.69
338.878	90.69
339.106	91.69
339.334	98.69
339.562	99.69
339.79	89.69
340.018	88.69
340.246	94.69
340.474	99.69
340.702	97.69
340.93	95.69
341.158	103.69
341.386	87.69
341.614	87.69
341.842	96.69
342.07	93.69
342.298	78.69
342.526	93.69
342.754	81.69
342.981	71.69
343.209	88.69
343.437	97.69
343.665	78.69
343.893	79.69
344.12	80.69
344.348	86.69
344.576	98.69
344.804	93.69
345.031	108.69
345.259	96.69
345.487	87.69
345.714	93.69
345.942	82.69
346.17	78.69
346.397	82.69
346.625	81.69
346.853	81.69
347.08	81.69
347.308	83.69
347.535	104.69
347.763	111.69
347.99	105.69
348.218	88.69
348.445	117.69
348.673	87.69
348.9	107.69
349.128	103.69
349.355	97.69
349.583	92.69
349.81	95.69
350.037	99.69
350.265	101.69
350.492	93.69
350.72	96.69
350.947	92.69
351.174	105.69
351.402	98.69
351.629	105.69
351.856	94.69
352.083	89.69
352.311	96.69
352.538	123.69
352.765	114.69
352.992	114.69
353.22	101.69
353.447	105.69
353.674	89.69
353.901	91.69
354.128	80.69
354.355	96.69
354.583	86.69
354.81	84.69
355.037	97.69
355.264	85.69
355.491	91.69
355.718	89.69
355.945	86.69
356.172	86.69
356.399	106.69
356.626	77.69
356.853	94.69
357.08	91.69
357.307	83.69
357.534	83.69
357.761	85.69
357.988	98.69
358.215	83.69
358.441	89.69
358.668	89.69
358.895	92.69
359.122	92.69
359.349	88.69
359.576	87.69
359.802	102.69
360.029	110.69
360.256	122.69
360.483	92.69
360.709	92.69
360.936	92.69
361.163	83.69
361.39	90.69
361.616	81.69
361.843	77.69
362.07	93.69
362.296	84.69
362.523	84.69
362.749	74.69
362.976	82.69
363.203	89.69
363.429	78.69
363.656	92.69
363.882	72.69
364.109	88.69
364.335	82.69
364.562	82.69
364.788	89.69
365.015	86.69
365.241	94.69
365.468	105.69
365.694	91.69
365.92	96.69
366.147	72.69
366.373	83.69
366.599	71.69
366.826	86.69
367.052	75.69
367.278	98.69
367.505	85.69
367.731	97.69
367.957	91.69
368.184	82.69
368.41	94.69
368.636	122.69
368.862	122.69
369.089	110.69
369.315	92.69
369.541	76.69
369.767	75.69
369.993	77.69
370.219	81.69
370.445	88.69
370.672	61.69
370.898	81.69
371.124	81.69
371.35	96.69
371.576	78.69
371.802	82.69
372.028	81.69
372.254	65.69
372.48	80.69
372.706	83.69
372.932	87.69
373.158	77.69
373.384	81.69
373.61	79.69
373.835	81.69
374.061	83.69
374.287	82.69
374.513	77.69
374.739	87.69
374.965	87.69
375.191	97.69
375.416	99.69
375.642	96.69
375.868	106.69
376.094	88.69
376.319	81.69
376.545	85.69
376.771	95.69
376.997	80.69
377.222	77.69
377.448	97.69
377.674	85.69
377.899	97.69
378.125	100.69
378.35	98.69
378.576	92.69
378.802	83.69
379.027	90.69
379.253	97.69
379.478	78.69
379.704	92.69
379.929	78.69
380.155	84.69
380.38	88.69
380.606	87.69
380.831	91.69
381.057	92.69
381.282	90.69
381.507	79.69
381.733	102.69
381.958	81.69
382.184	96.69
382.409	86.69
382.634	93.69
382.86	87.69
383.085	101.69
383.31	98.69
383.535	94.69
383.761	104.69
383.986	107.69
384.211	85.69
384.436	83.69
384.662	102.69
384.887	106.69
385.112	113.69
385.337	114.69
385.562	86.69
385.787	101.69
386.013	96.69
386.238	108.69
386.463	113.69
386.688	91.69
386.913	82.69
387.138	104.69
387.363	103.69
387.588	102.69
387.813	100.69
388.038	113.69
388.263	107.69
388.488	94.69
388.713	85.69
388.938	89.69
389.163	96.69
389.387	86.69
389.612	76.69
389.837	89.69
390.062	86.69
390.287	95.69
390.512	101.69
390.736	94.69
390.961	86.69
391.186	91.69
391.411	108.69
391.636	90.69
391.86	94.69
392.085	80.69
392.31	81.69
392.534	83.69
392.759	88.69
392.984	75.69
393.208	87.69
393.433	98.69
393.658	78.69
393.882	89.69
394.107	80.69
394.331	77.69
394.556	71.69
394.78	96.69
395.005	78.69
395.229	78.69
395.454	77.69
395.678	77.69
395.903	76.69
396.127	87.69
396.352	82.69
396.576	88.69
396.801	73.69
397.025	81.69
397.249	92.69
397.474	87.69
397.698	76.69
397.922	80.69
398.147	100.69
398.371	70.69
398.595	88.69
398.82	88.69
399.044	80.69
399.268	93.69
399.492	60.69
399.717	102.69
399.941	88.69
400.165	86.69
400.389	92.69
400.613	78.69
400.837	89.69
401.062	71.69
401.286	87.69
401.51	81.69
401.734	93.69
401.958	101.69
402.182	140.69
402.406	161.69
402.63	113.69
402.854	103.69
403.078	93.69
403.302	69.69
403.526	85.69
403.75	78.69
403.974	81.69
404.198	82.69
404.422	100.69
404.645	95.69
404.869	79.69
405.093	80.69
405.317	109.69
405.541	97.69
405.765	80.69
405.988	122.69
406.212	167.69
406.436	239.69
406.66	162.69
406.883	100.69
407.107	86.69
407.331	88.69
407.555	91.69
407.778	88.69
408.002	89.69
408.226	83.69
408.449	87.69
408.673	99.69
408.896	91.69
409.12	101.69
409.344	73.69
409.567	88.69
409.791	83.69
410.014	84.69
410.238	78.69
410.461	74.69
410.685	98.69
410.908	83.69
411.132	105.69
411.355	84.69
411.578	82.69
411.802	85.69
412.025	89.69
412.249	83.69
412.472	87.69
412.695	89.69
412.919	81.69
413.142	87.69
413.365	83.69
413.589	76.69
413.812	78.69
414.035	89.69
414.258	81.69
414.482	72.69
414.705	88.69
414.928	88.69
415.151	95.69
415.374	105.69
415.597	72.69
415.821	83.69
416.044	73.69
416.267	77.69
416.49	79.69
416.713	85.69
416.936	87.69
417.159	85.69
417.382	86.69
417.605	88.69
417.828	97.69
418.051	82.69
418.274	76.69
418.497	75.69
418.72	90.69
418.943	81.69
419.166	87.69
419.389	87.69
419.611	87.69
419.834	83.69
420.057	77.69
420.28	78.69
420.503	88.69
420.726	95.69
420.948	86.69
421.171	87.69
421.394	94.69
421.617	92.69
421.839	82.69
422.062	101.69
422.285	78.69
422.507	91.69
422.73	88.69
422.953	88.69
423.175	99.69
423.398	79.69
423.621	90.69
423.843	90.69
424.066	86.69
424.288	91.69
424.511	94.69
424.733	83.69
424.956	110.69
425.178	81.69
425.401	77.69
425.623	90.69
425.846	81.69
426.068	77.69
426.291	88.69
426.513	78.69
426.735	96.69
426.958	96.69
427.18	109.69
427.402	150.69
427.625	178.69
427.847	131.69
428.069	108.69
428.292	89.69
428.514	86.69
428.736	87.69
428.958	79.69
429.181	88.69
429.403	73.69
429.625	76.69
429.847	76.69
430.069	91.69
430.292	81.69
430.514	80.69
430.736	81.69
430.958	89.69
431.18	104.69
431.402	86.69
431.624	87.69
431.846	86.69
432.068	67.69
432.29	75.69
432.512	88.69
432.734	107.69
432.956	89.69
433.178	86.69
433.4	95.69
433.622	82.69
433.844	83.69
434.066	89.69
434.287	83.69
434.509	81.69
434.731	78.69
434.953	88.69
435.175	83.69
435.397	83.69
435.618	86.69
435.84	98.69
436.062	117.69
436.284	99.69
436.505	94.69
436.727	112.69
436.949	96.69
437.17	88.69
437.392	93.69
437.614	82.69
437.835	110.69
438.057	113.69
438.278	119.69
438.5	103.69
438.721	109.69
438.943	80.69
439.165	87.69
439.386	89.69
439.608	85.69
439.829	91.69
440.05	124.69
440.272	145.69
440.493	82.69
440.715	85.69
440.936	80.69
441.158	84.69
441.379	66.69
441.6	77.69
441.822	80.69
442.043	105.69
442.264	97.69
442.486	94.69
442.707	90.69
442.928	105.69
443.149	137.69
443.371	121.69
443.592	97.69
443.813	110.69
444.034	107.69
444.255	92.69
444.476	88.69
444.698	81.69
444.919	80.69
445.14	131.69
445.361	100.69
445.582	119.69
445.803	133.69
446.024	121.69
446.245	133.69
446.466	106.69
446.687	81.69
446.908	79.69
447.129	67.69
447.35	92.69
447.571	94.69
447.792	93.69
448.013	95.69
448.234	93.69
448.455	92.69
448.675	107.69
448.896	117.69
449.117	103.69
449.338	89.69
449.559	122.69
449.779	136.69
450	83.69
450.221	76.69
450.442	72.69
450.662	93.69
450.883	93.69
451.104	107.69
451.324	89.69
451.545	82.69
451.766	95.69
451.986	83.69
452.207	96.69
452.428	77.69
452.648	87.69
452.869	103.69
453.089	105.69
453.31	124.69
453.53	99.69
453.751	78.69
453.971	113.69
454.192	107.69
454.412	91.69
454.633	69.69
454.853	91.69
455.073	69.69
455.294	94.69
455.514	79.69
455.734	85.69
455.955	96.69
456.175	82.69
456.395	72.69
456.616	77.69
456.836	96.69
457.056	69.69
457.276	73.69
457.497	82.69
457.717	71.69
457.937	86.69
458.157	90.69
458.377	90.69
458.598	120.69
458.818	159.69
459.038	151.69
459.258	108.69
459.478	85.69
459.698	81.69
459.918	83.69
460.138	82.69
460.358	89.69
460.578	84.69
460.798	92.69
461.018	99.69
461.238	82.69
461.458	81.69
461.678	85.69
461.898	69.69
462.118	75.69
462.338	70.69
462.558	86.69
462.777	68.69
462.997	71.69
463.217	79.69
463.437	77.69
463.657	77.69
463.876	72.69
464.096	73.69
464.316	77.69
464.536	77.69
464.755	86.69
464.975	113.69
465.195	169.69
465.414	166.69
465.634	97.69
465.854	82.69
466.073	95.69
466.293	87.69
466.512	73.69
466.732	77.69
466.951	86.69
467.171	90.69
467.391	110.69
467.61	107.69
467.829	96.69
468.049	99.69
468.268	102.69
468.488	84.69
468.707	82.69
468.927	80.69
469.146	72.69
469.365	95.69
469.585	85.69
469.804	96.69
470.023	94.69
470.243	91.69
470.462	97.69
470.681	103.69
470.901	83.69
471.12	88.69
471.339	81.69
471.558	92.69
471.777	79.69
471.997	79.69
472.216	119.69
472.435	158.69
472.654	101.69
472.873	82.69
473.092	85.69
473.311	74.69
473.53	76.69
473.749	66.69
473.968	89.69
474.187	110.69
474.406	90.69
474.625	82.69
474.844	86.69
475.063	87.69
475.282	70.69
475.501	90.69
475.72	96.69
475.939	83.69
476.158	88.69
476.377	80.69
476.596	91.69
476.814	94.69
477.033	85.69
477.252	66.69
477.471	67.69
477.69	91.69
477.908	86.69
478.127	82.69
478.346	91.69
478.564	89.69
478.783	93.69
479.002	100.69
479.22	80.69
479.439	105.69
479.658	103.69
479.876	94.69
480.095	89.69
480.313	96.69
480.532	101.69
480.751	96.69
480.969	114.69
481.188	271.69
481.406	189.69
481.624	83.69
481.843	93.69
482.061	88.69
482.28	85.69
482.498	83.69
482.717	91.69
482.935	91.69
483.153	97.69
483.372	87.69
483.59	76.69
483.808	79.69
484.027	90.69
484.245	80.69
484.463	92.69
484.681	90.69
484.9	83.69
485.118	101.69
485.336	83.69
485.554	101.69
485.772	99.69
485.99	118.69
486.209	110.69
486.427	92.69
486.645	107.69
486.863	113.69
487.081	92.69
487.299	98.69
487.517	91.69
487.735	89.69
487.953	94.69
488.171	94.69
488.389	86.69
488.607	91.69
488.825	86.69
489.043	82.69
489.261	93.69
489.479	99.69
489.696	98.69
489.914	76.69
490.132	90.69
490.35	80.69
490.568	82.69
490.786	107.69
491.003	86.69
491.221	86.69
491.439	80.69
491.657	94.69
491.874	89.69
492.092	96.69
492.31	89.69
492.527	91.69
492.745	86.69
492.963	87.69
493.18	83.69
493.398	88.69
493.615	97.69
493.833	76.69
494.05	79.69
494.268	110.69
494.485	96.69
494.703	81.69
494.92	75.69
495.138	83.69
495.355	84.69
495.573	69.69
495.79	81.69
496.008	101.69
496.225	93.69
496.442	82.69
496.66	93.69
496.877	92.69
497.094	79.69
497.312	86.69
497.529	94.69
497.746	89.69
497.963	97.69
498.181	81.69
498.398	83.69
498.615	104.69
498.832	106.69
499.049	91.69
499.267	86.69
499.484	90.69
499.701	86.69
499.918	84.69
500.135	90.69
500.352	80.69
500.569	87.69
500.786	81.69
501.003	95.69
501.22	89.69
501.437	82.69
501.654	101.69
501.871	103.69
502.088	83.69
502.305	81.69
502.522	90.69
502.739	89.69
502.956	90.69
503.172	81.69
503.389	89.69
503.606	116.69
503.823	99.69
504.04	99.69
504.256	90.69
504.473	79.69
504.69	79.69
504.907	90.69
505.123	90.69
505.34	78.69
505.557	90.69
505.773	83.69
505.99	80.69
506.207	87.69
506.423	84.69
506.64	88.69
506.856	87.69
507.073	91.69
507.289	92.69
507.506	90.69
507.722	119.69
507.939	107.69
508.155	89.69
508.372	82.69
508.588	107.69
508.805	91.69
509.021	98.69
509.238	87.69
509.454	91.69
509.67	86.69
509.887	109.69
510.103	137.69
510.319	247.69
510.536	889.69
510.752	2929.69
510.968	774.69
511.184	166.69
511.401	120.69
511.617	111.69
511.833	93.69
512.049	87.69
512.265	100.69
512.481	96.69
512.698	87.69
512.914	82.69
513.13	94.69
513.346	92.69
513.562	85.69
513.778	90.69
513.994	107.69
514.21	100.69
514.426	119.69
514.642	144.69
514.858	138.69
515.074	192.69
515.29	534.69
515.506	1790.69
515.721	662.69
515.937	174.69
516.153	130.69
516.369	94.69
516.585	95.69
