Data from Circ_2006_H10_HRD10591_00070.txt Node
Date: Wed Jan 03 10:26:17 EST 2024
User: Yrep
Spectrometer: HR+D1059
Trigger mode: 1
Integration Time (sec): 1.000000E-1
Scans to average: 1
Electric dark correction enabled: true
Nonlinearity correction enabled: false
Boxcar width: 0
XAxis mode: Wavelengths
Number of Pixels in Spectrum: 2048
>>>>>Begin Spectral Data<<<<<
223.165	-4.25
223.4	-4.25
223.635	-4.25
223.869	-15.25
224.104	-10.25
224.338	-22.25
224.573	-31.25
224.808	-12.25
225.042	-8.25
225.277	-0.25
225.511	-0.25
225.746	4.75
225.98	8.75
226.215	-1.25
226.449	1.75
226.683	25.75
226.918	35.75
227.152	28.75
227.387	31.75
227.621	19.75
227.856	47.75
228.09	38.75
228.324	45.75
228.559	42.75
228.793	73.75
229.027	57.75
229.262	62.75
229.496	66.75
229.73	84.75
229.964	86.75
230.199	71.75
230.433	62.75
230.667	69.75
230.901	67.75
231.136	69.75
231.37	77.75
231.604	89.75
231.838	73.75
232.072	88.75
232.306	93.75
232.541	81.75
232.775	80.75
233.009	85.75
233.243	93.75
233.477	82.75
233.711	71.75
233.945	83.75
234.179	77.75
234.413	84.75
234.647	70.75
234.881	76.75
235.115	88.75
235.349	85.75
235.583	81.75
235.817	81.75
236.051	85.75
236.285	70.75
236.519	76.75
236.753	70.75
236.987	81.75
237.221	70.75
237.455	76.75
237.689	81.75
237.922	72.75
238.156	74.75
238.39	61.75
238.624	80.75
238.858	72.75
239.091	85.75
239.325	75.75
239.559	80.75
239.793	80.75
240.027	82.75
240.26	91.75
240.494	94.75
240.728	68.75
240.961	84.75
241.195	72.75
241.429	87.75
241.662	81.75
241.896	71.75
242.13	76.75
242.363	65.75
242.597	73.75
242.83	79.75
243.064	71.75
243.298	85.75
243.531	75.75
243.765	71.75
243.998	83.75
244.232	73.75
244.465	87.75
244.699	74.75
244.932	71.75
245.166	80.75
245.399	71.75
245.633	84.75
245.866	83.75
246.099	77.75
246.333	77.75
246.566	89.75
246.8	88.75
247.033	80.75
247.266	73.75
247.5	82.75
247.733	76.75
247.966	87.75
248.2	97.75
248.433	71.75
248.666	79.75
248.899	74.75
249.133	88.75
249.366	88.75
249.599	85.75
249.832	91.75
250.066	65.75
250.299	80.75
250.532	84.75
250.765	80.75
250.998	81.75
251.231	83.75
251.465	87.75
251.698	90.75
251.931	81.75
252.164	77.75
252.397	72.75
252.63	85.75
252.863	72.75
253.096	76.75
253.329	73.75
253.562	71.75
253.795	73.75
254.028	91.75
254.261	67.75
254.494	63.75
254.727	79.75
254.96	62.75
255.193	74.75
255.426	75.75
255.659	74.75
255.892	82.75
256.124	82.75
256.357	82.75
256.59	71.75
256.823	81.75
257.056	89.75
257.289	83.75
257.521	79.75
257.754	64.75
257.987	86.75
258.22	78.75
258.452	80.75
258.685	76.75
258.918	81.75
259.151	82.75
259.383	84.75
259.616	85.75
259.849	87.75
260.081	71.75
260.314	71.75
260.547	84.75
260.779	75.75
261.012	88.75
261.244	85.75
261.477	93.75
261.71	97.75
261.942	110.75
262.175	111.75
262.407	73.75
262.64	75.75
262.872	80.75
263.105	91.75
263.337	74.75
263.57	74.75
263.802	83.75
264.035	93.75
264.267	76.75
264.499	93.75
264.732	71.75
264.964	80.75
265.197	88.75
265.429	92.75
265.661	82.75
265.894	79.75
266.126	87.75
266.358	71.75
266.591	86.75
266.823	83.75
267.055	83.75
267.287	81.75
267.52	74.75
267.752	77.75
267.984	78.75
268.216	77.75
268.448	90.75
268.681	78.75
268.913	79.75
269.145	77.75
269.377	78.75
269.609	82.75
269.841	76.75
270.073	92.75
270.306	82.75
270.538	83.75
270.77	83.75
271.002	79.75
271.234	78.75
271.466	80.75
271.698	83.75
271.93	86.75
272.162	72.75
272.394	79.75
272.626	96.75
272.858	82.75
273.09	100.75
273.322	85.75
273.553	97.75
273.785	73.75
274.017	75.75
274.249	84.75
274.481	97.75
274.713	81.75
274.945	89.75
275.176	77.75
275.408	83.75
275.64	82.75
275.872	78.75
276.104	79.75
276.335	74.75
276.567	96.75
276.799	103.75
277.031	100.75
277.262	93.75
277.494	91.75
277.726	86.75
277.957	72.75
278.189	83.75
278.421	79.75
278.652	89.75
278.884	92.75
279.115	84.75
279.347	92.75
279.579	93.75
279.81	88.75
280.042	92.75
280.273	86.75
280.505	78.75
280.736	79.75
280.968	87.75
281.199	84.75
281.431	90.75
281.662	92.75
281.894	85.75
282.125	98.75
282.356	119.75
282.588	125.75
282.819	120.75
283.051	89.75
283.282	85.75
283.513	71.75
283.745	72.75
283.976	92.75
284.207	84.75
284.439	83.75
284.67	79.75
284.901	85.75
285.132	81.75
285.364	86.75
285.595	75.75
285.826	84.75
286.057	79.75
286.288	74.75
286.52	95.75
286.751	85.75
286.982	85.75
287.213	84.75
287.444	79.75
287.675	79.75
287.906	100.75
288.138	82.75
288.369	90.75
288.6	90.75
288.831	79.75
289.062	88.75
289.293	80.75
289.524	84.75
289.755	74.75
289.986	87.75
290.217	79.75
290.448	84.75
290.679	82.75
290.91	87.75
291.141	76.75
291.371	75.75
291.602	83.75
291.833	63.75
292.064	82.75
292.295	70.75
292.526	84.75
292.757	84.75
292.987	77.75
293.218	73.75
293.449	80.75
293.68	72.75
293.91	84.75
294.141	81.75
294.372	92.75
294.603	75.75
294.833	77.75
295.064	90.75
295.295	89.75
295.525	85.75
295.756	96.75
295.987	120.75
296.217	141.75
296.448	127.75
296.679	100.75
296.909	89.75
297.14	84.75
297.37	90.75
297.601	81.75
297.831	90.75
298.062	79.75
298.292	85.75
298.523	90.75
298.753	92.75
298.984	93.75
299.214	86.75
299.445	83.75
299.675	99.75
299.905	81.75
300.136	84.75
300.366	80.75
300.597	85.75
300.827	90.75
301.057	85.75
301.288	105.75
301.518	97.75
301.748	96.75
301.979	92.75
302.209	96.75
302.439	83.75
302.669	87.75
302.9	88.75
303.13	100.75
303.36	108.75
303.59	101.75
303.82	107.75
304.051	81.75
304.281	75.75
304.511	72.75
304.741	79.75
304.971	84.75
305.201	93.75
305.431	92.75
305.661	93.75
305.891	70.75
306.121	89.75
306.352	104.75
306.582	90.75
306.812	98.75
307.042	72.75
307.272	94.75
307.502	97.75
307.731	106.75
307.961	105.75
308.191	83.75
308.421	83.75
308.651	85.75
308.881	88.75
309.111	98.75
309.341	87.75
309.571	95.75
309.8	114.75
310.03	87.75
310.26	97.75
310.49	97.75
310.72	91.75
310.949	100.75
311.179	94.75
311.409	91.75
311.639	105.75
311.868	78.75
312.098	91.75
312.328	102.75
312.557	101.75
312.787	120.75
313.017	90.75
313.246	93.75
313.476	99.75
313.706	90.75
313.935	98.75
314.165	95.75
314.394	94.75
314.624	104.75
314.853	90.75
315.083	92.75
315.312	96.75
315.542	92.75
315.771	79.75
316.001	109.75
316.23	93.75
316.46	70.75
316.689	85.75
316.919	97.75
317.148	103.75
317.377	98.75
317.607	94.75
317.836	85.75
318.065	103.75
318.295	90.75
318.524	86.75
318.753	82.75
318.983	98.75
319.212	105.75
319.441	118.75
319.67	103.75
319.9	105.75
320.129	75.75
320.358	92.75
320.587	104.75
320.816	79.75
321.046	90.75
321.275	81.75
321.504	88.75
321.733	84.75
321.962	111.75
322.191	102.75
322.42	96.75
322.649	122.75
322.878	112.75
323.108	110.75
323.337	108.75
323.566	143.75
323.795	169.75
324.024	205.75
324.253	417.75
324.482	905.75
324.71	1878.75
324.939	2423.75
325.168	889.75
325.397	255.75
325.626	146.75
325.855	129.75
326.084	136.75
326.313	143.75
326.542	153.75
326.77	243.75
326.999	510.75
327.228	1041.75
327.457	1892.75
327.686	1520.75
327.914	399.75
328.143	216.75
328.372	149.75
328.6	113.75
328.829	107.75
329.058	125.75
329.287	142.75
329.515	114.75
329.744	114.75
329.972	103.75
330.201	135.75
330.43	141.75
330.658	130.75
330.887	126.75
331.115	127.75
331.344	102.75
331.572	108.75
331.801	100.75
332.03	114.75
332.258	85.75
332.486	97.75
332.715	93.75
332.943	98.75
333.172	105.75
333.4	92.75
333.629	96.75
333.857	107.75
334.085	118.75
334.314	114.75
334.542	148.75
334.771	143.75
334.999	100.75
335.227	95.75
335.455	98.75
335.684	99.75
335.912	96.75
336.14	101.75
336.369	106.75
336.597	98.75
336.825	89.75
337.053	84.75
337.281	91.75
337.51	84.75
337.738	88.75
337.966	79.75
338.194	76.75
338.422	89.75
338.65	82.75
338.878	86.75
339.106	89.75
339.334	84.75
339.562	92.75
339.79	93.75
340.018	87.75
340.246	95.75
340.474	83.75
340.702	94.75
340.93	93.75
341.158	89.75
341.386	107.75
341.614	107.75
341.842	93.75
342.07	92.75
342.298	80.75
342.526	94.75
342.754	92.75
342.981	91.75
343.209	90.75
343.437	90.75
343.665	88.75
343.893	99.75
344.12	93.75
344.348	89.75
344.576	90.75
344.804	91.75
345.031	92.75
345.259	93.75
345.487	92.75
345.714	79.75
345.942	82.75
346.17	89.75
346.397	77.75
346.625	81.75
346.853	95.75
347.08	90.75
347.308	84.75
347.535	102.75
347.763	106.75
347.99	91.75
348.218	115.75
348.445	108.75
348.673	90.75
348.9	94.75
349.128	88.75
349.355	104.75
349.583	90.75
349.81	98.75
350.037	99.75
350.265	84.75
350.492	88.75
350.72	97.75
350.947	95.75
351.174	127.75
351.402	101.75
351.629	91.75
351.856	95.75
352.083	96.75
352.311	99.75
352.538	107.75
352.765	108.75
352.992	114.75
353.22	101.75
353.447	98.75
353.674	95.75
353.901	94.75
354.128	92.75
354.355	99.75
354.583	111.75
354.81	99.75
355.037	107.75
355.264	95.75
355.491	112.75
355.718	85.75
355.945	101.75
356.172	89.75
356.399	83.75
356.626	101.75
356.853	108.75
357.08	108.75
357.307	94.75
357.534	95.75
357.761	82.75
357.988	98.75
358.215	80.75
358.441	87.75
358.668	102.75
358.895	85.75
359.122	91.75
359.349	84.75
359.576	95.75
359.802	103.75
360.029	122.75
360.256	103.75
360.483	86.75
360.709	96.75
360.936	97.75
361.163	92.75
361.39	114.75
361.616	94.75
361.843	85.75
362.07	88.75
362.296	99.75
362.523	95.75
362.749	80.75
362.976	93.75
363.203	98.75
363.429	88.75
363.656	90.75
363.882	79.75
364.109	92.75
364.335	78.75
364.562	82.75
364.788	81.75
365.015	90.75
365.241	92.75
365.468	113.75
365.694	113.75
365.92	86.75
366.147	82.75
366.373	83.75
366.599	85.75
366.826	91.75
367.052	96.75
367.278	91.75
367.505	82.75
367.731	89.75
367.957	89.75
368.184	90.75
368.41	96.75
368.636	110.75
368.862	119.75
369.089	104.75
369.315	91.75
369.541	83.75
369.767	104.75
369.993	92.75
370.219	85.75
370.445	87.75
370.672	75.75
370.898	96.75
371.124	95.75
371.35	96.75
371.576	93.75
371.802	95.75
372.028	95.75
372.254	89.75
372.48	88.75
372.706	80.75
372.932	80.75
373.158	74.75
373.384	87.75
373.61	84.75
373.835	79.75
374.061	93.75
374.287	96.75
374.513	106.75
374.739	83.75
374.965	79.75
375.191	82.75
375.416	78.75
375.642	80.75
375.868	76.75
376.094	91.75
376.319	79.75
376.545	88.75
376.771	90.75
376.997	96.75
377.222	59.75
377.448	90.75
377.674	89.75
377.899	93.75
378.125	93.75
378.35	106.75
378.576	85.75
378.802	88.75
379.027	89.75
379.253	91.75
379.478	84.75
379.704	85.75
379.929	98.75
380.155	92.75
380.38	95.75
380.606	104.75
380.831	99.75
381.057	97.75
381.282	91.75
381.507	81.75
381.733	88.75
381.958	75.75
382.184	99.75
382.409	90.75
382.634	98.75
382.86	92.75
383.085	89.75
383.31	105.75
383.535	101.75
383.761	76.75
383.986	86.75
384.211	94.75
384.436	95.75
384.662	92.75
384.887	108.75
385.112	99.75
385.337	87.75
385.562	116.75
385.787	96.75
386.013	115.75
386.238	110.75
386.463	100.75
386.688	120.75
386.913	95.75
387.138	95.75
387.363	91.75
387.588	85.75
387.813	80.75
388.038	101.75
388.263	109.75
388.488	99.75
388.713	103.75
388.938	92.75
389.163	85.75
389.387	95.75
389.612	96.75
389.837	99.75
390.062	86.75
390.287	101.75
390.512	83.75
390.736	80.75
390.961	86.75
391.186	72.75
391.411	81.75
391.636	78.75
391.86	74.75
392.085	85.75
392.31	89.75
392.534	85.75
392.759	87.75
392.984	86.75
393.208	89.75
393.433	92.75
393.658	94.75
393.882	88.75
394.107	78.75
394.331	84.75
394.556	83.75
394.78	95.75
395.005	92.75
395.229	93.75
395.454	89.75
395.678	79.75
395.903	70.75
396.127	84.75
396.352	82.75
396.576	86.75
396.801	95.75
397.025	92.75
397.249	93.75
397.474	82.75
397.698	81.75
397.922	81.75
398.147	90.75
398.371	78.75
398.595	85.75
398.82	96.75
399.044	86.75
399.268	92.75
399.492	91.75
399.717	96.75
399.941	80.75
400.165	90.75
400.389	96.75
400.613	74.75
400.837	85.75
401.062	82.75
401.286	89.75
401.51	103.75
401.734	98.75
401.958	99.75
402.182	122.75
402.406	153.75
402.63	112.75
402.854	84.75
403.078	92.75
403.302	94.75
403.526	82.75
403.75	102.75
403.974	79.75
404.198	97.75
404.422	92.75
404.645	71.75
404.869	77.75
405.093	95.75
405.317	102.75
405.541	112.75
405.765	93.75
405.988	110.75
406.212	176.75
406.436	228.75
406.66	139.75
406.883	90.75
407.107	95.75
407.331	94.75
407.555	94.75
407.778	83.75
408.002	84.75
408.226	88.75
408.449	76.75
408.673	97.75
408.896	98.75
409.12	91.75
409.344	84.75
409.567	84.75
409.791	86.75
410.014	98.75
410.238	85.75
410.461	94.75
410.685	81.75
410.908	94.75
411.132	94.75
411.355	100.75
411.578	88.75
411.802	96.75
412.025	80.75
412.249	86.75
412.472	92.75
412.695	107.75
412.919	79.75
413.142	76.75
413.365	83.75
413.589	84.75
413.812	88.75
414.035	85.75
414.258	88.75
414.482	82.75
414.705	82.75
414.928	87.75
415.151	82.75
415.374	88.75
415.597	85.75
415.821	94.75
416.044	89.75
416.267	98.75
416.49	76.75
416.713	85.75
416.936	69.75
417.159	92.75
417.382	87.75
417.605	83.75
417.828	81.75
418.051	89.75
418.274	83.75
418.497	100.75
418.72	82.75
418.943	75.75
419.166	75.75
419.389	79.75
419.611	90.75
419.834	83.75
420.057	89.75
420.28	84.75
420.503	88.75
420.726	74.75
420.948	90.75
421.171	100.75
421.394	83.75
421.617	82.75
421.839	73.75
422.062	90.75
422.285	101.75
422.507	98.75
422.73	116.75
422.953	91.75
423.175	78.75
423.398	97.75
423.621	99.75
423.843	66.75
424.066	84.75
424.288	73.75
424.511	86.75
424.733	98.75
424.956	106.75
425.178	89.75
425.401	107.75
425.623	110.75
425.846	84.75
426.068	93.75
426.291	105.75
426.513	85.75
426.735	83.75
426.958	98.75
427.18	101.75
427.402	126.75
427.625	159.75
427.847	133.75
428.069	125.75
428.292	91.75
428.514	78.75
428.736	93.75
428.958	79.75
429.181	92.75
429.403	77.75
429.625	84.75
429.847	85.75
430.069	84.75
430.292	89.75
430.514	74.75
430.736	75.75
430.958	80.75
431.18	83.75
431.402	81.75
431.624	88.75
431.846	88.75
432.068	86.75
432.29	99.75
432.512	87.75
432.734	86.75
432.956	98.75
433.178	92.75
433.4	104.75
433.622	100.75
433.844	86.75
434.066	93.75
434.287	83.75
434.509	98.75
434.731	92.75
434.953	86.75
435.175	91.75
435.397	98.75
435.618	102.75
435.84	103.75
436.062	100.75
436.284	103.75
436.505	110.75
436.727	97.75
436.949	81.75
437.17	90.75
437.392	86.75
437.614	94.75
437.835	96.75
438.057	116.75
438.278	97.75
438.5	94.75
438.721	105.75
438.943	100.75
439.165	96.75
439.386	85.75
439.608	100.75
439.829	105.75
440.05	132.75
440.272	142.75
440.493	96.75
440.715	89.75
440.936	73.75
441.158	83.75
441.379	88.75
441.6	91.75
441.822	97.75
442.043	100.75
442.264	100.75
442.486	97.75
442.707	80.75
442.928	93.75
443.149	121.75
443.371	123.75
443.592	105.75
443.813	105.75
444.034	105.75
444.255	83.75
444.476	82.75
444.698	80.75
444.919	99.75
445.14	131.75
445.361	121.75
445.582	121.75
445.803	148.75
446.024	135.75
446.245	121.75
446.466	105.75
446.687	103.75
446.908	81.75
447.129	99.75
447.35	106.75
447.571	77.75
447.792	89.75
448.013	95.75
448.234	104.75
448.455	105.75
448.675	104.75
448.896	101.75
449.117	97.75
449.338	95.75
449.559	130.75
449.779	120.75
450	93.75
450.221	86.75
450.442	71.75
450.662	93.75
450.883	112.75
451.104	99.75
451.324	98.75
451.545	101.75
451.766	91.75
451.986	81.75
452.207	77.75
452.428	83.75
452.648	97.75
452.869	103.75
453.089	103.75
453.31	113.75
453.53	100.75
453.751	85.75
453.971	104.75
454.192	106.75
454.412	91.75
454.633	92.75
454.853	91.75
455.073	82.75
455.294	101.75
455.514	95.75
455.734	86.75
455.955	93.75
456.175	82.75
456.395	98.75
456.616	87.75
456.836	90.75
457.056	99.75
457.276	96.75
457.497	80.75
457.717	90.75
457.937	94.75
458.157	114.75
458.377	85.75
458.598	109.75
458.818	147.75
459.038	164.75
459.258	108.75
459.478	98.75
459.698	80.75
459.918	76.75
460.138	96.75
460.358	91.75
460.578	83.75
460.798	98.75
461.018	76.75
461.238	77.75
461.458	93.75
461.678	79.75
461.898	83.75
462.118	77.75
462.338	91.75
462.558	86.75
462.777	81.75
462.997	93.75
463.217	86.75
463.437	85.75
463.657	89.75
463.876	85.75
464.096	92.75
464.316	83.75
464.536	89.75
464.755	100.75
464.975	107.75
465.195	160.75
465.414	167.75
465.634	84.75
465.854	89.75
466.073	103.75
466.293	87.75
466.512	97.75
466.732	82.75
466.951	77.75
467.171	89.75
467.391	82.75
467.61	85.75
467.829	90.75
468.049	112.75
468.268	109.75
468.488	94.75
468.707	80.75
468.927	91.75
469.146	77.75
469.365	84.75
469.585	78.75
469.804	79.75
470.023	98.75
470.243	104.75
470.462	91.75
470.681	116.75
470.901	101.75
471.12	80.75
471.339	92.75
471.558	91.75
471.777	81.75
471.997	95.75
472.216	138.75
472.435	177.75
472.654	119.75
472.873	85.75
473.092	77.75
473.311	87.75
473.53	89.75
473.749	96.75
473.968	88.75
474.187	91.75
474.406	103.75
474.625	85.75
474.844	90.75
475.063	88.75
475.282	80.75
475.501	83.75
475.72	95.75
475.939	95.75
476.158	89.75
476.377	81.75
476.596	84.75
476.814	99.75
477.033	94.75
477.252	84.75
477.471	82.75
477.69	88.75
477.908	82.75
478.127	84.75
478.346	108.75
478.564	92.75
478.783	77.75
479.002	93.75
479.22	75.75
479.439	104.75
479.658	100.75
479.876	91.75
480.095	92.75
480.313	98.75
480.532	96.75
480.751	92.75
480.969	128.75
481.188	255.75
481.406	195.75
481.624	100.75
481.843	82.75
482.061	85.75
482.28	91.75
482.498	101.75
482.717	83.75
482.935	82.75
483.153	80.75
483.372	93.75
483.59	94.75
483.808	90.75
484.027	94.75
484.245	94.75
484.463	84.75
484.681	88.75
484.9	100.75
485.118	93.75
485.336	88.75
485.554	89.75
485.772	107.75
485.99	103.75
486.209	84.75
486.427	102.75
486.645	107.75
486.863	115.75
487.081	102.75
487.299	103.75
487.517	84.75
487.735	95.75
487.953	83.75
488.171	92.75
488.389	75.75
488.607	79.75
488.825	90.75
489.043	84.75
489.261	89.75
489.479	103.75
489.696	83.75
489.914	71.75
490.132	85.75
490.35	72.75
490.568	88.75
490.786	79.75
491.003	73.75
491.221	74.75
491.439	91.75
491.657	81.75
491.874	94.75
492.092	97.75
492.31	95.75
492.527	81.75
492.745	90.75
492.963	69.75
493.18	85.75
493.398	84.75
493.615	101.75
493.833	87.75
494.05	81.75
494.268	90.75
494.485	93.75
494.703	87.75
494.92	100.75
495.138	83.75
495.355	82.75
495.573	79.75
495.79	81.75
496.008	83.75
496.225	95.75
496.442	90.75
496.66	101.75
496.877	94.75
497.094	114.75
497.312	81.75
497.529	97.75
497.746	99.75
497.963	78.75
498.181	86.75
498.398	89.75
498.615	109.75
498.832	103.75
499.049	93.75
499.267	78.75
499.484	90.75
499.701	91.75
499.918	81.75
500.135	82.75
500.352	78.75
500.569	77.75
500.786	91.75
501.003	99.75
501.22	99.75
501.437	92.75
501.654	99.75
501.871	103.75
502.088	81.75
502.305	84.75
502.522	92.75
502.739	85.75
502.956	96.75
503.172	96.75
503.389	97.75
503.606	90.75
503.823	98.75
504.04	92.75
504.256	85.75
504.473	76.75
504.69	83.75
504.907	98.75
505.123	84.75
505.34	89.75
505.557	93.75
505.773	80.75
505.99	89.75
506.207	103.75
506.423	81.75
506.64	84.75
506.856	90.75
507.073	88.75
507.289	82.75
507.506	88.75
507.722	111.75
507.939	99.75
508.155	101.75
508.372	102.75
508.588	85.75
508.805	82.75
509.021	86.75
509.238	91.75
509.454	100.75
509.67	96.75
509.887	108.75
510.103	125.75
510.319	213.75
510.536	772.75
510.752	2465.75
510.968	666.75
511.184	151.75
511.401	91.75
511.617	101.75
511.833	79.75
512.049	81.75
512.265	94.75
512.481	76.75
512.698	79.75
512.914	104.75
513.13	94.75
513.346	91.75
513.562	92.75
513.778	93.75
513.994	99.75
514.21	96.75
514.426	112.75
514.642	135.75
514.858	119.75
515.074	165.75
515.29	466.75
515.506	1523.75
515.721	559.75
515.937	145.75
516.153	106.75
