Data from Circ_2006_H10_HRD10591_00096.txt Node
Date: Wed Jan 03 10:26:23 EST 2024
User: Yrep
Spectrometer: HR+D1059
Trigger mode: 1
Integration Time (sec): 1.000000E-1
Scans to average: 1
Electric dark correction enabled: true
Nonlinearity correction enabled: false
Boxcar width: 0
XAxis mode: Wavelengths
Number of Pixels in Spectrum: 2048
>>>>>Begin Spectral Data<<<<<
223.165	-9.12
223.4	-9.12
223.635	-9.12
223.869	-17.12
224.104	-24.12
224.338	-10.12
224.573	-17.12
224.808	-21.12
225.042	-1.12
225.277	-8.12
225.511	8.88
225.746	4.88
225.98	6.88
226.215	4.88
226.449	16.88
226.683	14.88
226.918	14.88
227.152	35.88
227.387	28.88
227.621	42.88
227.856	58.88
228.09	49.88
228.324	52.88
228.559	50.88
228.793	61.88
229.027	66.88
229.262	82.88
229.496	67.88
229.73	83.88
229.964	81.88
230.199	81.88
230.433	77.88
230.667	74.88
230.901	72.88
231.136	81.88
231.37	65.88
231.604	84.88
231.838	78.88
232.072	86.88
232.306	88.88
232.541	77.88
232.775	76.88
233.009	76.88
233.243	72.88
233.477	91.88
233.711	90.88
233.945	96.88
234.179	86.88
234.413	80.88
234.647	75.88
234.881	94.88
235.115	91.88
235.349	79.88
235.583	104.88
235.817	74.88
236.051	88.88
236.285	64.88
236.519	92.88
236.753	99.88
236.987	90.88
237.221	74.88
237.455	71.88
237.689	76.88
237.922	72.88
238.156	90.88
238.39	83.88
238.624	76.88
238.858	81.88
239.091	82.88
239.325	86.88
239.559	90.88
239.793	78.88
240.027	81.88
240.26	85.88
240.494	88.88
240.728	85.88
240.961	85.88
241.195	81.88
241.429	62.88
241.662	72.88
241.896	68.88
242.13	72.88
242.363	72.88
242.597	72.88
242.83	87.88
243.064	82.88
243.298	83.88
243.531	68.88
243.765	86.88
243.998	86.88
244.232	86.88
244.465	80.88
244.699	78.88
244.932	85.88
245.166	88.88
245.399	80.88
245.633	72.88
245.866	60.88
246.099	82.88
246.333	75.88
246.566	76.88
246.8	82.88
247.033	71.88
247.266	70.88
247.5	84.88
247.733	79.88
247.966	75.88
248.2	84.88
248.433	102.88
248.666	77.88
248.899	90.88
249.133	84.88
249.366	104.88
249.599	102.88
249.832	73.88
250.066	85.88
250.299	80.88
250.532	77.88
250.765	84.88
250.998	74.88
251.231	83.88
251.465	83.88
251.698	80.88
251.931	88.88
252.164	94.88
252.397	68.88
252.63	71.88
252.863	68.88
253.096	82.88
253.329	75.88
253.562	86.88
253.795	75.88
254.028	80.88
254.261	87.88
254.494	75.88
254.727	72.88
254.96	93.88
255.193	91.88
255.426	81.88
255.659	88.88
255.892	91.88
256.124	92.88
256.357	89.88
256.59	82.88
256.823	75.88
257.056	75.88
257.289	92.88
257.521	73.88
257.754	68.88
257.987	86.88
258.22	93.88
258.452	87.88
258.685	75.88
258.918	78.88
259.151	86.88
259.383	83.88
259.616	72.88
259.849	83.88
260.081	82.88
260.314	76.88
260.547	95.88
260.779	87.88
261.012	91.88
261.244	105.88
261.477	92.88
261.71	103.88
261.942	124.88
262.175	127.88
262.407	86.88
262.64	88.88
262.872	88.88
263.105	80.88
263.337	87.88
263.57	73.88
263.802	89.88
264.035	70.88
264.267	76.88
264.499	71.88
264.732	77.88
264.964	88.88
265.197	88.88
265.429	84.88
265.661	84.88
265.894	85.88
266.126	72.88
266.358	76.88
266.591	84.88
266.823	84.88
267.055	90.88
267.287	95.88
267.52	84.88
267.752	85.88
267.984	85.88
268.216	82.88
268.448	82.88
268.681	95.88
268.913	73.88
269.145	88.88
269.377	93.88
269.609	71.88
269.841	88.88
270.073	87.88
270.306	85.88
270.538	92.88
270.77	87.88
271.002	72.88
271.234	83.88
271.466	86.88
271.698	66.88
271.93	88.88
272.162	87.88
272.394	85.88
272.626	95.88
272.858	95.88
273.09	82.88
273.322	85.88
273.553	80.88
273.785	79.88
274.017	86.88
274.249	72.88
274.481	70.88
274.713	98.88
274.945	73.88
275.176	109.88
275.408	85.88
275.64	96.88
275.872	81.88
276.104	98.88
276.335	83.88
276.567	100.88
276.799	133.88
277.031	110.88
277.262	110.88
277.494	101.88
277.726	75.88
277.957	86.88
278.189	84.88
278.421	78.88
278.652	70.88
278.884	83.88
279.115	74.88
279.347	93.88
279.579	88.88
279.81	96.88
280.042	101.88
280.273	106.88
280.505	99.88
280.736	92.88
280.968	75.88
281.199	94.88
281.431	88.88
281.662	79.88
281.894	88.88
282.125	102.88
282.356	126.88
282.588	158.88
282.819	122.88
283.051	101.88
283.282	93.88
283.513	93.88
283.745	93.88
283.976	92.88
284.207	82.88
284.439	91.88
284.67	84.88
284.901	82.88
285.132	70.88
285.364	81.88
285.595	79.88
285.826	89.88
286.057	95.88
286.288	93.88
286.52	88.88
286.751	93.88
286.982	86.88
287.213	95.88
287.444	92.88
287.675	90.88
287.906	99.88
288.138	87.88
288.369	86.88
288.6	78.88
288.831	80.88
289.062	91.88
289.293	87.88
289.524	84.88
289.755	92.88
289.986	87.88
290.217	84.88
290.448	87.88
290.679	90.88
290.91	81.88
291.141	96.88
291.371	99.88
291.602	103.88
291.833	87.88
292.064	103.88
292.295	91.88
292.526	87.88
292.757	97.88
292.987	85.88
293.218	91.88
293.449	94.88
293.68	86.88
293.91	93.88
294.141	78.88
294.372	78.88
294.603	88.88
294.833	91.88
295.064	95.88
295.295	92.88
295.525	88.88
295.756	98.88
295.987	125.88
296.217	155.88
296.448	130.88
296.679	110.88
296.909	85.88
297.14	82.88
297.37	87.88
297.601	88.88
297.831	80.88
298.062	89.88
298.292	93.88
298.523	94.88
298.753	95.88
298.984	94.88
299.214	83.88
299.445	87.88
299.675	98.88
299.905	99.88
300.136	102.88
300.366	82.88
300.597	77.88
300.827	91.88
301.057	97.88
301.288	90.88
301.518	94.88
301.748	87.88
301.979	119.88
302.209	80.88
302.439	100.88
302.669	89.88
302.9	91.88
303.13	107.88
303.36	100.88
303.59	106.88
303.82	118.88
304.051	106.88
304.281	91.88
304.511	100.88
304.741	96.88
304.971	93.88
305.201	93.88
305.431	88.88
305.661	88.88
305.891	87.88
306.121	97.88
306.352	107.88
306.582	100.88
306.812	102.88
307.042	107.88
307.272	104.88
307.502	98.88
307.731	96.88
307.961	98.88
308.191	84.88
308.421	99.88
308.651	96.88
308.881	83.88
309.111	95.88
309.341	96.88
309.571	95.88
309.8	95.88
310.03	100.88
310.26	101.88
310.49	109.88
310.72	103.88
310.949	114.88
311.179	102.88
311.409	81.88
311.639	95.88
311.868	101.88
312.098	104.88
312.328	109.88
312.557	107.88
312.787	119.88
313.017	100.88
313.246	104.88
313.476	97.88
313.706	97.88
313.935	94.88
314.165	104.88
314.394	99.88
314.624	98.88
314.853	100.88
315.083	104.88
315.312	94.88
315.542	99.88
315.771	94.88
316.001	99.88
316.23	87.88
316.46	102.88
316.689	83.88
316.919	96.88
317.148	99.88
317.377	87.88
317.607	99.88
317.836	114.88
318.065	96.88
318.295	101.88
318.524	80.88
318.753	94.88
318.983	99.88
319.212	107.88
319.441	114.88
319.67	113.88
319.9	92.88
320.129	94.88
320.358	99.88
320.587	88.88
320.816	100.88
321.046	104.88
321.275	98.88
321.504	110.88
321.733	103.88
321.962	94.88
322.191	107.88
322.42	94.88
322.649	116.88
322.878	113.88
323.108	115.88
323.337	140.88
323.566	132.88
323.795	174.88
324.024	252.88
324.253	480.88
324.482	1126.88
324.71	2272.88
324.939	3127.88
325.168	1127.88
325.397	322.88
325.626	176.88
325.855	142.88
326.084	143.88
326.313	150.88
326.542	182.88
326.77	303.88
326.999	612.88
327.228	1261.88
327.457	2318.88
327.686	1839.88
327.914	486.88
328.143	260.88
328.372	242.88
328.6	179.88
328.829	129.88
329.058	151.88
329.287	166.88
329.515	129.88
329.744	142.88
329.972	155.88
330.201	226.88
330.43	317.88
330.658	215.88
330.887	178.88
331.115	158.88
331.344	113.88
331.572	115.88
331.801	113.88
332.03	119.88
332.258	97.88
332.486	98.88
332.715	102.88
332.943	99.88
333.172	102.88
333.4	100.88
333.629	118.88
333.857	140.88
334.085	163.88
334.314	229.88
334.542	380.88
334.771	363.88
334.999	157.88
335.227	120.88
335.455	110.88
335.684	96.88
335.912	105.88
336.14	120.88
336.369	98.88
336.597	101.88
336.825	91.88
337.053	103.88
337.281	88.88
337.51	86.88
337.738	102.88
337.966	96.88
338.194	99.88
338.422	97.88
338.65	87.88
338.878	101.88
339.106	99.88
339.334	91.88
339.562	90.88
339.79	106.88
340.018	82.88
340.246	92.88
340.474	88.88
340.702	103.88
340.93	102.88
341.158	85.88
341.386	109.88
341.614	103.88
341.842	102.88
342.07	94.88
342.298	106.88
342.526	94.88
342.754	99.88
342.981	95.88
343.209	105.88
343.437	95.88
343.665	75.88
343.893	94.88
344.12	99.88
344.348	95.88
344.576	87.88
344.804	99.88
345.031	103.88
345.259	101.88
345.487	108.88
345.714	98.88
345.942	92.88
346.17	88.88
346.397	81.88
346.625	91.88
346.853	96.88
347.08	89.88
347.308	95.88
347.535	86.88
347.763	97.88
347.99	92.88
348.218	106.88
348.445	123.88
348.673	115.88
348.9	98.88
349.128	97.88
349.355	90.88
349.583	94.88
349.81	93.88
350.037	108.88
350.265	104.88
350.492	81.88
350.72	99.88
350.947	108.88
351.174	114.88
351.402	118.88
351.629	113.88
351.856	111.88
352.083	123.88
352.311	98.88
352.538	123.88
352.765	128.88
352.992	120.88
353.22	123.88
353.447	111.88
353.674	111.88
353.901	105.88
354.128	98.88
354.355	90.88
354.583	103.88
354.81	85.88
355.037	100.88
355.264	96.88
355.491	88.88
355.718	103.88
355.945	85.88
356.172	93.88
356.399	90.88
356.626	105.88
356.853	111.88
357.08	98.88
357.307	89.88
357.534	82.88
357.761	92.88
357.988	93.88
358.215	101.88
358.441	95.88
358.668	85.88
358.895	92.88
359.122	93.88
359.349	101.88
359.576	90.88
359.802	95.88
360.029	111.88
360.256	126.88
360.483	97.88
360.709	94.88
360.936	95.88
361.163	95.88
361.39	106.88
361.616	89.88
361.843	96.88
362.07	92.88
362.296	111.88
362.523	100.88
362.749	84.88
362.976	98.88
363.203	94.88
363.429	92.88
363.656	79.88
363.882	91.88
364.109	89.88
364.335	98.88
364.562	104.88
364.788	93.88
365.015	94.88
365.241	93.88
365.468	106.88
365.694	82.88
365.92	106.88
366.147	107.88
366.373	94.88
366.599	91.88
366.826	93.88
367.052	85.88
367.278	87.88
367.505	88.88
367.731	97.88
367.957	95.88
368.184	99.88
368.41	108.88
368.636	105.88
368.862	127.88
369.089	118.88
369.315	92.88
369.541	94.88
369.767	101.88
369.993	111.88
370.219	91.88
370.445	86.88
370.672	91.88
370.898	85.88
371.124	86.88
371.35	95.88
371.576	89.88
371.802	85.88
372.028	105.88
372.254	100.88
372.48	95.88
372.706	85.88
372.932	96.88
373.158	81.88
373.384	102.88
373.61	103.88
373.835	90.88
374.061	83.88
374.287	86.88
374.513	85.88
374.739	96.88
374.965	88.88
375.191	96.88
375.416	80.88
375.642	85.88
375.868	80.88
376.094	98.88
376.319	83.88
376.545	93.88
376.771	91.88
376.997	94.88
377.222	94.88
377.448	93.88
377.674	91.88
377.899	87.88
378.125	85.88
378.35	85.88
378.576	95.88
378.802	84.88
379.027	100.88
379.253	97.88
379.478	93.88
379.704	92.88
379.929	84.88
380.155	89.88
380.38	92.88
380.606	102.88
380.831	90.88
381.057	100.88
381.282	86.88
381.507	95.88
381.733	101.88
381.958	100.88
382.184	101.88
382.409	99.88
382.634	107.88
382.86	94.88
383.085	95.88
383.31	100.88
383.535	111.88
383.761	108.88
383.986	98.88
384.211	102.88
384.436	94.88
384.662	120.88
384.887	99.88
385.112	105.88
385.337	98.88
385.562	89.88
385.787	105.88
386.013	122.88
386.238	98.88
386.463	94.88
386.688	102.88
386.913	113.88
387.138	105.88
387.363	104.88
387.588	108.88
387.813	107.88
388.038	119.88
388.263	113.88
388.488	116.88
388.713	101.88
388.938	103.88
389.163	97.88
389.387	100.88
389.612	80.88
389.837	81.88
390.062	98.88
390.287	78.88
390.512	88.88
390.736	106.88
390.961	100.88
391.186	100.88
391.411	87.88
391.636	97.88
391.86	95.88
392.085	74.88
392.31	83.88
392.534	90.88
392.759	102.88
392.984	92.88
393.208	78.88
393.433	87.88
393.658	99.88
393.882	98.88
394.107	85.88
394.331	82.88
394.556	97.88
394.78	86.88
395.005	88.88
395.229	87.88
395.454	103.88
395.678	90.88
395.903	80.88
396.127	84.88
396.352	94.88
396.576	93.88
396.801	88.88
397.025	93.88
397.249	80.88
397.474	90.88
397.698	94.88
397.922	75.88
398.147	81.88
398.371	78.88
398.595	97.88
398.82	78.88
399.044	79.88
399.268	80.88
399.492	83.88
399.717	92.88
399.941	95.88
400.165	93.88
400.389	102.88
400.613	91.88
400.837	75.88
401.062	80.88
401.286	87.88
401.51	82.88
401.734	101.88
401.958	116.88
402.182	130.88
402.406	186.88
402.63	141.88
402.854	112.88
403.078	94.88
403.302	86.88
403.526	76.88
403.75	96.88
403.974	89.88
404.198	85.88
404.422	93.88
404.645	77.88
404.869	91.88
405.093	100.88
405.317	122.88
405.541	130.88
405.765	94.88
405.988	129.88
406.212	196.88
406.436	286.88
406.66	175.88
406.883	98.88
407.107	106.88
407.331	115.88
407.555	101.88
407.778	107.88
408.002	97.88
408.226	88.88
408.449	90.88
408.673	88.88
408.896	93.88
409.12	104.88
409.344	93.88
409.567	93.88
409.791	82.88
410.014	103.88
410.238	95.88
410.461	96.88
410.685	101.88
410.908	99.88
411.132	105.88
411.355	98.88
411.578	78.88
411.802	88.88
412.025	87.88
412.249	98.88
412.472	102.88
412.695	101.88
412.919	108.88
413.142	87.88
413.365	78.88
413.589	95.88
413.812	102.88
414.035	87.88
414.258	80.88
414.482	96.88
414.705	88.88
414.928	86.88
415.151	92.88
415.374	83.88
415.597	82.88
415.821	85.88
416.044	91.88
416.267	90.88
416.49	92.88
416.713	78.88
416.936	90.88
417.159	92.88
417.382	107.88
417.605	109.88
417.828	98.88
418.051	88.88
418.274	80.88
418.497	86.88
418.72	85.88
418.943	96.88
419.166	84.88
419.389	86.88
419.611	93.88
419.834	98.88
420.057	95.88
420.28	88.88
420.503	89.88
420.726	102.88
420.948	99.88
421.171	104.88
421.394	92.88
421.617	91.88
421.839	96.88
422.062	111.88
422.285	89.88
422.507	100.88
422.73	106.88
422.953	105.88
423.175	95.88
423.398	80.88
423.621	88.88
423.843	81.88
424.066	90.88
424.288	106.88
424.511	94.88
424.733	100.88
424.956	119.88
425.178	107.88
425.401	106.88
425.623	110.88
425.846	81.88
426.068	95.88
426.291	104.88
426.513	92.88
426.735	96.88
426.958	105.88
427.18	113.88
427.402	154.88
427.625	207.88
427.847	166.88
428.069	162.88
428.292	93.88
428.514	88.88
428.736	93.88
428.958	91.88
429.181	87.88
429.403	101.88
429.625	90.88
429.847	97.88
430.069	101.88
430.292	92.88
430.514	93.88
430.736	87.88
430.958	91.88
431.18	100.88
431.402	96.88
431.624	93.88
431.846	87.88
432.068	96.88
432.29	95.88
432.512	90.88
432.734	87.88
432.956	86.88
433.178	98.88
433.4	102.88
433.622	100.88
433.844	106.88
434.066	95.88
434.287	91.88
434.509	103.88
434.731	93.88
434.953	92.88
435.175	78.88
435.397	92.88
435.618	88.88
435.84	123.88
436.062	135.88
436.284	140.88
436.505	114.88
436.727	114.88
436.949	102.88
437.17	109.88
437.392	94.88
437.614	97.88
437.835	117.88
438.057	142.88
438.278	125.88
438.5	110.88
438.721	136.88
438.943	101.88
439.165	76.88
439.386	98.88
439.608	94.88
439.829	98.88
440.05	146.88
440.272	160.88
440.493	104.88
440.715	95.88
440.936	86.88
441.158	83.88
441.379	90.88
441.6	81.88
441.822	95.88
442.043	103.88
442.264	105.88
442.486	97.88
442.707	94.88
442.928	118.88
443.149	143.88
443.371	142.88
443.592	118.88
443.813	124.88
444.034	107.88
444.255	93.88
444.476	87.88
444.698	87.88
444.919	86.88
445.14	118.88
445.361	141.88
445.582	135.88
445.803	162.88
446.024	165.88
446.245	149.88
446.466	115.88
446.687	86.88
446.908	90.88
447.129	89.88
447.35	87.88
447.571	100.88
447.792	98.88
448.013	106.88
448.234	111.88
448.455	115.88
448.675	114.88
448.896	125.88
449.117	112.88
449.338	94.88
449.559	152.88
449.779	154.88
450	108.88
450.221	87.88
450.442	86.88
450.662	96.88
450.883	104.88
451.104	111.88
451.324	95.88
451.545	89.88
451.766	74.88
451.986	88.88
452.207	96.88
452.428	105.88
452.648	92.88
452.869	117.88
453.089	133.88
453.31	135.88
453.53	112.88
453.751	103.88
453.971	97.88
454.192	139.88
454.412	95.88
454.633	82.88
454.853	100.88
455.073	92.88
455.294	89.88
455.514	109.88
455.734	94.88
455.955	75.88
456.175	90.88
456.395	99.88
456.616	88.88
456.836	96.88
457.056	77.88
457.276	92.88
457.497	86.88
457.717	98.88
457.937	103.88
458.157	92.88
458.377	107.88
458.598	121.88
458.818	189.88
459.038	204.88
459.258	128.88
459.478	85.88
459.698	98.88
459.918	88.88
460.138	83.88
460.358	83.88
460.578	92.88
460.798	102.88
461.018	85.88
461.238	68.88
461.458	79.88
461.678	101.88
461.898	94.88
462.118	77.88
462.338	77.88
462.558	94.88
462.777	81.88
462.997	94.88
463.217	87.88
463.437	94.88
463.657	103.88
463.876	87.88
464.096	93.88
464.316	101.88
464.536	103.88
464.755	92.88
464.975	118.88
465.195	199.88
465.414	200.88
465.634	112.88
465.854	80.88
466.073	79.88
466.293	95.88
466.512	82.88
466.732	84.88
466.951	86.88
467.171	95.88
467.391	102.88
467.61	103.88
467.829	111.88
468.049	167.88
468.268	207.88
468.488	111.88
468.707	87.88
468.927	96.88
469.146	96.88
469.365	74.88
469.585	82.88
469.804	109.88
470.023	95.88
470.243	98.88
470.462	94.88
470.681	125.88
470.901	91.88
471.12	101.88
471.339	78.88
471.558	86.88
471.777	109.88
471.997	124.88
472.216	250.88
472.435	472.88
472.654	166.88
472.873	94.88
473.092	82.88
473.311	84.88
473.53	91.88
473.749	93.88
473.968	104.88
474.187	91.88
474.406	101.88
474.625	87.88
474.844	74.88
475.063	86.88
475.282	80.88
475.501	85.88
475.72	88.88
475.939	78.88
476.158	92.88
476.377	79.88
476.596	86.88
476.814	113.88
477.033	95.88
477.252	104.88
477.471	63.88
477.69	95.88
477.908	94.88
478.127	100.88
478.346	107.88
478.564	102.88
478.783	96.88
479.002	100.88
479.22	104.88
479.439	100.88
479.658	122.88
479.876	101.88
480.095	103.88
480.313	110.88
480.532	105.88
480.751	117.88
480.969	228.88
481.188	739.88
481.406	469.88
481.624	136.88
481.843	87.88
482.061	98.88
482.28	92.88
482.498	102.88
482.717	79.88
482.935	88.88
483.153	100.88
483.372	91.88
483.59	93.88
483.808	103.88
484.027	67.88
484.245	85.88
484.463	92.88
484.681	98.88
484.9	92.88
485.118	101.88
485.336	116.88
485.554	112.88
485.772	106.88
485.99	103.88
486.209	120.88
486.427	112.88
486.645	117.88
486.863	112.88
487.081	100.88
487.299	99.88
487.517	102.88
487.735	93.88
487.953	85.88
488.171	99.88
488.389	100.88
488.607	114.88
488.825	95.88
489.043	80.88
489.261	103.88
489.479	82.88
489.696	93.88
489.914	90.88
490.132	84.88
490.35	83.88
490.568	90.88
490.786	81.88
491.003	82.88
491.221	85.88
491.439	94.88
491.657	108.88
491.874	103.88
492.092	83.88
492.31	86.88
492.527	87.88
492.745	96.88
492.963	91.88
493.18	96.88
493.398	97.88
493.615	100.88
493.833	85.88
494.05	84.88
494.268	94.88
494.485	92.88
494.703	113.88
494.92	84.88
495.138	84.88
495.355	94.88
495.573	94.88
495.79	112.88
496.008	94.88
496.225	103.88
496.442	104.88
496.66	82.88
496.877	90.88
497.094	86.88
497.312	93.88
497.529	91.88
497.746	107.88
497.963	94.88
498.181	95.88
498.398	102.88
498.615	112.88
498.832	104.88
499.049	91.88
499.267	94.88
499.484	99.88
499.701	89.88
499.918	97.88
500.135	85.88
500.352	98.88
500.569	93.88
500.786	93.88
501.003	93.88
501.22	81.88
501.437	96.88
501.654	103.88
501.871	114.88
502.088	78.88
502.305	84.88
502.522	100.88
502.739	95.88
502.956	83.88
503.172	104.88
503.389	102.88
503.606	112.88
503.823	89.88
504.04	83.88
504.256	88.88
504.473	93.88
504.69	82.88
504.907	99.88
505.123	92.88
505.34	83.88
505.557	95.88
505.773	87.88
505.99	89.88
506.207	97.88
506.423	96.88
506.64	94.88
506.856	76.88
507.073	86.88
507.289	85.88
507.506	94.88
507.722	126.88
507.939	114.88
508.155	109.88
508.372	102.88
508.588	106.88
508.805	88.88
509.021	106.88
509.238	93.88
509.454	96.88
509.67	104.88
509.887	116.88
510.103	136.88
510.319	246.88
510.536	914.88
510.752	3010.88
510.968	837.88
511.184	168.88
511.401	96.88
511.617	111.88
511.833	88.88
512.049	106.88
512.265	96.88
512.481	91.88
512.698	75.88
512.914	93.88
513.13	87.88
513.346	94.88
513.562	94.88
513.778	106.88
513.994	96.88
