Data from Circ_2006_H10_HRD10591_00053.txt Node
Date: Wed Jan 03 10:26:14 EST 2024
User: Yrep
Spectrometer: HR+D1059
Trigger mode: 1
Integration Time (sec): 1.000000E-1
Scans to average: 1
Electric dark correction enabled: true
Nonlinearity correction enabled: false
Boxcar width: 0
XAxis mode: Wavelengths
Number of Pixels in Spectrum: 2048
>>>>>Begin Spectral Data<<<<<
223.165	-21.62
223.4	-21.62
223.635	-21.62
223.869	-35.62
224.104	-14.62
224.338	-22.62
224.573	-32.62
224.808	-4.62
225.042	-3.62
225.277	6.38
225.511	8.38
225.746	10.38
225.98	7.38
226.215	9.38
226.449	6.38
226.683	12.38
226.918	28.38
227.152	46.38
227.387	38.38
227.621	42.38
227.856	39.38
228.09	59.38
228.324	48.38
228.559	71.38
228.793	50.38
229.027	68.38
229.262	79.38
229.496	80.38
229.73	83.38
229.964	90.38
230.199	69.38
230.433	76.38
230.667	92.38
230.901	80.38
231.136	71.38
231.37	61.38
231.604	90.38
231.838	75.38
232.072	87.38
232.306	85.38
232.541	83.38
232.775	83.38
233.009	65.38
233.243	69.38
233.477	80.38
233.711	89.38
233.945	81.38
234.179	70.38
234.413	78.38
234.647	72.38
234.881	76.38
235.115	87.38
235.349	74.38
235.583	69.38
235.817	95.38
236.051	85.38
236.285	78.38
236.519	103.38
236.753	82.38
236.987	85.38
237.221	90.38
237.455	75.38
237.689	86.38
237.922	79.38
238.156	69.38
238.39	85.38
238.624	79.38
238.858	83.38
239.091	84.38
239.325	81.38
239.559	72.38
239.793	97.38
240.027	87.38
240.26	80.38
240.494	100.38
240.728	83.38
240.961	78.38
241.195	75.38
241.429	65.38
241.662	79.38
241.896	72.38
242.13	72.38
242.363	66.38
242.597	64.38
242.83	79.38
243.064	79.38
243.298	77.38
243.531	84.38
243.765	81.38
243.998	85.38
244.232	91.38
244.465	83.38
244.699	84.38
244.932	81.38
245.166	91.38
245.399	78.38
245.633	64.38
245.866	84.38
246.099	87.38
246.333	71.38
246.566	94.38
246.8	84.38
247.033	80.38
247.266	85.38
247.5	80.38
247.733	72.38
247.966	76.38
248.2	94.38
248.433	79.38
248.666	81.38
248.899	86.38
249.133	95.38
249.366	98.38
249.599	103.38
249.832	84.38
250.066	82.38
250.299	73.38
250.532	74.38
250.765	101.38
250.998	76.38
251.231	76.38
251.465	85.38
251.698	78.38
251.931	76.38
252.164	91.38
252.397	84.38
252.63	69.38
252.863	74.38
253.096	77.38
253.329	93.38
253.562	70.38
253.795	69.38
254.028	92.38
254.261	80.38
254.494	78.38
254.727	89.38
254.96	85.38
255.193	88.38
255.426	84.38
255.659	84.38
255.892	95.38
256.124	74.38
256.357	94.38
256.59	88.38
256.823	92.38
257.056	66.38
257.289	81.38
257.521	82.38
257.754	72.38
257.987	86.38
258.22	89.38
258.452	90.38
258.685	75.38
258.918	87.38
259.151	88.38
259.383	87.38
259.616	66.38
259.849	82.38
260.081	87.38
260.314	78.38
260.547	85.38
260.779	77.38
261.012	91.38
261.244	102.38
261.477	103.38
261.71	92.38
261.942	125.38
262.175	113.38
262.407	88.38
262.64	88.38
262.872	90.38
263.105	81.38
263.337	81.38
263.57	97.38
263.802	86.38
264.035	93.38
264.267	82.38
264.499	75.38
264.732	96.38
264.964	91.38
265.197	76.38
265.429	81.38
265.661	75.38
265.894	76.38
266.126	86.38
266.358	106.38
266.591	88.38
266.823	94.38
267.055	79.38
267.287	79.38
267.52	80.38
267.752	90.38
267.984	95.38
268.216	90.38
268.448	91.38
268.681	77.38
268.913	94.38
269.145	94.38
269.377	78.38
269.609	82.38
269.841	100.38
270.073	90.38
270.306	93.38
270.538	76.38
270.77	78.38
271.002	96.38
271.234	86.38
271.466	76.38
271.698	90.38
271.93	99.38
272.162	83.38
272.394	86.38
272.626	97.38
272.858	100.38
273.09	96.38
273.322	98.38
273.553	80.38
273.785	77.38
274.017	94.38
274.249	81.38
274.481	93.38
274.713	88.38
274.945	96.38
275.176	87.38
275.408	98.38
275.64	86.38
275.872	79.38
276.104	81.38
276.335	102.38
276.567	99.38
276.799	143.38
277.031	114.38
277.262	96.38
277.494	88.38
277.726	87.38
277.957	90.38
278.189	91.38
278.421	88.38
278.652	86.38
278.884	85.38
279.115	87.38
279.347	83.38
279.579	95.38
279.81	88.38
280.042	83.38
280.273	84.38
280.505	88.38
280.736	99.38
280.968	95.38
281.199	94.38
281.431	87.38
281.662	92.38
281.894	93.38
282.125	106.38
282.356	135.38
282.588	175.38
282.819	136.38
283.051	80.38
283.282	88.38
283.513	92.38
283.745	94.38
283.976	89.38
284.207	87.38
284.439	85.38
284.67	82.38
284.901	81.38
285.132	95.38
285.364	81.38
285.595	87.38
285.826	78.38
286.057	89.38
286.288	76.38
286.52	81.38
286.751	92.38
286.982	94.38
287.213	78.38
287.444	93.38
287.675	91.38
287.906	96.38
288.138	91.38
288.369	99.38
288.6	83.38
288.831	91.38
289.062	94.38
289.293	96.38
289.524	82.38
289.755	89.38
289.986	78.38
290.217	94.38
290.448	64.38
290.679	79.38
290.91	86.38
291.141	85.38
291.371	85.38
291.602	88.38
291.833	83.38
292.064	78.38
292.295	85.38
292.526	89.38
292.757	87.38
292.987	77.38
293.218	95.38
293.449	82.38
293.68	94.38
293.91	84.38
294.141	98.38
294.372	89.38
294.603	81.38
294.833	102.38
295.064	106.38
295.295	92.38
295.525	96.38
295.756	103.38
295.987	118.38
296.217	166.38
296.448	131.38
296.679	88.38
296.909	92.38
297.14	99.38
297.37	76.38
297.601	90.38
297.831	82.38
298.062	97.38
298.292	78.38
298.523	90.38
298.753	72.38
298.984	84.38
299.214	94.38
299.445	101.38
299.675	88.38
299.905	82.38
300.136	95.38
300.366	96.38
300.597	91.38
300.827	91.38
301.057	106.38
301.288	116.38
301.518	106.38
301.748	98.38
301.979	110.38
302.209	97.38
302.439	94.38
302.669	88.38
302.9	87.38
303.13	88.38
303.36	101.38
303.59	86.38
303.82	96.38
304.051	96.38
304.281	86.38
304.511	119.38
304.741	77.38
304.971	86.38
305.201	107.38
305.431	94.38
305.661	95.38
305.891	96.38
306.121	90.38
306.352	108.38
306.582	101.38
306.812	94.38
307.042	96.38
307.272	97.38
307.502	90.38
307.731	91.38
307.961	88.38
308.191	86.38
308.421	90.38
308.651	105.38
308.881	102.38
309.111	110.38
309.341	99.38
309.571	100.38
309.8	97.38
310.03	106.38
310.26	119.38
310.49	101.38
310.72	119.38
310.949	114.38
311.179	97.38
311.409	92.38
311.639	98.38
311.868	102.38
312.098	103.38
312.328	101.38
312.557	102.38
312.787	118.38
313.017	109.38
313.246	98.38
313.476	103.38
313.706	103.38
313.935	95.38
314.165	106.38
314.394	115.38
314.624	109.38
314.853	97.38
315.083	111.38
315.312	92.38
315.542	94.38
315.771	94.38
316.001	94.38
316.23	92.38
316.46	100.38
316.689	99.38
316.919	94.38
317.148	105.38
317.377	104.38
317.607	106.38
317.836	91.38
318.065	94.38
318.295	107.38
318.524	99.38
318.753	98.38
318.983	105.38
319.212	111.38
319.441	114.38
319.67	107.38
319.9	93.38
320.129	100.38
320.358	107.38
320.587	103.38
320.816	120.38
321.046	117.38
321.275	103.38
321.504	93.38
321.733	98.38
321.962	111.38
322.191	117.38
322.42	110.38
322.649	123.38
322.878	138.38
323.108	118.38
323.337	149.38
323.566	162.38
323.795	178.38
324.024	294.38
324.253	590.38
324.482	1349.38
324.71	2820.38
324.939	3546.38
325.168	1255.38
325.397	348.38
325.626	194.38
325.855	162.38
326.084	150.38
326.313	180.38
326.542	188.38
326.77	307.38
326.999	685.38
327.228	1504.38
327.457	2751.38
327.686	2123.38
327.914	534.38
328.143	241.38
328.372	206.38
328.6	160.38
328.829	139.38
329.058	159.38
329.287	161.38
329.515	117.38
329.744	116.38
329.972	118.38
330.201	125.38
330.43	168.38
330.658	165.38
330.887	191.38
331.115	149.38
331.344	115.38
331.572	109.38
331.801	120.38
332.03	116.38
332.258	118.38
332.486	91.38
332.715	88.38
332.943	105.38
333.172	108.38
333.4	97.38
333.629	115.38
333.857	128.38
334.085	119.38
334.314	120.38
334.542	159.38
334.771	165.38
334.999	113.38
335.227	98.38
335.455	86.38
335.684	96.38
335.912	94.38
336.14	109.38
336.369	107.38
336.597	124.38
336.825	107.38
337.053	95.38
337.281	83.38
337.51	85.38
337.738	107.38
337.966	100.38
338.194	103.38
338.422	100.38
338.65	87.38
338.878	102.38
339.106	85.38
339.334	100.38
339.562	101.38
339.79	104.38
340.018	101.38
340.246	103.38
340.474	101.38
340.702	101.38
340.93	103.38
341.158	87.38
341.386	99.38
341.614	107.38
341.842	100.38
342.07	94.38
342.298	108.38
342.526	99.38
342.754	88.38
342.981	88.38
343.209	98.38
343.437	90.38
343.665	97.38
343.893	83.38
344.12	110.38
344.348	87.38
344.576	99.38
344.804	98.38
345.031	111.38
345.259	103.38
345.487	92.38
345.714	96.38
345.942	94.38
346.17	92.38
346.397	93.38
346.625	96.38
346.853	87.38
347.08	97.38
347.308	115.38
347.535	97.38
347.763	110.38
347.99	114.38
348.218	119.38
348.445	132.38
348.673	101.38
348.9	101.38
349.128	98.38
349.355	94.38
349.583	96.38
349.81	99.38
350.037	96.38
350.265	91.38
350.492	93.38
350.72	107.38
350.947	114.38
351.174	109.38
351.402	127.38
351.629	110.38
351.856	104.38
352.083	122.38
352.311	123.38
352.538	113.38
352.765	127.38
352.992	121.38
353.22	118.38
353.447	104.38
353.674	91.38
353.901	106.38
354.128	90.38
354.355	98.38
354.583	104.38
354.81	103.38
355.037	102.38
355.264	77.38
355.491	101.38
355.718	83.38
355.945	80.38
356.172	94.38
356.399	83.38
356.626	85.38
356.853	87.38
357.08	85.38
357.307	87.38
357.534	82.38
357.761	92.38
357.988	96.38
358.215	103.38
358.441	85.38
358.668	101.38
358.895	91.38
359.122	91.38
359.349	99.38
359.576	93.38
359.802	96.38
360.029	132.38
360.256	138.38
360.483	104.38
360.709	99.38
360.936	107.38
361.163	86.38
361.39	96.38
361.616	97.38
361.843	102.38
362.07	101.38
362.296	114.38
362.523	88.38
362.749	102.38
362.976	110.38
363.203	87.38
363.429	90.38
363.656	88.38
363.882	82.38
364.109	88.38
364.335	80.38
364.562	85.38
364.788	102.38
365.015	104.38
365.241	104.38
365.468	130.38
365.694	105.38
365.92	103.38
366.147	100.38
366.373	91.38
366.599	95.38
366.826	86.38
367.052	80.38
367.278	95.38
367.505	98.38
367.731	93.38
367.957	90.38
368.184	98.38
368.41	117.38
368.636	118.38
368.862	131.38
369.089	112.38
369.315	102.38
369.541	113.38
369.767	93.38
369.993	96.38
370.219	97.38
370.445	96.38
370.672	82.38
370.898	100.38
371.124	89.38
371.35	83.38
371.576	85.38
371.802	83.38
372.028	80.38
372.254	104.38
372.48	90.38
372.706	87.38
372.932	109.38
373.158	92.38
373.384	81.38
373.61	100.38
373.835	90.38
374.061	98.38
374.287	102.38
374.513	85.38
374.739	85.38
374.965	96.38
375.191	96.38
375.416	83.38
375.642	76.38
375.868	92.38
376.094	94.38
376.319	85.38
376.545	90.38
376.771	81.38
376.997	86.38
377.222	95.38
377.448	85.38
377.674	95.38
377.899	95.38
378.125	87.38
378.35	87.38
378.576	103.38
378.802	82.38
379.027	76.38
379.253	100.38
379.478	95.38
379.704	80.38
379.929	93.38
380.155	97.38
380.38	104.38
380.606	104.38
380.831	96.38
381.057	100.38
381.282	86.38
381.507	88.38
381.733	87.38
381.958	103.38
382.184	105.38
382.409	105.38
382.634	101.38
382.86	95.38
383.085	110.38
383.31	100.38
383.535	88.38
383.761	101.38
383.986	109.38
384.211	99.38
384.436	99.38
384.662	110.38
384.887	108.38
385.112	100.38
385.337	113.38
385.562	116.38
385.787	109.38
386.013	113.38
386.238	123.38
386.463	126.38
386.688	116.38
386.913	106.38
387.138	110.38
387.363	111.38
387.588	91.38
387.813	99.38
388.038	109.38
388.263	114.38
388.488	109.38
388.713	100.38
388.938	108.38
389.163	91.38
389.387	94.38
389.612	101.38
389.837	90.38
390.062	86.38
390.287	98.38
390.512	83.38
390.736	92.38
390.961	96.38
391.186	98.38
391.411	100.38
391.636	82.38
391.86	93.38
392.085	91.38
392.31	88.38
392.534	80.38
392.759	72.38
392.984	77.38
393.208	81.38
393.433	92.38
393.658	97.38
393.882	88.38
394.107	86.38
394.331	86.38
394.556	92.38
394.78	86.38
395.005	87.38
395.229	91.38
395.454	92.38
395.678	83.38
395.903	81.38
396.127	95.38
396.352	83.38
396.576	73.38
396.801	91.38
397.025	95.38
397.249	100.38
397.474	83.38
397.698	92.38
397.922	83.38
398.147	97.38
398.371	97.38
398.595	87.38
398.82	77.38
399.044	77.38
399.268	94.38
399.492	89.38
399.717	83.38
399.941	95.38
400.165	89.38
400.389	77.38
400.613	96.38
400.837	93.38
401.062	79.38
401.286	95.38
401.51	87.38
401.734	98.38
401.958	107.38
402.182	143.38
402.406	191.38
402.63	142.38
402.854	98.38
403.078	83.38
403.302	102.38
403.526	94.38
403.75	82.38
403.974	98.38
404.198	92.38
404.422	84.38
404.645	87.38
404.869	87.38
405.093	100.38
405.317	118.38
405.541	103.38
405.765	102.38
405.988	144.38
406.212	222.38
406.436	301.38
406.66	203.38
406.883	111.38
407.107	99.38
407.331	103.38
407.555	108.38
407.778	97.38
408.002	97.38
408.226	100.38
408.449	82.38
408.673	89.38
408.896	87.38
409.12	110.38
409.344	87.38
409.567	80.38
409.791	87.38
410.014	97.38
410.238	95.38
410.461	95.38
410.685	108.38
410.908	95.38
411.132	106.38
411.355	89.38
411.578	93.38
411.802	94.38
412.025	83.38
412.249	94.38
412.472	100.38
412.695	88.38
412.919	98.38
413.142	98.38
413.365	93.38
413.589	94.38
413.812	92.38
414.035	92.38
414.258	83.38
414.482	99.38
414.705	81.38
414.928	95.38
415.151	94.38
415.374	79.38
415.597	84.38
415.821	88.38
416.044	82.38
416.267	89.38
416.49	78.38
416.713	94.38
416.936	94.38
417.159	89.38
417.382	86.38
417.605	100.38
417.828	99.38
418.051	101.38
418.274	87.38
418.497	85.38
418.72	98.38
418.943	80.38
419.166	108.38
419.389	97.38
419.611	91.38
419.834	106.38
420.057	99.38
420.28	94.38
420.503	88.38
420.726	82.38
420.948	78.38
421.171	105.38
421.394	97.38
421.617	106.38
421.839	92.38
422.062	79.38
422.285	97.38
422.507	109.38
422.73	103.38
422.953	97.38
423.175	83.38
423.398	89.38
423.621	86.38
423.843	89.38
424.066	88.38
424.288	88.38
424.511	109.38
424.733	93.38
424.956	112.38
425.178	100.38
425.401	98.38
425.623	115.38
425.846	95.38
426.068	92.38
426.291	95.38
426.513	95.38
426.735	91.38
426.958	93.38
427.18	129.38
427.402	164.38
427.625	221.38
427.847	154.38
428.069	105.38
428.292	88.38
428.514	86.38
428.736	99.38
428.958	69.38
429.181	81.38
429.403	97.38
429.625	73.38
429.847	100.38
430.069	108.38
430.292	95.38
430.514	79.38
430.736	90.38
430.958	98.38
431.18	88.38
431.402	92.38
431.624	75.38
431.846	96.38
432.068	89.38
432.29	84.38
432.512	87.38
432.734	88.38
432.956	78.38
433.178	102.38
433.4	110.38
433.622	94.38
433.844	94.38
434.066	91.38
434.287	99.38
434.509	86.38
434.731	82.38
434.953	91.38
435.175	86.38
435.397	103.38
435.618	105.38
435.84	126.38
436.062	141.38
436.284	128.38
436.505	126.38
436.727	101.38
436.949	100.38
437.17	87.38
437.392	91.38
437.614	99.38
437.835	118.38
438.057	132.38
438.278	116.38
438.5	119.38
438.721	142.38
438.943	102.38
439.165	81.38
439.386	91.38
439.608	95.38
439.829	114.38
440.05	134.38
440.272	162.38
440.493	113.38
440.715	87.38
440.936	98.38
441.158	95.38
441.379	91.38
441.6	103.38
441.822	95.38
442.043	100.38
442.264	104.38
442.486	101.38
442.707	96.38
442.928	111.38
443.149	151.38
443.371	148.38
443.592	109.38
443.813	106.38
444.034	107.38
444.255	93.38
444.476	87.38
444.698	108.38
444.919	85.38
445.14	132.38
445.361	123.38
445.582	129.38
445.803	166.38
446.024	135.38
446.245	158.38
446.466	110.38
446.687	101.38
446.908	94.38
447.129	103.38
447.35	98.38
447.571	92.38
447.792	82.38
448.013	96.38
448.234	119.38
448.455	119.38
448.675	129.38
448.896	130.38
449.117	101.38
449.338	107.38
449.559	126.38
449.779	154.38
450	107.38
450.221	94.38
450.442	86.38
450.662	113.38
450.883	139.38
451.104	120.38
451.324	94.38
451.545	104.38
451.766	101.38
451.986	82.38
452.207	93.38
452.428	88.38
452.648	92.38
452.869	123.38
453.089	128.38
453.31	146.38
453.53	105.38
453.751	96.38
453.971	122.38
454.192	124.38
454.412	88.38
454.633	90.38
454.853	97.38
455.073	91.38
455.294	93.38
455.514	93.38
455.734	92.38
455.955	91.38
456.175	77.38
456.395	79.38
456.616	84.38
456.836	88.38
457.056	79.38
457.276	74.38
457.497	77.38
457.717	82.38
457.937	80.38
458.157	92.38
458.377	101.38
458.598	120.38
458.818	187.38
459.038	202.38
459.258	137.38
459.478	106.38
459.698	100.38
459.918	79.38
460.138	92.38
460.358	102.38
460.578	88.38
460.798	91.38
461.018	90.38
461.238	83.38
461.458	89.38
461.678	82.38
461.898	67.38
462.118	86.38
462.338	103.38
462.558	92.38
462.777	82.38
462.997	83.38
463.217	84.38
463.437	85.38
463.657	79.38
463.876	99.38
464.096	101.38
464.316	88.38
464.536	80.38
464.755	102.38
464.975	141.38
465.195	229.38
465.414	218.38
465.634	96.38
465.854	94.38
466.073	99.38
466.293	96.38
466.512	102.38
466.732	82.38
466.951	87.38
467.171	86.38
467.391	99.38
467.61	104.38
467.829	102.38
468.049	95.38
468.268	114.38
468.488	94.38
468.707	85.38
468.927	84.38
469.146	96.38
469.365	91.38
469.585	89.38
469.804	111.38
470.023	116.38
470.243	98.38
470.462	113.38
470.681	139.38
470.901	92.38
471.12	82.38
471.339	90.38
471.558	95.38
471.777	85.38
471.997	109.38
472.216	118.38
472.435	161.38
472.654	110.38
472.873	94.38
473.092	91.38
473.311	85.38
473.53	99.38
473.749	79.38
473.968	88.38
474.187	108.38
474.406	108.38
474.625	78.38
474.844	92.38
475.063	95.38
475.282	84.38
475.501	93.38
475.72	94.38
475.939	91.38
476.158	96.38
476.377	97.38
476.596	94.38
476.814	103.38
477.033	109.38
477.252	85.38
477.471	94.38
477.69	96.38
477.908	98.38
478.127	92.38
478.346	82.38
478.564	75.38
478.783	98.38
479.002	105.38
479.22	105.38
479.439	110.38
479.658	117.38
479.876	105.38
480.095	98.38
480.313	102.38
480.532	98.38
480.751	94.38
480.969	115.38
481.188	241.38
481.406	187.38
481.624	113.38
481.843	95.38
482.061	90.38
482.28	100.38
482.498	93.38
482.717	82.38
482.935	95.38
483.153	99.38
483.372	85.38
483.59	91.38
483.808	95.38
484.027	95.38
484.245	93.38
484.463	88.38
484.681	98.38
484.9	94.38
485.118	92.38
485.336	110.38
485.554	105.38
485.772	123.38
485.99	106.38
486.209	103.38
486.427	124.38
486.645	125.38
486.863	117.38
487.081	101.38
487.299	102.38
487.517	93.38
487.735	92.38
487.953	96.38
488.171	90.38
488.389	100.38
488.607	128.38
488.825	119.38
489.043	82.38
489.261	95.38
489.479	98.38
489.696	92.38
489.914	77.38
490.132	83.38
490.35	96.38
490.568	90.38
490.786	96.38
491.003	86.38
491.221	96.38
491.439	84.38
491.657	102.38
491.874	93.38
492.092	81.38
492.31	100.38
492.527	110.38
492.745	94.38
492.963	91.38
493.18	88.38
493.398	88.38
493.615	93.38
493.833	104.38
494.05	95.38
494.268	96.38
494.485	86.38
494.703	84.38
494.92	96.38
495.138	92.38
495.355	109.38
495.573	97.38
495.79	88.38
496.008	87.38
496.225	88.38
496.442	90.38
496.66	98.38
496.877	83.38
497.094	99.38
497.312	87.38
497.529	87.38
497.746	85.38
497.963	87.38
498.181	100.38
498.398	89.38
498.615	121.38
498.832	107.38
499.049	91.38
499.267	102.38
499.484	102.38
499.701	84.38
499.918	100.38
500.135	86.38
500.352	92.38
500.569	95.38
500.786	97.38
501.003	95.38
501.22	94.38
501.437	97.38
501.654	101.38
501.871	137.38
502.088	109.38
502.305	86.38
502.522	86.38
502.739	94.38
502.956	98.38
503.172	98.38
503.389	111.38
503.606	129.38
503.823	106.38
504.04	93.38
504.256	91.38
504.473	92.38
504.69	100.38
504.907	99.38
505.123	111.38
505.34	102.38
505.557	96.38
505.773	99.38
505.99	91.38
506.207	85.38
506.423	103.38
506.64	101.38
506.856	97.38
507.073	85.38
507.289	98.38
507.506	94.38
507.722	111.38
507.939	125.38
508.155	103.38
508.372	94.38
508.588	87.38
508.805	91.38
509.021	93.38
509.238	99.38
509.454	102.38
509.67	106.38
509.887	117.38
510.103	148.38
510.319	262.38
510.536	1055.38
510.752	3562.38
510.968	941.38
511.184	198.38
511.401	122.38
511.617	111.38
511.833	101.38
512.049	101.38
512.265	95.38
512.481	88.38
512.698	88.38
512.914	85.38
513.13	109.38
513.346	103.38
513.562	97.38
513.778	90.38
513.994	113.38
