Data from Circ_2006_H10_HRD10591_00040.txt Node
Date: Wed Jan 03 10:26:11 EST 2024
User: Yrep
Spectrometer: HR+D1059
Trigger mode: 1
Integration Time (sec): 1.000000E-1
Scans to average: 1
Electric dark correction enabled: true
Nonlinearity correction enabled: false
Boxcar width: 0
XAxis mode: Wavelengths
Number of Pixels in Spectrum: 2048
>>>>>Begin Spectral Data<<<<<
223.165	-17.5
223.4	-17.5
223.635	-17.5
223.869	-18.5
224.104	-22.5
224.338	-23.5
224.573	-17.5
224.808	-12.5
225.042	2.5
225.277	7.5
225.511	3.5
225.746	9.5
225.98	9.5
226.215	5.5
226.449	5.5
226.683	14.5
226.918	18.5
227.152	35.5
227.387	29.5
227.621	41.5
227.856	40.5
228.09	50.5
228.324	39.5
228.559	41.5
228.793	59.5
229.027	50.5
229.262	70.5
229.496	80.5
229.73	90.5
229.964	81.5
230.199	69.5
230.433	66.5
230.667	83.5
230.901	86.5
231.136	75.5
231.37	75.5
231.604	72.5
231.838	70.5
232.072	69.5
232.306	82.5
232.541	75.5
232.775	78.5
233.009	93.5
233.243	82.5
233.477	66.5
233.711	73.5
233.945	95.5
234.179	68.5
234.413	73.5
234.647	74.5
234.881	82.5
235.115	77.5
235.349	79.5
235.583	71.5
235.817	69.5
236.051	75.5
236.285	85.5
236.519	85.5
236.753	87.5
236.987	73.5
237.221	74.5
237.455	78.5
237.689	76.5
237.922	80.5
238.156	68.5
238.39	63.5
238.624	64.5
238.858	77.5
239.091	83.5
239.325	83.5
239.559	74.5
239.793	80.5
240.027	82.5
240.26	70.5
240.494	71.5
240.728	84.5
240.961	70.5
241.195	72.5
241.429	88.5
241.662	67.5
241.896	77.5
242.13	76.5
242.363	69.5
242.597	74.5
242.83	79.5
243.064	71.5
243.298	73.5
243.531	70.5
243.765	72.5
243.998	77.5
244.232	71.5
244.465	65.5
244.699	67.5
244.932	72.5
245.166	75.5
245.399	89.5
245.633	84.5
245.866	65.5
246.099	64.5
246.333	81.5
246.566	69.5
246.8	83.5
247.033	82.5
247.266	68.5
247.5	86.5
247.733	70.5
247.966	73.5
248.2	69.5
248.433	70.5
248.666	64.5
248.899	90.5
249.133	76.5
249.366	91.5
249.599	99.5
249.832	74.5
250.066	90.5
250.299	90.5
250.532	72.5
250.765	79.5
250.998	79.5
251.231	63.5
251.465	66.5
251.698	65.5
251.931	64.5
252.164	73.5
252.397	71.5
252.63	73.5
252.863	81.5
253.096	79.5
253.329	73.5
253.562	78.5
253.795	83.5
254.028	77.5
254.261	70.5
254.494	73.5
254.727	87.5
254.96	73.5
255.193	79.5
255.426	68.5
255.659	83.5
255.892	71.5
256.124	84.5
256.357	68.5
256.59	57.5
256.823	76.5
257.056	80.5
257.289	78.5
257.521	71.5
257.754	74.5
257.987	70.5
258.22	70.5
258.452	88.5
258.685	72.5
258.918	85.5
259.151	72.5
259.383	65.5
259.616	78.5
259.849	83.5
260.081	60.5
260.314	88.5
260.547	81.5
260.779	73.5
261.012	75.5
261.244	83.5
261.477	95.5
261.71	99.5
261.942	115.5
262.175	104.5
262.407	80.5
262.64	81.5
262.872	77.5
263.105	83.5
263.337	92.5
263.57	71.5
263.802	75.5
264.035	83.5
264.267	85.5
264.499	86.5
264.732	79.5
264.964	71.5
265.197	82.5
265.429	83.5
265.661	80.5
265.894	90.5
266.126	85.5
266.358	82.5
266.591	74.5
266.823	70.5
267.055	81.5
267.287	85.5
267.52	75.5
267.752	71.5
267.984	77.5
268.216	78.5
268.448	82.5
268.681	78.5
268.913	69.5
269.145	82.5
269.377	88.5
269.609	90.5
269.841	76.5
270.073	91.5
270.306	90.5
270.538	77.5
270.77	78.5
271.002	82.5
271.234	79.5
271.466	88.5
271.698	77.5
271.93	79.5
272.162	83.5
272.394	78.5
272.626	79.5
272.858	81.5
273.09	82.5
273.322	78.5
273.553	81.5
273.785	71.5
274.017	76.5
274.249	79.5
274.481	86.5
274.713	77.5
274.945	71.5
275.176	84.5
275.408	69.5
275.64	90.5
275.872	87.5
276.104	77.5
276.335	100.5
276.567	97.5
276.799	106.5
277.031	99.5
277.262	84.5
277.494	73.5
277.726	81.5
277.957	83.5
278.189	75.5
278.421	79.5
278.652	87.5
278.884	86.5
279.115	87.5
279.347	55.5
279.579	82.5
279.81	66.5
280.042	88.5
280.273	87.5
280.505	82.5
280.736	87.5
280.968	88.5
281.199	81.5
281.431	82.5
281.662	81.5
281.894	94.5
282.125	90.5
282.356	133.5
282.588	156.5
282.819	107.5
283.051	95.5
283.282	76.5
283.513	73.5
283.745	84.5
283.976	67.5
284.207	81.5
284.439	92.5
284.67	93.5
284.901	80.5
285.132	97.5
285.364	74.5
285.595	70.5
285.826	88.5
286.057	82.5
286.288	89.5
286.52	81.5
286.751	79.5
286.982	81.5
287.213	83.5
287.444	99.5
287.675	90.5
287.906	84.5
288.138	89.5
288.369	83.5
288.6	85.5
288.831	101.5
289.062	69.5
289.293	79.5
289.524	90.5
289.755	79.5
289.986	65.5
290.217	76.5
290.448	87.5
290.679	73.5
290.91	98.5
291.141	80.5
291.371	79.5
291.602	68.5
291.833	82.5
292.064	78.5
292.295	78.5
292.526	80.5
292.757	82.5
292.987	82.5
293.218	93.5
293.449	82.5
293.68	99.5
293.91	89.5
294.141	83.5
294.372	77.5
294.603	98.5
294.833	81.5
295.064	95.5
295.295	85.5
295.525	84.5
295.756	94.5
295.987	134.5
296.217	164.5
296.448	130.5
296.679	97.5
296.909	97.5
297.14	86.5
297.37	76.5
297.601	82.5
297.831	88.5
298.062	80.5
298.292	72.5
298.523	77.5
298.753	85.5
298.984	80.5
299.214	104.5
299.445	97.5
299.675	80.5
299.905	95.5
300.136	83.5
300.366	86.5
300.597	90.5
300.827	103.5
301.057	97.5
301.288	103.5
301.518	86.5
301.748	92.5
301.979	86.5
302.209	85.5
302.439	89.5
302.669	78.5
302.9	85.5
303.13	93.5
303.36	88.5
303.59	102.5
303.82	94.5
304.051	91.5
304.281	92.5
304.511	82.5
304.741	73.5
304.971	75.5
305.201	78.5
305.431	89.5
305.661	98.5
305.891	82.5
306.121	91.5
306.352	98.5
306.582	105.5
306.812	92.5
307.042	93.5
307.272	94.5
307.502	94.5
307.731	103.5
307.961	86.5
308.191	77.5
308.421	84.5
308.651	100.5
308.881	86.5
309.111	88.5
309.341	99.5
309.571	77.5
309.8	97.5
310.03	95.5
310.26	94.5
310.49	105.5
310.72	91.5
310.949	103.5
311.179	91.5
311.409	88.5
311.639	96.5
311.868	91.5
312.098	75.5
312.328	108.5
312.557	105.5
312.787	109.5
313.017	88.5
313.246	89.5
313.476	83.5
313.706	108.5
313.935	107.5
314.165	95.5
314.394	107.5
314.624	89.5
314.853	93.5
315.083	90.5
315.312	93.5
315.542	83.5
315.771	86.5
316.001	82.5
316.23	86.5
316.46	86.5
316.689	85.5
316.919	97.5
317.148	89.5
317.377	97.5
317.607	94.5
317.836	89.5
318.065	97.5
318.295	79.5
318.524	95.5
318.753	96.5
318.983	86.5
319.212	106.5
319.441	97.5
319.67	106.5
319.9	91.5
320.129	87.5
320.358	90.5
320.587	91.5
320.816	91.5
321.046	96.5
321.275	96.5
321.504	90.5
321.733	96.5
321.962	112.5
322.191	97.5
322.42	100.5
322.649	118.5
322.878	109.5
323.108	112.5
323.337	142.5
323.566	145.5
323.795	175.5
324.024	255.5
324.253	522.5
324.482	1193.5
324.71	2480.5
324.939	3236.5
325.168	1119.5
325.397	318.5
325.626	178.5
325.855	133.5
326.084	132.5
326.313	150.5
326.542	160.5
326.77	283.5
326.999	621.5
327.228	1343.5
327.457	2471.5
327.686	1891.5
327.914	492.5
328.143	228.5
328.372	167.5
328.6	128.5
328.829	117.5
329.058	123.5
329.287	136.5
329.515	102.5
329.744	105.5
329.972	119.5
330.201	124.5
330.43	122.5
330.658	124.5
330.887	146.5
331.115	139.5
331.344	92.5
331.572	96.5
331.801	97.5
332.03	108.5
332.258	98.5
332.486	93.5
332.715	88.5
332.943	88.5
333.172	106.5
333.4	95.5
333.629	85.5
333.857	106.5
334.085	105.5
334.314	94.5
334.542	129.5
334.771	121.5
334.999	105.5
335.227	98.5
335.455	86.5
335.684	97.5
335.912	104.5
336.14	90.5
336.369	76.5
336.597	89.5
336.825	100.5
337.053	91.5
337.281	91.5
337.51	79.5
337.738	73.5
337.966	89.5
338.194	100.5
338.422	84.5
338.65	93.5
338.878	78.5
339.106	84.5
339.334	95.5
339.562	90.5
339.79	95.5
340.018	97.5
340.246	80.5
340.474	74.5
340.702	93.5
340.93	83.5
341.158	92.5
341.386	97.5
341.614	97.5
341.842	83.5
342.07	85.5
342.298	98.5
342.526	86.5
342.754	84.5
342.981	89.5
343.209	81.5
343.437	120.5
343.665	94.5
343.893	85.5
344.12	93.5
344.348	89.5
344.576	90.5
344.804	96.5
345.031	94.5
345.259	85.5
345.487	97.5
345.714	95.5
345.942	78.5
346.17	81.5
346.397	89.5
346.625	85.5
346.853	92.5
347.08	91.5
347.308	105.5
347.535	88.5
347.763	88.5
347.99	79.5
348.218	97.5
348.445	108.5
348.673	86.5
348.9	99.5
349.128	94.5
349.355	86.5
349.583	97.5
349.81	97.5
350.037	99.5
350.265	87.5
350.492	82.5
350.72	107.5
350.947	104.5
351.174	98.5
351.402	107.5
351.629	103.5
351.856	106.5
352.083	102.5
352.311	115.5
352.538	99.5
352.765	101.5
352.992	115.5
353.22	105.5
353.447	117.5
353.674	107.5
353.901	88.5
354.128	95.5
354.355	81.5
354.583	85.5
354.81	101.5
355.037	86.5
355.264	89.5
355.491	77.5
355.718	88.5
355.945	93.5
356.172	89.5
356.399	77.5
356.626	99.5
356.853	102.5
357.08	96.5
357.307	91.5
357.534	89.5
357.761	97.5
357.988	105.5
358.215	91.5
358.441	96.5
358.668	87.5
358.895	81.5
359.122	80.5
359.349	83.5
359.576	90.5
359.802	115.5
360.029	110.5
360.256	96.5
360.483	87.5
360.709	79.5
360.936	80.5
361.163	80.5
361.39	92.5
361.616	96.5
361.843	85.5
362.07	101.5
362.296	88.5
362.523	84.5
362.749	91.5
362.976	90.5
363.203	93.5
363.429	94.5
363.656	87.5
363.882	97.5
364.109	72.5
364.335	87.5
364.562	80.5
364.788	83.5
365.015	99.5
365.241	117.5
365.468	97.5
365.694	89.5
365.92	100.5
366.147	99.5
366.373	85.5
366.599	88.5
366.826	88.5
367.052	82.5
367.278	91.5
367.505	102.5
367.731	85.5
367.957	71.5
368.184	87.5
368.41	101.5
368.636	125.5
368.862	129.5
369.089	86.5
369.315	92.5
369.541	91.5
369.767	88.5
369.993	97.5
370.219	81.5
370.445	94.5
370.672	90.5
370.898	93.5
371.124	81.5
371.35	80.5
371.576	87.5
371.802	80.5
372.028	78.5
372.254	78.5
372.48	72.5
372.706	62.5
372.932	76.5
373.158	74.5
373.384	85.5
373.61	86.5
373.835	87.5
374.061	86.5
374.287	87.5
374.513	72.5
374.739	87.5
374.965	74.5
375.191	73.5
375.416	90.5
375.642	80.5
375.868	92.5
376.094	94.5
376.319	90.5
376.545	84.5
376.771	74.5
376.997	90.5
377.222	95.5
377.448	97.5
377.674	87.5
377.899	79.5
378.125	83.5
378.35	102.5
378.576	77.5
378.802	93.5
379.027	79.5
379.253	97.5
379.478	97.5
379.704	86.5
379.929	81.5
380.155	81.5
380.38	94.5
380.606	95.5
380.831	83.5
381.057	96.5
381.282	84.5
381.507	85.5
381.733	89.5
381.958	89.5
382.184	90.5
382.409	97.5
382.634	97.5
382.86	79.5
383.085	111.5
383.31	100.5
383.535	93.5
383.761	97.5
383.986	92.5
384.211	97.5
384.436	93.5
384.662	97.5
384.887	104.5
385.112	105.5
385.337	118.5
385.562	112.5
385.787	103.5
386.013	108.5
386.238	104.5
386.463	103.5
386.688	92.5
386.913	101.5
387.138	108.5
387.363	101.5
387.588	98.5
387.813	82.5
388.038	93.5
388.263	109.5
388.488	121.5
388.713	104.5
388.938	90.5
389.163	89.5
389.387	96.5
389.612	79.5
389.837	86.5
390.062	93.5
390.287	91.5
390.512	82.5
390.736	95.5
390.961	89.5
391.186	80.5
391.411	88.5
391.636	83.5
391.86	79.5
392.085	91.5
392.31	79.5
392.534	89.5
392.759	64.5
392.984	87.5
393.208	83.5
393.433	92.5
393.658	82.5
393.882	77.5
394.107	77.5
394.331	81.5
394.556	88.5
394.78	75.5
395.005	65.5
395.229	82.5
395.454	74.5
395.678	91.5
395.903	83.5
396.127	74.5
396.352	81.5
396.576	76.5
396.801	81.5
397.025	81.5
397.249	82.5
397.474	82.5
397.698	84.5
397.922	74.5
398.147	77.5
398.371	82.5
398.595	90.5
398.82	85.5
399.044	85.5
399.268	77.5
399.492	83.5
399.717	70.5
399.941	78.5
400.165	92.5
400.389	90.5
400.613	96.5
400.837	83.5
401.062	77.5
401.286	80.5
401.51	74.5
401.734	76.5
401.958	101.5
402.182	123.5
402.406	171.5
402.63	121.5
402.854	89.5
403.078	86.5
403.302	83.5
403.526	75.5
403.75	81.5
403.974	77.5
404.198	66.5
404.422	77.5
404.645	71.5
404.869	94.5
405.093	102.5
405.317	102.5
405.541	101.5
405.765	100.5
405.988	106.5
406.212	191.5
406.436	277.5
406.66	153.5
406.883	101.5
407.107	84.5
407.331	95.5
407.555	87.5
407.778	93.5
408.002	73.5
408.226	73.5
408.449	72.5
408.673	87.5
408.896	93.5
409.12	92.5
409.344	96.5
409.567	91.5
409.791	90.5
410.014	104.5
410.238	102.5
410.461	96.5
410.685	96.5
410.908	83.5
411.132	94.5
411.355	100.5
411.578	90.5
411.802	84.5
412.025	82.5
412.249	96.5
412.472	88.5
412.695	87.5
412.919	94.5
413.142	83.5
413.365	78.5
413.589	81.5
413.812	81.5
414.035	76.5
414.258	90.5
414.482	81.5
414.705	93.5
414.928	93.5
415.151	98.5
415.374	97.5
415.597	88.5
415.821	85.5
416.044	74.5
416.267	99.5
416.49	81.5
416.713	94.5
416.936	104.5
417.159	86.5
417.382	85.5
417.605	75.5
417.828	97.5
418.051	78.5
418.274	82.5
418.497	73.5
418.72	68.5
418.943	89.5
419.166	86.5
419.389	81.5
419.611	95.5
419.834	89.5
420.057	78.5
420.28	97.5
420.503	75.5
420.726	83.5
420.948	85.5
421.171	97.5
421.394	104.5
421.617	92.5
421.839	82.5
422.062	80.5
422.285	76.5
422.507	98.5
422.73	110.5
422.953	84.5
423.175	71.5
423.398	85.5
423.621	87.5
423.843	80.5
424.066	86.5
424.288	86.5
424.511	80.5
424.733	78.5
424.956	104.5
425.178	101.5
425.401	92.5
425.623	102.5
425.846	89.5
426.068	77.5
426.291	83.5
426.513	80.5
426.735	95.5
426.958	93.5
427.18	93.5
427.402	147.5
427.625	196.5
427.847	149.5
428.069	113.5
428.292	92.5
428.514	98.5
428.736	79.5
428.958	74.5
429.181	73.5
429.403	78.5
429.625	98.5
429.847	96.5
430.069	98.5
430.292	105.5
430.514	75.5
430.736	87.5
430.958	91.5
431.18	76.5
431.402	75.5
431.624	79.5
431.846	81.5
432.068	86.5
432.29	75.5
432.512	89.5
432.734	81.5
432.956	94.5
433.178	104.5
433.4	98.5
433.622	91.5
433.844	88.5
434.066	94.5
434.287	81.5
434.509	78.5
434.731	79.5
434.953	105.5
435.175	78.5
435.397	81.5
435.618	69.5
435.84	93.5
436.062	126.5
436.284	112.5
436.505	103.5
436.727	98.5
436.949	85.5
437.17	95.5
437.392	82.5
437.614	101.5
437.835	89.5
438.057	103.5
438.278	107.5
438.5	99.5
438.721	118.5
438.943	113.5
439.165	80.5
439.386	92.5
439.608	83.5
439.829	97.5
440.05	129.5
440.272	151.5
440.493	101.5
440.715	67.5
440.936	71.5
441.158	78.5
441.379	74.5
441.6	90.5
441.822	86.5
442.043	87.5
442.264	100.5
442.486	98.5
442.707	86.5
442.928	110.5
443.149	126.5
443.371	153.5
443.592	130.5
443.813	108.5
444.034	115.5
444.255	98.5
444.476	105.5
444.698	77.5
444.919	78.5
445.14	137.5
445.361	119.5
445.582	120.5
445.803	140.5
446.024	143.5
446.245	145.5
446.466	113.5
446.687	91.5
446.908	91.5
447.129	69.5
447.35	91.5
447.571	102.5
447.792	85.5
448.013	105.5
448.234	100.5
448.455	110.5
448.675	99.5
448.896	105.5
449.117	92.5
449.338	108.5
449.559	145.5
449.779	147.5
450	101.5
450.221	92.5
450.442	84.5
450.662	99.5
450.883	95.5
451.104	108.5
451.324	83.5
451.545	83.5
451.766	83.5
451.986	86.5
452.207	89.5
452.428	86.5
452.648	90.5
452.869	117.5
453.089	118.5
453.31	128.5
453.53	96.5
453.751	85.5
453.971	94.5
454.192	107.5
454.412	90.5
454.633	79.5
454.853	99.5
455.073	82.5
455.294	92.5
455.514	96.5
455.734	91.5
455.955	77.5
456.175	80.5
456.395	77.5
456.616	88.5
456.836	92.5
457.056	86.5
457.276	92.5
457.497	75.5
457.717	73.5
457.937	74.5
458.157	88.5
458.377	84.5
458.598	107.5
458.818	153.5
459.038	189.5
459.258	138.5
459.478	83.5
459.698	73.5
459.918	70.5
460.138	78.5
460.358	76.5
460.578	78.5
460.798	84.5
461.018	82.5
461.238	77.5
461.458	87.5
461.678	78.5
461.898	82.5
462.118	90.5
462.338	79.5
462.558	76.5
462.777	70.5
462.997	83.5
463.217	71.5
463.437	78.5
463.657	70.5
463.876	88.5
464.096	80.5
464.316	100.5
464.536	97.5
464.755	103.5
464.975	115.5
465.195	208.5
465.414	181.5
465.634	94.5
465.854	83.5
466.073	79.5
466.293	77.5
466.512	74.5
466.732	53.5
466.951	74.5
467.171	94.5
467.391	88.5
467.61	93.5
467.829	105.5
468.049	86.5
468.268	92.5
468.488	88.5
468.707	90.5
468.927	72.5
469.146	87.5
469.365	69.5
469.585	87.5
469.804	103.5
470.023	97.5
470.243	92.5
470.462	106.5
470.681	102.5
470.901	74.5
471.12	84.5
471.339	82.5
471.558	80.5
471.777	95.5
471.997	98.5
472.216	115.5
472.435	136.5
472.654	92.5
472.873	90.5
473.092	97.5
473.311	87.5
473.53	82.5
473.749	79.5
473.968	72.5
474.187	96.5
474.406	93.5
474.625	70.5
474.844	83.5
475.063	90.5
475.282	73.5
475.501	67.5
475.72	85.5
475.939	78.5
476.158	81.5
476.377	80.5
476.596	78.5
476.814	82.5
477.033	78.5
477.252	86.5
477.471	74.5
477.69	95.5
477.908	85.5
478.127	74.5
478.346	83.5
478.564	83.5
478.783	90.5
479.002	89.5
479.22	93.5
479.439	101.5
479.658	111.5
479.876	116.5
480.095	72.5
480.313	77.5
480.532	79.5
480.751	87.5
480.969	93.5
481.188	193.5
481.406	134.5
481.624	90.5
481.843	94.5
482.061	93.5
482.28	76.5
482.498	90.5
482.717	92.5
482.935	91.5
483.153	94.5
483.372	86.5
483.59	83.5
483.808	88.5
484.027	83.5
484.245	92.5
484.463	84.5
484.681	87.5
484.9	102.5
485.118	99.5
485.336	93.5
485.554	98.5
485.772	113.5
485.99	103.5
486.209	102.5
486.427	109.5
486.645	102.5
486.863	101.5
487.081	111.5
487.299	91.5
487.517	99.5
487.735	77.5
487.953	87.5
488.171	91.5
488.389	95.5
488.607	89.5
488.825	92.5
489.043	91.5
489.261	85.5
489.479	88.5
489.696	100.5
489.914	80.5
490.132	96.5
490.35	81.5
490.568	95.5
490.786	94.5
491.003	83.5
491.221	91.5
491.439	102.5
491.657	83.5
491.874	88.5
492.092	98.5
492.31	93.5
492.527	94.5
492.745	72.5
492.963	97.5
493.18	77.5
493.398	90.5
493.615	96.5
493.833	101.5
494.05	72.5
494.268	71.5
494.485	98.5
494.703	92.5
494.92	87.5
495.138	88.5
495.355	91.5
495.573	89.5
495.79	93.5
496.008	93.5
496.225	79.5
496.442	80.5
496.66	82.5
496.877	105.5
497.094	92.5
497.312	85.5
497.529	69.5
497.746	77.5
497.963	83.5
498.181	90.5
498.398	99.5
498.615	108.5
498.832	120.5
499.049	80.5
499.267	79.5
499.484	90.5
499.701	95.5
499.918	89.5
500.135	91.5
500.352	89.5
500.569	91.5
500.786	86.5
501.003	97.5
501.22	101.5
501.437	89.5
501.654	108.5
501.871	103.5
502.088	84.5
502.305	91.5
502.522	76.5
502.739	81.5
502.956	91.5
503.172	89.5
503.389	83.5
503.606	96.5
503.823	83.5
504.04	90.5
504.256	94.5
504.473	87.5
504.69	81.5
504.907	77.5
505.123	92.5
505.34	96.5
505.557	84.5
505.773	93.5
505.99	68.5
506.207	96.5
506.423	91.5
506.64	85.5
506.856	98.5
507.073	95.5
507.289	93.5
507.506	96.5
507.722	118.5
507.939	125.5
508.155	90.5
508.372	101.5
508.588	91.5
508.805	95.5
509.021	90.5
509.238	98.5
509.454	93.5
509.67	102.5
509.887	116.5
510.103	135.5
510.319	246.5
510.536	934.5
510.752	3155.5
510.968	843.5
511.184	183.5
511.401	114.5
511.617	87.5
511.833	93.5
512.049	78.5
512.265	89.5
512.481	80.5
512.698	83.5
512.914	90.5
513.13	88.5
513.346	94.5
513.562	95.5
513.778	96.5
513.994	102.5
514.21	113.5
514.426	123.5
514.642	141.5
514.858	133.5
515.074	183.5
515.29	572.5
515.506	2001.5
515.721	713.5
515.937	170.5
516.153	115.5
516.369	85.5
516.585	94.5
516.801	83.5
517.016	89.5
517.232	87.5
517.448	104.5
517.664	89.5
517.879	94.5
518.095	103.5
518.311	98.5
518.527	87.5
518.742	69.5
518.958	107.5
519.173	98.5
519.389	96.5
519.605	94.5
519.82	106.5
520.036	102.5
520.251	126.5
520.467	123.5
520.682	89.5
520.898	104.5
521.113	95.5
521.329	154.5
521.544	267.5
521.76	744.5
521.975	3347.5
522.19	1959.5
522.406	393.5
522.621	139.5
522.836	98.5
523.052	98.5
523.267	94.5
523.482	93.5
523.698	102.5
523.913	138.5
524.128	97.5
524.343	78.5
524.559	99.5
524.774	88.5
524.989	104.5
525.204	100.5
525.419	83.5
525.634	82.5
525.849	90.5
526.064	85.5
526.28	83.5
526.495	87.5
526.71	88.5
526.925	103.5
527.14	97.5
527.355	96.5
527.57	86.5
527.785	88.5
527.999	85.5
528.214	92.5
528.429	94.5
528.644	80.5
528.859	79.5
529.074	92.5
529.289	133.5
529.503	197.5
529.718	101.5
529.933	98.5
530.148	88.5
530.363	99.5
530.577	94.5
530.792	89.5
531.007	96.5
531.221	101.5
531.436	90.5
531.651	90.5
531.865	78.5
532.08	93.5
532.295	93.5
532.509	102.5
532.724	91.5
532.938	88.5
533.153	84.5
533.367	78.5
533.582	87.5
533.796	90.5
534.011	82.5
534.225	81.5
534.44	96.5
534.654	87.5
534.868	80.5
535.083	89.5
535.297	111.5
535.511	89.5
535.726	108.5
535.94	86.5
536.154	106.5
