Data from Circ_2006_H10_HRD10591_00092.txt Node
Date: Wed Jan 03 10:26:22 EST 2024
User: Yrep
Spectrometer: HR+D1059
Trigger mode: 1
Integration Time (sec): 1.000000E-1
Scans to average: 1
Electric dark correction enabled: true
Nonlinearity correction enabled: false
Boxcar width: 0
XAxis mode: Wavelengths
Number of Pixels in Spectrum: 2048
>>>>>Begin Spectral Data<<<<<
223.165	0.81
223.4	0.81
223.635	0.81
223.869	-14.19
224.104	-36.19
224.338	-9.19
224.573	-19.19
224.808	0.81
225.042	-14.19
225.277	-9.19
225.511	-4.19
225.746	0.81
225.98	5.81
226.215	9.81
226.449	10.81
226.683	26.81
226.918	17.81
227.152	32.81
227.387	30.81
227.621	30.81
227.856	49.81
228.09	48.81
228.324	37.81
228.559	52.81
228.793	52.81
229.027	71.81
229.262	72.81
229.496	73.81
229.73	92.81
229.964	93.81
230.199	85.81
230.433	63.81
230.667	82.81
230.901	82.81
231.136	82.81
231.37	70.81
231.604	77.81
231.838	86.81
232.072	91.81
232.306	86.81
232.541	96.81
232.775	90.81
233.009	85.81
233.243	79.81
233.477	77.81
233.711	82.81
233.945	73.81
234.179	75.81
234.413	85.81
234.647	84.81
234.881	85.81
235.115	93.81
235.349	77.81
235.583	83.81
235.817	74.81
236.051	75.81
236.285	78.81
236.519	73.81
236.753	84.81
236.987	78.81
237.221	91.81
237.455	100.81
237.689	76.81
237.922	67.81
238.156	86.81
238.39	72.81
238.624	67.81
238.858	77.81
239.091	73.81
239.325	80.81
239.559	87.81
239.793	89.81
240.027	67.81
240.26	75.81
240.494	75.81
240.728	80.81
240.961	75.81
241.195	76.81
241.429	77.81
241.662	104.81
241.896	97.81
242.13	82.81
242.363	78.81
242.597	86.81
242.83	84.81
243.064	79.81
243.298	70.81
243.531	78.81
243.765	75.81
243.998	79.81
244.232	80.81
244.465	67.81
244.699	79.81
244.932	76.81
245.166	91.81
245.399	84.81
245.633	80.81
245.866	79.81
246.099	65.81
246.333	80.81
246.566	72.81
246.8	84.81
247.033	72.81
247.266	85.81
247.5	84.81
247.733	82.81
247.966	71.81
248.2	67.81
248.433	74.81
248.666	76.81
248.899	80.81
249.133	87.81
249.366	100.81
249.599	102.81
249.832	81.81
250.066	86.81
250.299	83.81
250.532	81.81
250.765	71.81
250.998	79.81
251.231	87.81
251.465	80.81
251.698	78.81
251.931	89.81
252.164	68.81
252.397	74.81
252.63	68.81
252.863	86.81
253.096	89.81
253.329	69.81
253.562	84.81
253.795	83.81
254.028	84.81
254.261	83.81
254.494	84.81
254.727	84.81
254.96	83.81
255.193	81.81
255.426	77.81
255.659	88.81
255.892	86.81
256.124	84.81
256.357	76.81
256.59	73.81
256.823	93.81
257.056	72.81
257.289	79.81
257.521	81.81
257.754	88.81
257.987	81.81
258.22	111.81
258.452	80.81
258.685	90.81
258.918	76.81
259.151	80.81
259.383	96.81
259.616	72.81
259.849	88.81
260.081	83.81
260.314	84.81
260.547	88.81
260.779	88.81
261.012	95.81
261.244	86.81
261.477	87.81
261.71	112.81
261.942	137.81
262.175	123.81
262.407	106.81
262.64	78.81
262.872	81.81
263.105	97.81
263.337	92.81
263.57	80.81
263.802	85.81
264.035	75.81
264.267	91.81
264.499	91.81
264.732	85.81
264.964	80.81
265.197	80.81
265.429	95.81
265.661	92.81
265.894	93.81
266.126	88.81
266.358	71.81
266.591	86.81
266.823	85.81
267.055	86.81
267.287	83.81
267.52	89.81
267.752	87.81
267.984	88.81
268.216	83.81
268.448	96.81
268.681	71.81
268.913	86.81
269.145	91.81
269.377	84.81
269.609	82.81
269.841	98.81
270.073	92.81
270.306	96.81
270.538	77.81
270.77	94.81
271.002	80.81
271.234	72.81
271.466	76.81
271.698	90.81
271.93	74.81
272.162	92.81
272.394	99.81
272.626	84.81
272.858	91.81
273.09	82.81
273.322	87.81
273.553	86.81
273.785	97.81
274.017	84.81
274.249	79.81
274.481	76.81
274.713	75.81
274.945	92.81
275.176	95.81
275.408	84.81
275.64	92.81
275.872	86.81
276.104	76.81
276.335	99.81
276.567	108.81
276.799	108.81
277.031	103.81
277.262	99.81
277.494	87.81
277.726	93.81
277.957	83.81
278.189	75.81
278.421	80.81
278.652	90.81
278.884	83.81
279.115	103.81
279.347	95.81
279.579	84.81
279.81	93.81
280.042	92.81
280.273	97.81
280.505	95.81
280.736	92.81
280.968	94.81
281.199	92.81
281.431	80.81
281.662	89.81
281.894	93.81
282.125	119.81
282.356	120.81
282.588	156.81
282.819	120.81
283.051	107.81
283.282	88.81
283.513	88.81
283.745	87.81
283.976	81.81
284.207	72.81
284.439	89.81
284.67	82.81
284.901	72.81
285.132	92.81
285.364	80.81
285.595	94.81
285.826	76.81
286.057	97.81
286.288	89.81
286.52	82.81
286.751	84.81
286.982	105.81
287.213	79.81
287.444	86.81
287.675	92.81
287.906	94.81
288.138	88.81
288.369	84.81
288.6	94.81
288.831	100.81
289.062	99.81
289.293	83.81
289.524	95.81
289.755	87.81
289.986	103.81
290.217	76.81
290.448	73.81
290.679	79.81
290.91	90.81
291.141	80.81
291.371	110.81
291.602	86.81
291.833	88.81
292.064	89.81
292.295	95.81
292.526	96.81
292.757	87.81
292.987	84.81
293.218	75.81
293.449	89.81
293.68	86.81
293.91	84.81
294.141	87.81
294.372	77.81
294.603	84.81
294.833	86.81
295.064	92.81
295.295	97.81
295.525	95.81
295.756	101.81
295.987	114.81
296.217	146.81
296.448	112.81
296.679	91.81
296.909	94.81
297.14	85.81
297.37	94.81
297.601	92.81
297.831	98.81
298.062	104.81
298.292	88.81
298.523	99.81
298.753	95.81
298.984	88.81
299.214	92.81
299.445	103.81
299.675	92.81
299.905	97.81
300.136	87.81
300.366	102.81
300.597	96.81
300.827	107.81
301.057	100.81
301.288	101.81
301.518	86.81
301.748	108.81
301.979	108.81
302.209	103.81
302.439	93.81
302.669	95.81
302.9	87.81
303.13	79.81
303.36	103.81
303.59	101.81
303.82	97.81
304.051	103.81
304.281	81.81
304.511	75.81
304.741	86.81
304.971	95.81
305.201	93.81
305.431	96.81
305.661	94.81
305.891	90.81
306.121	104.81
306.352	108.81
306.582	112.81
306.812	94.81
307.042	94.81
307.272	102.81
307.502	89.81
307.731	99.81
307.961	83.81
308.191	93.81
308.421	85.81
308.651	104.81
308.881	105.81
309.111	101.81
309.341	107.81
309.571	104.81
309.8	83.81
310.03	100.81
310.26	95.81
310.49	98.81
310.72	97.81
310.949	112.81
311.179	100.81
311.409	101.81
311.639	93.81
311.868	102.81
312.098	89.81
312.328	110.81
312.557	103.81
312.787	100.81
313.017	101.81
313.246	88.81
313.476	118.81
313.706	89.81
313.935	102.81
314.165	107.81
314.394	101.81
314.624	96.81
314.853	84.81
315.083	94.81
315.312	88.81
315.542	98.81
315.771	88.81
316.001	95.81
316.23	89.81
316.46	96.81
316.689	76.81
316.919	84.81
317.148	86.81
317.377	95.81
317.607	91.81
317.836	82.81
318.065	98.81
318.295	96.81
318.524	95.81
318.753	85.81
318.983	103.81
319.212	111.81
319.441	110.81
319.67	111.81
319.9	98.81
320.129	82.81
320.358	114.81
320.587	111.81
320.816	93.81
321.046	112.81
321.275	103.81
321.504	99.81
321.733	100.81
321.962	99.81
322.191	108.81
322.42	114.81
322.649	114.81
322.878	106.81
323.108	131.81
323.337	143.81
323.566	159.81
323.795	166.81
324.024	220.81
324.253	464.81
324.482	963.81
324.71	2032.81
324.939	2659.81
325.168	963.81
325.397	280.81
325.626	152.81
325.855	129.81
326.084	149.81
326.313	121.81
326.542	174.81
326.77	263.81
326.999	525.81
327.228	1107.81
327.457	1995.81
327.686	1616.81
327.914	426.81
328.143	238.81
328.372	191.81
328.6	144.81
328.829	126.81
329.058	143.81
329.287	141.81
329.515	118.81
329.744	112.81
329.972	132.81
330.201	163.81
330.43	214.81
330.658	172.81
330.887	149.81
331.115	127.81
331.344	116.81
331.572	117.81
331.801	119.81
332.03	113.81
332.258	111.81
332.486	94.81
332.715	99.81
332.943	102.81
333.172	107.81
333.4	96.81
333.629	112.81
333.857	126.81
334.085	133.81
334.314	167.81
334.542	251.81
334.771	231.81
334.999	128.81
335.227	97.81
335.455	105.81
335.684	96.81
335.912	87.81
336.14	98.81
336.369	96.81
336.597	100.81
336.825	101.81
337.053	101.81
337.281	93.81
337.51	84.81
337.738	98.81
337.966	89.81
338.194	101.81
338.422	87.81
338.65	100.81
338.878	99.81
339.106	92.81
339.334	103.81
339.562	87.81
339.79	80.81
340.018	97.81
340.246	73.81
340.474	89.81
340.702	98.81
340.93	95.81
341.158	104.81
341.386	96.81
341.614	94.81
341.842	81.81
342.07	93.81
342.298	92.81
342.526	93.81
342.754	91.81
342.981	91.81
343.209	96.81
343.437	109.81
343.665	96.81
343.893	91.81
344.12	97.81
344.348	92.81
344.576	88.81
344.804	110.81
345.031	112.81
345.259	102.81
345.487	93.81
345.714	96.81
345.942	99.81
346.17	100.81
346.397	104.81
346.625	94.81
346.853	93.81
347.08	96.81
347.308	88.81
347.535	114.81
347.763	117.81
347.99	111.81
348.218	101.81
348.445	104.81
348.673	96.81
348.9	96.81
349.128	99.81
349.355	88.81
349.583	94.81
349.81	100.81
350.037	105.81
350.265	96.81
350.492	79.81
350.72	83.81
350.947	100.81
351.174	106.81
351.402	108.81
351.629	96.81
351.856	112.81
352.083	120.81
352.311	99.81
352.538	111.81
352.765	99.81
352.992	107.81
353.22	119.81
353.447	101.81
353.674	103.81
353.901	105.81
354.128	80.81
354.355	93.81
354.583	112.81
354.81	103.81
355.037	98.81
355.264	98.81
355.491	90.81
355.718	85.81
355.945	99.81
356.172	88.81
356.399	99.81
356.626	93.81
356.853	90.81
357.08	102.81
357.307	101.81
357.534	94.81
357.761	102.81
357.988	88.81
358.215	83.81
358.441	107.81
358.668	97.81
358.895	90.81
359.122	84.81
359.349	85.81
359.576	91.81
359.802	95.81
360.029	112.81
360.256	119.81
360.483	93.81
360.709	95.81
360.936	103.81
361.163	107.81
361.39	108.81
361.616	100.81
361.843	96.81
362.07	87.81
362.296	89.81
362.523	90.81
362.749	83.81
362.976	99.81
363.203	84.81
363.429	85.81
363.656	88.81
363.882	94.81
364.109	92.81
364.335	84.81
364.562	81.81
364.788	99.81
365.015	102.81
365.241	102.81
365.468	121.81
365.694	110.81
365.92	93.81
366.147	97.81
366.373	103.81
366.599	84.81
366.826	87.81
367.052	91.81
367.278	72.81
367.505	101.81
367.731	108.81
367.957	85.81
368.184	91.81
368.41	100.81
368.636	101.81
368.862	140.81
369.089	120.81
369.315	104.81
369.541	92.81
369.767	94.81
369.993	105.81
370.219	100.81
370.445	106.81
370.672	78.81
370.898	97.81
371.124	90.81
371.35	84.81
371.576	96.81
371.802	102.81
372.028	89.81
372.254	86.81
372.48	88.81
372.706	92.81
372.932	95.81
373.158	98.81
373.384	88.81
373.61	81.81
373.835	98.81
374.061	80.81
374.287	93.81
374.513	99.81
374.739	105.81
374.965	81.81
375.191	84.81
375.416	97.81
375.642	88.81
375.868	86.81
376.094	103.81
376.319	95.81
376.545	75.81
376.771	82.81
376.997	103.81
377.222	104.81
377.448	95.81
377.674	95.81
377.899	96.81
378.125	93.81
378.35	103.81
378.576	88.81
378.802	104.81
379.027	77.81
379.253	102.81
379.478	100.81
379.704	109.81
379.929	94.81
380.155	93.81
380.38	87.81
380.606	100.81
380.831	97.81
381.057	95.81
381.282	86.81
381.507	77.81
381.733	89.81
381.958	90.81
382.184	94.81
382.409	101.81
382.634	84.81
382.86	88.81
383.085	103.81
383.31	85.81
383.535	108.81
383.761	100.81
383.986	103.81
384.211	95.81
384.436	97.81
384.662	104.81
384.887	94.81
385.112	107.81
385.337	93.81
385.562	96.81
385.787	111.81
386.013	97.81
386.238	98.81
386.463	110.81
386.688	111.81
386.913	105.81
387.138	109.81
387.363	107.81
387.588	95.81
387.813	95.81
388.038	112.81
388.263	112.81
388.488	97.81
388.713	97.81
388.938	90.81
389.163	100.81
389.387	92.81
389.612	91.81
389.837	99.81
390.062	87.81
390.287	83.81
390.512	97.81
390.736	97.81
390.961	95.81
391.186	103.81
391.411	100.81
391.636	80.81
391.86	95.81
392.085	94.81
392.31	94.81
392.534	92.81
392.759	84.81
392.984	86.81
393.208	84.81
393.433	96.81
393.658	106.81
393.882	84.81
394.107	88.81
394.331	84.81
394.556	82.81
394.78	94.81
395.005	83.81
395.229	93.81
395.454	99.81
395.678	97.81
395.903	95.81
396.127	75.81
396.352	86.81
396.576	98.81
396.801	77.81
397.025	92.81
397.249	102.81
397.474	84.81
397.698	91.81
397.922	99.81
398.147	92.81
398.371	78.81
398.595	83.81
398.82	94.81
399.044	92.81
399.268	85.81
399.492	86.81
399.717	91.81
399.941	87.81
400.165	104.81
400.389	89.81
400.613	83.81
400.837	89.81
401.062	84.81
401.286	87.81
401.51	99.81
401.734	101.81
401.958	92.81
402.182	152.81
402.406	161.81
402.63	118.81
402.854	106.81
403.078	98.81
403.302	89.81
403.526	92.81
403.75	92.81
403.974	80.81
404.198	89.81
404.422	106.81
404.645	88.81
404.869	108.81
405.093	96.81
405.317	108.81
405.541	118.81
405.765	102.81
405.988	138.81
406.212	191.81
406.436	254.81
406.66	153.81
406.883	107.81
407.107	94.81
407.331	99.81
407.555	110.81
407.778	91.81
408.002	88.81
408.226	80.81
408.449	102.81
408.673	101.81
408.896	105.81
409.12	94.81
409.344	85.81
409.567	94.81
409.791	90.81
410.014	85.81
410.238	99.81
410.461	97.81
410.685	108.81
410.908	106.81
411.132	108.81
411.355	102.81
411.578	92.81
411.802	96.81
412.025	90.81
412.249	91.81
412.472	119.81
412.695	89.81
412.919	87.81
413.142	94.81
413.365	94.81
413.589	94.81
413.812	78.81
414.035	108.81
414.258	100.81
414.482	76.81
414.705	87.81
414.928	85.81
415.151	93.81
415.374	89.81
415.597	96.81
415.821	86.81
416.044	92.81
416.267	87.81
416.49	94.81
416.713	82.81
416.936	95.81
417.159	84.81
417.382	102.81
417.605	93.81
417.828	96.81
418.051	99.81
418.274	100.81
418.497	97.81
418.72	84.81
418.943	87.81
419.166	89.81
419.389	97.81
419.611	100.81
419.834	83.81
420.057	84.81
420.28	91.81
420.503	96.81
420.726	86.81
420.948	101.81
421.171	89.81
421.394	96.81
421.617	93.81
421.839	89.81
422.062	103.81
422.285	86.81
422.507	97.81
422.73	111.81
422.953	86.81
423.175	107.81
423.398	80.81
423.621	91.81
423.843	88.81
424.066	81.81
424.288	90.81
424.511	90.81
424.733	100.81
424.956	116.81
425.178	106.81
425.401	110.81
425.623	97.81
425.846	90.81
426.068	104.81
426.291	90.81
426.513	96.81
426.735	103.81
426.958	102.81
427.18	110.81
427.402	140.81
427.625	192.81
427.847	156.81
428.069	118.81
428.292	91.81
428.514	85.81
428.736	100.81
428.958	85.81
429.181	81.81
429.403	74.81
429.625	82.81
429.847	102.81
430.069	97.81
430.292	104.81
430.514	88.81
430.736	91.81
430.958	84.81
431.18	97.81
431.402	75.81
431.624	83.81
431.846	93.81
432.068	86.81
432.29	91.81
432.512	100.81
432.734	88.81
432.956	101.81
433.178	111.81
433.4	112.81
433.622	103.81
433.844	95.81
434.066	92.81
434.287	97.81
434.509	93.81
434.731	95.81
434.953	72.81
435.175	94.81
435.397	93.81
435.618	88.81
435.84	109.81
436.062	114.81
436.284	120.81
436.505	91.81
436.727	109.81
436.949	73.81
437.17	99.81
437.392	98.81
437.614	98.81
437.835	100.81
438.057	124.81
438.278	119.81
438.5	96.81
438.721	113.81
438.943	103.81
439.165	86.81
439.386	85.81
439.608	93.81
439.829	102.81
440.05	140.81
440.272	147.81
440.493	111.81
440.715	89.81
440.936	87.81
441.158	82.81
441.379	79.81
441.6	84.81
441.822	98.81
442.043	107.81
442.264	92.81
442.486	105.81
442.707	103.81
442.928	105.81
443.149	145.81
443.371	136.81
443.592	129.81
443.813	112.81
444.034	91.81
444.255	100.81
444.476	85.81
444.698	85.81
444.919	93.81
445.14	130.81
445.361	116.81
445.582	116.81
445.803	166.81
446.024	145.81
446.245	132.81
446.466	107.81
446.687	95.81
446.908	87.81
447.129	86.81
447.35	89.81
447.571	104.81
447.792	101.81
448.013	97.81
448.234	112.81
448.455	101.81
448.675	127.81
448.896	124.81
449.117	113.81
449.338	96.81
449.559	123.81
449.779	124.81
450	99.81
450.221	88.81
450.442	92.81
450.662	100.81
450.883	109.81
451.104	105.81
451.324	100.81
451.545	89.81
451.766	96.81
451.986	93.81
452.207	98.81
452.428	111.81
452.648	87.81
452.869	129.81
453.089	116.81
453.31	113.81
453.53	102.81
453.751	96.81
453.971	101.81
454.192	110.81
454.412	86.81
454.633	92.81
454.853	79.81
455.073	72.81
455.294	88.81
455.514	94.81
455.734	92.81
455.955	111.81
456.175	91.81
456.395	89.81
456.616	75.81
456.836	83.81
457.056	96.81
457.276	82.81
457.497	86.81
457.717	96.81
457.937	93.81
458.157	90.81
458.377	96.81
458.598	113.81
458.818	157.81
459.038	181.81
459.258	123.81
459.478	108.81
459.698	93.81
459.918	93.81
460.138	88.81
460.358	86.81
460.578	89.81
460.798	97.81
461.018	98.81
461.238	94.81
461.458	89.81
461.678	84.81
461.898	99.81
462.118	85.81
462.338	76.81
462.558	87.81
462.777	93.81
462.997	87.81
463.217	91.81
463.437	77.81
463.657	99.81
463.876	94.81
464.096	89.81
464.316	95.81
464.536	91.81
464.755	104.81
464.975	123.81
465.195	181.81
465.414	192.81
465.634	108.81
465.854	99.81
466.073	99.81
466.293	100.81
466.512	88.81
466.732	90.81
466.951	90.81
467.171	98.81
467.391	97.81
467.61	101.81
467.829	110.81
468.049	118.81
468.268	160.81
468.488	94.81
468.707	87.81
468.927	91.81
469.146	77.81
469.365	80.81
469.585	89.81
469.804	103.81
470.023	104.81
470.243	89.81
470.462	99.81
470.681	117.81
470.901	93.81
471.12	87.81
471.339	99.81
471.558	95.81
471.777	82.81
471.997	101.81
472.216	191.81
472.435	295.81
472.654	134.81
472.873	95.81
473.092	78.81
473.311	80.81
473.53	100.81
473.749	86.81
473.968	93.81
474.187	107.81
474.406	94.81
474.625	96.81
474.844	80.81
475.063	93.81
475.282	80.81
475.501	93.81
475.72	103.81
475.939	100.81
476.158	88.81
476.377	84.81
476.596	91.81
476.814	99.81
477.033	77.81
477.252	80.81
477.471	86.81
477.69	98.81
477.908	94.81
478.127	81.81
478.346	80.81
478.564	103.81
478.783	104.81
479.002	91.81
479.22	88.81
479.439	111.81
479.658	95.81
479.876	103.81
480.095	89.81
480.313	93.81
480.532	108.81
480.751	117.81
480.969	189.81
481.188	486.81
481.406	344.81
481.624	116.81
481.843	78.81
482.061	94.81
482.28	88.81
482.498	89.81
482.717	96.81
482.935	92.81
483.153	88.81
483.372	95.81
483.59	95.81
483.808	82.81
484.027	76.81
484.245	107.81
484.463	89.81
484.681	86.81
484.9	92.81
485.118	86.81
485.336	80.81
485.554	90.81
485.772	105.81
485.99	96.81
486.209	124.81
486.427	109.81
486.645	118.81
486.863	113.81
487.081	96.81
487.299	91.81
487.517	87.81
487.735	93.81
487.953	93.81
488.171	95.81
488.389	98.81
488.607	102.81
488.825	79.81
489.043	101.81
489.261	98.81
489.479	96.81
489.696	96.81
489.914	85.81
490.132	103.81
490.35	94.81
490.568	94.81
490.786	85.81
491.003	95.81
491.221	92.81
491.439	114.81
491.657	109.81
491.874	91.81
492.092	88.81
492.31	93.81
492.527	91.81
492.745	107.81
492.963	94.81
493.18	104.81
493.398	99.81
493.615	93.81
493.833	94.81
494.05	99.81
494.268	97.81
494.485	93.81
494.703	89.81
494.92	78.81
495.138	84.81
495.355	81.81
495.573	98.81
495.79	94.81
496.008	97.81
496.225	92.81
496.442	88.81
496.66	100.81
496.877	90.81
497.094	87.81
497.312	95.81
497.529	101.81
497.746	78.81
497.963	83.81
498.181	88.81
498.398	96.81
498.615	104.81
498.832	107.81
499.049	100.81
499.267	94.81
499.484	89.81
499.701	92.81
499.918	98.81
500.135	86.81
500.352	103.81
500.569	90.81
500.786	94.81
501.003	98.81
501.22	80.81
501.437	89.81
501.654	98.81
501.871	118.81
502.088	85.81
502.305	84.81
502.522	96.81
502.739	93.81
502.956	91.81
503.172	95.81
503.389	82.81
503.606	120.81
503.823	95.81
504.04	99.81
504.256	81.81
504.473	98.81
504.69	104.81
504.907	102.81
505.123	88.81
505.34	88.81
505.557	94.81
505.773	88.81
505.99	87.81
506.207	94.81
506.423	95.81
506.64	107.81
506.856	99.81
507.073	90.81
507.289	92.81
507.506	101.81
507.722	119.81
507.939	131.81
508.155	105.81
508.372	89.81
508.588	99.81
508.805	95.81
509.021	106.81
509.238	88.81
509.454	104.81
509.67	98.81
509.887	109.81
510.103	134.81
510.319	227.81
510.536	848.81
510.752	2697.81
510.968	760.81
511.184	162.81
511.401	131.81
511.617	112.81
511.833	109.81
512.049	89.81
512.265	87.81
512.481	99.81
512.698	103.81
512.914	93.81
513.13	87.81
513.346	91.81
513.562	95.81
513.778	109.81
513.994	110.81
514.21	104.81
514.426	131.81
