Data from Circ_2006_H10_HRD10591_00075.txt Node
Date: Wed Jan 03 10:26:18 EST 2024
User: Yrep
Spectrometer: HR+D1059
Trigger mode: 1
Integration Time (sec): 1.000000E-1
Scans to average: 1
Electric dark correction enabled: true
Nonlinearity correction enabled: false
Boxcar width: 0
XAxis mode: Wavelengths
Number of Pixels in Spectrum: 2048
>>>>>Begin Spectral Data<<<<<
223.165	-14.62
223.4	-14.62
223.635	-14.62
223.869	-16.62
224.104	-24.62
224.338	-11.62
224.573	-9.62
224.808	-8.62
225.042	-15.62
225.277	10.38
225.511	-2.62
225.746	7.38
225.98	14.38
226.215	12.38
226.449	12.38
226.683	5.38
226.918	21.38
227.152	20.38
227.387	31.38
227.621	43.38
227.856	48.38
228.09	44.38
228.324	43.38
228.559	53.38
228.793	63.38
229.027	61.38
229.262	60.38
229.496	93.38
229.73	91.38
229.964	86.38
230.199	76.38
230.433	71.38
230.667	68.38
230.901	69.38
231.136	67.38
231.37	75.38
231.604	79.38
231.838	83.38
232.072	74.38
232.306	68.38
232.541	82.38
232.775	70.38
233.009	92.38
233.243	77.38
233.477	82.38
233.711	86.38
233.945	92.38
234.179	78.38
234.413	92.38
234.647	79.38
234.881	74.38
235.115	87.38
235.349	86.38
235.583	75.38
235.817	81.38
236.051	67.38
236.285	63.38
236.519	85.38
236.753	94.38
236.987	82.38
237.221	89.38
237.455	83.38
237.689	82.38
237.922	78.38
238.156	75.38
238.39	78.38
238.624	80.38
238.858	76.38
239.091	88.38
239.325	85.38
239.559	91.38
239.793	82.38
240.027	74.38
240.26	67.38
240.494	76.38
240.728	83.38
240.961	81.38
241.195	71.38
241.429	90.38
241.662	85.38
241.896	76.38
242.13	74.38
242.363	80.38
242.597	73.38
242.83	82.38
243.064	71.38
243.298	86.38
243.531	75.38
243.765	74.38
243.998	75.38
244.232	61.38
244.465	83.38
244.699	70.38
244.932	87.38
245.166	93.38
245.399	78.38
245.633	62.38
245.866	93.38
246.099	84.38
246.333	71.38
246.566	82.38
246.8	68.38
247.033	66.38
247.266	75.38
247.5	88.38
247.733	90.38
247.966	83.38
248.2	81.38
248.433	84.38
248.666	84.38
248.899	76.38
249.133	77.38
249.366	101.38
249.599	102.38
249.832	73.38
250.066	75.38
250.299	98.38
250.532	80.38
250.765	83.38
250.998	88.38
251.231	85.38
251.465	78.38
251.698	70.38
251.931	87.38
252.164	83.38
252.397	88.38
252.63	87.38
252.863	84.38
253.096	88.38
253.329	72.38
253.562	62.38
253.795	68.38
254.028	65.38
254.261	87.38
254.494	79.38
254.727	92.38
254.96	77.38
255.193	88.38
255.426	83.38
255.659	68.38
255.892	91.38
256.124	83.38
256.357	73.38
256.59	94.38
256.823	79.38
257.056	74.38
257.289	81.38
257.521	103.38
257.754	84.38
257.987	65.38
258.22	79.38
258.452	72.38
258.685	93.38
258.918	88.38
259.151	79.38
259.383	85.38
259.616	80.38
259.849	77.38
260.081	83.38
260.314	83.38
260.547	82.38
260.779	88.38
261.012	89.38
261.244	94.38
261.477	102.38
261.71	102.38
261.942	125.38
262.175	121.38
262.407	95.38
262.64	82.38
262.872	84.38
263.105	96.38
263.337	90.38
263.57	84.38
263.802	83.38
264.035	93.38
264.267	82.38
264.499	76.38
264.732	87.38
264.964	84.38
265.197	91.38
265.429	91.38
265.661	72.38
265.894	80.38
266.126	83.38
266.358	86.38
266.591	82.38
266.823	95.38
267.055	81.38
267.287	80.38
267.52	81.38
267.752	85.38
267.984	75.38
268.216	83.38
268.448	79.38
268.681	85.38
268.913	80.38
269.145	81.38
269.377	84.38
269.609	84.38
269.841	78.38
270.073	80.38
270.306	77.38
270.538	78.38
270.77	86.38
271.002	90.38
271.234	83.38
271.466	76.38
271.698	90.38
271.93	84.38
272.162	84.38
272.394	92.38
272.626	95.38
272.858	84.38
273.09	87.38
273.322	74.38
273.553	87.38
273.785	79.38
274.017	102.38
274.249	86.38
274.481	95.38
274.713	91.38
274.945	78.38
275.176	110.38
275.408	77.38
275.64	83.38
275.872	99.38
276.104	95.38
276.335	91.38
276.567	97.38
276.799	116.38
277.031	99.38
277.262	80.38
277.494	98.38
277.726	101.38
277.957	81.38
278.189	82.38
278.421	82.38
278.652	78.38
278.884	99.38
279.115	80.38
279.347	81.38
279.579	80.38
279.81	96.38
280.042	81.38
280.273	94.38
280.505	101.38
280.736	89.38
280.968	79.38
281.199	99.38
281.431	96.38
281.662	82.38
281.894	97.38
282.125	106.38
282.356	114.38
282.588	150.38
282.819	126.38
283.051	102.38
283.282	84.38
283.513	102.38
283.745	92.38
283.976	95.38
284.207	90.38
284.439	89.38
284.67	92.38
284.901	85.38
285.132	95.38
285.364	87.38
285.595	88.38
285.826	89.38
286.057	86.38
286.288	85.38
286.52	76.38
286.751	85.38
286.982	85.38
287.213	100.38
287.444	94.38
287.675	86.38
287.906	83.38
288.138	93.38
288.369	98.38
288.6	89.38
288.831	76.38
289.062	92.38
289.293	100.38
289.524	88.38
289.755	76.38
289.986	93.38
290.217	85.38
290.448	91.38
290.679	86.38
290.91	98.38
291.141	91.38
291.371	85.38
291.602	99.38
291.833	85.38
292.064	75.38
292.295	81.38
292.526	76.38
292.757	79.38
292.987	78.38
293.218	98.38
293.449	85.38
293.68	95.38
293.91	97.38
294.141	78.38
294.372	91.38
294.603	86.38
294.833	90.38
295.064	98.38
295.295	89.38
295.525	93.38
295.756	104.38
295.987	114.38
296.217	154.38
296.448	146.38
296.679	102.38
296.909	98.38
297.14	91.38
297.37	98.38
297.601	87.38
297.831	85.38
298.062	93.38
298.292	74.38
298.523	88.38
298.753	80.38
298.984	100.38
299.214	96.38
299.445	94.38
299.675	94.38
299.905	96.38
300.136	87.38
300.366	80.38
300.597	85.38
300.827	87.38
301.057	107.38
301.288	88.38
301.518	88.38
301.748	96.38
301.979	110.38
302.209	97.38
302.439	88.38
302.669	94.38
302.9	90.38
303.13	75.38
303.36	105.38
303.59	108.38
303.82	99.38
304.051	94.38
304.281	94.38
304.511	103.38
304.741	83.38
304.971	88.38
305.201	98.38
305.431	86.38
305.661	97.38
305.891	89.38
306.121	81.38
306.352	104.38
306.582	101.38
306.812	108.38
307.042	88.38
307.272	105.38
307.502	97.38
307.731	98.38
307.961	94.38
308.191	84.38
308.421	103.38
308.651	72.38
308.881	107.38
309.111	101.38
309.341	96.38
309.571	89.38
309.8	97.38
310.03	93.38
310.26	102.38
310.49	97.38
310.72	90.38
310.949	88.38
311.179	90.38
311.409	86.38
311.639	90.38
311.868	94.38
312.098	92.38
312.328	84.38
312.557	101.38
312.787	95.38
313.017	101.38
313.246	93.38
313.476	89.38
313.706	107.38
313.935	91.38
314.165	109.38
314.394	109.38
314.624	101.38
314.853	103.38
315.083	88.38
315.312	92.38
315.542	100.38
315.771	110.38
316.001	99.38
316.23	93.38
316.46	98.38
316.689	92.38
316.919	92.38
317.148	89.38
317.377	85.38
317.607	86.38
317.836	94.38
318.065	100.38
318.295	95.38
318.524	97.38
318.753	91.38
318.983	98.38
319.212	87.38
319.441	116.38
319.67	111.38
319.9	96.38
320.129	82.38
320.358	86.38
320.587	87.38
320.816	92.38
321.046	94.38
321.275	114.38
321.504	98.38
321.733	101.38
321.962	115.38
322.191	84.38
322.42	116.38
322.649	116.38
322.878	119.38
323.108	116.38
323.337	138.38
323.566	131.38
323.795	162.38
324.024	238.38
324.253	471.38
324.482	1040.38
324.71	2170.38
324.939	2806.38
325.168	1029.38
325.397	296.38
325.626	162.38
325.855	132.38
326.084	139.38
326.313	151.38
326.542	170.38
326.77	279.38
326.999	576.38
327.228	1194.38
327.457	2202.38
327.686	1692.38
327.914	451.38
328.143	238.38
328.372	179.38
328.6	127.38
328.829	110.38
329.058	131.38
329.287	144.38
329.515	125.38
329.744	116.38
329.972	113.38
330.201	130.38
330.43	167.38
330.658	138.38
330.887	167.38
331.115	120.38
331.344	111.38
331.572	119.38
331.801	111.38
332.03	105.38
332.258	107.38
332.486	82.38
332.715	90.38
332.943	92.38
333.172	93.38
333.4	108.38
333.629	110.38
333.857	107.38
334.085	117.38
334.314	133.38
334.542	183.38
334.771	186.38
334.999	107.38
335.227	101.38
335.455	101.38
335.684	91.38
335.912	90.38
336.14	92.38
336.369	99.38
336.597	110.38
336.825	109.38
337.053	104.38
337.281	99.38
337.51	100.38
337.738	110.38
337.966	98.38
338.194	97.38
338.422	107.38
338.65	93.38
338.878	108.38
339.106	95.38
339.334	108.38
339.562	101.38
339.79	87.38
340.018	95.38
340.246	98.38
340.474	87.38
340.702	94.38
340.93	96.38
341.158	86.38
341.386	100.38
341.614	99.38
341.842	94.38
342.07	84.38
342.298	87.38
342.526	92.38
342.754	101.38
342.981	90.38
343.209	111.38
343.437	98.38
343.665	86.38
343.893	96.38
344.12	97.38
344.348	84.38
344.576	97.38
344.804	87.38
345.031	101.38
345.259	84.38
345.487	87.38
345.714	111.38
345.942	85.38
346.17	89.38
346.397	84.38
346.625	92.38
346.853	90.38
347.08	104.38
347.308	86.38
347.535	114.38
347.763	100.38
347.99	100.38
348.218	115.38
348.445	97.38
348.673	99.38
348.9	106.38
349.128	90.38
349.355	90.38
349.583	91.38
349.81	88.38
350.037	92.38
350.265	95.38
350.492	100.38
350.72	94.38
350.947	111.38
351.174	125.38
351.402	116.38
351.629	111.38
351.856	100.38
352.083	103.38
352.311	102.38
352.538	111.38
352.765	118.38
352.992	106.38
353.22	116.38
353.447	100.38
353.674	95.38
353.901	87.38
354.128	111.38
354.355	101.38
354.583	89.38
354.81	95.38
355.037	96.38
355.264	88.38
355.491	114.38
355.718	78.38
355.945	98.38
356.172	86.38
356.399	100.38
356.626	102.38
356.853	97.38
357.08	89.38
357.307	107.38
357.534	93.38
357.761	92.38
357.988	99.38
358.215	106.38
358.441	95.38
358.668	89.38
358.895	89.38
359.122	82.38
359.349	93.38
359.576	97.38
359.802	100.38
360.029	111.38
360.256	112.38
360.483	99.38
360.709	96.38
360.936	111.38
361.163	97.38
361.39	86.38
361.616	93.38
361.843	89.38
362.07	91.38
362.296	93.38
362.523	87.38
362.749	96.38
362.976	98.38
363.203	99.38
363.429	86.38
363.656	80.38
363.882	83.38
364.109	84.38
364.335	104.38
364.562	105.38
364.788	84.38
365.015	100.38
365.241	101.38
365.468	107.38
365.694	115.38
365.92	98.38
366.147	95.38
366.373	100.38
366.599	98.38
366.826	86.38
367.052	88.38
367.278	88.38
367.505	101.38
367.731	102.38
367.957	97.38
368.184	88.38
368.41	91.38
368.636	119.38
368.862	118.38
369.089	108.38
369.315	96.38
369.541	93.38
369.767	95.38
369.993	104.38
370.219	107.38
370.445	94.38
370.672	89.38
370.898	86.38
371.124	82.38
371.35	87.38
371.576	82.38
371.802	86.38
372.028	84.38
372.254	97.38
372.48	83.38
372.706	104.38
372.932	87.38
373.158	86.38
373.384	96.38
373.61	79.38
373.835	83.38
374.061	99.38
374.287	91.38
374.513	91.38
374.739	92.38
374.965	100.38
375.191	95.38
375.416	81.38
375.642	100.38
375.868	99.38
376.094	111.38
376.319	99.38
376.545	87.38
376.771	90.38
376.997	74.38
377.222	91.38
377.448	99.38
377.674	88.38
377.899	85.38
378.125	79.38
378.35	99.38
378.576	88.38
378.802	95.38
379.027	98.38
379.253	95.38
379.478	92.38
379.704	114.38
379.929	90.38
380.155	90.38
380.38	85.38
380.606	96.38
380.831	93.38
381.057	96.38
381.282	99.38
381.507	86.38
381.733	100.38
381.958	96.38
382.184	96.38
382.409	94.38
382.634	116.38
382.86	102.38
383.085	116.38
383.31	106.38
383.535	102.38
383.761	79.38
383.986	85.38
384.211	102.38
384.436	106.38
384.662	94.38
384.887	100.38
385.112	99.38
385.337	106.38
385.562	114.38
385.787	115.38
386.013	122.38
386.238	120.38
386.463	102.38
386.688	100.38
386.913	109.38
387.138	107.38
387.363	95.38
387.588	102.38
387.813	88.38
388.038	116.38
388.263	118.38
388.488	114.38
388.713	108.38
388.938	84.38
389.163	89.38
389.387	90.38
389.612	88.38
389.837	97.38
390.062	95.38
390.287	96.38
390.512	88.38
390.736	87.38
390.961	86.38
391.186	97.38
391.411	96.38
391.636	92.38
391.86	82.38
392.085	78.38
392.31	93.38
392.534	83.38
392.759	85.38
392.984	89.38
393.208	91.38
393.433	92.38
393.658	89.38
393.882	75.38
394.107	94.38
394.331	91.38
394.556	84.38
394.78	98.38
395.005	91.38
395.229	85.38
395.454	91.38
395.678	87.38
395.903	85.38
396.127	103.38
396.352	82.38
396.576	89.38
396.801	88.38
397.025	84.38
397.249	86.38
397.474	96.38
397.698	92.38
397.922	91.38
398.147	90.38
398.371	98.38
398.595	81.38
398.82	78.38
399.044	75.38
399.268	98.38
399.492	92.38
399.717	92.38
399.941	80.38
400.165	87.38
400.389	94.38
400.613	88.38
400.837	78.38
401.062	86.38
401.286	99.38
401.51	80.38
401.734	105.38
401.958	98.38
402.182	140.38
402.406	178.38
402.63	125.38
402.854	86.38
403.078	87.38
403.302	107.38
403.526	91.38
403.75	88.38
403.974	89.38
404.198	94.38
404.422	96.38
404.645	88.38
404.869	90.38
405.093	103.38
405.317	104.38
405.541	98.38
405.765	98.38
405.988	123.38
406.212	197.38
406.436	264.38
406.66	165.38
406.883	118.38
407.107	109.38
407.331	86.38
407.555	89.38
407.778	103.38
408.002	91.38
408.226	83.38
408.449	87.38
408.673	84.38
408.896	88.38
409.12	104.38
409.344	92.38
409.567	90.38
409.791	100.38
410.014	107.38
410.238	103.38
410.461	107.38
410.685	99.38
410.908	91.38
411.132	114.38
411.355	99.38
411.578	92.38
411.802	77.38
412.025	95.38
412.249	73.38
412.472	99.38
412.695	115.38
412.919	98.38
413.142	82.38
413.365	88.38
413.589	94.38
413.812	81.38
414.035	102.38
414.258	97.38
414.482	107.38
414.705	92.38
414.928	87.38
415.151	98.38
415.374	93.38
415.597	90.38
415.821	94.38
416.044	95.38
416.267	86.38
416.49	79.38
416.713	86.38
416.936	86.38
417.159	94.38
417.382	93.38
417.605	85.38
417.828	87.38
418.051	97.38
418.274	93.38
418.497	82.38
418.72	84.38
418.943	110.38
419.166	92.38
419.389	93.38
419.611	88.38
419.834	89.38
420.057	85.38
420.28	87.38
420.503	81.38
420.726	87.38
420.948	97.38
421.171	98.38
421.394	82.38
421.617	92.38
421.839	83.38
422.062	86.38
422.285	83.38
422.507	93.38
422.73	95.38
422.953	101.38
423.175	85.38
423.398	77.38
423.621	87.38
423.843	79.38
424.066	92.38
424.288	74.38
424.511	87.38
424.733	107.38
424.956	108.38
425.178	109.38
425.401	97.38
425.623	102.38
425.846	85.38
426.068	94.38
426.291	95.38
426.513	85.38
426.735	98.38
426.958	90.38
427.18	110.38
427.402	127.38
427.625	181.38
427.847	146.38
428.069	128.38
428.292	90.38
428.514	83.38
428.736	95.38
428.958	87.38
429.181	83.38
429.403	82.38
429.625	84.38
429.847	88.38
430.069	100.38
430.292	113.38
430.514	80.38
430.736	77.38
430.958	79.38
431.18	85.38
431.402	75.38
431.624	75.38
431.846	92.38
432.068	83.38
432.29	87.38
432.512	89.38
432.734	79.38
432.956	93.38
433.178	105.38
433.4	101.38
433.622	97.38
433.844	101.38
434.066	94.38
434.287	88.38
434.509	92.38
434.731	96.38
434.953	85.38
435.175	96.38
435.397	86.38
435.618	81.38
435.84	95.38
436.062	138.38
436.284	117.38
436.505	117.38
436.727	106.38
436.949	93.38
437.17	81.38
437.392	87.38
437.614	106.38
437.835	110.38
438.057	123.38
438.278	112.38
438.5	106.38
438.721	131.38
438.943	98.38
439.165	92.38
439.386	82.38
439.608	88.38
439.829	107.38
440.05	143.38
440.272	158.38
440.493	110.38
440.715	88.38
440.936	71.38
441.158	73.38
441.379	90.38
441.6	91.38
441.822	99.38
442.043	94.38
442.264	97.38
442.486	96.38
442.707	84.38
442.928	101.38
443.149	134.38
443.371	132.38
443.592	105.38
443.813	111.38
444.034	107.38
444.255	88.38
444.476	89.38
444.698	83.38
444.919	81.38
445.14	133.38
445.361	138.38
445.582	120.38
445.803	154.38
446.024	131.38
446.245	142.38
446.466	103.38
446.687	100.38
446.908	101.38
447.129	88.38
447.35	85.38
447.571	101.38
447.792	88.38
448.013	104.38
448.234	110.38
448.455	95.38
448.675	112.38
448.896	124.38
449.117	107.38
449.338	118.38
449.559	144.38
449.779	134.38
450	84.38
450.221	90.38
450.442	85.38
450.662	96.38
450.883	104.38
451.104	110.38
451.324	109.38
451.545	98.38
451.766	100.38
451.986	82.38
452.207	89.38
452.428	98.38
452.648	103.38
452.869	102.38
453.089	100.38
453.31	140.38
453.53	86.38
453.751	85.38
453.971	107.38
454.192	115.38
454.412	90.38
454.633	97.38
454.853	97.38
455.073	97.38
455.294	106.38
455.514	115.38
455.734	100.38
455.955	81.38
456.175	73.38
456.395	81.38
456.616	75.38
456.836	77.38
457.056	88.38
457.276	91.38
457.497	88.38
457.717	89.38
457.937	87.38
458.157	78.38
458.377	85.38
458.598	119.38
458.818	171.38
459.038	171.38
459.258	116.38
459.478	114.38
459.698	101.38
459.918	75.38
460.138	101.38
460.358	76.38
460.578	77.38
460.798	94.38
461.018	81.38
461.238	84.38
461.458	80.38
461.678	89.38
461.898	90.38
462.118	82.38
462.338	83.38
462.558	78.38
462.777	76.38
462.997	83.38
463.217	79.38
463.437	93.38
463.657	84.38
463.876	86.38
464.096	97.38
464.316	92.38
464.536	92.38
464.755	88.38
464.975	127.38
465.195	178.38
465.414	170.38
465.634	106.38
465.854	91.38
466.073	84.38
466.293	89.38
466.512	93.38
466.732	90.38
466.951	99.38
467.171	92.38
467.391	96.38
467.61	101.38
467.829	107.38
468.049	104.38
468.268	122.38
468.488	90.38
468.707	82.38
468.927	85.38
469.146	82.38
469.365	90.38
469.585	83.38
469.804	96.38
470.023	103.38
470.243	90.38
470.462	102.38
470.681	112.38
470.901	88.38
471.12	83.38
471.339	97.38
471.558	86.38
471.777	103.38
471.997	100.38
472.216	142.38
472.435	216.38
472.654	109.38
472.873	102.38
473.092	87.38
473.311	77.38
473.53	88.38
473.749	93.38
473.968	103.38
474.187	95.38
474.406	93.38
474.625	89.38
474.844	96.38
475.063	85.38
475.282	76.38
475.501	73.38
475.72	86.38
475.939	86.38
476.158	78.38
476.377	85.38
476.596	92.38
476.814	86.38
477.033	95.38
477.252	85.38
477.471	85.38
477.69	88.38
477.908	88.38
478.127	93.38
478.346	98.38
478.564	94.38
478.783	94.38
479.002	82.38
479.22	88.38
479.439	106.38
479.658	107.38
479.876	101.38
480.095	94.38
480.313	93.38
480.532	98.38
480.751	84.38
480.969	145.38
481.188	325.38
481.406	222.38
481.624	124.38
481.843	105.38
482.061	92.38
482.28	95.38
482.498	93.38
482.717	84.38
482.935	81.38
483.153	92.38
483.372	75.38
483.59	94.38
483.808	91.38
484.027	87.38
484.245	85.38
484.463	87.38
484.681	91.38
484.9	89.38
485.118	110.38
485.336	94.38
485.554	94.38
485.772	100.38
485.99	104.38
486.209	95.38
486.427	102.38
486.645	98.38
486.863	120.38
487.081	94.38
487.299	102.38
487.517	86.38
487.735	83.38
487.953	93.38
488.171	87.38
488.389	90.38
488.607	97.38
488.825	76.38
489.043	91.38
489.261	87.38
489.479	94.38
489.696	87.38
489.914	81.38
490.132	98.38
490.35	86.38
490.568	95.38
490.786	70.38
491.003	72.38
491.221	96.38
491.439	96.38
491.657	103.38
491.874	84.38
492.092	90.38
492.31	75.38
492.527	95.38
492.745	91.38
492.963	85.38
493.18	83.38
493.398	84.38
493.615	100.38
493.833	98.38
494.05	84.38
494.268	85.38
494.485	91.38
494.703	84.38
494.92	100.38
495.138	88.38
495.355	89.38
495.573	96.38
495.79	89.38
496.008	92.38
496.225	75.38
496.442	87.38
496.66	100.38
496.877	101.38
497.094	86.38
497.312	78.38
497.529	72.38
497.746	82.38
497.963	90.38
498.181	99.38
498.398	95.38
498.615	108.38
498.832	94.38
499.049	88.38
499.267	80.38
499.484	87.38
499.701	99.38
499.918	84.38
500.135	86.38
500.352	99.38
500.569	92.38
500.786	91.38
501.003	104.38
501.22	102.38
501.437	93.38
501.654	92.38
501.871	114.38
502.088	98.38
502.305	82.38
502.522	106.38
502.739	81.38
502.956	97.38
503.172	93.38
503.389	97.38
503.606	107.38
503.823	95.38
504.04	92.38
504.256	110.38
504.473	78.38
504.69	86.38
504.907	82.38
505.123	85.38
505.34	79.38
505.557	96.38
505.773	94.38
505.99	93.38
506.207	88.38
506.423	94.38
506.64	91.38
506.856	97.38
507.073	87.38
507.289	86.38
507.506	94.38
507.722	113.38
507.939	120.38
508.155	99.38
508.372	105.38
508.588	95.38
508.805	99.38
509.021	98.38
509.238	98.38
509.454	87.38
509.67	96.38
509.887	111.38
510.103	147.38
510.319	239.38
510.536	881.38
510.752	2878.38
510.968	778.38
511.184	160.38
511.401	122.38
511.617	99.38
511.833	97.38
512.049	94.38
512.265	100.38
512.481	100.38
512.698	87.38
512.914	97.38
513.13	98.38
513.346	92.38
513.562	105.38
513.778	100.38
513.994	120.38
514.21	96.38
514.426	121.38
514.642	140.38
514.858	138.38
515.074	174.38
