Data from Circ_2006_H10_HRD10591_00046.txt Node
Date: Wed Jan 03 10:26:13 EST 2024
User: Yrep
Spectrometer: HR+D1059
Trigger mode: 1
Integration Time (sec): 1.000000E-1
Scans to average: 1
Electric dark correction enabled: true
Nonlinearity correction enabled: false
Boxcar width: 0
XAxis mode: Wavelengths
Number of Pixels in Spectrum: 2048
>>>>>Begin Spectral Data<<<<<
223.165	-12
223.4	-12
223.635	-12
223.869	-9
224.104	-30
224.338	-4
224.573	-5
224.808	-20
225.042	-5
225.277	-3
225.511	3
225.746	-3
225.98	5
226.215	-1
226.449	17
226.683	9
226.918	25
227.152	33
227.387	38
227.621	51
227.856	30
228.09	50
228.324	53
228.559	51
228.793	61
229.027	77
229.262	68
229.496	78
229.73	95
229.964	87
230.199	74
230.433	71
230.667	82
230.901	75
231.136	79
231.37	73
231.604	85
231.838	74
232.072	79
232.306	84
232.541	81
232.775	79
233.009	68
233.243	78
233.477	79
233.711	77
233.945	87
234.179	92
234.413	79
234.647	82
234.881	68
235.115	81
235.349	71
235.583	68
235.817	77
236.051	92
236.285	88
236.519	78
236.753	85
236.987	75
237.221	84
237.455	90
237.689	76
237.922	74
238.156	87
238.39	86
238.624	80
238.858	77
239.091	75
239.325	69
239.559	84
239.793	88
240.027	80
240.26	83
240.494	84
240.728	63
240.961	74
241.195	72
241.429	71
241.662	62
241.896	77
242.13	66
242.363	81
242.597	72
242.83	78
243.064	76
243.298	86
243.531	75
243.765	82
243.998	67
244.232	88
244.465	61
244.699	77
244.932	76
245.166	75
245.399	80
245.633	83
245.866	77
246.099	78
246.333	82
246.566	83
246.8	80
247.033	77
247.266	70
247.5	87
247.733	80
247.966	83
248.2	81
248.433	85
248.666	66
248.899	83
249.133	90
249.366	101
249.599	101
249.832	69
250.066	70
250.299	72
250.532	74
250.765	87
250.998	71
251.231	83
251.465	74
251.698	74
251.931	70
252.164	67
252.397	83
252.63	79
252.863	87
253.096	67
253.329	76
253.562	69
253.795	82
254.028	100
254.261	58
254.494	71
254.727	80
254.96	64
255.193	89
255.426	74
255.659	82
255.892	83
256.124	81
256.357	92
256.59	69
256.823	82
257.056	86
257.289	88
257.521	78
257.754	91
257.987	73
258.22	92
258.452	86
258.685	80
258.918	79
259.151	85
259.383	68
259.616	78
259.849	86
260.081	79
260.314	99
260.547	75
260.779	89
261.012	86
261.244	87
261.477	85
261.71	95
261.942	133
262.175	138
262.407	103
262.64	83
262.872	86
263.105	90
263.337	93
263.57	85
263.802	77
264.035	106
264.267	91
264.499	80
264.732	85
264.964	81
265.197	87
265.429	83
265.661	77
265.894	89
266.126	79
266.358	78
266.591	98
266.823	94
267.055	95
267.287	92
267.52	87
267.752	91
267.984	91
268.216	77
268.448	78
268.681	75
268.913	89
269.145	78
269.377	85
269.609	86
269.841	86
270.073	86
270.306	90
270.538	86
270.77	81
271.002	93
271.234	84
271.466	97
271.698	94
271.93	88
272.162	97
272.394	92
272.626	90
272.858	91
273.09	90
273.322	83
273.553	85
273.785	85
274.017	86
274.249	84
274.481	68
274.713	85
274.945	77
275.176	99
275.408	105
275.64	84
275.872	83
276.104	92
276.335	93
276.567	120
276.799	118
277.031	100
277.262	112
277.494	87
277.726	98
277.957	86
278.189	84
278.421	83
278.652	82
278.884	86
279.115	88
279.347	68
279.579	87
279.81	86
280.042	97
280.273	78
280.505	97
280.736	100
280.968	84
281.199	85
281.431	83
281.662	77
281.894	98
282.125	103
282.356	134
282.588	187
282.819	128
283.051	96
283.282	82
283.513	90
283.745	96
283.976	93
284.207	87
284.439	82
284.67	95
284.901	78
285.132	91
285.364	93
285.595	97
285.826	96
286.057	92
286.288	81
286.52	88
286.751	75
286.982	90
287.213	86
287.444	89
287.675	86
287.906	93
288.138	87
288.369	92
288.6	79
288.831	81
289.062	89
289.293	89
289.524	100
289.755	94
289.986	81
290.217	105
290.448	86
290.679	77
290.91	93
291.141	93
291.371	74
291.602	86
291.833	90
292.064	94
292.295	90
292.526	82
292.757	85
292.987	76
293.218	95
293.449	89
293.68	81
293.91	93
294.141	97
294.372	81
294.603	90
294.833	82
295.064	101
295.295	95
295.525	113
295.756	91
295.987	142
296.217	178
296.448	148
296.679	97
296.909	102
297.14	89
297.37	94
297.601	104
297.831	88
298.062	92
298.292	83
298.523	69
298.753	89
298.984	106
299.214	88
299.445	86
299.675	100
299.905	95
300.136	101
300.366	81
300.597	78
300.827	96
301.057	105
301.288	118
301.518	99
301.748	82
301.979	101
302.209	86
302.439	97
302.669	96
302.9	89
303.13	96
303.36	98
303.59	104
303.82	112
304.051	92
304.281	101
304.511	107
304.741	97
304.971	97
305.201	77
305.431	83
305.661	98
305.891	91
306.121	96
306.352	109
306.582	101
306.812	93
307.042	89
307.272	107
307.502	98
307.731	82
307.961	80
308.191	96
308.421	93
308.651	82
308.881	79
309.111	105
309.341	103
309.571	111
309.8	109
310.03	108
310.26	92
310.49	92
310.72	103
310.949	97
311.179	115
311.409	102
311.639	101
311.868	91
312.098	97
312.328	108
312.557	112
312.787	122
313.017	106
313.246	93
313.476	107
313.706	95
313.935	103
314.165	103
314.394	123
314.624	117
314.853	99
315.083	98
315.312	83
315.542	89
315.771	98
316.001	94
316.23	93
316.46	92
316.689	93
316.919	99
317.148	95
317.377	87
317.607	102
317.836	114
318.065	93
318.295	92
318.524	94
318.753	82
318.983	95
319.212	118
319.441	115
319.67	102
319.9	98
320.129	90
320.358	102
320.587	103
320.816	110
321.046	103
321.275	91
321.504	90
321.733	105
321.962	101
322.191	92
322.42	110
322.649	109
322.878	125
323.108	139
323.337	151
323.566	169
323.795	191
324.024	270
324.253	569
324.482	1271
324.71	2736
324.939	3494
325.168	1228
325.397	336
325.626	178
325.855	167
326.084	137
326.313	151
326.542	184
326.77	297
326.999	661
327.228	1404
327.457	2630
327.686	2052
327.914	537
328.143	249
328.372	210
328.6	152
328.829	145
329.058	139
329.287	145
329.515	110
329.744	112
329.972	107
330.201	128
330.43	167
330.658	161
330.887	177
331.115	146
331.344	114
331.572	119
331.801	115
332.03	109
332.258	99
332.486	94
332.715	94
332.943	100
333.172	95
333.4	106
333.629	124
333.857	122
334.085	115
334.314	129
334.542	147
334.771	148
334.999	105
335.227	95
335.455	104
335.684	101
335.912	98
336.14	98
336.369	87
336.597	109
336.825	100
337.053	92
337.281	90
337.51	101
337.738	95
337.966	94
338.194	100
338.422	99
338.65	94
338.878	98
339.106	85
339.334	86
339.562	103
339.79	95
340.018	89
340.246	86
340.474	92
340.702	84
340.93	111
341.158	99
341.386	100
341.614	104
341.842	100
342.07	91
342.298	98
342.526	102
342.754	89
342.981	92
343.209	84
343.437	105
343.665	109
343.893	86
344.12	79
344.348	58
344.576	91
344.804	94
345.031	110
345.259	101
345.487	102
345.714	85
345.942	95
346.17	92
346.397	91
346.625	95
346.853	85
347.08	90
347.308	90
347.535	99
347.763	101
347.99	95
348.218	105
348.445	109
348.673	102
348.9	81
349.128	93
349.355	115
349.583	96
349.81	87
350.037	93
350.265	89
350.492	98
350.72	112
350.947	103
351.174	116
351.402	114
351.629	118
351.856	114
352.083	117
352.311	116
352.538	124
352.765	103
352.992	121
353.22	107
353.447	111
353.674	97
353.901	90
354.128	94
354.355	94
354.583	110
354.81	99
355.037	112
355.264	100
355.491	92
355.718	90
355.945	81
356.172	89
356.399	93
356.626	94
356.853	81
357.08	92
357.307	93
357.534	92
357.761	99
357.988	92
358.215	102
358.441	103
358.668	78
358.895	82
359.122	92
359.349	85
359.576	93
359.802	118
360.029	122
360.256	133
360.483	116
360.709	82
360.936	95
361.163	102
361.39	96
361.616	89
361.843	96
362.07	98
362.296	89
362.523	94
362.749	80
362.976	91
363.203	97
363.429	92
363.656	87
363.882	93
364.109	95
364.335	75
364.562	95
364.788	97
365.015	103
365.241	102
365.468	121
365.694	107
365.92	102
366.147	101
366.373	106
366.599	100
366.826	86
367.052	86
367.278	91
367.505	97
367.731	85
367.957	100
368.184	96
368.41	86
368.636	123
368.862	120
369.089	106
369.315	103
369.541	99
369.767	93
369.993	100
370.219	89
370.445	80
370.672	89
370.898	93
371.124	87
371.35	77
371.576	95
371.802	84
372.028	95
372.254	95
372.48	91
372.706	103
372.932	83
373.158	90
373.384	99
373.61	101
373.835	85
374.061	78
374.287	97
374.513	81
374.739	95
374.965	94
375.191	97
375.416	74
375.642	78
375.868	78
376.094	94
376.319	86
376.545	90
376.771	85
376.997	97
377.222	93
377.448	90
377.674	82
377.899	88
378.125	85
378.35	84
378.576	114
378.802	92
379.027	83
379.253	93
379.478	93
379.704	82
379.929	104
380.155	107
380.38	105
380.606	97
380.831	87
381.057	96
381.282	93
381.507	95
381.733	110
381.958	102
382.184	95
382.409	87
382.634	103
382.86	102
383.085	100
383.31	98
383.535	89
383.761	102
383.986	97
384.211	89
384.436	118
384.662	106
384.887	103
385.112	109
385.337	104
385.562	101
385.787	113
386.013	97
386.238	111
386.463	114
386.688	103
386.913	95
387.138	112
387.363	101
387.588	102
387.813	98
388.038	103
388.263	108
388.488	111
388.713	116
388.938	109
389.163	107
389.387	98
389.612	103
389.837	92
390.062	93
390.287	95
390.512	87
390.736	102
390.961	90
391.186	91
391.411	101
391.636	98
391.86	93
392.085	95
392.31	88
392.534	79
392.759	89
392.984	83
393.208	93
393.433	94
393.658	93
393.882	82
394.107	79
394.331	93
394.556	81
394.78	91
395.005	106
395.229	87
395.454	75
395.678	87
395.903	74
396.127	89
396.352	81
396.576	87
396.801	80
397.025	91
397.249	89
397.474	95
397.698	86
397.922	83
398.147	100
398.371	82
398.595	94
398.82	83
399.044	86
399.268	93
399.492	99
399.717	88
399.941	104
400.165	89
400.389	74
400.613	102
400.837	96
401.062	95
401.286	86
401.51	98
401.734	90
401.958	107
402.182	152
402.406	199
402.63	150
402.854	97
403.078	96
403.302	85
403.526	87
403.75	104
403.974	96
404.198	93
404.422	81
404.645	89
404.869	87
405.093	108
405.317	107
405.541	103
405.765	110
405.988	153
406.212	234
406.436	307
406.66	195
406.883	120
407.107	88
407.331	105
407.555	108
407.778	112
408.002	96
408.226	91
408.449	75
408.673	82
408.896	86
409.12	92
409.344	89
409.567	93
409.791	95
410.014	86
410.238	101
410.461	89
410.685	105
410.908	93
411.132	105
411.355	93
411.578	104
411.802	93
412.025	79
412.249	85
412.472	100
412.695	92
412.919	98
413.142	76
413.365	85
413.589	92
413.812	87
414.035	91
414.258	105
414.482	81
414.705	105
414.928	89
415.151	89
415.374	109
415.597	92
415.821	92
416.044	78
416.267	99
416.49	87
416.713	92
416.936	92
417.159	96
417.382	101
417.605	85
417.828	104
418.051	103
418.274	93
418.497	94
418.72	89
418.943	86
419.166	77
419.389	84
419.611	100
419.834	97
420.057	84
420.28	82
420.503	81
420.726	91
420.948	89
421.171	96
421.394	105
421.617	89
421.839	89
422.062	82
422.285	95
422.507	94
422.73	112
422.953	99
423.175	106
423.398	89
423.621	95
423.843	72
424.066	75
424.288	79
424.511	90
424.733	86
424.956	103
425.178	104
425.401	91
425.623	103
425.846	99
426.068	104
426.291	103
426.513	101
426.735	90
426.958	88
427.18	110
427.402	162
427.625	218
427.847	159
428.069	127
428.292	91
428.514	93
428.736	79
428.958	69
429.181	94
429.403	83
429.625	77
429.847	90
430.069	113
430.292	96
430.514	72
430.736	79
430.958	91
431.18	84
431.402	90
431.624	78
431.846	83
432.068	92
432.29	79
432.512	92
432.734	84
432.956	100
433.178	110
433.4	131
433.622	88
433.844	88
434.066	95
434.287	81
434.509	75
434.731	85
434.953	97
435.175	86
435.397	96
435.618	87
435.84	107
436.062	138
436.284	133
436.505	90
436.727	107
436.949	85
437.17	82
437.392	91
437.614	99
437.835	102
438.057	141
438.278	118
438.5	124
438.721	136
438.943	113
439.165	100
439.386	78
439.608	86
439.829	109
440.05	145
440.272	173
440.493	102
440.715	83
440.936	75
441.158	67
441.379	85
441.6	100
441.822	100
442.043	102
442.264	100
442.486	106
442.707	96
442.928	122
443.149	171
443.371	161
443.592	116
443.813	119
444.034	123
444.255	92
444.476	93
444.698	85
444.919	107
445.14	132
445.361	129
445.582	137
445.803	172
446.024	149
446.245	164
446.466	128
446.687	95
446.908	96
447.129	79
447.35	96
447.571	100
447.792	89
448.013	95
448.234	130
448.455	106
448.675	129
448.896	130
449.117	111
449.338	108
449.559	141
449.779	138
450	107
450.221	102
450.442	89
450.662	90
450.883	108
451.104	118
451.324	101
451.545	94
451.766	78
451.986	81
452.207	90
452.428	86
452.648	106
452.869	129
453.089	125
453.31	138
453.53	97
453.751	97
453.971	107
454.192	132
454.412	113
454.633	92
454.853	90
455.073	78
455.294	102
455.514	102
455.734	103
455.955	82
456.175	87
456.395	75
456.616	74
456.836	87
457.056	80
457.276	89
457.497	80
457.717	96
457.937	101
458.157	86
458.377	102
458.598	117
458.818	193
459.038	208
459.258	133
459.478	84
459.698	71
459.918	100
460.138	74
460.358	91
460.578	88
460.798	93
461.018	101
461.238	87
461.458	89
461.678	95
461.898	92
462.118	87
462.338	79
462.558	95
462.777	81
462.997	94
463.217	80
463.437	73
463.657	87
463.876	81
464.096	71
464.316	103
464.536	105
464.755	97
464.975	115
465.195	232
465.414	221
465.634	90
465.854	93
466.073	93
466.293	91
466.512	92
466.732	86
466.951	78
467.171	95
467.391	97
467.61	114
467.829	99
468.049	115
468.268	100
468.488	85
468.707	96
468.927	87
469.146	78
469.365	92
469.585	94
469.804	113
470.023	104
470.243	102
470.462	101
470.681	116
470.901	87
471.12	94
471.339	80
471.558	88
471.777	85
471.997	97
472.216	113
472.435	149
472.654	98
472.873	87
473.092	82
473.311	74
473.53	81
473.749	85
473.968	93
474.187	121
474.406	100
474.625	102
474.844	91
475.063	82
475.282	84
475.501	85
475.72	83
475.939	88
476.158	75
476.377	82
476.596	85
476.814	107
477.033	99
477.252	102
477.471	83
477.69	92
477.908	87
478.127	97
478.346	86
478.564	90
478.783	105
479.002	84
479.22	104
479.439	100
479.658	124
479.876	107
480.095	92
480.313	99
480.532	90
480.751	101
480.969	108
481.188	213
481.406	190
481.624	106
481.843	95
482.061	83
482.28	84
482.498	90
482.717	86
482.935	89
483.153	88
483.372	80
483.59	87
483.808	83
484.027	108
484.245	90
484.463	87
484.681	91
484.9	102
485.118	68
485.336	100
485.554	89
485.772	93
485.99	97
486.209	101
486.427	100
486.645	126
486.863	107
487.081	111
487.299	110
487.517	87
487.735	99
487.953	91
488.171	86
488.389	92
488.607	100
488.825	77
489.043	85
489.261	86
489.479	95
489.696	98
489.914	84
490.132	75
490.35	93
490.568	83
490.786	69
491.003	99
491.221	94
491.439	86
491.657	97
491.874	86
492.092	92
492.31	85
492.527	99
492.745	85
492.963	79
493.18	91
493.398	93
493.615	102
493.833	101
494.05	91
494.268	86
494.485	103
494.703	80
494.92	103
495.138	110
495.355	82
495.573	91
495.79	85
496.008	89
496.225	97
496.442	98
496.66	86
496.877	85
497.094	103
497.312	85
497.529	85
497.746	89
497.963	79
498.181	86
498.398	92
498.615	126
498.832	111
499.049	87
499.267	90
499.484	86
499.701	91
499.918	94
500.135	82
500.352	91
500.569	108
500.786	87
501.003	92
501.22	100
501.437	84
501.654	92
501.871	115
502.088	101
502.305	88
502.522	80
502.739	94
502.956	99
503.172	91
503.389	97
503.606	127
503.823	106
504.04	99
504.256	89
504.473	90
504.69	100
504.907	97
505.123	85
505.34	88
505.557	87
505.773	84
505.99	82
506.207	79
506.423	99
506.64	97
506.856	101
507.073	95
507.289	91
507.506	95
507.722	126
507.939	140
508.155	103
508.372	86
508.588	89
508.805	107
509.021	93
509.238	97
509.454	105
509.67	100
509.887	119
510.103	155
510.319	265
510.536	1061
510.752	3609
510.968	948
511.184	199
511.401	133
511.617	102
511.833	101
512.049	100
512.265	83
512.481	84
512.698	97
512.914	99
513.13	106
513.346	98
513.562	87
513.778	98
513.994	110
514.21	127
514.426	144
514.642	156
514.858	151
515.074	232
515.29	720
515.506	2581
515.721	911
515.937	206
516.153	137
516.369	115
516.585	99
516.801	97
517.016	103
517.232	91
517.448	88
517.664	96
517.879	99
518.095	92
518.311	91
518.527	93
518.742	98
518.958	105
519.173	97
519.389	81
519.605	91
519.82	102
520.036	110
520.251	155
520.467	126
520.682	126
520.898	123
521.113	116
521.329	189
521.544	290
521.76	936
521.975	4332
522.19	2495
522.406	490
522.621	154
522.836	117
523.052	113
523.267	99
523.482	98
523.698	108
523.913	148
524.128	109
524.343	103
524.559	106
524.774	93
524.989	98
525.204	111
525.419	98
525.634	97
525.849	96
526.064	86
526.28	97
526.495	88
526.71	103
526.925	83
527.14	86
527.355	95
527.57	84
527.785	82
527.999	91
528.214	105
528.429	82
528.644	102
528.859	103
529.074	109
529.289	169
529.503	257
529.718	126
529.933	100
530.148	102
530.363	76
530.577	86
530.792	104
531.007	95
531.221	110
531.436	96
531.651	95
531.865	93
532.08	90
532.295	86
532.509	87
532.724	89
532.938	94
533.153	85
533.367	94
533.582	98
533.796	108
534.011	94
534.225	95
534.44	101
534.654	103
534.868	90
535.083	93
535.297	83
535.511	110
535.726	133
535.94	107
536.154	90
536.369	100
536.583	87
536.797	95
537.011	86
537.225	86
537.44	99
537.654	96
537.868	94
538.082	85
538.296	105
538.51	86
538.724	78
538.938	98
539.153	105
539.367	116
539.581	94
539.795	95
540.009	88
540.222	92
540.436	93
540.65	86
540.864	88
541.078	106
541.292	91
541.506	94
541.72	95
541.934	84
542.147	91
542.361	84
542.575	71
542.789	96
543.002	83
543.216	93
543.43	107
543.644	93
543.857	82
544.071	85
544.285	93
544.498	80
544.712	94
544.925	78
545.139	95
545.352	84
545.566	110
545.779	101
545.993	81
546.206	83
546.42	81
546.633	93
546.847	96
547.06	88
547.274	82
547.487	111
547.7	77
547.914	76
548.127	92
548.34	90
548.554	82
548.767	85
548.98	89
549.193	83
549.407	91
549.62	100
549.833	86
550.046	90
550.259	97
550.473	83
550.686	91
550.899	84
551.112	81
551.325	86
551.538	81
551.751	84
551.964	93
552.177	101
552.39	89
552.603	95
552.816	96
553.029	95
553.242	102
553.455	111
553.667	108
553.88	115
554.093	96
554.306	85
554.519	91
554.732	103
554.944	76
555.157	108
555.37	107
555.583	92
555.795	93
556.008	97
556.221	93
556.433	82
556.646	90
556.859	97
557.071	85
557.284	76
557.496	90
557.709	76
557.921	103
558.134	97
558.346	76
558.559	92
558.771	90
558.984	93
559.196	85
559.409	84
559.621	83
559.833	78
560.046	84
560.258	94
560.47	92
560.683	86
560.895	87
561.107	74
561.32	76
561.532	91
561.744	93
561.956	93
562.168	92
562.381	97
562.593	94
562.805	97
563.017	104
563.229	89
563.441	86
563.653	81
563.865	86
564.077	87
564.289	83
564.501	91
564.713	82
564.925	93
565.137	101
565.349	97
565.561	94
565.773	88
565.985	86
566.197	90
566.408	95
566.62	74
566.832	87
567.044	86
567.255	95
567.467	94
567.679	73
567.891	106
568.102	91
568.314	80
568.526	78
568.737	91
568.949	103
569.161	104
569.372	86
569.584	95
569.795	91
570.007	116
570.218	336
570.43	147
570.641	100
570.853	91
571.064	97
571.276	88
571.487	83
571.698	93
571.91	77
572.121	87
572.333	83
572.544	86
572.755	101
572.966	91
573.178	110
573.389	93
573.6	93
573.811	81
574.023	89
574.234	87
574.445	91
574.656	94
574.867	91
575.078	90
575.289	94
575.501	93
575.712	89
575.923	98
576.134	87
576.345	78
576.556	95
576.767	103
576.978	92
577.188	79
577.399	101
577.61	92
577.821	110
578.032	129
578.243	356
578.454	1108
578.665	286
578.875	116
579.086	91
579.297	86
579.508	86
579.718	103
579.929	83
580.14	80
580.35	100
580.561	91
580.772	79
580.982	88
581.193	91
581.403	78
581.614	98
581.825	88
582.035	92
