Data from Circ_2006_H10_HRD10591_00050.txt Node
Date: Wed Jan 03 10:26:13 EST 2024
User: Yrep
Spectrometer: HR+D1059
Trigger mode: 1
Integration Time (sec): 1.000000E-1
Scans to average: 1
Electric dark correction enabled: true
Nonlinearity correction enabled: false
Boxcar width: 0
XAxis mode: Wavelengths
Number of Pixels in Spectrum: 2048
>>>>>Begin Spectral Data<<<<<
223.165	-21.81
223.4	-21.81
223.635	-21.81
223.869	-20.81
224.104	-17.81
224.338	-17.81
224.573	-16.81
224.808	-4.81
225.042	6.19
225.277	-4.81
225.511	-2.81
225.746	6.19
225.98	10.19
226.215	8.19
226.449	4.19
226.683	27.19
226.918	21.19
227.152	24.19
227.387	25.19
227.621	58.19
227.856	56.19
228.09	42.19
228.324	43.19
228.559	40.19
228.793	53.19
229.027	74.19
229.262	69.19
229.496	82.19
229.73	84.19
229.964	79.19
230.199	86.19
230.433	87.19
230.667	75.19
230.901	84.19
231.136	80.19
231.37	69.19
231.604	79.19
231.838	78.19
232.072	81.19
232.306	81.19
232.541	73.19
232.775	57.19
233.009	74.19
233.243	78.19
233.477	83.19
233.711	78.19
233.945	87.19
234.179	85.19
234.413	87.19
234.647	97.19
234.881	72.19
235.115	82.19
235.349	78.19
235.583	79.19
235.817	71.19
236.051	82.19
236.285	78.19
236.519	76.19
236.753	81.19
236.987	80.19
237.221	71.19
237.455	86.19
237.689	80.19
237.922	76.19
238.156	79.19
238.39	84.19
238.624	83.19
238.858	71.19
239.091	76.19
239.325	84.19
239.559	94.19
239.793	90.19
240.027	67.19
240.26	77.19
240.494	79.19
240.728	81.19
240.961	72.19
241.195	74.19
241.429	70.19
241.662	76.19
241.896	66.19
242.13	83.19
242.363	80.19
242.597	76.19
242.83	72.19
243.064	73.19
243.298	75.19
243.531	71.19
243.765	67.19
243.998	69.19
244.232	76.19
244.465	84.19
244.699	76.19
244.932	74.19
245.166	73.19
245.399	79.19
245.633	105.19
245.866	87.19
246.099	67.19
246.333	76.19
246.566	85.19
246.8	83.19
247.033	71.19
247.266	71.19
247.5	80.19
247.733	82.19
247.966	84.19
248.2	85.19
248.433	86.19
248.666	78.19
248.899	82.19
249.133	67.19
249.366	95.19
249.599	93.19
249.832	79.19
250.066	97.19
250.299	76.19
250.532	86.19
250.765	78.19
250.998	81.19
251.231	68.19
251.465	85.19
251.698	62.19
251.931	88.19
252.164	87.19
252.397	72.19
252.63	83.19
252.863	76.19
253.096	83.19
253.329	70.19
253.562	74.19
253.795	71.19
254.028	77.19
254.261	79.19
254.494	80.19
254.727	83.19
254.96	79.19
255.193	79.19
255.426	81.19
255.659	81.19
255.892	76.19
256.124	84.19
256.357	95.19
256.59	90.19
256.823	90.19
257.056	82.19
257.289	95.19
257.521	83.19
257.754	89.19
257.987	84.19
258.22	87.19
258.452	88.19
258.685	67.19
258.918	88.19
259.151	90.19
259.383	94.19
259.616	83.19
259.849	79.19
260.081	79.19
260.314	83.19
260.547	77.19
260.779	79.19
261.012	84.19
261.244	83.19
261.477	84.19
261.71	93.19
261.942	115.19
262.175	113.19
262.407	91.19
262.64	85.19
262.872	67.19
263.105	80.19
263.337	83.19
263.57	85.19
263.802	91.19
264.035	88.19
264.267	72.19
264.499	87.19
264.732	87.19
264.964	88.19
265.197	90.19
265.429	94.19
265.661	90.19
265.894	105.19
266.126	99.19
266.358	93.19
266.591	75.19
266.823	95.19
267.055	66.19
267.287	86.19
267.52	100.19
267.752	93.19
267.984	82.19
268.216	74.19
268.448	93.19
268.681	101.19
268.913	88.19
269.145	77.19
269.377	85.19
269.609	87.19
269.841	87.19
270.073	96.19
270.306	92.19
270.538	87.19
270.77	83.19
271.002	84.19
271.234	94.19
271.466	86.19
271.698	63.19
271.93	86.19
272.162	76.19
272.394	88.19
272.626	79.19
272.858	82.19
273.09	74.19
273.322	75.19
273.553	100.19
273.785	81.19
274.017	97.19
274.249	84.19
274.481	82.19
274.713	99.19
274.945	70.19
275.176	75.19
275.408	80.19
275.64	87.19
275.872	86.19
276.104	93.19
276.335	90.19
276.567	105.19
276.799	110.19
277.031	111.19
277.262	94.19
277.494	102.19
277.726	77.19
277.957	79.19
278.189	86.19
278.421	88.19
278.652	92.19
278.884	88.19
279.115	91.19
279.347	89.19
279.579	98.19
279.81	76.19
280.042	68.19
280.273	94.19
280.505	77.19
280.736	85.19
280.968	86.19
281.199	100.19
281.431	107.19
281.662	95.19
281.894	100.19
282.125	113.19
282.356	130.19
282.588	157.19
282.819	124.19
283.051	90.19
283.282	83.19
283.513	98.19
283.745	97.19
283.976	80.19
284.207	77.19
284.439	93.19
284.67	97.19
284.901	76.19
285.132	86.19
285.364	85.19
285.595	94.19
285.826	84.19
286.057	76.19
286.288	81.19
286.52	75.19
286.751	84.19
286.982	68.19
287.213	79.19
287.444	81.19
287.675	92.19
287.906	94.19
288.138	101.19
288.369	96.19
288.6	108.19
288.831	79.19
289.062	96.19
289.293	87.19
289.524	99.19
289.755	94.19
289.986	86.19
290.217	87.19
290.448	102.19
290.679	85.19
290.91	98.19
291.141	85.19
291.371	76.19
291.602	76.19
291.833	80.19
292.064	92.19
292.295	88.19
292.526	88.19
292.757	88.19
292.987	86.19
293.218	90.19
293.449	94.19
293.68	92.19
293.91	88.19
294.141	96.19
294.372	88.19
294.603	98.19
294.833	102.19
295.064	99.19
295.295	92.19
295.525	96.19
295.756	105.19
295.987	131.19
296.217	173.19
296.448	155.19
296.679	86.19
296.909	96.19
297.14	82.19
297.37	85.19
297.601	96.19
297.831	101.19
298.062	92.19
298.292	96.19
298.523	87.19
298.753	85.19
298.984	80.19
299.214	98.19
299.445	98.19
299.675	83.19
299.905	109.19
300.136	91.19
300.366	95.19
300.597	100.19
300.827	96.19
301.057	94.19
301.288	119.19
301.518	95.19
301.748	97.19
301.979	108.19
302.209	100.19
302.439	86.19
302.669	83.19
302.9	95.19
303.13	98.19
303.36	106.19
303.59	103.19
303.82	112.19
304.051	100.19
304.281	91.19
304.511	87.19
304.741	92.19
304.971	97.19
305.201	90.19
305.431	85.19
305.661	90.19
305.891	85.19
306.121	92.19
306.352	112.19
306.582	96.19
306.812	98.19
307.042	84.19
307.272	87.19
307.502	95.19
307.731	86.19
307.961	92.19
308.191	86.19
308.421	86.19
308.651	96.19
308.881	101.19
309.111	86.19
309.341	86.19
309.571	92.19
309.8	95.19
310.03	102.19
310.26	93.19
310.49	94.19
310.72	106.19
310.949	98.19
311.179	101.19
311.409	100.19
311.639	106.19
311.868	102.19
312.098	102.19
312.328	101.19
312.557	104.19
312.787	117.19
313.017	102.19
313.246	90.19
313.476	87.19
313.706	77.19
313.935	93.19
314.165	117.19
314.394	97.19
314.624	96.19
314.853	108.19
315.083	80.19
315.312	85.19
315.542	90.19
315.771	97.19
316.001	101.19
316.23	97.19
316.46	91.19
316.689	85.19
316.919	93.19
317.148	96.19
317.377	103.19
317.607	93.19
317.836	98.19
318.065	75.19
318.295	97.19
318.524	84.19
318.753	85.19
318.983	104.19
319.212	114.19
319.441	119.19
319.67	123.19
319.9	99.19
320.129	94.19
320.358	86.19
320.587	95.19
320.816	113.19
321.046	118.19
321.275	109.19
321.504	98.19
321.733	89.19
321.962	99.19
322.191	102.19
322.42	109.19
322.649	117.19
322.878	122.19
323.108	127.19
323.337	123.19
323.566	157.19
323.795	176.19
324.024	266.19
324.253	572.19
324.482	1243.19
324.71	2661.19
324.939	3386.19
325.168	1176.19
325.397	337.19
325.626	182.19
325.855	142.19
326.084	160.19
326.313	160.19
326.542	181.19
326.77	292.19
326.999	641.19
327.228	1406.19
327.457	2672.19
327.686	1990.19
327.914	499.19
328.143	250.19
328.372	190.19
328.6	152.19
328.829	144.19
329.058	141.19
329.287	140.19
329.515	135.19
329.744	123.19
329.972	116.19
330.201	132.19
330.43	165.19
330.658	153.19
330.887	150.19
331.115	142.19
331.344	100.19
331.572	105.19
331.801	119.19
332.03	105.19
332.258	106.19
332.486	94.19
332.715	96.19
332.943	88.19
333.172	103.19
333.4	102.19
333.629	118.19
333.857	127.19
334.085	119.19
334.314	105.19
334.542	155.19
334.771	139.19
334.999	112.19
335.227	102.19
335.455	108.19
335.684	108.19
335.912	92.19
336.14	87.19
336.369	110.19
336.597	109.19
336.825	96.19
337.053	101.19
337.281	99.19
337.51	89.19
337.738	92.19
337.966	103.19
338.194	99.19
338.422	96.19
338.65	98.19
338.878	99.19
339.106	100.19
339.334	103.19
339.562	86.19
339.79	86.19
340.018	92.19
340.246	99.19
340.474	97.19
340.702	81.19
340.93	85.19
341.158	90.19
341.386	88.19
341.614	108.19
341.842	95.19
342.07	102.19
342.298	99.19
342.526	91.19
342.754	89.19
342.981	97.19
343.209	89.19
343.437	102.19
343.665	98.19
343.893	99.19
344.12	94.19
344.348	91.19
344.576	74.19
344.804	93.19
345.031	98.19
345.259	93.19
345.487	83.19
345.714	103.19
345.942	97.19
346.17	90.19
346.397	90.19
346.625	99.19
346.853	99.19
347.08	93.19
347.308	99.19
347.535	125.19
347.763	95.19
347.99	94.19
348.218	116.19
348.445	111.19
348.673	117.19
348.9	94.19
349.128	101.19
349.355	99.19
349.583	88.19
349.81	101.19
350.037	89.19
350.265	92.19
350.492	107.19
350.72	92.19
350.947	104.19
351.174	119.19
351.402	129.19
351.629	108.19
351.856	102.19
352.083	107.19
352.311	119.19
352.538	107.19
352.765	106.19
352.992	112.19
353.22	130.19
353.447	118.19
353.674	109.19
353.901	90.19
354.128	107.19
354.355	101.19
354.583	112.19
354.81	92.19
355.037	108.19
355.264	96.19
355.491	100.19
355.718	96.19
355.945	98.19
356.172	89.19
356.399	98.19
356.626	96.19
356.853	91.19
357.08	94.19
357.307	87.19
357.534	94.19
357.761	87.19
357.988	95.19
358.215	98.19
358.441	85.19
358.668	101.19
358.895	80.19
359.122	111.19
359.349	101.19
359.576	101.19
359.802	114.19
360.029	122.19
360.256	116.19
360.483	117.19
360.709	91.19
360.936	106.19
361.163	85.19
361.39	102.19
361.616	98.19
361.843	108.19
362.07	97.19
362.296	117.19
362.523	103.19
362.749	96.19
362.976	85.19
363.203	81.19
363.429	92.19
363.656	87.19
363.882	102.19
364.109	96.19
364.335	98.19
364.562	101.19
364.788	88.19
365.015	106.19
365.241	99.19
365.468	114.19
365.694	111.19
365.92	97.19
366.147	105.19
366.373	93.19
366.599	95.19
366.826	98.19
367.052	88.19
367.278	103.19
367.505	109.19
367.731	102.19
367.957	100.19
368.184	95.19
368.41	115.19
368.636	104.19
368.862	138.19
369.089	105.19
369.315	90.19
369.541	92.19
369.767	85.19
369.993	95.19
370.219	102.19
370.445	83.19
370.672	100.19
370.898	81.19
371.124	98.19
371.35	113.19
371.576	93.19
371.802	96.19
372.028	76.19
372.254	106.19
372.48	99.19
372.706	87.19
372.932	94.19
373.158	94.19
373.384	103.19
373.61	79.19
373.835	80.19
374.061	84.19
374.287	90.19
374.513	76.19
374.739	92.19
374.965	92.19
375.191	93.19
375.416	93.19
375.642	95.19
375.868	92.19
376.094	94.19
376.319	83.19
376.545	92.19
376.771	89.19
376.997	88.19
377.222	93.19
377.448	105.19
377.674	95.19
377.899	93.19
378.125	98.19
378.35	87.19
378.576	84.19
378.802	88.19
379.027	93.19
379.253	98.19
379.478	86.19
379.704	84.19
379.929	85.19
380.155	98.19
380.38	107.19
380.606	90.19
380.831	80.19
381.057	100.19
381.282	86.19
381.507	85.19
381.733	95.19
381.958	108.19
382.184	96.19
382.409	93.19
382.634	110.19
382.86	97.19
383.085	109.19
383.31	116.19
383.535	115.19
383.761	111.19
383.986	99.19
384.211	106.19
384.436	107.19
384.662	100.19
384.887	103.19
385.112	111.19
385.337	111.19
385.562	103.19
385.787	107.19
386.013	102.19
386.238	131.19
386.463	113.19
386.688	111.19
386.913	115.19
387.138	115.19
387.363	116.19
387.588	93.19
387.813	99.19
388.038	97.19
388.263	109.19
388.488	110.19
388.713	102.19
388.938	99.19
389.163	98.19
389.387	96.19
389.612	94.19
389.837	89.19
390.062	87.19
390.287	92.19
390.512	95.19
390.736	86.19
390.961	94.19
391.186	102.19
391.411	101.19
391.636	104.19
391.86	94.19
392.085	95.19
392.31	95.19
392.534	80.19
392.759	87.19
392.984	78.19
393.208	99.19
393.433	82.19
393.658	97.19
393.882	97.19
394.107	100.19
394.331	76.19
394.556	84.19
394.78	76.19
395.005	97.19
395.229	94.19
395.454	90.19
395.678	91.19
395.903	100.19
396.127	90.19
396.352	98.19
396.576	91.19
396.801	91.19
397.025	107.19
397.249	90.19
397.474	95.19
397.698	88.19
397.922	87.19
398.147	77.19
398.371	86.19
398.595	83.19
398.82	92.19
399.044	85.19
399.268	78.19
399.492	93.19
399.717	89.19
399.941	74.19
400.165	109.19
400.389	109.19
400.613	84.19
400.837	94.19
401.062	94.19
401.286	83.19
401.51	84.19
401.734	88.19
401.958	107.19
402.182	140.19
402.406	187.19
402.63	144.19
402.854	90.19
403.078	89.19
403.302	100.19
403.526	91.19
403.75	72.19
403.974	79.19
404.198	88.19
404.422	78.19
404.645	100.19
404.869	99.19
405.093	104.19
405.317	98.19
405.541	100.19
405.765	108.19
405.988	130.19
406.212	207.19
406.436	290.19
406.66	170.19
406.883	102.19
407.107	92.19
407.331	99.19
407.555	108.19
407.778	98.19
408.002	94.19
408.226	88.19
408.449	95.19
408.673	78.19
408.896	88.19
409.12	98.19
409.344	88.19
409.567	82.19
409.791	102.19
410.014	101.19
410.238	96.19
410.461	82.19
410.685	107.19
410.908	110.19
411.132	98.19
411.355	93.19
411.578	84.19
411.802	98.19
412.025	90.19
412.249	92.19
412.472	97.19
412.695	94.19
412.919	87.19
413.142	103.19
413.365	82.19
413.589	97.19
413.812	85.19
414.035	95.19
414.258	94.19
414.482	80.19
414.705	96.19
414.928	93.19
415.151	104.19
415.374	87.19
415.597	81.19
415.821	94.19
416.044	103.19
416.267	84.19
416.49	91.19
416.713	84.19
416.936	90.19
417.159	76.19
417.382	98.19
417.605	82.19
417.828	96.19
418.051	86.19
418.274	96.19
418.497	78.19
418.72	88.19
418.943	92.19
419.166	75.19
419.389	89.19
419.611	79.19
419.834	78.19
420.057	85.19
420.28	84.19
420.503	94.19
420.726	98.19
420.948	95.19
421.171	88.19
421.394	92.19
421.617	90.19
421.839	88.19
422.062	86.19
422.285	97.19
422.507	90.19
422.73	108.19
422.953	95.19
423.175	89.19
423.398	94.19
423.621	92.19
423.843	99.19
424.066	85.19
424.288	85.19
424.511	79.19
424.733	98.19
424.956	115.19
425.178	105.19
425.401	95.19
425.623	114.19
425.846	100.19
426.068	87.19
426.291	94.19
426.513	87.19
426.735	90.19
426.958	108.19
427.18	109.19
427.402	155.19
427.625	205.19
427.847	168.19
428.069	128.19
428.292	99.19
428.514	87.19
428.736	77.19
428.958	88.19
429.181	96.19
429.403	88.19
429.625	100.19
429.847	93.19
430.069	94.19
430.292	88.19
430.514	87.19
430.736	88.19
430.958	88.19
431.18	97.19
431.402	87.19
431.624	100.19
431.846	95.19
432.068	78.19
432.29	79.19
432.512	79.19
432.734	72.19
432.956	96.19
433.178	94.19
433.4	95.19
433.622	103.19
433.844	94.19
434.066	72.19
434.287	91.19
434.509	89.19
434.731	82.19
434.953	98.19
435.175	86.19
435.397	92.19
435.618	97.19
435.84	121.19
436.062	128.19
436.284	116.19
436.505	106.19
436.727	102.19
436.949	85.19
437.17	88.19
437.392	95.19
437.614	96.19
437.835	119.19
438.057	137.19
438.278	124.19
438.5	107.19
438.721	125.19
438.943	97.19
439.165	89.19
439.386	95.19
439.608	84.19
439.829	87.19
440.05	123.19
440.272	156.19
440.493	97.19
440.715	92.19
440.936	87.19
441.158	97.19
441.379	81.19
441.6	107.19
441.822	96.19
442.043	106.19
442.264	119.19
442.486	106.19
442.707	93.19
442.928	135.19
443.149	145.19
443.371	156.19
443.592	122.19
443.813	114.19
444.034	105.19
444.255	94.19
444.476	82.19
444.698	90.19
444.919	83.19
445.14	143.19
445.361	135.19
445.582	123.19
445.803	150.19
446.024	149.19
446.245	152.19
446.466	116.19
446.687	101.19
446.908	101.19
447.129	88.19
447.35	92.19
447.571	87.19
447.792	97.19
448.013	103.19
448.234	110.19
448.455	99.19
448.675	111.19
448.896	116.19
449.117	109.19
449.338	103.19
449.559	138.19
449.779	144.19
450	97.19
450.221	106.19
450.442	105.19
450.662	108.19
450.883	103.19
451.104	106.19
451.324	93.19
451.545	102.19
451.766	82.19
451.986	102.19
452.207	91.19
452.428	103.19
452.648	104.19
452.869	114.19
453.089	109.19
453.31	128.19
453.53	99.19
453.751	96.19
453.971	102.19
454.192	120.19
454.412	99.19
454.633	94.19
454.853	95.19
455.073	105.19
455.294	99.19
455.514	98.19
455.734	94.19
455.955	86.19
456.175	93.19
456.395	90.19
456.616	103.19
456.836	94.19
457.056	92.19
457.276	95.19
457.497	89.19
457.717	85.19
457.937	89.19
458.157	89.19
458.377	94.19
458.598	117.19
458.818	179.19
459.038	195.19
459.258	140.19
459.478	91.19
459.698	85.19
459.918	90.19
460.138	80.19
460.358	83.19
460.578	89.19
460.798	89.19
461.018	98.19
461.238	83.19
461.458	75.19
461.678	86.19
461.898	86.19
462.118	96.19
462.338	86.19
462.558	80.19
462.777	76.19
462.997	81.19
463.217	81.19
463.437	87.19
463.657	97.19
463.876	99.19
464.096	111.19
464.316	107.19
464.536	90.19
464.755	99.19
464.975	126.19
465.195	183.19
465.414	193.19
465.634	102.19
465.854	96.19
466.073	87.19
466.293	75.19
466.512	85.19
466.732	92.19
466.951	97.19
467.171	94.19
467.391	104.19
467.61	105.19
467.829	115.19
468.049	106.19
468.268	101.19
468.488	84.19
468.707	85.19
468.927	94.19
469.146	91.19
469.365	92.19
469.585	96.19
469.804	100.19
470.023	101.19
470.243	111.19
470.462	105.19
470.681	101.19
470.901	87.19
471.12	98.19
471.339	86.19
471.558	86.19
471.777	92.19
471.997	96.19
472.216	114.19
472.435	149.19
472.654	101.19
472.873	93.19
473.092	86.19
473.311	77.19
473.53	89.19
473.749	77.19
473.968	98.19
474.187	110.19
474.406	90.19
474.625	83.19
474.844	99.19
475.063	98.19
475.282	97.19
475.501	85.19
475.72	88.19
475.939	82.19
476.158	84.19
476.377	87.19
476.596	85.19
476.814	96.19
477.033	108.19
477.252	100.19
477.471	111.19
477.69	79.19
477.908	82.19
478.127	96.19
478.346	88.19
478.564	100.19
478.783	88.19
479.002	97.19
479.22	73.19
479.439	104.19
479.658	103.19
479.876	100.19
480.095	86.19
480.313	91.19
480.532	99.19
480.751	111.19
480.969	124.19
481.188	233.19
481.406	191.19
481.624	101.19
481.843	91.19
482.061	93.19
482.28	95.19
482.498	82.19
482.717	101.19
482.935	100.19
483.153	85.19
483.372	91.19
483.59	102.19
483.808	100.19
484.027	89.19
484.245	104.19
484.463	97.19
484.681	106.19
484.9	95.19
485.118	109.19
485.336	78.19
485.554	98.19
485.772	99.19
485.99	112.19
486.209	110.19
486.427	108.19
486.645	116.19
486.863	131.19
487.081	95.19
487.299	87.19
487.517	95.19
487.735	87.19
487.953	97.19
488.171	100.19
488.389	92.19
488.607	102.19
488.825	83.19
489.043	88.19
489.261	94.19
489.479	87.19
489.696	106.19
489.914	102.19
490.132	98.19
490.35	103.19
490.568	90.19
490.786	98.19
491.003	83.19
491.221	88.19
491.439	95.19
491.657	83.19
491.874	109.19
492.092	97.19
492.31	110.19
492.527	88.19
492.745	88.19
492.963	83.19
493.18	82.19
493.398	90.19
493.615	101.19
493.833	87.19
494.05	88.19
494.268	92.19
494.485	95.19
494.703	90.19
494.92	91.19
495.138	105.19
495.355	82.19
495.573	94.19
495.79	90.19
496.008	93.19
496.225	100.19
496.442	85.19
496.66	93.19
496.877	87.19
497.094	80.19
497.312	99.19
497.529	91.19
497.746	99.19
497.963	98.19
498.181	110.19
498.398	111.19
498.615	107.19
498.832	96.19
499.049	92.19
499.267	89.19
499.484	94.19
499.701	90.19
499.918	87.19
500.135	82.19
500.352	92.19
500.569	100.19
500.786	96.19
501.003	86.19
501.22	95.19
501.437	91.19
501.654	87.19
501.871	117.19
502.088	92.19
502.305	98.19
502.522	89.19
502.739	90.19
502.956	82.19
503.172	96.19
503.389	100.19
503.606	109.19
503.823	92.19
504.04	88.19
504.256	96.19
504.473	89.19
504.69	79.19
504.907	87.19
505.123	100.19
505.34	75.19
505.557	90.19
505.773	83.19
505.99	88.19
506.207	94.19
506.423	93.19
506.64	92.19
506.856	90.19
507.073	85.19
507.289	85.19
507.506	89.19
507.722	114.19
507.939	100.19
508.155	98.19
508.372	106.19
508.588	95.19
508.805	93.19
509.021	99.19
509.238	111.19
509.454	109.19
509.67	114.19
509.887	117.19
510.103	133.19
510.319	264.19
510.536	950.19
510.752	3176.19
510.968	880.19
511.184	178.19
511.401	133.19
511.617	98.19
511.833	95.19
512.049	94.19
512.265	99.19
512.481	95.19
512.698	88.19
512.914	94.19
513.13	99.19
513.346	90.19
513.562	98.19
513.778	87.19
513.994	111.19
514.21	98.19
514.426	116.19
