Data from Circ_2006_H10_HRD10591_00021.txt Node
Date: Wed Jan 03 10:26:08 EST 2024
User: Yrep
Spectrometer: HR+D1059
Trigger mode: 1
Integration Time (sec): 1.000000E-1
Scans to average: 1
Electric dark correction enabled: true
Nonlinearity correction enabled: false
Boxcar width: 0
XAxis mode: Wavelengths
Number of Pixels in Spectrum: 2048
>>>>>Begin Spectral Data<<<<<
223.165	-24.44
223.4	-24.44
223.635	-24.44
223.869	-42.44
224.104	-9.44
224.338	-20.44
224.573	-4.44
224.808	-14.44
225.042	-15.44
225.277	-4.44
225.511	-0.44
225.746	7.56
225.98	9.56
226.215	15.56
226.449	21.56
226.683	26.56
226.918	19.56
227.152	35.56
227.387	37.56
227.621	41.56
227.856	46.56
228.09	42.56
228.324	55.56
228.559	52.56
228.793	68.56
229.027	63.56
229.262	78.56
229.496	84.56
229.73	100.56
229.964	91.56
230.199	72.56
230.433	65.56
230.667	85.56
230.901	75.56
231.136	79.56
231.37	91.56
231.604	72.56
231.838	80.56
232.072	87.56
232.306	79.56
232.541	80.56
232.775	92.56
233.009	80.56
233.243	77.56
233.477	72.56
233.711	88.56
233.945	69.56
234.179	82.56
234.413	88.56
234.647	79.56
234.881	78.56
235.115	92.56
235.349	84.56
235.583	71.56
235.817	92.56
236.051	78.56
236.285	81.56
236.519	78.56
236.753	75.56
236.987	92.56
237.221	94.56
237.455	99.56
237.689	88.56
237.922	82.56
238.156	80.56
238.39	76.56
238.624	95.56
238.858	85.56
239.091	78.56
239.325	81.56
239.559	85.56
239.793	76.56
240.027	72.56
240.26	85.56
240.494	76.56
240.728	74.56
240.961	69.56
241.195	71.56
241.429	87.56
241.662	80.56
241.896	74.56
242.13	69.56
242.363	95.56
242.597	83.56
242.83	76.56
243.064	72.56
243.298	69.56
243.531	76.56
243.765	88.56
243.998	77.56
244.232	105.56
244.465	95.56
244.699	87.56
244.932	73.56
245.166	74.56
245.399	84.56
245.633	88.56
245.866	79.56
246.099	69.56
246.333	77.56
246.566	67.56
246.8	78.56
247.033	69.56
247.266	76.56
247.5	82.56
247.733	67.56
247.966	74.56
248.2	83.56
248.433	77.56
248.666	72.56
248.899	88.56
249.133	88.56
249.366	113.56
249.599	113.56
249.832	72.56
250.066	92.56
250.299	71.56
250.532	77.56
250.765	78.56
250.998	81.56
251.231	56.56
251.465	82.56
251.698	99.56
251.931	74.56
252.164	79.56
252.397	68.56
252.63	86.56
252.863	72.56
253.096	89.56
253.329	81.56
253.562	74.56
253.795	81.56
254.028	93.56
254.261	89.56
254.494	87.56
254.727	87.56
254.96	87.56
255.193	79.56
255.426	82.56
255.659	76.56
255.892	73.56
256.124	59.56
256.357	76.56
256.59	87.56
256.823	83.56
257.056	88.56
257.289	96.56
257.521	101.56
257.754	78.56
257.987	79.56
258.22	68.56
258.452	79.56
258.685	88.56
258.918	80.56
259.151	86.56
259.383	101.56
259.616	75.56
259.849	97.56
260.081	89.56
260.314	87.56
260.547	78.56
260.779	80.56
261.012	96.56
261.244	88.56
261.477	93.56
261.71	106.56
261.942	131.56
262.175	143.56
262.407	93.56
262.64	78.56
262.872	88.56
263.105	74.56
263.337	99.56
263.57	84.56
263.802	92.56
264.035	77.56
264.267	93.56
264.499	74.56
264.732	101.56
264.964	94.56
265.197	84.56
265.429	95.56
265.661	78.56
265.894	87.56
266.126	81.56
266.358	83.56
266.591	70.56
266.823	98.56
267.055	85.56
267.287	84.56
267.52	89.56
267.752	83.56
267.984	76.56
268.216	61.56
268.448	85.56
268.681	80.56
268.913	83.56
269.145	96.56
269.377	91.56
269.609	78.56
269.841	90.56
270.073	83.56
270.306	76.56
270.538	92.56
270.77	83.56
271.002	88.56
271.234	79.56
271.466	91.56
271.698	69.56
271.93	74.56
272.162	83.56
272.394	96.56
272.626	81.56
272.858	98.56
273.09	87.56
273.322	81.56
273.553	77.56
273.785	82.56
274.017	86.56
274.249	89.56
274.481	86.56
274.713	80.56
274.945	72.56
275.176	94.56
275.408	93.56
275.64	96.56
275.872	82.56
276.104	99.56
276.335	104.56
276.567	105.56
276.799	136.56
277.031	117.56
277.262	75.56
277.494	94.56
277.726	84.56
277.957	77.56
278.189	89.56
278.421	80.56
278.652	82.56
278.884	89.56
279.115	93.56
279.347	74.56
279.579	82.56
279.81	97.56
280.042	82.56
280.273	93.56
280.505	89.56
280.736	88.56
280.968	86.56
281.199	97.56
281.431	87.56
281.662	97.56
281.894	95.56
282.125	113.56
282.356	137.56
282.588	188.56
282.819	138.56
283.051	92.56
283.282	77.56
283.513	99.56
283.745	95.56
283.976	93.56
284.207	78.56
284.439	82.56
284.67	92.56
284.901	86.56
285.132	81.56
285.364	84.56
285.595	96.56
285.826	97.56
286.057	82.56
286.288	92.56
286.52	85.56
286.751	92.56
286.982	75.56
287.213	87.56
287.444	87.56
287.675	92.56
287.906	96.56
288.138	89.56
288.369	84.56
288.6	97.56
288.831	90.56
289.062	93.56
289.293	93.56
289.524	90.56
289.755	78.56
289.986	81.56
290.217	95.56
290.448	92.56
290.679	101.56
290.91	97.56
291.141	99.56
291.371	96.56
291.602	77.56
291.833	92.56
292.064	90.56
292.295	90.56
292.526	88.56
292.757	100.56
292.987	83.56
293.218	91.56
293.449	103.56
293.68	81.56
293.91	89.56
294.141	88.56
294.372	78.56
294.603	95.56
294.833	92.56
295.064	95.56
295.295	85.56
295.525	93.56
295.756	122.56
295.987	128.56
296.217	184.56
296.448	145.56
296.679	86.56
296.909	89.56
297.14	107.56
297.37	104.56
297.601	97.56
297.831	79.56
298.062	88.56
298.292	99.56
298.523	93.56
298.753	89.56
298.984	91.56
299.214	89.56
299.445	111.56
299.675	110.56
299.905	96.56
300.136	96.56
300.366	97.56
300.597	101.56
300.827	92.56
301.057	134.56
301.288	123.56
301.518	101.56
301.748	87.56
301.979	99.56
302.209	75.56
302.439	103.56
302.669	81.56
302.9	98.56
303.13	110.56
303.36	101.56
303.59	106.56
303.82	119.56
304.051	112.56
304.281	93.56
304.511	86.56
304.741	87.56
304.971	87.56
305.201	79.56
305.431	95.56
305.661	98.56
305.891	94.56
306.121	99.56
306.352	112.56
306.582	117.56
306.812	112.56
307.042	103.56
307.272	95.56
307.502	105.56
307.731	93.56
307.961	103.56
308.191	85.56
308.421	96.56
308.651	92.56
308.881	89.56
309.111	92.56
309.341	111.56
309.571	95.56
309.8	106.56
310.03	111.56
310.26	99.56
310.49	107.56
310.72	129.56
310.949	129.56
311.179	126.56
311.409	95.56
311.639	110.56
311.868	95.56
312.098	90.56
312.328	86.56
312.557	117.56
312.787	127.56
313.017	114.56
313.246	101.56
313.476	94.56
313.706	90.56
313.935	113.56
314.165	113.56
314.394	109.56
314.624	115.56
314.853	98.56
315.083	87.56
315.312	86.56
315.542	102.56
315.771	99.56
316.001	92.56
316.23	104.56
316.46	88.56
316.689	98.56
316.919	94.56
317.148	100.56
317.377	111.56
317.607	94.56
317.836	97.56
318.065	96.56
318.295	88.56
318.524	99.56
318.753	93.56
318.983	109.56
319.212	105.56
319.441	118.56
319.67	120.56
319.9	102.56
320.129	88.56
320.358	95.56
320.587	93.56
320.816	105.56
321.046	131.56
321.275	117.56
321.504	107.56
321.733	116.56
321.962	118.56
322.191	103.56
322.42	121.56
322.649	142.56
322.878	135.56
323.108	141.56
323.337	147.56
323.566	175.56
323.795	203.56
324.024	296.56
324.253	660.56
324.482	1458.56
324.71	3091.56
324.939	3991.56
325.168	1382.56
325.397	377.56
325.626	204.56
325.855	171.56
326.084	156.56
326.313	150.56
326.542	207.56
326.77	361.56
326.999	753.56
327.228	1640.56
327.457	3025.56
327.686	2295.56
327.914	578.56
328.143	264.56
328.372	206.56
328.6	166.56
328.829	155.56
329.058	173.56
329.287	178.56
329.515	139.56
329.744	111.56
329.972	104.56
330.201	129.56
330.43	141.56
330.658	172.56
330.887	193.56
331.115	167.56
331.344	121.56
331.572	120.56
331.801	131.56
332.03	137.56
332.258	101.56
332.486	111.56
332.715	97.56
332.943	93.56
333.172	100.56
333.4	105.56
333.629	123.56
333.857	141.56
334.085	108.56
334.314	112.56
334.542	132.56
334.771	135.56
334.999	114.56
335.227	104.56
335.455	93.56
335.684	123.56
335.912	99.56
336.14	116.56
336.369	99.56
336.597	117.56
336.825	108.56
337.053	100.56
337.281	105.56
337.51	108.56
337.738	99.56
337.966	108.56
338.194	99.56
338.422	97.56
338.65	100.56
338.878	94.56
339.106	96.56
339.334	103.56
339.562	107.56
339.79	110.56
340.018	109.56
340.246	103.56
340.474	91.56
340.702	96.56
340.93	96.56
341.158	88.56
341.386	101.56
341.614	99.56
341.842	112.56
342.07	101.56
342.298	112.56
342.526	88.56
342.754	94.56
342.981	83.56
343.209	100.56
343.437	100.56
343.665	92.56
343.893	103.56
344.12	92.56
344.348	95.56
344.576	94.56
344.804	99.56
345.031	110.56
345.259	111.56
345.487	98.56
345.714	95.56
345.942	99.56
346.17	85.56
346.397	99.56
346.625	104.56
346.853	96.56
347.08	90.56
347.308	99.56
347.535	111.56
347.763	108.56
347.99	98.56
348.218	107.56
348.445	103.56
348.673	102.56
348.9	99.56
349.128	104.56
349.355	101.56
349.583	104.56
349.81	99.56
350.037	97.56
350.265	103.56
350.492	98.56
350.72	102.56
350.947	102.56
351.174	125.56
351.402	126.56
351.629	114.56
351.856	116.56
352.083	110.56
352.311	114.56
352.538	136.56
352.765	135.56
352.992	134.56
353.22	132.56
353.447	127.56
353.674	105.56
353.901	98.56
354.128	96.56
354.355	115.56
354.583	99.56
354.81	96.56
355.037	95.56
355.264	92.56
355.491	95.56
355.718	95.56
355.945	97.56
356.172	98.56
356.399	100.56
356.626	95.56
356.853	102.56
357.08	99.56
357.307	97.56
357.534	91.56
357.761	99.56
357.988	101.56
358.215	89.56
358.441	95.56
358.668	98.56
358.895	99.56
359.122	84.56
359.349	86.56
359.576	88.56
359.802	112.56
360.029	136.56
360.256	140.56
360.483	114.56
360.709	88.56
360.936	92.56
361.163	97.56
361.39	105.56
361.616	122.56
361.843	93.56
362.07	100.56
362.296	100.56
362.523	89.56
362.749	110.56
362.976	102.56
363.203	105.56
363.429	86.56
363.656	103.56
363.882	100.56
364.109	96.56
364.335	98.56
364.562	100.56
364.788	107.56
365.015	105.56
365.241	99.56
365.468	107.56
365.694	110.56
365.92	98.56
366.147	103.56
366.373	89.56
366.599	97.56
366.826	95.56
367.052	93.56
367.278	96.56
367.505	100.56
367.731	94.56
367.957	85.56
368.184	95.56
368.41	113.56
368.636	141.56
368.862	148.56
369.089	127.56
369.315	93.56
369.541	93.56
369.767	89.56
369.993	97.56
370.219	96.56
370.445	83.56
370.672	99.56
370.898	105.56
371.124	89.56
371.35	81.56
371.576	87.56
371.802	105.56
372.028	97.56
372.254	101.56
372.48	88.56
372.706	82.56
372.932	81.56
373.158	105.56
373.384	92.56
373.61	84.56
373.835	85.56
374.061	93.56
374.287	96.56
374.513	92.56
374.739	96.56
374.965	79.56
375.191	92.56
375.416	94.56
375.642	102.56
375.868	90.56
376.094	71.56
376.319	89.56
376.545	98.56
376.771	86.56
376.997	96.56
377.222	104.56
377.448	95.56
377.674	92.56
377.899	90.56
378.125	91.56
378.35	95.56
378.576	94.56
378.802	92.56
379.027	83.56
379.253	90.56
379.478	103.56
379.704	104.56
379.929	93.56
380.155	99.56
380.38	88.56
380.606	89.56
380.831	106.56
381.057	102.56
381.282	125.56
381.507	111.56
381.733	100.56
381.958	100.56
382.184	110.56
382.409	107.56
382.634	123.56
382.86	99.56
383.085	96.56
383.31	113.56
383.535	120.56
383.761	102.56
383.986	101.56
384.211	107.56
384.436	87.56
384.662	101.56
384.887	95.56
385.112	109.56
385.337	101.56
385.562	102.56
385.787	116.56
386.013	141.56
386.238	132.56
386.463	129.56
386.688	109.56
386.913	119.56
387.138	111.56
387.363	110.56
387.588	102.56
387.813	105.56
388.038	107.56
388.263	110.56
388.488	110.56
388.713	102.56
388.938	99.56
389.163	83.56
389.387	116.56
389.612	102.56
389.837	100.56
390.062	98.56
390.287	92.56
390.512	89.56
390.736	100.56
390.961	95.56
391.186	96.56
391.411	89.56
391.636	96.56
391.86	92.56
392.085	85.56
392.31	93.56
392.534	82.56
392.759	80.56
392.984	96.56
393.208	84.56
393.433	95.56
393.658	98.56
393.882	88.56
394.107	90.56
394.331	87.56
394.556	96.56
394.78	93.56
395.005	89.56
395.229	87.56
395.454	84.56
395.678	91.56
395.903	108.56
396.127	109.56
396.352	87.56
396.576	86.56
396.801	107.56
397.025	100.56
397.249	84.56
397.474	97.56
397.698	105.56
397.922	107.56
398.147	71.56
398.371	96.56
398.595	97.56
398.82	95.56
399.044	82.56
399.268	93.56
399.492	89.56
399.717	86.56
399.941	87.56
400.165	104.56
400.389	97.56
400.613	104.56
400.837	98.56
401.062	105.56
401.286	108.56
401.51	95.56
401.734	111.56
401.958	128.56
402.182	155.56
402.406	211.56
402.63	168.56
402.854	112.56
403.078	92.56
403.302	86.56
403.526	105.56
403.75	97.56
403.974	96.56
404.198	97.56
404.422	92.56
404.645	85.56
404.869	110.56
405.093	104.56
405.317	113.56
405.541	120.56
405.765	119.56
405.988	143.56
406.212	236.56
406.436	346.56
406.66	212.56
406.883	127.56
407.107	121.56
407.331	112.56
407.555	114.56
407.778	93.56
408.002	93.56
408.226	104.56
408.449	92.56
408.673	96.56
408.896	101.56
409.12	95.56
409.344	94.56
409.567	101.56
409.791	102.56
410.014	97.56
410.238	108.56
410.461	112.56
410.685	88.56
410.908	98.56
411.132	115.56
411.355	112.56
411.578	97.56
411.802	86.56
412.025	105.56
412.249	96.56
412.472	97.56
412.695	105.56
412.919	97.56
413.142	82.56
413.365	90.56
413.589	101.56
413.812	96.56
414.035	81.56
414.258	88.56
414.482	94.56
414.705	100.56
414.928	99.56
415.151	111.56
415.374	94.56
415.597	93.56
415.821	88.56
416.044	94.56
416.267	94.56
416.49	85.56
416.713	81.56
416.936	92.56
417.159	101.56
417.382	98.56
417.605	88.56
417.828	96.56
418.051	101.56
418.274	101.56
418.497	93.56
418.72	95.56
418.943	83.56
419.166	89.56
419.389	92.56
419.611	95.56
419.834	87.56
420.057	100.56
420.28	93.56
420.503	102.56
420.726	88.56
420.948	96.56
421.171	95.56
421.394	89.56
421.617	94.56
421.839	95.56
422.062	103.56
422.285	101.56
422.507	102.56
422.73	117.56
422.953	107.56
423.175	100.56
423.398	95.56
423.621	103.56
423.843	88.56
424.066	93.56
424.288	77.56
424.511	100.56
424.733	107.56
424.956	123.56
425.178	96.56
425.401	112.56
425.623	84.56
425.846	94.56
426.068	109.56
426.291	89.56
426.513	110.56
426.735	101.56
426.958	104.56
427.18	124.56
427.402	183.56
427.625	242.56
427.847	179.56
428.069	121.56
428.292	100.56
428.514	83.56
428.736	100.56
428.958	88.56
429.181	95.56
429.403	101.56
429.625	81.56
429.847	100.56
430.069	101.56
430.292	94.56
430.514	117.56
430.736	103.56
430.958	95.56
431.18	105.56
431.402	95.56
431.624	86.56
431.846	81.56
432.068	88.56
432.29	93.56
432.512	85.56
432.734	76.56
432.956	90.56
433.178	125.56
433.4	108.56
433.622	103.56
433.844	101.56
434.066	114.56
434.287	108.56
434.509	101.56
434.731	104.56
434.953	89.56
435.175	95.56
435.397	98.56
435.618	100.56
435.84	113.56
436.062	152.56
436.284	125.56
436.505	100.56
436.727	119.56
436.949	92.56
437.17	88.56
437.392	104.56
437.614	101.56
437.835	121.56
438.057	140.56
438.278	119.56
438.5	117.56
438.721	142.56
438.943	97.56
439.165	100.56
439.386	99.56
439.608	107.56
439.829	127.56
440.05	158.56
440.272	195.56
440.493	119.56
440.715	95.56
440.936	94.56
441.158	94.56
441.379	112.56
441.6	106.56
441.822	112.56
442.043	111.56
442.264	114.56
442.486	114.56
442.707	109.56
442.928	128.56
443.149	177.56
443.371	163.56
443.592	120.56
443.813	126.56
444.034	113.56
444.255	107.56
444.476	79.56
444.698	98.56
444.919	87.56
445.14	129.56
445.361	132.56
445.582	144.56
445.803	178.56
446.024	172.56
446.245	157.56
446.466	152.56
446.687	97.56
446.908	105.56
447.129	87.56
447.35	91.56
447.571	92.56
447.792	109.56
448.013	108.56
448.234	127.56
448.455	114.56
448.675	127.56
448.896	137.56
449.117	112.56
449.338	116.56
449.559	141.56
449.779	168.56
450	109.56
450.221	88.56
450.442	86.56
450.662	97.56
450.883	116.56
451.104	165.56
451.324	116.56
451.545	89.56
451.766	87.56
451.986	100.56
452.207	101.56
452.428	92.56
452.648	107.56
452.869	131.56
453.089	154.56
453.31	159.56
453.53	115.56
453.751	98.56
453.971	108.56
454.192	132.56
454.412	98.56
454.633	104.56
454.853	96.56
455.073	86.56
455.294	96.56
455.514	118.56
455.734	95.56
455.955	78.56
456.175	88.56
456.395	84.56
456.616	84.56
456.836	88.56
457.056	89.56
457.276	105.56
457.497	95.56
457.717	88.56
457.937	84.56
458.157	99.56
458.377	91.56
458.598	129.56
458.818	224.56
459.038	229.56
459.258	147.56
459.478	103.56
459.698	93.56
459.918	98.56
460.138	89.56
460.358	86.56
460.578	100.56
460.798	89.56
461.018	99.56
461.238	83.56
461.458	96.56
461.678	105.56
461.898	85.56
462.118	78.56
462.338	90.56
462.558	85.56
462.777	80.56
462.997	89.56
463.217	94.56
463.437	92.56
463.657	89.56
463.876	94.56
464.096	102.56
464.316	111.56
464.536	107.56
464.755	103.56
464.975	136.56
465.195	259.56
465.414	242.56
465.634	115.56
465.854	93.56
466.073	102.56
466.293	88.56
466.512	101.56
466.732	97.56
466.951	98.56
467.171	96.56
467.391	104.56
467.61	125.56
467.829	101.56
468.049	97.56
468.268	95.56
468.488	94.56
468.707	69.56
468.927	87.56
469.146	92.56
469.365	93.56
469.585	81.56
469.804	109.56
470.023	111.56
470.243	97.56
470.462	119.56
470.681	142.56
470.901	114.56
471.12	81.56
471.339	89.56
471.558	102.56
471.777	93.56
471.997	71.56
472.216	102.56
472.435	144.56
472.654	103.56
472.873	91.56
473.092	88.56
473.311	88.56
473.53	79.56
473.749	85.56
473.968	101.56
474.187	110.56
474.406	104.56
474.625	100.56
474.844	85.56
475.063	98.56
475.282	94.56
475.501	88.56
475.72	81.56
475.939	95.56
476.158	87.56
476.377	90.56
476.596	92.56
476.814	99.56
477.033	106.56
477.252	110.56
477.471	83.56
477.69	92.56
477.908	97.56
478.127	92.56
478.346	95.56
478.564	92.56
478.783	107.56
479.002	102.56
479.22	97.56
479.439	104.56
479.658	129.56
479.876	115.56
480.095	82.56
480.313	107.56
480.532	103.56
480.751	98.56
480.969	103.56
481.188	172.56
481.406	130.56
481.624	103.56
481.843	94.56
482.061	97.56
482.28	93.56
482.498	96.56
482.717	80.56
482.935	79.56
483.153	77.56
483.372	102.56
483.59	97.56
483.808	99.56
484.027	96.56
484.245	104.56
484.463	119.56
484.681	98.56
484.9	102.56
485.118	103.56
485.336	95.56
485.554	108.56
485.772	115.56
485.99	108.56
486.209	104.56
486.427	111.56
486.645	127.56
486.863	134.56
487.081	110.56
487.299	104.56
487.517	97.56
487.735	87.56
487.953	97.56
488.171	94.56
488.389	95.56
488.607	99.56
488.825	99.56
489.043	97.56
489.261	84.56
489.479	83.56
489.696	84.56
489.914	102.56
490.132	94.56
490.35	83.56
490.568	87.56
490.786	87.56
491.003	100.56
491.221	89.56
491.439	96.56
491.657	96.56
491.874	83.56
492.092	97.56
492.31	80.56
492.527	96.56
492.745	98.56
492.963	80.56
493.18	95.56
493.398	94.56
493.615	100.56
493.833	95.56
494.05	93.56
494.268	80.56
494.485	95.56
494.703	83.56
494.92	98.56
495.138	98.56
495.355	108.56
495.573	97.56
495.79	85.56
496.008	102.56
496.225	95.56
496.442	84.56
496.66	94.56
496.877	96.56
497.094	94.56
497.312	89.56
497.529	101.56
497.746	90.56
497.963	91.56
498.181	81.56
498.398	95.56
498.615	127.56
498.832	118.56
499.049	87.56
499.267	101.56
499.484	99.56
499.701	94.56
499.918	93.56
500.135	92.56
500.352	90.56
500.569	102.56
500.786	96.56
501.003	108.56
501.22	95.56
501.437	98.56
501.654	100.56
501.871	130.56
502.088	96.56
502.305	101.56
502.522	81.56
502.739	98.56
502.956	104.56
503.172	107.56
503.389	104.56
503.606	121.56
503.823	95.56
504.04	99.56
504.256	114.56
504.473	102.56
504.69	98.56
504.907	97.56
505.123	86.56
505.34	93.56
505.557	78.56
505.773	95.56
505.99	95.56
506.207	87.56
506.423	89.56
506.64	88.56
506.856	105.56
507.073	96.56
507.289	97.56
507.506	101.56
507.722	128.56
507.939	135.56
508.155	118.56
508.372	107.56
508.588	99.56
508.805	86.56
509.021	118.56
509.238	82.56
509.454	105.56
509.67	121.56
509.887	133.56
510.103	167.56
510.319	277.56
510.536	1140.56
510.752	3921.56
510.968	1007.56
511.184	200.56
511.401	128.56
511.617	121.56
511.833	98.56
512.049	107.56
512.265	86.56
512.481	93.56
512.698	101.56
