Data from Circ_2006_H10_HRD10591_00028.txt Node
Date: Wed Jan 03 10:26:09 EST 2024
User: Yrep
Spectrometer: HR+D1059
Trigger mode: 1
Integration Time (sec): 1.000000E-1
Scans to average: 1
Electric dark correction enabled: true
Nonlinearity correction enabled: false
Boxcar width: 0
XAxis mode: Wavelengths
Number of Pixels in Spectrum: 2048
>>>>>Begin Spectral Data<<<<<
223.165	-25.88
223.4	-25.88
223.635	-25.88
223.869	-21.88
224.104	-14.88
224.338	-13.88
224.573	-17.88
224.808	-12.88
225.042	-6.88
225.277	-13.88
225.511	0.12
225.746	-0.88
225.98	24.12
226.215	9.12
226.449	12.12
226.683	23.12
226.918	29.12
227.152	31.12
227.387	19.12
227.621	40.12
227.856	30.12
228.09	48.12
228.324	42.12
228.559	55.12
228.793	73.12
229.027	70.12
229.262	57.12
229.496	65.12
229.73	69.12
229.964	99.12
230.199	80.12
230.433	66.12
230.667	78.12
230.901	87.12
231.136	68.12
231.37	80.12
231.604	66.12
231.838	72.12
232.072	79.12
232.306	81.12
232.541	64.12
232.775	80.12
233.009	65.12
233.243	75.12
233.477	70.12
233.711	80.12
233.945	77.12
234.179	68.12
234.413	76.12
234.647	76.12
234.881	77.12
235.115	81.12
235.349	67.12
235.583	78.12
235.817	76.12
236.051	79.12
236.285	76.12
236.519	76.12
236.753	79.12
236.987	76.12
237.221	82.12
237.455	75.12
237.689	67.12
237.922	81.12
238.156	73.12
238.39	73.12
238.624	77.12
238.858	82.12
239.091	90.12
239.325	74.12
239.559	84.12
239.793	82.12
240.027	73.12
240.26	67.12
240.494	68.12
240.728	73.12
240.961	80.12
241.195	72.12
241.429	65.12
241.662	54.12
241.896	81.12
242.13	70.12
242.363	78.12
242.597	67.12
242.83	72.12
243.064	78.12
243.298	71.12
243.531	67.12
243.765	68.12
243.998	74.12
244.232	81.12
244.465	76.12
244.699	83.12
244.932	83.12
245.166	64.12
245.399	62.12
245.633	69.12
245.866	66.12
246.099	73.12
246.333	90.12
246.566	72.12
246.8	65.12
247.033	64.12
247.266	74.12
247.5	70.12
247.733	87.12
247.966	82.12
248.2	81.12
248.433	87.12
248.666	94.12
248.899	81.12
249.133	75.12
249.366	99.12
249.599	78.12
249.832	79.12
250.066	97.12
250.299	84.12
250.532	81.12
250.765	71.12
250.998	89.12
251.231	73.12
251.465	72.12
251.698	77.12
251.931	74.12
252.164	72.12
252.397	84.12
252.63	64.12
252.863	79.12
253.096	72.12
253.329	66.12
253.562	87.12
253.795	87.12
254.028	82.12
254.261	81.12
254.494	75.12
254.727	82.12
254.96	76.12
255.193	75.12
255.426	67.12
255.659	92.12
255.892	84.12
256.124	89.12
256.357	59.12
256.59	74.12
256.823	67.12
257.056	90.12
257.289	60.12
257.521	73.12
257.754	70.12
257.987	81.12
258.22	66.12
258.452	67.12
258.685	80.12
258.918	70.12
259.151	69.12
259.383	82.12
259.616	64.12
259.849	73.12
260.081	73.12
260.314	88.12
260.547	83.12
260.779	77.12
261.012	75.12
261.244	89.12
261.477	89.12
261.71	92.12
261.942	109.12
262.175	121.12
262.407	78.12
262.64	85.12
262.872	79.12
263.105	77.12
263.337	71.12
263.57	80.12
263.802	72.12
264.035	74.12
264.267	80.12
264.499	74.12
264.732	79.12
264.964	79.12
265.197	89.12
265.429	60.12
265.661	83.12
265.894	73.12
266.126	86.12
266.358	69.12
266.591	82.12
266.823	69.12
267.055	77.12
267.287	80.12
267.52	71.12
267.752	67.12
267.984	74.12
268.216	96.12
268.448	72.12
268.681	89.12
268.913	82.12
269.145	77.12
269.377	89.12
269.609	68.12
269.841	82.12
270.073	68.12
270.306	85.12
270.538	84.12
270.77	78.12
271.002	73.12
271.234	74.12
271.466	81.12
271.698	90.12
271.93	68.12
272.162	80.12
272.394	71.12
272.626	79.12
272.858	84.12
273.09	79.12
273.322	82.12
273.553	80.12
273.785	67.12
274.017	84.12
274.249	80.12
274.481	80.12
274.713	84.12
274.945	81.12
275.176	83.12
275.408	83.12
275.64	69.12
275.872	76.12
276.104	70.12
276.335	88.12
276.567	89.12
276.799	108.12
277.031	94.12
277.262	81.12
277.494	87.12
277.726	86.12
277.957	88.12
278.189	72.12
278.421	86.12
278.652	84.12
278.884	86.12
279.115	82.12
279.347	77.12
279.579	80.12
279.81	91.12
280.042	88.12
280.273	96.12
280.505	94.12
280.736	76.12
280.968	80.12
281.199	86.12
281.431	76.12
281.662	96.12
281.894	81.12
282.125	108.12
282.356	127.12
282.588	136.12
282.819	111.12
283.051	79.12
283.282	69.12
283.513	88.12
283.745	76.12
283.976	76.12
284.207	89.12
284.439	70.12
284.67	93.12
284.901	80.12
285.132	77.12
285.364	81.12
285.595	75.12
285.826	87.12
286.057	79.12
286.288	72.12
286.52	80.12
286.751	77.12
286.982	88.12
287.213	80.12
287.444	83.12
287.675	87.12
287.906	97.12
288.138	87.12
288.369	86.12
288.6	102.12
288.831	84.12
289.062	87.12
289.293	92.12
289.524	86.12
289.755	88.12
289.986	82.12
290.217	77.12
290.448	85.12
290.679	92.12
290.91	76.12
291.141	88.12
291.371	86.12
291.602	76.12
291.833	84.12
292.064	90.12
292.295	95.12
292.526	86.12
292.757	78.12
292.987	87.12
293.218	70.12
293.449	87.12
293.68	76.12
293.91	81.12
294.141	85.12
294.372	88.12
294.603	87.12
294.833	84.12
295.064	88.12
295.295	85.12
295.525	91.12
295.756	108.12
295.987	127.12
296.217	148.12
296.448	138.12
296.679	89.12
296.909	86.12
297.14	71.12
297.37	74.12
297.601	93.12
297.831	94.12
298.062	88.12
298.292	99.12
298.523	76.12
298.753	86.12
298.984	87.12
299.214	75.12
299.445	61.12
299.675	89.12
299.905	92.12
300.136	80.12
300.366	84.12
300.597	83.12
300.827	93.12
301.057	101.12
301.288	107.12
301.518	76.12
301.748	89.12
301.979	105.12
302.209	90.12
302.439	91.12
302.669	80.12
302.9	78.12
303.13	76.12
303.36	96.12
303.59	111.12
303.82	126.12
304.051	87.12
304.281	88.12
304.511	89.12
304.741	87.12
304.971	93.12
305.201	80.12
305.431	86.12
305.661	79.12
305.891	86.12
306.121	99.12
306.352	101.12
306.582	99.12
306.812	98.12
307.042	91.12
307.272	97.12
307.502	87.12
307.731	109.12
307.961	92.12
308.191	98.12
308.421	91.12
308.651	88.12
308.881	83.12
309.111	99.12
309.341	92.12
309.571	94.12
309.8	93.12
310.03	105.12
310.26	107.12
310.49	99.12
310.72	94.12
310.949	113.12
311.179	83.12
311.409	102.12
311.639	95.12
311.868	101.12
312.098	97.12
312.328	98.12
312.557	112.12
312.787	100.12
313.017	96.12
313.246	88.12
313.476	88.12
313.706	92.12
313.935	95.12
314.165	84.12
314.394	104.12
314.624	91.12
314.853	100.12
315.083	99.12
315.312	86.12
315.542	94.12
315.771	97.12
316.001	93.12
316.23	91.12
316.46	84.12
316.689	89.12
316.919	88.12
317.148	96.12
317.377	85.12
317.607	94.12
317.836	98.12
318.065	83.12
318.295	91.12
318.524	89.12
318.753	98.12
318.983	98.12
319.212	97.12
319.441	100.12
319.67	100.12
319.9	103.12
320.129	85.12
320.358	95.12
320.587	81.12
320.816	91.12
321.046	94.12
321.275	96.12
321.504	103.12
321.733	95.12
321.962	95.12
322.191	107.12
322.42	118.12
322.649	114.12
322.878	117.12
323.108	128.12
323.337	140.12
323.566	138.12
323.795	171.12
324.024	258.12
324.253	535.12
324.482	1159.12
324.71	2365.12
324.939	3145.12
325.168	1098.12
325.397	303.12
325.626	185.12
325.855	142.12
326.084	140.12
326.313	153.12
326.542	168.12
326.77	296.12
326.999	615.12
327.228	1276.12
327.457	2366.12
327.686	1856.12
327.914	480.12
328.143	220.12
328.372	164.12
328.6	138.12
328.829	130.12
329.058	148.12
329.287	145.12
329.515	114.12
329.744	93.12
329.972	110.12
330.201	108.12
330.43	141.12
330.658	131.12
330.887	162.12
331.115	135.12
331.344	96.12
331.572	90.12
331.801	108.12
332.03	99.12
332.258	98.12
332.486	91.12
332.715	79.12
332.943	100.12
333.172	99.12
333.4	99.12
333.629	112.12
333.857	110.12
334.085	118.12
334.314	124.12
334.542	122.12
334.771	119.12
334.999	101.12
335.227	98.12
335.455	100.12
335.684	110.12
335.912	88.12
336.14	98.12
336.369	97.12
336.597	96.12
336.825	98.12
337.053	95.12
337.281	97.12
337.51	91.12
337.738	87.12
337.966	103.12
338.194	98.12
338.422	87.12
338.65	90.12
338.878	83.12
339.106	86.12
339.334	83.12
339.562	90.12
339.79	82.12
340.018	81.12
340.246	81.12
340.474	86.12
340.702	83.12
340.93	79.12
341.158	92.12
341.386	85.12
341.614	87.12
341.842	84.12
342.07	109.12
342.298	105.12
342.526	88.12
342.754	102.12
342.981	76.12
343.209	79.12
343.437	83.12
343.665	90.12
343.893	97.12
344.12	102.12
344.348	93.12
344.576	96.12
344.804	95.12
345.031	94.12
345.259	91.12
345.487	87.12
345.714	82.12
345.942	77.12
346.17	88.12
346.397	107.12
346.625	105.12
346.853	96.12
347.08	96.12
347.308	92.12
347.535	93.12
347.763	108.12
347.99	101.12
348.218	119.12
348.445	112.12
348.673	87.12
348.9	97.12
349.128	102.12
349.355	98.12
349.583	98.12
349.81	83.12
350.037	98.12
350.265	92.12
350.492	84.12
350.72	98.12
350.947	108.12
351.174	124.12
351.402	106.12
351.629	96.12
351.856	113.12
352.083	112.12
352.311	118.12
352.538	109.12
352.765	102.12
352.992	124.12
353.22	113.12
353.447	108.12
353.674	109.12
353.901	107.12
354.128	82.12
354.355	88.12
354.583	91.12
354.81	96.12
355.037	100.12
355.264	95.12
355.491	75.12
355.718	94.12
355.945	90.12
356.172	94.12
356.399	104.12
356.626	91.12
356.853	91.12
357.08	95.12
357.307	87.12
357.534	81.12
357.761	94.12
357.988	98.12
358.215	94.12
358.441	99.12
358.668	97.12
358.895	90.12
359.122	89.12
359.349	98.12
359.576	100.12
359.802	112.12
360.029	129.12
360.256	118.12
360.483	100.12
360.709	85.12
360.936	102.12
361.163	100.12
361.39	97.12
361.616	90.12
361.843	80.12
362.07	77.12
362.296	87.12
362.523	91.12
362.749	93.12
362.976	84.12
363.203	93.12
363.429	103.12
363.656	91.12
363.882	90.12
364.109	84.12
364.335	87.12
364.562	89.12
364.788	94.12
365.015	82.12
365.241	99.12
365.468	100.12
365.694	102.12
365.92	92.12
366.147	83.12
366.373	87.12
366.599	91.12
366.826	82.12
367.052	90.12
367.278	90.12
367.505	83.12
367.731	98.12
367.957	89.12
368.184	87.12
368.41	81.12
368.636	112.12
368.862	121.12
369.089	115.12
369.315	95.12
369.541	83.12
369.767	88.12
369.993	108.12
370.219	90.12
370.445	77.12
370.672	90.12
370.898	87.12
371.124	99.12
371.35	83.12
371.576	90.12
371.802	76.12
372.028	83.12
372.254	83.12
372.48	96.12
372.706	90.12
372.932	78.12
373.158	87.12
373.384	95.12
373.61	78.12
373.835	88.12
374.061	85.12
374.287	101.12
374.513	95.12
374.739	92.12
374.965	83.12
375.191	92.12
375.416	88.12
375.642	83.12
375.868	86.12
376.094	86.12
376.319	81.12
376.545	88.12
376.771	95.12
376.997	95.12
377.222	94.12
377.448	88.12
377.674	79.12
377.899	90.12
378.125	86.12
378.35	81.12
378.576	93.12
378.802	79.12
379.027	80.12
379.253	105.12
379.478	75.12
379.704	92.12
379.929	84.12
380.155	96.12
380.38	87.12
380.606	89.12
380.831	94.12
381.057	84.12
381.282	106.12
381.507	93.12
381.733	92.12
381.958	94.12
382.184	107.12
382.409	102.12
382.634	107.12
382.86	91.12
383.085	111.12
383.31	112.12
383.535	92.12
383.761	113.12
383.986	110.12
384.211	96.12
384.436	100.12
384.662	90.12
384.887	97.12
385.112	105.12
385.337	105.12
385.562	105.12
385.787	115.12
386.013	111.12
386.238	113.12
386.463	109.12
386.688	97.12
386.913	107.12
387.138	114.12
387.363	112.12
387.588	99.12
387.813	97.12
388.038	115.12
388.263	110.12
388.488	116.12
388.713	90.12
388.938	97.12
389.163	97.12
389.387	95.12
389.612	94.12
389.837	84.12
390.062	68.12
390.287	81.12
390.512	81.12
390.736	94.12
390.961	91.12
391.186	90.12
391.411	95.12
391.636	90.12
391.86	101.12
392.085	97.12
392.31	89.12
392.534	80.12
392.759	79.12
392.984	82.12
393.208	95.12
393.433	98.12
393.658	80.12
393.882	73.12
394.107	74.12
394.331	87.12
394.556	89.12
394.78	103.12
395.005	92.12
395.229	81.12
395.454	86.12
395.678	66.12
395.903	82.12
396.127	76.12
396.352	91.12
396.576	95.12
396.801	81.12
397.025	89.12
397.249	82.12
397.474	94.12
397.698	70.12
397.922	79.12
398.147	89.12
398.371	92.12
398.595	82.12
398.82	79.12
399.044	93.12
399.268	88.12
399.492	83.12
399.717	72.12
399.941	96.12
400.165	84.12
400.389	95.12
400.613	86.12
400.837	79.12
401.062	78.12
401.286	80.12
401.51	78.12
401.734	96.12
401.958	106.12
402.182	140.12
402.406	177.12
402.63	137.12
402.854	90.12
403.078	82.12
403.302	81.12
403.526	70.12
403.75	87.12
403.974	88.12
404.198	86.12
404.422	85.12
404.645	92.12
404.869	90.12
405.093	102.12
405.317	75.12
405.541	92.12
405.765	91.12
405.988	119.12
406.212	192.12
406.436	266.12
406.66	158.12
406.883	98.12
407.107	95.12
407.331	80.12
407.555	88.12
407.778	98.12
408.002	84.12
408.226	105.12
408.449	91.12
408.673	79.12
408.896	100.12
409.12	95.12
409.344	72.12
409.567	70.12
409.791	100.12
410.014	99.12
410.238	96.12
410.461	103.12
410.685	99.12
410.908	90.12
411.132	89.12
411.355	94.12
411.578	89.12
411.802	86.12
412.025	89.12
412.249	85.12
412.472	96.12
412.695	94.12
412.919	81.12
413.142	90.12
413.365	100.12
413.589	84.12
413.812	84.12
414.035	70.12
414.258	90.12
414.482	93.12
414.705	109.12
414.928	97.12
415.151	88.12
415.374	88.12
415.597	83.12
415.821	84.12
416.044	86.12
416.267	76.12
416.49	92.12
416.713	90.12
416.936	84.12
417.159	94.12
417.382	98.12
417.605	87.12
417.828	99.12
418.051	91.12
418.274	99.12
418.497	89.12
418.72	78.12
418.943	76.12
419.166	81.12
419.389	76.12
419.611	74.12
419.834	103.12
420.057	76.12
420.28	76.12
420.503	79.12
420.726	85.12
420.948	96.12
421.171	110.12
421.394	84.12
421.617	90.12
421.839	94.12
422.062	89.12
422.285	102.12
422.507	102.12
422.73	102.12
422.953	85.12
423.175	92.12
423.398	88.12
423.621	83.12
423.843	91.12
424.066	80.12
424.288	92.12
424.511	94.12
424.733	98.12
424.956	109.12
425.178	109.12
425.401	102.12
425.623	107.12
425.846	90.12
426.068	96.12
426.291	95.12
426.513	93.12
426.735	79.12
426.958	87.12
427.18	99.12
427.402	149.12
427.625	177.12
427.847	146.12
428.069	112.12
428.292	90.12
428.514	105.12
428.736	83.12
428.958	88.12
429.181	79.12
429.403	86.12
429.625	81.12
429.847	90.12
430.069	93.12
430.292	97.12
430.514	76.12
430.736	83.12
430.958	87.12
431.18	87.12
431.402	72.12
431.624	89.12
431.846	76.12
432.068	85.12
432.29	90.12
432.512	98.12
432.734	87.12
432.956	95.12
433.178	99.12
433.4	96.12
433.622	89.12
433.844	88.12
434.066	76.12
434.287	96.12
434.509	105.12
434.731	87.12
434.953	90.12
435.175	92.12
435.397	90.12
435.618	102.12
435.84	103.12
436.062	144.12
436.284	120.12
436.505	110.12
436.727	79.12
436.949	88.12
437.17	89.12
437.392	96.12
437.614	97.12
437.835	84.12
438.057	124.12
438.278	116.12
438.5	101.12
438.721	130.12
438.943	106.12
439.165	82.12
439.386	79.12
439.608	97.12
439.829	95.12
440.05	143.12
440.272	161.12
440.493	102.12
440.715	80.12
440.936	67.12
441.158	79.12
441.379	101.12
441.6	99.12
441.822	98.12
442.043	92.12
442.264	111.12
442.486	106.12
442.707	102.12
442.928	89.12
443.149	150.12
443.371	144.12
443.592	115.12
443.813	103.12
444.034	118.12
444.255	100.12
444.476	75.12
444.698	74.12
444.919	89.12
445.14	142.12
445.361	121.12
445.582	131.12
445.803	140.12
446.024	151.12
446.245	133.12
446.466	107.12
446.687	99.12
446.908	91.12
447.129	93.12
447.35	94.12
447.571	91.12
447.792	85.12
448.013	95.12
448.234	101.12
448.455	100.12
448.675	112.12
448.896	103.12
449.117	87.12
449.338	105.12
449.559	141.12
449.779	134.12
450	86.12
450.221	92.12
450.442	90.12
450.662	103.12
450.883	102.12
451.104	106.12
451.324	87.12
451.545	79.12
451.766	79.12
451.986	75.12
452.207	91.12
452.428	90.12
452.648	88.12
452.869	110.12
453.089	108.12
453.31	129.12
453.53	88.12
453.751	91.12
453.971	99.12
454.192	123.12
454.412	83.12
454.633	88.12
454.853	74.12
455.073	81.12
455.294	83.12
455.514	90.12
455.734	83.12
455.955	98.12
456.175	77.12
456.395	81.12
456.616	69.12
456.836	77.12
457.056	74.12
457.276	77.12
457.497	78.12
457.717	103.12
457.937	78.12
458.157	86.12
458.377	77.12
458.598	125.12
458.818	177.12
459.038	188.12
459.258	118.12
459.478	84.12
459.698	88.12
459.918	106.12
460.138	91.12
460.358	84.12
460.578	80.12
460.798	92.12
461.018	64.12
461.238	76.12
461.458	75.12
461.678	78.12
461.898	92.12
462.118	70.12
462.338	82.12
462.558	89.12
462.777	77.12
462.997	80.12
463.217	89.12
463.437	94.12
463.657	76.12
463.876	83.12
464.096	101.12
464.316	98.12
464.536	80.12
464.755	104.12
464.975	108.12
465.195	181.12
465.414	173.12
465.634	105.12
465.854	75.12
466.073	88.12
466.293	96.12
466.512	83.12
466.732	79.12
466.951	82.12
467.171	99.12
467.391	92.12
467.61	98.12
467.829	97.12
468.049	101.12
468.268	105.12
468.488	79.12
468.707	84.12
468.927	90.12
469.146	72.12
469.365	92.12
469.585	95.12
469.804	95.12
470.023	78.12
470.243	92.12
470.462	105.12
470.681	121.12
470.901	80.12
471.12	72.12
471.339	77.12
471.558	91.12
471.777	85.12
471.997	78.12
472.216	101.12
472.435	120.12
472.654	88.12
472.873	107.12
473.092	87.12
473.311	76.12
473.53	86.12
473.749	82.12
473.968	82.12
474.187	99.12
474.406	86.12
474.625	81.12
474.844	70.12
475.063	76.12
475.282	90.12
475.501	71.12
475.72	87.12
475.939	80.12
476.158	86.12
476.377	73.12
476.596	91.12
476.814	81.12
477.033	96.12
477.252	77.12
477.471	82.12
477.69	84.12
477.908	82.12
478.127	89.12
478.346	84.12
478.564	91.12
478.783	99.12
479.002	87.12
479.22	87.12
479.439	103.12
479.658	105.12
479.876	98.12
480.095	83.12
480.313	91.12
480.532	106.12
480.751	90.12
480.969	112.12
481.188	179.12
481.406	152.12
481.624	102.12
481.843	98.12
482.061	98.12
482.28	88.12
482.498	79.12
482.717	94.12
482.935	95.12
483.153	97.12
483.372	94.12
483.59	87.12
483.808	65.12
484.027	74.12
484.245	98.12
484.463	100.12
484.681	87.12
484.9	85.12
485.118	95.12
485.336	97.12
485.554	102.12
485.772	99.12
485.99	116.12
486.209	96.12
486.427	100.12
486.645	107.12
486.863	111.12
487.081	106.12
487.299	88.12
487.517	104.12
487.735	91.12
487.953	95.12
488.171	89.12
488.389	83.12
488.607	92.12
488.825	96.12
489.043	86.12
489.261	81.12
489.479	97.12
489.696	95.12
489.914	89.12
490.132	90.12
490.35	79.12
490.568	98.12
490.786	90.12
491.003	84.12
491.221	88.12
491.439	87.12
491.657	86.12
491.874	82.12
492.092	80.12
492.31	82.12
492.527	106.12
492.745	94.12
492.963	87.12
493.18	83.12
493.398	87.12
493.615	74.12
493.833	91.12
494.05	79.12
494.268	80.12
494.485	98.12
494.703	75.12
494.92	83.12
495.138	80.12
495.355	79.12
495.573	91.12
495.79	89.12
496.008	104.12
496.225	95.12
496.442	88.12
496.66	93.12
496.877	88.12
497.094	91.12
497.312	99.12
497.529	86.12
497.746	88.12
497.963	96.12
498.181	82.12
498.398	84.12
498.615	112.12
498.832	112.12
499.049	92.12
499.267	83.12
499.484	80.12
499.701	86.12
499.918	82.12
500.135	83.12
500.352	98.12
500.569	88.12
500.786	97.12
501.003	81.12
501.22	99.12
501.437	89.12
501.654	114.12
501.871	120.12
502.088	87.12
502.305	81.12
502.522	67.12
502.739	78.12
502.956	102.12
503.172	97.12
503.389	88.12
503.606	97.12
503.823	95.12
504.04	96.12
504.256	88.12
504.473	81.12
504.69	86.12
504.907	95.12
505.123	85.12
505.34	88.12
505.557	90.12
505.773	84.12
505.99	90.12
506.207	82.12
506.423	75.12
506.64	79.12
506.856	86.12
507.073	95.12
507.289	84.12
507.506	95.12
507.722	99.12
507.939	107.12
508.155	83.12
508.372	95.12
508.588	84.12
508.805	91.12
509.021	84.12
509.238	90.12
509.454	102.12
509.67	96.12
509.887	120.12
510.103	127.12
510.319	237.12
510.536	902.12
510.752	2900.12
510.968	794.12
511.184	186.12
511.401	110.12
511.617	85.12
511.833	81.12
512.049	90.12
512.265	90.12
512.481	84.12
512.698	92.12
512.914	88.12
513.13	88.12
513.346	95.12
513.562	96.12
513.778	84.12
513.994	96.12
514.21	109.12
514.426	124.12
514.642	151.12
514.858	134.12
515.074	188.12
515.29	560.12
515.506	1946.12
515.721	678.12
515.937	187.12
