Data from Circ_2006_H10_HRD10591_00080.txt Node
Date: Wed Jan 03 10:26:19 EST 2024
User: Yrep
Spectrometer: HR+D1059
Trigger mode: 1
Integration Time (sec): 1.000000E-1
Scans to average: 1
Electric dark correction enabled: true
Nonlinearity correction enabled: false
Boxcar width: 0
XAxis mode: Wavelengths
Number of Pixels in Spectrum: 2048
>>>>>Begin Spectral Data<<<<<
223.165	-16.44
223.4	-16.44
223.635	-16.44
223.869	-29.44
224.104	-13.44
224.338	-12.44
224.573	-22.44
224.808	-0.44
225.042	-10.44
225.277	-19.44
225.511	2.56
225.746	8.56
225.98	7.56
226.215	7.56
226.449	19.56
226.683	22.56
226.918	26.56
227.152	29.56
227.387	41.56
227.621	31.56
227.856	39.56
228.09	49.56
228.324	57.56
228.559	59.56
228.793	50.56
229.027	51.56
229.262	67.56
229.496	70.56
229.73	71.56
229.964	88.56
230.199	86.56
230.433	69.56
230.667	84.56
230.901	76.56
231.136	71.56
231.37	85.56
231.604	74.56
231.838	81.56
232.072	61.56
232.306	83.56
232.541	70.56
232.775	82.56
233.009	86.56
233.243	77.56
233.477	76.56
233.711	89.56
233.945	80.56
234.179	83.56
234.413	78.56
234.647	77.56
234.881	79.56
235.115	77.56
235.349	79.56
235.583	78.56
235.817	74.56
236.051	77.56
236.285	67.56
236.519	84.56
236.753	80.56
236.987	78.56
237.221	72.56
237.455	82.56
237.689	67.56
237.922	83.56
238.156	69.56
238.39	70.56
238.624	66.56
238.858	68.56
239.091	73.56
239.325	89.56
239.559	72.56
239.793	70.56
240.027	70.56
240.26	68.56
240.494	74.56
240.728	81.56
240.961	85.56
241.195	79.56
241.429	67.56
241.662	68.56
241.896	60.56
242.13	64.56
242.363	66.56
242.597	68.56
242.83	84.56
243.064	68.56
243.298	65.56
243.531	60.56
243.765	79.56
243.998	66.56
244.232	84.56
244.465	75.56
244.699	67.56
244.932	84.56
245.166	70.56
245.399	67.56
245.633	75.56
245.866	72.56
246.099	80.56
246.333	77.56
246.566	73.56
246.8	82.56
247.033	82.56
247.266	79.56
247.5	87.56
247.733	79.56
247.966	90.56
248.2	76.56
248.433	93.56
248.666	66.56
248.899	81.56
249.133	73.56
249.366	82.56
249.599	96.56
249.832	73.56
250.066	78.56
250.299	66.56
250.532	80.56
250.765	85.56
250.998	79.56
251.231	89.56
251.465	89.56
251.698	69.56
251.931	69.56
252.164	75.56
252.397	83.56
252.63	78.56
252.863	79.56
253.096	84.56
253.329	85.56
253.562	61.56
253.795	63.56
254.028	71.56
254.261	67.56
254.494	73.56
254.727	86.56
254.96	68.56
255.193	82.56
255.426	85.56
255.659	96.56
255.892	87.56
256.124	78.56
256.357	85.56
256.59	66.56
256.823	69.56
257.056	80.56
257.289	73.56
257.521	87.56
257.754	68.56
257.987	87.56
258.22	75.56
258.452	69.56
258.685	83.56
258.918	82.56
259.151	80.56
259.383	92.56
259.616	72.56
259.849	77.56
260.081	66.56
260.314	80.56
260.547	75.56
260.779	86.56
261.012	80.56
261.244	78.56
261.477	71.56
261.71	98.56
261.942	112.56
262.175	109.56
262.407	93.56
262.64	63.56
262.872	80.56
263.105	80.56
263.337	75.56
263.57	83.56
263.802	85.56
264.035	88.56
264.267	73.56
264.499	84.56
264.732	85.56
264.964	80.56
265.197	86.56
265.429	81.56
265.661	88.56
265.894	74.56
266.126	65.56
266.358	91.56
266.591	70.56
266.823	85.56
267.055	89.56
267.287	78.56
267.52	80.56
267.752	80.56
267.984	85.56
268.216	69.56
268.448	79.56
268.681	79.56
268.913	77.56
269.145	78.56
269.377	89.56
269.609	92.56
269.841	79.56
270.073	73.56
270.306	88.56
270.538	98.56
270.77	81.56
271.002	89.56
271.234	87.56
271.466	81.56
271.698	89.56
271.93	81.56
272.162	87.56
272.394	76.56
272.626	89.56
272.858	84.56
273.09	83.56
273.322	76.56
273.553	79.56
273.785	73.56
274.017	81.56
274.249	80.56
274.481	73.56
274.713	73.56
274.945	77.56
275.176	86.56
275.408	88.56
275.64	92.56
275.872	82.56
276.104	78.56
276.335	101.56
276.567	95.56
276.799	116.56
277.031	99.56
277.262	91.56
277.494	83.56
277.726	85.56
277.957	91.56
278.189	92.56
278.421	89.56
278.652	92.56
278.884	68.56
279.115	79.56
279.347	92.56
279.579	68.56
279.81	91.56
280.042	90.56
280.273	84.56
280.505	93.56
280.736	90.56
280.968	87.56
281.199	97.56
281.431	87.56
281.662	86.56
281.894	88.56
282.125	97.56
282.356	114.56
282.588	134.56
282.819	96.56
283.051	91.56
283.282	93.56
283.513	95.56
283.745	84.56
283.976	81.56
284.207	84.56
284.439	84.56
284.67	79.56
284.901	91.56
285.132	81.56
285.364	86.56
285.595	95.56
285.826	83.56
286.057	77.56
286.288	89.56
286.52	81.56
286.751	77.56
286.982	91.56
287.213	91.56
287.444	90.56
287.675	80.56
287.906	82.56
288.138	98.56
288.369	100.56
288.6	93.56
288.831	85.56
289.062	97.56
289.293	93.56
289.524	72.56
289.755	92.56
289.986	78.56
290.217	81.56
290.448	78.56
290.679	74.56
290.91	85.56
291.141	92.56
291.371	101.56
291.602	69.56
291.833	79.56
292.064	85.56
292.295	77.56
292.526	85.56
292.757	74.56
292.987	77.56
293.218	93.56
293.449	81.56
293.68	89.56
293.91	90.56
294.141	88.56
294.372	78.56
294.603	71.56
294.833	90.56
295.064	85.56
295.295	91.56
295.525	83.56
295.756	93.56
295.987	110.56
296.217	138.56
296.448	117.56
296.679	87.56
296.909	80.56
297.14	95.56
297.37	92.56
297.601	84.56
297.831	94.56
298.062	67.56
298.292	89.56
298.523	79.56
298.753	67.56
298.984	85.56
299.214	85.56
299.445	92.56
299.675	92.56
299.905	89.56
300.136	85.56
300.366	82.56
300.597	76.56
300.827	80.56
301.057	96.56
301.288	94.56
301.518	98.56
301.748	76.56
301.979	103.56
302.209	91.56
302.439	83.56
302.669	90.56
302.9	88.56
303.13	95.56
303.36	97.56
303.59	96.56
303.82	104.56
304.051	89.56
304.281	93.56
304.511	95.56
304.741	72.56
304.971	84.56
305.201	90.56
305.431	93.56
305.661	76.56
305.891	84.56
306.121	106.56
306.352	88.56
306.582	97.56
306.812	90.56
307.042	95.56
307.272	97.56
307.502	92.56
307.731	92.56
307.961	82.56
308.191	87.56
308.421	90.56
308.651	84.56
308.881	88.56
309.111	88.56
309.341	100.56
309.571	96.56
309.8	108.56
310.03	92.56
310.26	94.56
310.49	84.56
310.72	91.56
310.949	113.56
311.179	110.56
311.409	89.56
311.639	94.56
311.868	95.56
312.098	88.56
312.328	90.56
312.557	99.56
312.787	103.56
313.017	102.56
313.246	95.56
313.476	99.56
313.706	76.56
313.935	99.56
314.165	85.56
314.394	100.56
314.624	95.56
314.853	92.56
315.083	99.56
315.312	92.56
315.542	85.56
315.771	92.56
316.001	74.56
316.23	74.56
316.46	67.56
316.689	84.56
316.919	98.56
317.148	86.56
317.377	89.56
317.607	99.56
317.836	88.56
318.065	84.56
318.295	85.56
318.524	91.56
318.753	95.56
318.983	80.56
319.212	97.56
319.441	115.56
319.67	106.56
319.9	83.56
320.129	95.56
320.358	82.56
320.587	97.56
320.816	91.56
321.046	92.56
321.275	80.56
321.504	82.56
321.733	95.56
321.962	104.56
322.191	105.56
322.42	105.56
322.649	122.56
322.878	110.56
323.108	114.56
323.337	121.56
323.566	133.56
323.795	159.56
324.024	213.56
324.253	409.56
324.482	841.56
324.71	1760.56
324.939	2335.56
325.168	848.56
325.397	252.56
325.626	150.56
325.855	137.56
326.084	124.56
326.313	137.56
326.542	152.56
326.77	251.56
326.999	471.56
327.228	1007.56
327.457	1842.56
327.686	1435.56
327.914	385.56
328.143	191.56
328.372	179.56
328.6	148.56
328.829	112.56
329.058	120.56
329.287	126.56
329.515	108.56
329.744	116.56
329.972	107.56
330.201	145.56
330.43	183.56
330.658	137.56
330.887	123.56
331.115	123.56
331.344	89.56
331.572	103.56
331.801	92.56
332.03	91.56
332.258	93.56
332.486	84.56
332.715	93.56
332.943	100.56
333.172	98.56
333.4	95.56
333.629	93.56
333.857	104.56
334.085	107.56
334.314	157.56
334.542	203.56
334.771	195.56
334.999	116.56
335.227	98.56
335.455	101.56
335.684	92.56
335.912	95.56
336.14	95.56
336.369	96.56
336.597	93.56
336.825	90.56
337.053	95.56
337.281	83.56
337.51	91.56
337.738	94.56
337.966	88.56
338.194	97.56
338.422	85.56
338.65	81.56
338.878	84.56
339.106	84.56
339.334	104.56
339.562	92.56
339.79	83.56
340.018	82.56
340.246	81.56
340.474	91.56
340.702	83.56
340.93	82.56
341.158	103.56
341.386	77.56
341.614	82.56
341.842	103.56
342.07	102.56
342.298	95.56
342.526	95.56
342.754	90.56
342.981	87.56
343.209	86.56
343.437	99.56
343.665	77.56
343.893	88.56
344.12	107.56
344.348	80.56
344.576	76.56
344.804	90.56
345.031	84.56
345.259	95.56
345.487	101.56
345.714	94.56
345.942	88.56
346.17	93.56
346.397	87.56
346.625	88.56
346.853	100.56
347.08	107.56
347.308	103.56
347.535	84.56
347.763	94.56
347.99	100.56
348.218	103.56
348.445	95.56
348.673	103.56
348.9	103.56
349.128	88.56
349.355	96.56
349.583	97.56
349.81	81.56
350.037	105.56
350.265	88.56
350.492	86.56
350.72	93.56
350.947	97.56
351.174	111.56
351.402	116.56
351.629	108.56
351.856	89.56
352.083	100.56
352.311	108.56
352.538	107.56
352.765	108.56
352.992	111.56
353.22	104.56
353.447	104.56
353.674	99.56
353.901	87.56
354.128	89.56
354.355	98.56
354.583	94.56
354.81	106.56
355.037	110.56
355.264	96.56
355.491	87.56
355.718	95.56
355.945	107.56
356.172	91.56
356.399	100.56
356.626	83.56
356.853	83.56
357.08	108.56
357.307	96.56
357.534	95.56
357.761	87.56
357.988	79.56
358.215	117.56
358.441	98.56
358.668	83.56
358.895	99.56
359.122	86.56
359.349	85.56
359.576	76.56
359.802	103.56
360.029	108.56
360.256	114.56
360.483	99.56
360.709	77.56
360.936	94.56
361.163	83.56
361.39	87.56
361.616	89.56
361.843	93.56
362.07	84.56
362.296	82.56
362.523	83.56
362.749	86.56
362.976	84.56
363.203	92.56
363.429	90.56
363.656	95.56
363.882	86.56
364.109	92.56
364.335	79.56
364.562	81.56
364.788	86.56
365.015	87.56
365.241	90.56
365.468	109.56
365.694	96.56
365.92	87.56
366.147	82.56
366.373	71.56
366.599	90.56
366.826	83.56
367.052	82.56
367.278	89.56
367.505	83.56
367.731	91.56
367.957	92.56
368.184	119.56
368.41	101.56
368.636	105.56
368.862	115.56
369.089	98.56
369.315	81.56
369.541	108.56
369.767	91.56
369.993	89.56
370.219	92.56
370.445	85.56
370.672	95.56
370.898	94.56
371.124	97.56
371.35	93.56
371.576	74.56
371.802	85.56
372.028	75.56
372.254	81.56
372.48	85.56
372.706	82.56
372.932	76.56
373.158	81.56
373.384	92.56
373.61	90.56
373.835	96.56
374.061	84.56
374.287	90.56
374.513	93.56
374.739	93.56
374.965	96.56
375.191	82.56
375.416	78.56
375.642	76.56
375.868	82.56
376.094	88.56
376.319	95.56
376.545	81.56
376.771	91.56
376.997	86.56
377.222	92.56
377.448	71.56
377.674	81.56
377.899	83.56
378.125	88.56
378.35	80.56
378.576	83.56
378.802	101.56
379.027	85.56
379.253	93.56
379.478	82.56
379.704	88.56
379.929	98.56
380.155	94.56
380.38	94.56
380.606	81.56
380.831	91.56
381.057	78.56
381.282	76.56
381.507	90.56
381.733	104.56
381.958	85.56
382.184	90.56
382.409	98.56
382.634	109.56
382.86	116.56
383.085	104.56
383.31	102.56
383.535	92.56
383.761	95.56
383.986	93.56
384.211	117.56
384.436	106.56
384.662	108.56
384.887	90.56
385.112	86.56
385.337	100.56
385.562	94.56
385.787	104.56
386.013	104.56
386.238	110.56
386.463	78.56
386.688	103.56
386.913	96.56
387.138	107.56
387.363	89.56
387.588	106.56
387.813	93.56
388.038	96.56
388.263	104.56
388.488	107.56
388.713	90.56
388.938	90.56
389.163	80.56
389.387	92.56
389.612	80.56
389.837	84.56
390.062	84.56
390.287	91.56
390.512	92.56
390.736	83.56
390.961	107.56
391.186	83.56
391.411	100.56
391.636	90.56
391.86	90.56
392.085	81.56
392.31	87.56
392.534	91.56
392.759	82.56
392.984	92.56
393.208	76.56
393.433	95.56
393.658	100.56
393.882	83.56
394.107	77.56
394.331	77.56
394.556	84.56
394.78	73.56
395.005	81.56
395.229	81.56
395.454	73.56
395.678	93.56
395.903	91.56
396.127	90.56
396.352	80.56
396.576	82.56
396.801	77.56
397.025	73.56
397.249	97.56
397.474	87.56
397.698	84.56
397.922	86.56
398.147	91.56
398.371	92.56
398.595	81.56
398.82	76.56
399.044	74.56
399.268	79.56
399.492	77.56
399.717	82.56
399.941	80.56
400.165	86.56
400.389	91.56
400.613	88.56
400.837	84.56
401.062	86.56
401.286	92.56
401.51	93.56
401.734	82.56
401.958	90.56
402.182	124.56
402.406	153.56
402.63	114.56
402.854	104.56
403.078	91.56
403.302	84.56
403.526	92.56
403.75	104.56
403.974	98.56
404.198	96.56
404.422	78.56
404.645	79.56
404.869	103.56
405.093	85.56
405.317	110.56
405.541	102.56
405.765	92.56
405.988	99.56
406.212	171.56
406.436	227.56
406.66	143.56
406.883	91.56
407.107	84.56
407.331	99.56
407.555	92.56
407.778	93.56
408.002	78.56
408.226	87.56
408.449	87.56
408.673	84.56
408.896	79.56
409.12	87.56
409.344	100.56
409.567	88.56
409.791	90.56
410.014	81.56
410.238	77.56
410.461	80.56
410.685	95.56
410.908	79.56
411.132	96.56
411.355	92.56
411.578	92.56
411.802	74.56
412.025	92.56
412.249	88.56
412.472	94.56
412.695	91.56
412.919	93.56
413.142	97.56
413.365	95.56
413.589	93.56
413.812	85.56
414.035	91.56
414.258	83.56
414.482	74.56
414.705	84.56
414.928	100.56
415.151	94.56
415.374	95.56
415.597	90.56
415.821	92.56
416.044	80.56
416.267	76.56
416.49	83.56
416.713	78.56
416.936	80.56
417.159	68.56
417.382	94.56
417.605	85.56
417.828	97.56
418.051	84.56
418.274	83.56
418.497	91.56
418.72	83.56
418.943	82.56
419.166	81.56
419.389	84.56
419.611	99.56
419.834	91.56
420.057	74.56
420.28	88.56
420.503	80.56
420.726	84.56
420.948	92.56
421.171	98.56
421.394	88.56
421.617	81.56
421.839	76.56
422.062	90.56
422.285	92.56
422.507	104.56
422.73	96.56
422.953	91.56
423.175	92.56
423.398	79.56
423.621	82.56
423.843	88.56
424.066	82.56
424.288	99.56
424.511	88.56
424.733	91.56
424.956	95.56
425.178	85.56
425.401	96.56
425.623	88.56
425.846	93.56
426.068	92.56
426.291	89.56
426.513	73.56
426.735	83.56
426.958	91.56
427.18	94.56
427.402	148.56
427.625	152.56
427.847	138.56
428.069	116.56
428.292	84.56
428.514	83.56
428.736	91.56
428.958	83.56
429.181	77.56
429.403	85.56
429.625	82.56
429.847	85.56
430.069	98.56
430.292	84.56
430.514	83.56
430.736	87.56
430.958	87.56
431.18	77.56
431.402	83.56
431.624	91.56
431.846	72.56
432.068	71.56
432.29	83.56
432.512	92.56
432.734	81.56
432.956	104.56
433.178	93.56
433.4	92.56
433.622	89.56
433.844	96.56
434.066	89.56
434.287	89.56
434.509	80.56
434.731	89.56
434.953	87.56
435.175	85.56
435.397	92.56
435.618	103.56
435.84	105.56
436.062	133.56
436.284	103.56
436.505	82.56
436.727	107.56
436.949	89.56
437.17	69.56
437.392	83.56
437.614	89.56
437.835	103.56
438.057	119.56
438.278	110.56
438.5	105.56
438.721	106.56
438.943	102.56
439.165	96.56
439.386	79.56
439.608	87.56
439.829	105.56
440.05	117.56
440.272	146.56
440.493	85.56
440.715	84.56
440.936	88.56
441.158	84.56
441.379	92.56
441.6	84.56
441.822	76.56
442.043	83.56
442.264	98.56
442.486	94.56
442.707	84.56
442.928	117.56
443.149	115.56
443.371	124.56
443.592	119.56
443.813	113.56
444.034	103.56
444.255	90.56
444.476	85.56
444.698	92.56
444.919	77.56
445.14	129.56
445.361	112.56
445.582	124.56
445.803	146.56
446.024	125.56
446.245	143.56
446.466	115.56
446.687	96.56
446.908	87.56
447.129	86.56
447.35	92.56
447.571	93.56
447.792	104.56
448.013	103.56
448.234	111.56
448.455	113.56
448.675	89.56
448.896	99.56
449.117	91.56
449.338	103.56
449.559	107.56
449.779	139.56
450	97.56
450.221	99.56
450.442	84.56
450.662	92.56
450.883	108.56
451.104	103.56
451.324	92.56
451.545	87.56
451.766	92.56
451.986	80.56
452.207	92.56
452.428	86.56
452.648	97.56
452.869	107.56
453.089	114.56
453.31	100.56
453.53	85.56
453.751	82.56
453.971	107.56
454.192	110.56
454.412	94.56
454.633	66.56
454.853	103.56
455.073	85.56
455.294	90.56
455.514	81.56
455.734	92.56
455.955	83.56
456.175	82.56
456.395	74.56
456.616	76.56
456.836	84.56
457.056	88.56
457.276	82.56
457.497	66.56
457.717	81.56
457.937	82.56
458.157	84.56
458.377	84.56
458.598	105.56
458.818	146.56
459.038	164.56
459.258	115.56
459.478	90.56
459.698	80.56
459.918	76.56
460.138	67.56
460.358	77.56
460.578	88.56
460.798	96.56
461.018	81.56
461.238	89.56
461.458	82.56
461.678	94.56
461.898	72.56
462.118	79.56
462.338	73.56
462.558	75.56
462.777	74.56
462.997	84.56
463.217	85.56
463.437	85.56
463.657	71.56
463.876	68.56
464.096	94.56
464.316	98.56
464.536	80.56
464.755	99.56
464.975	98.56
465.195	166.56
465.414	156.56
465.634	90.56
465.854	81.56
466.073	78.56
466.293	84.56
466.512	80.56
466.732	70.56
466.951	84.56
467.171	80.56
467.391	94.56
467.61	99.56
467.829	110.56
468.049	112.56
468.268	117.56
468.488	96.56
468.707	82.56
468.927	66.56
469.146	77.56
469.365	93.56
469.585	76.56
469.804	99.56
470.023	93.56
470.243	101.56
470.462	106.56
470.681	111.56
470.901	91.56
471.12	77.56
471.339	79.56
471.558	89.56
471.777	78.56
471.997	96.56
472.216	138.56
472.435	240.56
472.654	105.56
472.873	97.56
473.092	61.56
473.311	91.56
473.53	80.56
473.749	89.56
473.968	87.56
474.187	102.56
474.406	96.56
474.625	83.56
474.844	78.56
475.063	85.56
475.282	85.56
475.501	83.56
475.72	86.56
475.939	81.56
476.158	92.56
476.377	77.56
476.596	96.56
476.814	93.56
477.033	74.56
477.252	83.56
477.471	84.56
477.69	88.56
477.908	77.56
478.127	89.56
478.346	88.56
478.564	91.56
478.783	95.56
479.002	92.56
479.22	78.56
479.439	85.56
479.658	104.56
479.876	82.56
480.095	99.56
480.313	96.56
480.532	93.56
480.751	93.56
480.969	156.56
481.188	366.56
481.406	240.56
481.624	120.56
481.843	78.56
482.061	85.56
482.28	101.56
482.498	92.56
482.717	87.56
482.935	91.56
483.153	93.56
483.372	80.56
483.59	85.56
483.808	91.56
484.027	88.56
484.245	85.56
484.463	88.56
484.681	96.56
484.9	97.56
485.118	97.56
485.336	86.56
485.554	90.56
485.772	98.56
485.99	94.56
486.209	104.56
486.427	97.56
486.645	117.56
486.863	119.56
487.081	103.56
487.299	92.56
487.517	87.56
487.735	80.56
487.953	95.56
488.171	88.56
488.389	81.56
488.607	107.56
488.825	106.56
489.043	92.56
489.261	85.56
489.479	73.56
489.696	92.56
489.914	84.56
490.132	76.56
490.35	82.56
490.568	66.56
490.786	75.56
491.003	89.56
491.221	81.56
491.439	75.56
491.657	86.56
491.874	85.56
492.092	82.56
492.31	95.56
492.527	72.56
492.745	88.56
492.963	75.56
493.18	104.56
493.398	96.56
493.615	91.56
493.833	100.56
494.05	80.56
494.268	85.56
494.485	86.56
494.703	81.56
494.92	83.56
495.138	82.56
495.355	87.56
495.573	86.56
495.79	97.56
496.008	95.56
496.225	79.56
496.442	84.56
496.66	84.56
496.877	79.56
497.094	77.56
497.312	79.56
497.529	99.56
497.746	87.56
497.963	95.56
498.181	87.56
498.398	77.56
498.615	113.56
498.832	95.56
499.049	85.56
499.267	99.56
499.484	81.56
499.701	96.56
499.918	76.56
500.135	93.56
500.352	90.56
500.569	96.56
500.786	73.56
501.003	93.56
501.22	85.56
501.437	74.56
501.654	92.56
501.871	99.56
502.088	89.56
502.305	83.56
502.522	84.56
502.739	77.56
502.956	68.56
503.172	90.56
503.389	89.56
503.606	96.56
503.823	88.56
504.04	100.56
504.256	93.56
504.473	75.56
504.69	79.56
504.907	90.56
505.123	81.56
505.34	87.56
505.557	79.56
505.773	100.56
505.99	70.56
506.207	92.56
506.423	83.56
506.64	80.56
506.856	91.56
507.073	91.56
507.289	83.56
507.506	90.56
507.722	93.56
507.939	105.56
508.155	114.56
508.372	88.56
508.588	88.56
508.805	86.56
509.021	91.56
509.238	96.56
509.454	82.56
509.67	94.56
509.887	113.56
510.103	136.56
510.319	201.56
510.536	744.56
510.752	2362.56
510.968	656.56
511.184	157.56
511.401	107.56
511.617	90.56
511.833	84.56
512.049	85.56
512.265	80.56
512.481	90.56
512.698	91.56
512.914	85.56
513.13	82.56
513.346	85.56
513.562	97.56
513.778	104.56
513.994	110.56
514.21	110.56
514.426	114.56
514.642	130.56
514.858	114.56
515.074	164.56
515.29	474.56
515.506	1472.56
515.721	556.56
515.937	143.56
516.153	97.56
516.369	98.56
516.585	95.56
