Data from Circ_2006_H10_HRD10591_00068.txt Node
Date: Wed Jan 03 10:26:17 EST 2024
User: Yrep
Spectrometer: HR+D1059
Trigger mode: 1
Integration Time (sec): 1.000000E-1
Scans to average: 1
Electric dark correction enabled: true
Nonlinearity correction enabled: false
Boxcar width: 0
XAxis mode: Wavelengths
Number of Pixels in Spectrum: 2048
>>>>>Begin Spectral Data<<<<<
223.165	-25.5
223.4	-25.5
223.635	-25.5
223.869	-22.5
224.104	-35.5
224.338	-16.5
224.573	-8.5
224.808	-12.5
225.042	-18.5
225.277	-8.5
225.511	5.5
225.746	1.5
225.98	21.5
226.215	18.5
226.449	18.5
226.683	22.5
226.918	23.5
227.152	36.5
227.387	40.5
227.621	55.5
227.856	47.5
228.09	49.5
228.324	63.5
228.559	63.5
228.793	78.5
229.027	58.5
229.262	57.5
229.496	84.5
229.73	89.5
229.964	74.5
230.199	76.5
230.433	82.5
230.667	72.5
230.901	74.5
231.136	93.5
231.37	79.5
231.604	83.5
231.838	87.5
232.072	84.5
232.306	78.5
232.541	65.5
232.775	86.5
233.009	78.5
233.243	86.5
233.477	79.5
233.711	85.5
233.945	81.5
234.179	75.5
234.413	84.5
234.647	83.5
234.881	79.5
235.115	85.5
235.349	71.5
235.583	80.5
235.817	84.5
236.051	73.5
236.285	80.5
236.519	92.5
236.753	80.5
236.987	82.5
237.221	89.5
237.455	93.5
237.689	85.5
237.922	77.5
238.156	86.5
238.39	79.5
238.624	62.5
238.858	81.5
239.091	93.5
239.325	85.5
239.559	92.5
239.793	85.5
240.027	87.5
240.26	79.5
240.494	80.5
240.728	69.5
240.961	84.5
241.195	87.5
241.429	87.5
241.662	62.5
241.896	71.5
242.13	79.5
242.363	76.5
242.597	75.5
242.83	86.5
243.064	78.5
243.298	64.5
243.531	75.5
243.765	83.5
243.998	86.5
244.232	80.5
244.465	82.5
244.699	72.5
244.932	88.5
245.166	72.5
245.399	75.5
245.633	68.5
245.866	81.5
246.099	79.5
246.333	74.5
246.566	78.5
246.8	77.5
247.033	77.5
247.266	86.5
247.5	76.5
247.733	74.5
247.966	84.5
248.2	94.5
248.433	80.5
248.666	69.5
248.899	84.5
249.133	88.5
249.366	93.5
249.599	98.5
249.832	84.5
250.066	83.5
250.299	82.5
250.532	80.5
250.765	66.5
250.998	90.5
251.231	90.5
251.465	76.5
251.698	86.5
251.931	67.5
252.164	86.5
252.397	94.5
252.63	84.5
252.863	89.5
253.096	89.5
253.329	79.5
253.562	87.5
253.795	84.5
254.028	74.5
254.261	77.5
254.494	93.5
254.727	90.5
254.96	79.5
255.193	77.5
255.426	81.5
255.659	81.5
255.892	89.5
256.124	89.5
256.357	88.5
256.59	78.5
256.823	81.5
257.056	87.5
257.289	82.5
257.521	72.5
257.754	82.5
257.987	83.5
258.22	77.5
258.452	91.5
258.685	84.5
258.918	90.5
259.151	79.5
259.383	81.5
259.616	85.5
259.849	92.5
260.081	88.5
260.314	85.5
260.547	85.5
260.779	85.5
261.012	101.5
261.244	77.5
261.477	79.5
261.71	92.5
261.942	121.5
262.175	117.5
262.407	80.5
262.64	93.5
262.872	92.5
263.105	97.5
263.337	79.5
263.57	69.5
263.802	81.5
264.035	100.5
264.267	83.5
264.499	88.5
264.732	71.5
264.964	80.5
265.197	90.5
265.429	92.5
265.661	87.5
265.894	89.5
266.126	100.5
266.358	96.5
266.591	68.5
266.823	87.5
267.055	86.5
267.287	84.5
267.52	78.5
267.752	91.5
267.984	88.5
268.216	82.5
268.448	87.5
268.681	79.5
268.913	76.5
269.145	84.5
269.377	83.5
269.609	85.5
269.841	88.5
270.073	93.5
270.306	94.5
270.538	82.5
270.77	94.5
271.002	82.5
271.234	97.5
271.466	91.5
271.698	74.5
271.93	89.5
272.162	91.5
272.394	106.5
272.626	86.5
272.858	98.5
273.09	86.5
273.322	73.5
273.553	66.5
273.785	82.5
274.017	76.5
274.249	98.5
274.481	82.5
274.713	80.5
274.945	89.5
275.176	87.5
275.408	79.5
275.64	82.5
275.872	91.5
276.104	101.5
276.335	93.5
276.567	99.5
276.799	117.5
277.031	88.5
277.262	115.5
277.494	90.5
277.726	79.5
277.957	93.5
278.189	91.5
278.421	82.5
278.652	83.5
278.884	95.5
279.115	78.5
279.347	85.5
279.579	85.5
279.81	69.5
280.042	79.5
280.273	91.5
280.505	97.5
280.736	101.5
280.968	79.5
281.199	78.5
281.431	84.5
281.662	94.5
281.894	107.5
282.125	117.5
282.356	127.5
282.588	142.5
282.819	119.5
283.051	97.5
283.282	83.5
283.513	82.5
283.745	92.5
283.976	88.5
284.207	76.5
284.439	93.5
284.67	95.5
284.901	88.5
285.132	104.5
285.364	96.5
285.595	96.5
285.826	94.5
286.057	104.5
286.288	89.5
286.52	104.5
286.751	85.5
286.982	74.5
287.213	94.5
287.444	99.5
287.675	86.5
287.906	85.5
288.138	91.5
288.369	106.5
288.6	95.5
288.831	83.5
289.062	89.5
289.293	90.5
289.524	91.5
289.755	74.5
289.986	77.5
290.217	86.5
290.448	101.5
290.679	90.5
290.91	88.5
291.141	74.5
291.371	93.5
291.602	86.5
291.833	85.5
292.064	88.5
292.295	89.5
292.526	84.5
292.757	83.5
292.987	85.5
293.218	102.5
293.449	73.5
293.68	92.5
293.91	81.5
294.141	84.5
294.372	90.5
294.603	88.5
294.833	101.5
295.064	88.5
295.295	90.5
295.525	95.5
295.756	100.5
295.987	114.5
296.217	146.5
296.448	114.5
296.679	110.5
296.909	100.5
297.14	86.5
297.37	85.5
297.601	75.5
297.831	94.5
298.062	104.5
298.292	93.5
298.523	93.5
298.753	95.5
298.984	85.5
299.214	87.5
299.445	86.5
299.675	82.5
299.905	90.5
300.136	93.5
300.366	98.5
300.597	105.5
300.827	104.5
301.057	119.5
301.288	104.5
301.518	96.5
301.748	99.5
301.979	105.5
302.209	94.5
302.439	94.5
302.669	84.5
302.9	92.5
303.13	101.5
303.36	105.5
303.59	99.5
303.82	91.5
304.051	87.5
304.281	90.5
304.511	84.5
304.741	88.5
304.971	95.5
305.201	103.5
305.431	88.5
305.661	102.5
305.891	101.5
306.121	86.5
306.352	120.5
306.582	120.5
306.812	100.5
307.042	107.5
307.272	99.5
307.502	120.5
307.731	104.5
307.961	97.5
308.191	82.5
308.421	91.5
308.651	108.5
308.881	101.5
309.111	96.5
309.341	94.5
309.571	90.5
309.8	100.5
310.03	112.5
310.26	120.5
310.49	90.5
310.72	107.5
310.949	93.5
311.179	94.5
311.409	101.5
311.639	92.5
311.868	103.5
312.098	107.5
312.328	87.5
312.557	103.5
312.787	110.5
313.017	119.5
313.246	94.5
313.476	87.5
313.706	98.5
313.935	104.5
314.165	109.5
314.394	102.5
314.624	114.5
314.853	94.5
315.083	95.5
315.312	94.5
315.542	71.5
315.771	83.5
316.001	104.5
316.23	102.5
316.46	89.5
316.689	100.5
316.919	101.5
317.148	110.5
317.377	82.5
317.607	102.5
317.836	97.5
318.065	100.5
318.295	95.5
318.524	81.5
318.753	93.5
318.983	101.5
319.212	94.5
319.441	108.5
319.67	122.5
319.9	96.5
320.129	105.5
320.358	97.5
320.587	104.5
320.816	88.5
321.046	93.5
321.275	99.5
321.504	104.5
321.733	102.5
321.962	98.5
322.191	96.5
322.42	106.5
322.649	117.5
322.878	117.5
323.108	125.5
323.337	130.5
323.566	129.5
323.795	172.5
324.024	220.5
324.253	441.5
324.482	937.5
324.71	1952.5
324.939	2533.5
325.168	906.5
325.397	266.5
325.626	158.5
325.855	118.5
326.084	145.5
326.313	167.5
326.542	165.5
326.77	253.5
326.999	520.5
327.228	1076.5
327.457	1982.5
327.686	1600.5
327.914	413.5
328.143	214.5
328.372	162.5
328.6	148.5
328.829	123.5
329.058	134.5
329.287	125.5
329.515	112.5
329.744	107.5
329.972	115.5
330.201	137.5
330.43	161.5
330.658	143.5
330.887	146.5
331.115	143.5
331.344	105.5
331.572	109.5
331.801	106.5
332.03	103.5
332.258	108.5
332.486	99.5
332.715	96.5
332.943	90.5
333.172	108.5
333.4	108.5
333.629	105.5
333.857	114.5
334.085	114.5
334.314	136.5
334.542	152.5
334.771	180.5
334.999	121.5
335.227	111.5
335.455	102.5
335.684	104.5
335.912	103.5
336.14	102.5
336.369	91.5
336.597	95.5
336.825	108.5
337.053	96.5
337.281	108.5
337.51	75.5
337.738	109.5
337.966	98.5
338.194	101.5
338.422	95.5
338.65	90.5
338.878	104.5
339.106	86.5
339.334	86.5
339.562	100.5
339.79	97.5
340.018	109.5
340.246	100.5
340.474	98.5
340.702	93.5
340.93	100.5
341.158	76.5
341.386	87.5
341.614	85.5
341.842	108.5
342.07	88.5
342.298	92.5
342.526	88.5
342.754	95.5
342.981	87.5
343.209	102.5
343.437	112.5
343.665	95.5
343.893	89.5
344.12	90.5
344.348	81.5
344.576	102.5
344.804	94.5
345.031	92.5
345.259	98.5
345.487	104.5
345.714	81.5
345.942	91.5
346.17	89.5
346.397	88.5
346.625	98.5
346.853	86.5
347.08	86.5
347.308	97.5
347.535	94.5
347.763	106.5
347.99	108.5
348.218	97.5
348.445	108.5
348.673	101.5
348.9	93.5
349.128	98.5
349.355	103.5
349.583	97.5
349.81	92.5
350.037	100.5
350.265	100.5
350.492	93.5
350.72	95.5
350.947	94.5
351.174	104.5
351.402	89.5
351.629	102.5
351.856	91.5
352.083	114.5
352.311	121.5
352.538	112.5
352.765	103.5
352.992	114.5
353.22	107.5
353.447	95.5
353.674	97.5
353.901	95.5
354.128	101.5
354.355	96.5
354.583	96.5
354.81	106.5
355.037	87.5
355.264	94.5
355.491	94.5
355.718	90.5
355.945	86.5
356.172	95.5
356.399	96.5
356.626	81.5
356.853	98.5
357.08	97.5
357.307	117.5
357.534	92.5
357.761	88.5
357.988	84.5
358.215	93.5
358.441	93.5
358.668	89.5
358.895	96.5
359.122	99.5
359.349	89.5
359.576	95.5
359.802	104.5
360.029	115.5
360.256	119.5
360.483	101.5
360.709	81.5
360.936	101.5
361.163	94.5
361.39	106.5
361.616	100.5
361.843	106.5
362.07	92.5
362.296	107.5
362.523	109.5
362.749	95.5
362.976	104.5
363.203	92.5
363.429	97.5
363.656	92.5
363.882	88.5
364.109	80.5
364.335	102.5
364.562	97.5
364.788	100.5
365.015	82.5
365.241	100.5
365.468	108.5
365.694	109.5
365.92	111.5
366.147	99.5
366.373	91.5
366.599	107.5
366.826	116.5
367.052	98.5
367.278	98.5
367.505	93.5
367.731	98.5
367.957	88.5
368.184	91.5
368.41	88.5
368.636	112.5
368.862	118.5
369.089	105.5
369.315	99.5
369.541	103.5
369.767	95.5
369.993	99.5
370.219	98.5
370.445	84.5
370.672	86.5
370.898	86.5
371.124	95.5
371.35	95.5
371.576	95.5
371.802	84.5
372.028	94.5
372.254	106.5
372.48	95.5
372.706	82.5
372.932	102.5
373.158	87.5
373.384	106.5
373.61	94.5
373.835	93.5
374.061	81.5
374.287	93.5
374.513	100.5
374.739	81.5
374.965	86.5
375.191	97.5
375.416	84.5
375.642	98.5
375.868	88.5
376.094	92.5
376.319	93.5
376.545	85.5
376.771	99.5
376.997	97.5
377.222	101.5
377.448	95.5
377.674	91.5
377.899	79.5
378.125	97.5
378.35	86.5
378.576	87.5
378.802	86.5
379.027	95.5
379.253	90.5
379.478	88.5
379.704	115.5
379.929	111.5
380.155	103.5
380.38	99.5
380.606	97.5
380.831	100.5
381.057	107.5
381.282	107.5
381.507	101.5
381.733	109.5
381.958	86.5
382.184	97.5
382.409	102.5
382.634	114.5
382.86	107.5
383.085	119.5
383.31	112.5
383.535	113.5
383.761	93.5
383.986	98.5
384.211	92.5
384.436	102.5
384.662	97.5
384.887	111.5
385.112	110.5
385.337	113.5
385.562	102.5
385.787	108.5
386.013	131.5
386.238	113.5
386.463	104.5
386.688	117.5
386.913	104.5
387.138	102.5
387.363	105.5
387.588	94.5
387.813	82.5
388.038	117.5
388.263	102.5
388.488	99.5
388.713	93.5
388.938	85.5
389.163	93.5
389.387	93.5
389.612	89.5
389.837	83.5
390.062	98.5
390.287	93.5
390.512	97.5
390.736	86.5
390.961	91.5
391.186	101.5
391.411	105.5
391.636	92.5
391.86	83.5
392.085	84.5
392.31	99.5
392.534	100.5
392.759	100.5
392.984	91.5
393.208	96.5
393.433	101.5
393.658	83.5
393.882	82.5
394.107	85.5
394.331	92.5
394.556	100.5
394.78	95.5
395.005	99.5
395.229	88.5
395.454	73.5
395.678	86.5
395.903	94.5
396.127	105.5
396.352	89.5
396.576	95.5
396.801	101.5
397.025	90.5
397.249	88.5
397.474	86.5
397.698	86.5
397.922	100.5
398.147	87.5
398.371	102.5
398.595	90.5
398.82	99.5
399.044	80.5
399.268	72.5
399.492	83.5
399.717	94.5
399.941	81.5
400.165	91.5
400.389	85.5
400.613	80.5
400.837	86.5
401.062	80.5
401.286	83.5
401.51	99.5
401.734	88.5
401.958	103.5
402.182	128.5
402.406	176.5
402.63	129.5
402.854	94.5
403.078	90.5
403.302	96.5
403.526	99.5
403.75	90.5
403.974	82.5
404.198	96.5
404.422	102.5
404.645	90.5
404.869	88.5
405.093	98.5
405.317	104.5
405.541	104.5
405.765	113.5
405.988	121.5
406.212	174.5
406.436	217.5
406.66	136.5
406.883	103.5
407.107	91.5
407.331	94.5
407.555	105.5
407.778	98.5
408.002	97.5
408.226	82.5
408.449	85.5
408.673	83.5
408.896	101.5
409.12	88.5
409.344	92.5
409.567	81.5
409.791	91.5
410.014	91.5
410.238	103.5
410.461	85.5
410.685	95.5
410.908	98.5
411.132	95.5
411.355	98.5
411.578	95.5
411.802	94.5
412.025	85.5
412.249	112.5
412.472	113.5
412.695	113.5
412.919	96.5
413.142	90.5
413.365	98.5
413.589	101.5
413.812	101.5
414.035	93.5
414.258	98.5
414.482	87.5
414.705	86.5
414.928	86.5
415.151	93.5
415.374	102.5
415.597	99.5
415.821	97.5
416.044	89.5
416.267	84.5
416.49	95.5
416.713	104.5
416.936	111.5
417.159	69.5
417.382	96.5
417.605	89.5
417.828	81.5
418.051	92.5
418.274	93.5
418.497	79.5
418.72	90.5
418.943	85.5
419.166	93.5
419.389	88.5
419.611	81.5
419.834	88.5
420.057	87.5
420.28	87.5
420.503	84.5
420.726	82.5
420.948	96.5
421.171	98.5
421.394	100.5
421.617	94.5
421.839	92.5
422.062	82.5
422.285	106.5
422.507	107.5
422.73	95.5
422.953	98.5
423.175	89.5
423.398	95.5
423.621	85.5
423.843	94.5
424.066	87.5
424.288	90.5
424.511	90.5
424.733	111.5
424.956	102.5
425.178	111.5
425.401	105.5
425.623	113.5
425.846	95.5
426.068	97.5
426.291	91.5
426.513	93.5
426.735	80.5
426.958	86.5
427.18	104.5
427.402	146.5
427.625	176.5
427.847	144.5
428.069	122.5
428.292	88.5
428.514	82.5
428.736	84.5
428.958	89.5
429.181	94.5
429.403	96.5
429.625	98.5
429.847	100.5
430.069	99.5
430.292	95.5
430.514	90.5
430.736	102.5
430.958	100.5
431.18	98.5
431.402	87.5
431.624	86.5
431.846	91.5
432.068	82.5
432.29	100.5
432.512	85.5
432.734	90.5
432.956	87.5
433.178	99.5
433.4	104.5
433.622	95.5
433.844	93.5
434.066	93.5
434.287	101.5
434.509	108.5
434.731	104.5
434.953	115.5
435.175	100.5
435.397	110.5
435.618	93.5
435.84	101.5
436.062	113.5
436.284	124.5
436.505	114.5
436.727	104.5
436.949	89.5
437.17	114.5
437.392	85.5
437.614	100.5
437.835	102.5
438.057	119.5
438.278	126.5
438.5	108.5
438.721	140.5
438.943	114.5
439.165	108.5
439.386	104.5
439.608	89.5
439.829	111.5
440.05	127.5
440.272	146.5
440.493	101.5
440.715	89.5
440.936	82.5
441.158	100.5
441.379	101.5
441.6	97.5
441.822	93.5
442.043	87.5
442.264	112.5
442.486	118.5
442.707	99.5
442.928	101.5
443.149	139.5
443.371	143.5
443.592	110.5
443.813	113.5
444.034	119.5
444.255	109.5
444.476	91.5
444.698	92.5
444.919	95.5
445.14	124.5
445.361	121.5
445.582	123.5
445.803	139.5
446.024	143.5
446.245	128.5
446.466	113.5
446.687	92.5
446.908	88.5
447.129	89.5
447.35	83.5
447.571	100.5
447.792	108.5
448.013	97.5
448.234	99.5
448.455	95.5
448.675	101.5
448.896	124.5
449.117	113.5
449.338	110.5
449.559	138.5
449.779	144.5
450	99.5
450.221	94.5
450.442	88.5
450.662	97.5
450.883	108.5
451.104	111.5
451.324	95.5
451.545	89.5
451.766	88.5
451.986	94.5
452.207	102.5
452.428	98.5
452.648	97.5
452.869	112.5
453.089	108.5
453.31	120.5
453.53	99.5
453.751	87.5
453.971	117.5
454.192	112.5
454.412	99.5
454.633	90.5
454.853	89.5
455.073	98.5
455.294	88.5
455.514	96.5
455.734	96.5
455.955	87.5
456.175	81.5
456.395	82.5
456.616	92.5
456.836	104.5
457.056	74.5
457.276	82.5
457.497	84.5
457.717	80.5
457.937	88.5
458.157	104.5
458.377	104.5
458.598	111.5
458.818	145.5
459.038	168.5
459.258	105.5
459.478	96.5
459.698	84.5
459.918	87.5
460.138	85.5
460.358	98.5
460.578	89.5
460.798	103.5
461.018	79.5
461.238	78.5
461.458	88.5
461.678	103.5
461.898	101.5
462.118	90.5
462.338	111.5
462.558	94.5
462.777	81.5
462.997	84.5
463.217	88.5
463.437	80.5
463.657	92.5
463.876	79.5
464.096	87.5
464.316	95.5
464.536	83.5
464.755	93.5
464.975	98.5
465.195	149.5
465.414	170.5
465.634	101.5
465.854	74.5
466.073	85.5
466.293	102.5
466.512	98.5
466.732	103.5
466.951	104.5
467.171	89.5
467.391	102.5
467.61	125.5
467.829	116.5
468.049	132.5
468.268	105.5
468.488	95.5
468.707	74.5
468.927	93.5
469.146	101.5
469.365	87.5
469.585	98.5
469.804	82.5
470.023	91.5
470.243	100.5
470.462	102.5
470.681	115.5
470.901	86.5
471.12	91.5
471.339	86.5
471.558	97.5
471.777	101.5
471.997	104.5
472.216	123.5
472.435	192.5
472.654	101.5
472.873	89.5
473.092	90.5
473.311	89.5
473.53	89.5
473.749	95.5
473.968	96.5
474.187	104.5
474.406	93.5
474.625	88.5
474.844	90.5
475.063	77.5
475.282	89.5
475.501	90.5
475.72	89.5
475.939	70.5
476.158	91.5
476.377	83.5
476.596	96.5
476.814	81.5
477.033	88.5
477.252	94.5
477.471	82.5
477.69	77.5
477.908	84.5
478.127	85.5
478.346	98.5
478.564	79.5
478.783	89.5
479.002	101.5
479.22	110.5
479.439	108.5
479.658	110.5
479.876	93.5
480.095	87.5
480.313	92.5
480.532	90.5
480.751	96.5
480.969	138.5
481.188	274.5
481.406	221.5
481.624	95.5
481.843	90.5
482.061	75.5
482.28	87.5
482.498	81.5
482.717	77.5
482.935	94.5
483.153	83.5
483.372	87.5
483.59	80.5
483.808	94.5
484.027	80.5
484.245	103.5
484.463	86.5
484.681	92.5
484.9	70.5
485.118	108.5
485.336	94.5
485.554	95.5
485.772	109.5
485.99	109.5
486.209	102.5
486.427	110.5
486.645	127.5
486.863	110.5
487.081	107.5
487.299	93.5
487.517	96.5
487.735	101.5
487.953	112.5
488.171	103.5
488.389	94.5
488.607	100.5
488.825	90.5
489.043	88.5
489.261	91.5
489.479	98.5
489.696	108.5
489.914	86.5
490.132	90.5
490.35	89.5
490.568	96.5
490.786	94.5
491.003	88.5
491.221	88.5
491.439	91.5
491.657	103.5
491.874	97.5
492.092	88.5
492.31	103.5
492.527	97.5
492.745	79.5
492.963	95.5
493.18	87.5
493.398	97.5
493.615	107.5
493.833	94.5
494.05	106.5
494.268	90.5
494.485	94.5
494.703	96.5
494.92	91.5
495.138	90.5
495.355	94.5
495.573	102.5
495.79	106.5
496.008	96.5
496.225	94.5
496.442	88.5
496.66	86.5
496.877	81.5
497.094	102.5
497.312	90.5
497.529	109.5
497.746	101.5
497.963	84.5
498.181	86.5
498.398	90.5
498.615	94.5
498.832	100.5
499.049	94.5
499.267	80.5
499.484	93.5
499.701	101.5
499.918	92.5
500.135	101.5
500.352	97.5
500.569	89.5
500.786	114.5
501.003	100.5
501.22	94.5
501.437	94.5
501.654	94.5
501.871	101.5
502.088	87.5
502.305	92.5
502.522	81.5
502.739	95.5
502.956	90.5
503.172	109.5
503.389	94.5
503.606	104.5
503.823	94.5
504.04	102.5
504.256	104.5
504.473	93.5
504.69	86.5
504.907	95.5
505.123	95.5
505.34	90.5
505.557	86.5
505.773	80.5
505.99	85.5
506.207	83.5
506.423	102.5
506.64	106.5
506.856	94.5
507.073	84.5
507.289	96.5
507.506	104.5
507.722	118.5
507.939	118.5
508.155	93.5
508.372	105.5
508.588	96.5
508.805	100.5
509.021	94.5
509.238	100.5
509.454	109.5
509.67	112.5
509.887	109.5
510.103	147.5
510.319	222.5
510.536	801.5
510.752	2586.5
510.968	734.5
511.184	160.5
511.401	93.5
511.617	104.5
511.833	98.5
512.049	93.5
512.265	80.5
512.481	99.5
512.698	92.5
512.914	94.5
513.13	78.5
513.346	86.5
513.562	93.5
513.778	89.5
513.994	94.5
514.21	111.5
514.426	113.5
514.642	137.5
514.858	128.5
515.074	171.5
515.29	498.5
515.506	1620.5
515.721	612.5
515.937	158.5
516.153	120.5
516.369	107.5
516.585	103.5
516.801	100.5
517.016	101.5
517.232	96.5
517.448	102.5
517.664	102.5
517.879	98.5
518.095	109.5
518.311	98.5
518.527	103.5
518.742	99.5
518.958	101.5
519.173	104.5
519.389	106.5
519.605	97.5
519.82	100.5
520.036	96.5
520.251	111.5
520.467	90.5
520.682	106.5
520.898	113.5
521.113	130.5
521.329	154.5
521.544	211.5
521.76	588.5
521.975	2691.5
522.19	1603.5
522.406	336.5
522.621	133.5
522.836	105.5
523.052	104.5
523.267	109.5
523.482	88.5
523.698	100.5
523.913	121.5
524.128	106.5
524.343	93.5
524.559	96.5
524.774	89.5
524.989	103.5
525.204	109.5
525.419	103.5
525.634	101.5
525.849	100.5
526.064	99.5
526.28	91.5
526.495	90.5
526.71	85.5
526.925	90.5
527.14	103.5
527.355	96.5
527.57	90.5
527.785	91.5
527.999	96.5
528.214	92.5
528.429	111.5
528.644	90.5
528.859	92.5
529.074	99.5
529.289	126.5
529.503	195.5
529.718	115.5
529.933	108.5
530.148	87.5
530.363	101.5
530.577	96.5
530.792	100.5
531.007	101.5
531.221	96.5
531.436	97.5
531.651	106.5
531.865	98.5
532.08	106.5
532.295	99.5
532.509	94.5
532.724	88.5
532.938	95.5
533.153	89.5
