Data from Circ_2006_H10_HRD10591_00044.txt Node
Date: Wed Jan 03 10:26:12 EST 2024
User: Yrep
Spectrometer: HR+D1059
Trigger mode: 1
Integration Time (sec): 1.000000E-1
Scans to average: 1
Electric dark correction enabled: true
Nonlinearity correction enabled: false
Boxcar width: 0
XAxis mode: Wavelengths
Number of Pixels in Spectrum: 2048
>>>>>Begin Spectral Data<<<<<
223.165	-4.19
223.4	-4.19
223.635	-4.19
223.869	-12.19
224.104	-35.19
224.338	-14.19
224.573	-19.19
224.808	-14.19
225.042	-14.19
225.277	8.81
225.511	-2.19
225.746	9.81
225.98	-4.19
226.215	4.81
226.449	13.81
226.683	30.81
226.918	27.81
227.152	23.81
227.387	29.81
227.621	47.81
227.856	48.81
228.09	45.81
228.324	38.81
228.559	59.81
228.793	49.81
229.027	65.81
229.262	65.81
229.496	78.81
229.73	93.81
229.964	90.81
230.199	82.81
230.433	86.81
230.667	81.81
230.901	77.81
231.136	75.81
231.37	68.81
231.604	84.81
231.838	77.81
232.072	76.81
232.306	74.81
232.541	87.81
232.775	78.81
233.009	75.81
233.243	85.81
233.477	71.81
233.711	88.81
233.945	84.81
234.179	76.81
234.413	80.81
234.647	82.81
234.881	64.81
235.115	66.81
235.349	79.81
235.583	68.81
235.817	64.81
236.051	70.81
236.285	80.81
236.519	74.81
236.753	69.81
236.987	81.81
237.221	93.81
237.455	77.81
237.689	84.81
237.922	79.81
238.156	68.81
238.39	65.81
238.624	75.81
238.858	85.81
239.091	69.81
239.325	74.81
239.559	84.81
239.793	81.81
240.027	81.81
240.26	77.81
240.494	66.81
240.728	75.81
240.961	88.81
241.195	95.81
241.429	75.81
241.662	81.81
241.896	70.81
242.13	67.81
242.363	70.81
242.597	80.81
242.83	73.81
243.064	71.81
243.298	83.81
243.531	75.81
243.765	81.81
243.998	65.81
244.232	63.81
244.465	85.81
244.699	70.81
244.932	77.81
245.166	81.81
245.399	73.81
245.633	68.81
245.866	78.81
246.099	65.81
246.333	54.81
246.566	82.81
246.8	69.81
247.033	82.81
247.266	70.81
247.5	74.81
247.733	82.81
247.966	72.81
248.2	79.81
248.433	81.81
248.666	76.81
248.899	65.81
249.133	77.81
249.366	105.81
249.599	99.81
249.832	84.81
250.066	81.81
250.299	81.81
250.532	79.81
250.765	88.81
250.998	85.81
251.231	90.81
251.465	83.81
251.698	83.81
251.931	84.81
252.164	77.81
252.397	65.81
252.63	75.81
252.863	80.81
253.096	69.81
253.329	84.81
253.562	81.81
253.795	92.81
254.028	77.81
254.261	87.81
254.494	74.81
254.727	84.81
254.96	89.81
255.193	83.81
255.426	83.81
255.659	75.81
255.892	88.81
256.124	78.81
256.357	71.81
256.59	86.81
256.823	84.81
257.056	86.81
257.289	81.81
257.521	71.81
257.754	83.81
257.987	88.81
258.22	85.81
258.452	78.81
258.685	85.81
258.918	81.81
259.151	83.81
259.383	74.81
259.616	95.81
259.849	65.81
260.081	77.81
260.314	88.81
260.547	79.81
260.779	80.81
261.012	84.81
261.244	90.81
261.477	88.81
261.71	102.81
261.942	120.81
262.175	135.81
262.407	95.81
262.64	83.81
262.872	84.81
263.105	80.81
263.337	95.81
263.57	68.81
263.802	91.81
264.035	93.81
264.267	90.81
264.499	88.81
264.732	80.81
264.964	73.81
265.197	81.81
265.429	78.81
265.661	81.81
265.894	90.81
266.126	87.81
266.358	77.81
266.591	80.81
266.823	85.81
267.055	84.81
267.287	90.81
267.52	75.81
267.752	80.81
267.984	85.81
268.216	80.81
268.448	80.81
268.681	86.81
268.913	74.81
269.145	80.81
269.377	95.81
269.609	89.81
269.841	79.81
270.073	89.81
270.306	71.81
270.538	76.81
270.77	87.81
271.002	87.81
271.234	89.81
271.466	80.81
271.698	82.81
271.93	90.81
272.162	79.81
272.394	85.81
272.626	91.81
272.858	93.81
273.09	95.81
273.322	76.81
273.553	79.81
273.785	80.81
274.017	74.81
274.249	85.81
274.481	87.81
274.713	90.81
274.945	85.81
275.176	87.81
275.408	78.81
275.64	84.81
275.872	90.81
276.104	86.81
276.335	109.81
276.567	114.81
276.799	99.81
277.031	108.81
277.262	101.81
277.494	75.81
277.726	70.81
277.957	84.81
278.189	93.81
278.421	92.81
278.652	82.81
278.884	79.81
279.115	92.81
279.347	69.81
279.579	68.81
279.81	82.81
280.042	90.81
280.273	94.81
280.505	84.81
280.736	79.81
280.968	74.81
281.199	88.81
281.431	80.81
281.662	97.81
281.894	95.81
282.125	98.81
282.356	127.81
282.588	148.81
282.819	118.81
283.051	96.81
283.282	76.81
283.513	91.81
283.745	85.81
283.976	80.81
284.207	88.81
284.439	94.81
284.67	78.81
284.901	74.81
285.132	86.81
285.364	100.81
285.595	97.81
285.826	80.81
286.057	110.81
286.288	95.81
286.52	90.81
286.751	79.81
286.982	76.81
287.213	66.81
287.444	86.81
287.675	99.81
287.906	85.81
288.138	97.81
288.369	94.81
288.6	104.81
288.831	78.81
289.062	98.81
289.293	91.81
289.524	74.81
289.755	84.81
289.986	78.81
290.217	90.81
290.448	78.81
290.679	79.81
290.91	96.81
291.141	82.81
291.371	87.81
291.602	98.81
291.833	87.81
292.064	86.81
292.295	87.81
292.526	91.81
292.757	79.81
292.987	78.81
293.218	99.81
293.449	78.81
293.68	71.81
293.91	92.81
294.141	75.81
294.372	83.81
294.603	87.81
294.833	89.81
295.064	100.81
295.295	90.81
295.525	103.81
295.756	113.81
295.987	127.81
296.217	149.81
296.448	137.81
296.679	80.81
296.909	82.81
297.14	86.81
297.37	82.81
297.601	87.81
297.831	85.81
298.062	85.81
298.292	90.81
298.523	75.81
298.753	86.81
298.984	83.81
299.214	74.81
299.445	98.81
299.675	83.81
299.905	103.81
300.136	82.81
300.366	85.81
300.597	91.81
300.827	102.81
301.057	113.81
301.288	119.81
301.518	86.81
301.748	92.81
301.979	99.81
302.209	86.81
302.439	84.81
302.669	101.81
302.9	89.81
303.13	96.81
303.36	100.81
303.59	105.81
303.82	109.81
304.051	91.81
304.281	81.81
304.511	90.81
304.741	97.81
304.971	93.81
305.201	90.81
305.431	96.81
305.661	85.81
305.891	97.81
306.121	107.81
306.352	98.81
306.582	104.81
306.812	102.81
307.042	97.81
307.272	98.81
307.502	99.81
307.731	88.81
307.961	91.81
308.191	89.81
308.421	101.81
308.651	88.81
308.881	102.81
309.111	96.81
309.341	87.81
309.571	99.81
309.8	104.81
310.03	114.81
310.26	102.81
310.49	98.81
310.72	109.81
310.949	103.81
311.179	94.81
311.409	99.81
311.639	105.81
311.868	97.81
312.098	103.81
312.328	103.81
312.557	90.81
312.787	114.81
313.017	109.81
313.246	86.81
313.476	87.81
313.706	94.81
313.935	99.81
314.165	105.81
314.394	100.81
314.624	109.81
314.853	104.81
315.083	97.81
315.312	96.81
315.542	109.81
315.771	99.81
316.001	88.81
316.23	91.81
316.46	85.81
316.689	84.81
316.919	98.81
317.148	92.81
317.377	99.81
317.607	102.81
317.836	101.81
318.065	93.81
318.295	94.81
318.524	94.81
318.753	84.81
318.983	110.81
319.212	105.81
319.441	114.81
319.67	121.81
319.9	95.81
320.129	78.81
320.358	102.81
320.587	87.81
320.816	92.81
321.046	116.81
321.275	108.81
321.504	90.81
321.733	100.81
321.962	90.81
322.191	99.81
322.42	115.81
322.649	126.81
322.878	128.81
323.108	139.81
323.337	146.81
323.566	163.81
323.795	186.81
324.024	274.81
324.253	586.81
324.482	1305.81
324.71	2641.81
324.939	3434.81
325.168	1213.81
325.397	342.81
325.626	189.81
325.855	151.81
326.084	139.81
326.313	154.81
326.542	191.81
326.77	302.81
326.999	677.81
327.228	1458.81
327.457	2632.81
327.686	1993.81
327.914	507.81
328.143	242.81
328.372	171.81
328.6	154.81
328.829	144.81
329.058	169.81
329.287	165.81
329.515	117.81
329.744	126.81
329.972	110.81
330.201	127.81
330.43	140.81
330.658	159.81
330.887	188.81
331.115	145.81
331.344	117.81
331.572	113.81
331.801	105.81
332.03	115.81
332.258	95.81
332.486	97.81
332.715	93.81
332.943	98.81
333.172	98.81
333.4	101.81
333.629	122.81
333.857	132.81
334.085	133.81
334.314	111.81
334.542	121.81
334.771	118.81
334.999	112.81
335.227	93.81
335.455	96.81
335.684	103.81
335.912	104.81
336.14	97.81
336.369	89.81
336.597	110.81
336.825	96.81
337.053	90.81
337.281	89.81
337.51	93.81
337.738	111.81
337.966	103.81
338.194	100.81
338.422	99.81
338.65	99.81
338.878	100.81
339.106	78.81
339.334	105.81
339.562	101.81
339.79	87.81
340.018	90.81
340.246	92.81
340.474	103.81
340.702	106.81
340.93	87.81
341.158	97.81
341.386	97.81
341.614	103.81
341.842	104.81
342.07	94.81
342.298	98.81
342.526	82.81
342.754	70.81
342.981	83.81
343.209	91.81
343.437	89.81
343.665	85.81
343.893	84.81
344.12	93.81
344.348	95.81
344.576	94.81
344.804	94.81
345.031	98.81
345.259	100.81
345.487	96.81
345.714	96.81
345.942	80.81
346.17	98.81
346.397	91.81
346.625	90.81
346.853	94.81
347.08	88.81
347.308	82.81
347.535	107.81
347.763	111.81
347.99	116.81
348.218	105.81
348.445	114.81
348.673	105.81
348.9	98.81
349.128	101.81
349.355	98.81
349.583	87.81
349.81	94.81
350.037	91.81
350.265	91.81
350.492	107.81
350.72	85.81
350.947	100.81
351.174	113.81
351.402	125.81
351.629	100.81
351.856	108.81
352.083	113.81
352.311	108.81
352.538	140.81
352.765	121.81
352.992	106.81
353.22	112.81
353.447	116.81
353.674	110.81
353.901	105.81
354.128	107.81
354.355	96.81
354.583	100.81
354.81	102.81
355.037	99.81
355.264	89.81
355.491	65.81
355.718	91.81
355.945	100.81
356.172	97.81
356.399	75.81
356.626	99.81
356.853	102.81
357.08	93.81
357.307	93.81
357.534	100.81
357.761	85.81
357.988	101.81
358.215	94.81
358.441	90.81
358.668	113.81
358.895	99.81
359.122	88.81
359.349	94.81
359.576	99.81
359.802	100.81
360.029	104.81
360.256	135.81
360.483	116.81
360.709	99.81
360.936	92.81
361.163	109.81
361.39	99.81
361.616	113.81
361.843	103.81
362.07	106.81
362.296	111.81
362.523	107.81
362.749	108.81
362.976	100.81
363.203	87.81
363.429	85.81
363.656	79.81
363.882	84.81
364.109	81.81
364.335	82.81
364.562	86.81
364.788	92.81
365.015	96.81
365.241	106.81
365.468	116.81
365.694	119.81
365.92	89.81
366.147	97.81
366.373	103.81
366.599	87.81
366.826	91.81
367.052	95.81
367.278	95.81
367.505	97.81
367.731	98.81
367.957	105.81
368.184	84.81
368.41	108.81
368.636	117.81
368.862	132.81
369.089	115.81
369.315	104.81
369.541	96.81
369.767	92.81
369.993	96.81
370.219	93.81
370.445	90.81
370.672	86.81
370.898	95.81
371.124	90.81
371.35	90.81
371.576	92.81
371.802	70.81
372.028	78.81
372.254	81.81
372.48	77.81
372.706	87.81
372.932	81.81
373.158	96.81
373.384	84.81
373.61	80.81
373.835	89.81
374.061	89.81
374.287	90.81
374.513	97.81
374.739	91.81
374.965	99.81
375.191	80.81
375.416	93.81
375.642	79.81
375.868	111.81
376.094	107.81
376.319	94.81
376.545	82.81
376.771	104.81
376.997	94.81
377.222	92.81
377.448	86.81
377.674	87.81
377.899	80.81
378.125	95.81
378.35	99.81
378.576	94.81
378.802	86.81
379.027	86.81
379.253	87.81
379.478	103.81
379.704	82.81
379.929	107.81
380.155	101.81
380.38	94.81
380.606	106.81
380.831	79.81
381.057	95.81
381.282	102.81
381.507	82.81
381.733	102.81
381.958	95.81
382.184	103.81
382.409	113.81
382.634	97.81
382.86	90.81
383.085	101.81
383.31	87.81
383.535	105.81
383.761	100.81
383.986	98.81
384.211	108.81
384.436	110.81
384.662	97.81
384.887	108.81
385.112	108.81
385.337	103.81
385.562	109.81
385.787	99.81
386.013	119.81
386.238	118.81
386.463	86.81
386.688	103.81
386.913	113.81
387.138	112.81
387.363	93.81
387.588	91.81
387.813	90.81
388.038	109.81
388.263	122.81
388.488	113.81
388.713	86.81
388.938	90.81
389.163	94.81
389.387	84.81
389.612	91.81
389.837	95.81
390.062	101.81
390.287	91.81
390.512	91.81
390.736	86.81
390.961	100.81
391.186	94.81
391.411	109.81
391.636	78.81
391.86	82.81
392.085	88.81
392.31	82.81
392.534	85.81
392.759	93.81
392.984	93.81
393.208	104.81
393.433	99.81
393.658	88.81
393.882	92.81
394.107	90.81
394.331	86.81
394.556	104.81
394.78	93.81
395.005	87.81
395.229	84.81
395.454	80.81
395.678	85.81
395.903	95.81
396.127	116.81
396.352	82.81
396.576	88.81
396.801	92.81
397.025	86.81
397.249	91.81
397.474	72.81
397.698	97.81
397.922	85.81
398.147	86.81
398.371	97.81
398.595	90.81
398.82	81.81
399.044	89.81
399.268	82.81
399.492	102.81
399.717	87.81
399.941	97.81
400.165	89.81
400.389	96.81
400.613	92.81
400.837	93.81
401.062	76.81
401.286	91.81
401.51	113.81
401.734	85.81
401.958	100.81
402.182	153.81
402.406	204.81
402.63	119.81
402.854	101.81
403.078	88.81
403.302	85.81
403.526	95.81
403.75	87.81
403.974	81.81
404.198	79.81
404.422	90.81
404.645	83.81
404.869	98.81
405.093	102.81
405.317	103.81
405.541	106.81
405.765	98.81
405.988	143.81
406.212	210.81
406.436	289.81
406.66	177.81
406.883	109.81
407.107	105.81
407.331	112.81
407.555	112.81
407.778	98.81
408.002	100.81
408.226	82.81
408.449	83.81
408.673	89.81
408.896	99.81
409.12	101.81
409.344	86.81
409.567	93.81
409.791	91.81
410.014	86.81
410.238	88.81
410.461	91.81
410.685	95.81
410.908	96.81
411.132	115.81
411.355	101.81
411.578	93.81
411.802	94.81
412.025	91.81
412.249	83.81
412.472	92.81
412.695	95.81
412.919	93.81
413.142	67.81
413.365	97.81
413.589	84.81
413.812	94.81
414.035	89.81
414.258	76.81
414.482	84.81
414.705	113.81
414.928	99.81
415.151	83.81
415.374	86.81
415.597	74.81
415.821	66.81
416.044	83.81
416.267	91.81
416.49	95.81
416.713	77.81
416.936	91.81
417.159	89.81
417.382	95.81
417.605	79.81
417.828	93.81
418.051	88.81
418.274	80.81
418.497	78.81
418.72	86.81
418.943	97.81
419.166	92.81
419.389	95.81
419.611	100.81
419.834	82.81
420.057	84.81
420.28	98.81
420.503	93.81
420.726	88.81
420.948	97.81
421.171	105.81
421.394	97.81
421.617	93.81
421.839	95.81
422.062	89.81
422.285	93.81
422.507	107.81
422.73	113.81
422.953	91.81
423.175	79.81
423.398	87.81
423.621	94.81
423.843	87.81
424.066	81.81
424.288	93.81
424.511	92.81
424.733	110.81
424.956	112.81
425.178	108.81
425.401	109.81
425.623	103.81
425.846	98.81
426.068	85.81
426.291	92.81
426.513	90.81
426.735	81.81
426.958	104.81
427.18	128.81
427.402	157.81
427.625	204.81
427.847	148.81
428.069	107.81
428.292	89.81
428.514	89.81
428.736	97.81
428.958	89.81
429.181	84.81
429.403	94.81
429.625	93.81
429.847	115.81
430.069	105.81
430.292	99.81
430.514	90.81
430.736	95.81
430.958	100.81
431.18	87.81
431.402	94.81
431.624	93.81
431.846	84.81
432.068	84.81
432.29	87.81
432.512	85.81
432.734	103.81
432.956	100.81
433.178	108.81
433.4	106.81
433.622	94.81
433.844	102.81
434.066	84.81
434.287	102.81
434.509	86.81
434.731	84.81
434.953	106.81
435.175	94.81
435.397	82.81
435.618	104.81
435.84	95.81
436.062	156.81
436.284	146.81
436.505	107.81
436.727	110.81
436.949	99.81
437.17	82.81
437.392	87.81
437.614	98.81
437.835	113.81
438.057	144.81
438.278	113.81
438.5	121.81
438.721	139.81
438.943	99.81
439.165	94.81
439.386	81.81
439.608	91.81
439.829	102.81
440.05	138.81
440.272	185.81
440.493	104.81
440.715	86.81
440.936	83.81
441.158	103.81
441.379	87.81
441.6	114.81
441.822	90.81
442.043	99.81
442.264	110.81
442.486	123.81
442.707	106.81
442.928	121.81
443.149	163.81
443.371	144.81
443.592	117.81
443.813	132.81
444.034	121.81
444.255	95.81
444.476	108.81
444.698	100.81
444.919	90.81
445.14	142.81
445.361	123.81
445.582	119.81
445.803	177.81
446.024	159.81
446.245	160.81
446.466	127.81
446.687	89.81
446.908	93.81
447.129	92.81
447.35	100.81
447.571	89.81
447.792	94.81
448.013	114.81
448.234	107.81
448.455	97.81
448.675	119.81
448.896	131.81
449.117	104.81
449.338	125.81
449.559	131.81
449.779	138.81
450	107.81
450.221	103.81
450.442	112.81
450.662	100.81
450.883	120.81
451.104	137.81
451.324	94.81
451.545	91.81
451.766	89.81
451.986	84.81
452.207	99.81
452.428	93.81
452.648	100.81
452.869	115.81
453.089	126.81
453.31	133.81
453.53	104.81
453.751	94.81
453.971	117.81
454.192	116.81
454.412	93.81
454.633	96.81
454.853	93.81
455.073	85.81
455.294	86.81
455.514	93.81
455.734	98.81
455.955	97.81
456.175	80.81
456.395	68.81
456.616	87.81
456.836	94.81
457.056	67.81
457.276	83.81
457.497	93.81
457.717	90.81
457.937	87.81
458.157	93.81
458.377	90.81
458.598	112.81
458.818	200.81
459.038	210.81
459.258	128.81
459.478	95.81
459.698	93.81
459.918	69.81
460.138	83.81
460.358	93.81
460.578	89.81
460.798	98.81
461.018	98.81
461.238	77.81
461.458	100.81
461.678	81.81
461.898	89.81
462.118	81.81
462.338	85.81
462.558	86.81
462.777	78.81
462.997	103.81
463.217	91.81
463.437	86.81
463.657	88.81
463.876	77.81
464.096	81.81
464.316	86.81
464.536	107.81
464.755	117.81
464.975	125.81
465.195	212.81
465.414	209.81
465.634	106.81
465.854	88.81
466.073	91.81
466.293	93.81
466.512	80.81
466.732	83.81
466.951	92.81
467.171	96.81
467.391	105.81
467.61	118.81
467.829	92.81
468.049	102.81
468.268	96.81
468.488	93.81
468.707	98.81
468.927	91.81
469.146	83.81
469.365	89.81
469.585	92.81
469.804	104.81
470.023	100.81
470.243	108.81
470.462	103.81
470.681	118.81
470.901	103.81
471.12	87.81
471.339	79.81
471.558	98.81
471.777	100.81
471.997	96.81
472.216	116.81
472.435	134.81
472.654	88.81
472.873	86.81
473.092	91.81
473.311	84.81
473.53	82.81
473.749	86.81
473.968	93.81
474.187	120.81
474.406	109.81
474.625	97.81
474.844	74.81
475.063	100.81
475.282	83.81
475.501	89.81
475.72	90.81
475.939	85.81
476.158	79.81
476.377	92.81
476.596	90.81
476.814	99.81
477.033	92.81
477.252	94.81
477.471	86.81
477.69	87.81
477.908	95.81
478.127	81.81
478.346	78.81
478.564	88.81
478.783	100.81
479.002	101.81
479.22	91.81
479.439	105.81
479.658	108.81
479.876	85.81
480.095	86.81
480.313	98.81
480.532	101.81
480.751	94.81
480.969	111.81
481.188	185.81
481.406	146.81
481.624	97.81
481.843	92.81
482.061	87.81
482.28	89.81
482.498	92.81
482.717	94.81
482.935	95.81
483.153	91.81
483.372	91.81
483.59	110.81
483.808	79.81
484.027	98.81
484.245	92.81
484.463	103.81
484.681	98.81
484.9	90.81
485.118	104.81
485.336	105.81
485.554	100.81
485.772	104.81
485.99	93.81
486.209	123.81
486.427	104.81
486.645	126.81
486.863	126.81
487.081	113.81
487.299	95.81
487.517	102.81
487.735	96.81
487.953	95.81
488.171	103.81
488.389	103.81
488.607	100.81
488.825	98.81
489.043	102.81
489.261	87.81
489.479	95.81
489.696	93.81
489.914	94.81
490.132	108.81
490.35	88.81
490.568	85.81
490.786	91.81
491.003	93.81
491.221	94.81
491.439	100.81
491.657	96.81
491.874	87.81
492.092	93.81
492.31	94.81
492.527	86.81
492.745	88.81
492.963	91.81
493.18	90.81
493.398	81.81
493.615	100.81
493.833	106.81
494.05	79.81
494.268	85.81
494.485	100.81
494.703	92.81
494.92	81.81
495.138	81.81
495.355	77.81
495.573	92.81
495.79	97.81
496.008	92.81
496.225	86.81
496.442	82.81
496.66	108.81
496.877	88.81
497.094	94.81
497.312	86.81
497.529	84.81
497.746	84.81
497.963	101.81
498.181	107.81
498.398	93.81
498.615	93.81
498.832	109.81
499.049	101.81
499.267	86.81
499.484	95.81
499.701	90.81
499.918	93.81
500.135	81.81
500.352	90.81
500.569	98.81
500.786	99.81
501.003	89.81
501.22	88.81
501.437	96.81
501.654	86.81
501.871	121.81
502.088	90.81
502.305	94.81
502.522	84.81
502.739	94.81
502.956	103.81
503.172	94.81
503.389	86.81
503.606	123.81
503.823	121.81
504.04	96.81
504.256	78.81
504.473	105.81
504.69	95.81
504.907	99.81
505.123	92.81
505.34	93.81
505.557	90.81
505.773	88.81
505.99	89.81
506.207	83.81
506.423	97.81
506.64	101.81
506.856	95.81
507.073	92.81
507.289	93.81
507.506	91.81
507.722	112.81
507.939	121.81
508.155	105.81
508.372	102.81
508.588	109.81
508.805	104.81
509.021	90.81
509.238	109.81
509.454	101.81
509.67	100.81
509.887	116.81
510.103	159.81
510.319	251.81
510.536	997.81
510.752	3323.81
510.968	895.81
511.184	186.81
511.401	129.81
511.617	109.81
511.833	103.81
512.049	97.81
512.265	97.81
512.481	100.81
512.698	101.81
512.914	95.81
513.13	100.81
513.346	93.81
513.562	100.81
513.778	95.81
513.994	116.81
514.21	117.81
