Data from Circ_2006_H10_HRD10591_00009.txt Node
Date: Wed Jan 03 10:26:05 EST 2024
User: Yrep
Spectrometer: HR+D1059
Trigger mode: 1
Integration Time (sec): 1.000000E-1
Scans to average: 1
Electric dark correction enabled: true
Nonlinearity correction enabled: false
Boxcar width: 0
XAxis mode: Wavelengths
Number of Pixels in Spectrum: 2048
>>>>>Begin Spectral Data<<<<<
223.165	-3.62
223.4	-3.62
223.635	-3.62
223.869	-14.62
224.104	-40.62
224.338	-20.62
224.573	-11.62
224.808	-12.62
225.042	-6.62
225.277	-10.62
225.511	17.38
225.746	11.38
225.98	4.38
226.215	14.38
226.449	12.38
226.683	27.38
226.918	6.38
227.152	27.38
227.387	36.38
227.621	10.38
227.856	41.38
228.09	52.38
228.324	47.38
228.559	58.38
228.793	33.38
229.027	61.38
229.262	60.38
229.496	71.38
229.73	97.38
229.964	80.38
230.199	67.38
230.433	70.38
230.667	76.38
230.901	81.38
231.136	67.38
231.37	75.38
231.604	81.38
231.838	70.38
232.072	80.38
232.306	71.38
232.541	87.38
232.775	85.38
233.009	70.38
233.243	92.38
233.477	75.38
233.711	76.38
233.945	80.38
234.179	78.38
234.413	83.38
234.647	80.38
234.881	76.38
235.115	74.38
235.349	78.38
235.583	94.38
235.817	86.38
236.051	88.38
236.285	69.38
236.519	68.38
236.753	81.38
236.987	86.38
237.221	86.38
237.455	76.38
237.689	81.38
237.922	64.38
238.156	94.38
238.39	81.38
238.624	67.38
238.858	76.38
239.091	83.38
239.325	74.38
239.559	98.38
239.793	84.38
240.027	78.38
240.26	69.38
240.494	73.38
240.728	72.38
240.961	75.38
241.195	71.38
241.429	69.38
241.662	70.38
241.896	69.38
242.13	82.38
242.363	83.38
242.597	66.38
242.83	68.38
243.064	74.38
243.298	78.38
243.531	55.38
243.765	70.38
243.998	73.38
244.232	93.38
244.465	90.38
244.699	81.38
244.932	92.38
245.166	86.38
245.399	76.38
245.633	75.38
245.866	85.38
246.099	94.38
246.333	80.38
246.566	63.38
246.8	83.38
247.033	91.38
247.266	87.38
247.5	74.38
247.733	81.38
247.966	79.38
248.2	86.38
248.433	78.38
248.666	87.38
248.899	80.38
249.133	84.38
249.366	100.38
249.599	88.38
249.832	82.38
250.066	96.38
250.299	78.38
250.532	69.38
250.765	77.38
250.998	69.38
251.231	82.38
251.465	87.38
251.698	77.38
251.931	75.38
252.164	83.38
252.397	73.38
252.63	80.38
252.863	73.38
253.096	79.38
253.329	81.38
253.562	72.38
253.795	79.38
254.028	80.38
254.261	83.38
254.494	81.38
254.727	91.38
254.96	71.38
255.193	79.38
255.426	92.38
255.659	84.38
255.892	83.38
256.124	74.38
256.357	76.38
256.59	65.38
256.823	62.38
257.056	86.38
257.289	77.38
257.521	73.38
257.754	78.38
257.987	71.38
258.22	87.38
258.452	75.38
258.685	84.38
258.918	79.38
259.151	85.38
259.383	87.38
259.616	70.38
259.849	89.38
260.081	93.38
260.314	75.38
260.547	93.38
260.779	76.38
261.012	68.38
261.244	84.38
261.477	101.38
261.71	105.38
261.942	105.38
262.175	110.38
262.407	70.38
262.64	78.38
262.872	77.38
263.105	94.38
263.337	85.38
263.57	84.38
263.802	78.38
264.035	69.38
264.267	70.38
264.499	72.38
264.732	75.38
264.964	86.38
265.197	98.38
265.429	89.38
265.661	79.38
265.894	77.38
266.126	76.38
266.358	82.38
266.591	91.38
266.823	73.38
267.055	97.38
267.287	80.38
267.52	70.38
267.752	80.38
267.984	82.38
268.216	98.38
268.448	88.38
268.681	80.38
268.913	77.38
269.145	92.38
269.377	78.38
269.609	89.38
269.841	83.38
270.073	87.38
270.306	74.38
270.538	83.38
270.77	81.38
271.002	74.38
271.234	91.38
271.466	86.38
271.698	91.38
271.93	80.38
272.162	73.38
272.394	72.38
272.626	87.38
272.858	101.38
273.09	91.38
273.322	82.38
273.553	75.38
273.785	82.38
274.017	91.38
274.249	104.38
274.481	84.38
274.713	91.38
274.945	97.38
275.176	91.38
275.408	89.38
275.64	95.38
275.872	87.38
276.104	94.38
276.335	97.38
276.567	110.38
276.799	115.38
277.031	93.38
277.262	90.38
277.494	75.38
277.726	92.38
277.957	93.38
278.189	86.38
278.421	103.38
278.652	98.38
278.884	85.38
279.115	94.38
279.347	76.38
279.579	86.38
279.81	76.38
280.042	72.38
280.273	77.38
280.505	77.38
280.736	92.38
280.968	81.38
281.199	85.38
281.431	79.38
281.662	80.38
281.894	93.38
282.125	95.38
282.356	113.38
282.588	153.38
282.819	117.38
283.051	96.38
283.282	87.38
283.513	94.38
283.745	76.38
283.976	100.38
284.207	81.38
284.439	97.38
284.67	87.38
284.901	81.38
285.132	86.38
285.364	85.38
285.595	85.38
285.826	83.38
286.057	86.38
286.288	82.38
286.52	84.38
286.751	78.38
286.982	79.38
287.213	67.38
287.444	108.38
287.675	80.38
287.906	81.38
288.138	75.38
288.369	83.38
288.6	104.38
288.831	82.38
289.062	78.38
289.293	93.38
289.524	74.38
289.755	95.38
289.986	73.38
290.217	91.38
290.448	97.38
290.679	75.38
290.91	89.38
291.141	87.38
291.371	97.38
291.602	81.38
291.833	95.38
292.064	80.38
292.295	75.38
292.526	88.38
292.757	92.38
292.987	80.38
293.218	89.38
293.449	83.38
293.68	96.38
293.91	88.38
294.141	78.38
294.372	88.38
294.603	85.38
294.833	89.38
295.064	83.38
295.295	99.38
295.525	85.38
295.756	107.38
295.987	121.38
296.217	135.38
296.448	126.38
296.679	100.38
296.909	87.38
297.14	79.38
297.37	92.38
297.601	94.38
297.831	72.38
298.062	95.38
298.292	109.38
298.523	84.38
298.753	97.38
298.984	94.38
299.214	92.38
299.445	92.38
299.675	107.38
299.905	102.38
300.136	93.38
300.366	87.38
300.597	88.38
300.827	103.38
301.057	108.38
301.288	100.38
301.518	100.38
301.748	81.38
301.979	92.38
302.209	109.38
302.439	98.38
302.669	99.38
302.9	83.38
303.13	98.38
303.36	97.38
303.59	110.38
303.82	102.38
304.051	101.38
304.281	94.38
304.511	77.38
304.741	82.38
304.971	93.38
305.201	100.38
305.431	85.38
305.661	108.38
305.891	85.38
306.121	98.38
306.352	102.38
306.582	111.38
306.812	102.38
307.042	87.38
307.272	97.38
307.502	79.38
307.731	105.38
307.961	98.38
308.191	75.38
308.421	92.38
308.651	82.38
308.881	87.38
309.111	90.38
309.341	106.38
309.571	96.38
309.8	98.38
310.03	94.38
310.26	91.38
310.49	92.38
310.72	106.38
310.949	106.38
311.179	96.38
311.409	87.38
311.639	93.38
311.868	93.38
312.098	106.38
312.328	102.38
312.557	94.38
312.787	104.38
313.017	107.38
313.246	99.38
313.476	97.38
313.706	81.38
313.935	101.38
314.165	96.38
314.394	103.38
314.624	85.38
314.853	96.38
315.083	87.38
315.312	86.38
315.542	86.38
315.771	101.38
316.001	95.38
316.23	112.38
316.46	100.38
316.689	101.38
316.919	87.38
317.148	92.38
317.377	93.38
317.607	97.38
317.836	95.38
318.065	99.38
318.295	83.38
318.524	78.38
318.753	84.38
318.983	102.38
319.212	106.38
319.441	118.38
319.67	99.38
319.9	103.38
320.129	98.38
320.358	102.38
320.587	111.38
320.816	85.38
321.046	97.38
321.275	103.38
321.504	107.38
321.733	89.38
321.962	106.38
322.191	107.38
322.42	130.38
322.649	117.38
322.878	123.38
323.108	126.38
323.337	129.38
323.566	137.38
323.795	166.38
324.024	232.38
324.253	463.38
324.482	1013.38
324.71	2134.38
324.939	2795.38
325.168	995.38
325.397	280.38
325.626	162.38
325.855	126.38
326.084	119.38
326.313	139.38
326.542	163.38
326.77	255.38
326.999	565.38
327.228	1146.38
327.457	2177.38
327.686	1658.38
327.914	444.38
328.143	205.38
328.372	157.38
328.6	140.38
328.829	137.38
329.058	144.38
329.287	143.38
329.515	110.38
329.744	107.38
329.972	112.38
330.201	88.38
330.43	113.38
330.658	132.38
330.887	165.38
331.115	117.38
331.344	101.38
331.572	104.38
331.801	101.38
332.03	103.38
332.258	101.38
332.486	94.38
332.715	96.38
332.943	98.38
333.172	107.38
333.4	100.38
333.629	101.38
333.857	117.38
334.085	106.38
334.314	98.38
334.542	111.38
334.771	113.38
334.999	102.38
335.227	104.38
335.455	89.38
335.684	89.38
335.912	113.38
336.14	88.38
336.369	89.38
336.597	99.38
336.825	94.38
337.053	86.38
337.281	98.38
337.51	99.38
337.738	99.38
337.966	93.38
338.194	103.38
338.422	96.38
338.65	95.38
338.878	98.38
339.106	97.38
339.334	94.38
339.562	100.38
339.79	85.38
340.018	82.38
340.246	89.38
340.474	93.38
340.702	92.38
340.93	97.38
341.158	87.38
341.386	90.38
341.614	93.38
341.842	103.38
342.07	81.38
342.298	94.38
342.526	100.38
342.754	69.38
342.981	100.38
343.209	85.38
343.437	94.38
343.665	106.38
343.893	95.38
344.12	91.38
344.348	91.38
344.576	95.38
344.804	99.38
345.031	96.38
345.259	96.38
345.487	94.38
345.714	104.38
345.942	97.38
346.17	86.38
346.397	85.38
346.625	90.38
346.853	105.38
347.08	87.38
347.308	95.38
347.535	103.38
347.763	101.38
347.99	110.38
348.218	103.38
348.445	115.38
348.673	95.38
348.9	97.38
349.128	91.38
349.355	101.38
349.583	93.38
349.81	112.38
350.037	94.38
350.265	96.38
350.492	106.38
350.72	101.38
350.947	101.38
351.174	115.38
351.402	121.38
351.629	95.38
351.856	97.38
352.083	104.38
352.311	110.38
352.538	116.38
352.765	109.38
352.992	124.38
353.22	111.38
353.447	118.38
353.674	98.38
353.901	94.38
354.128	91.38
354.355	107.38
354.583	95.38
354.81	100.38
355.037	95.38
355.264	98.38
355.491	97.38
355.718	91.38
355.945	91.38
356.172	97.38
356.399	108.38
356.626	89.38
356.853	100.38
357.08	92.38
357.307	90.38
357.534	86.38
357.761	92.38
357.988	93.38
358.215	85.38
358.441	105.38
358.668	94.38
358.895	88.38
359.122	101.38
359.349	81.38
359.576	103.38
359.802	106.38
360.029	132.38
360.256	110.38
360.483	102.38
360.709	87.38
360.936	101.38
361.163	107.38
361.39	104.38
361.616	85.38
361.843	96.38
362.07	89.38
362.296	104.38
362.523	108.38
362.749	100.38
362.976	105.38
363.203	91.38
363.429	95.38
363.656	96.38
363.882	93.38
364.109	92.38
364.335	91.38
364.562	85.38
364.788	90.38
365.015	101.38
365.241	107.38
365.468	97.38
365.694	110.38
365.92	118.38
366.147	90.38
366.373	88.38
366.599	91.38
366.826	91.38
367.052	86.38
367.278	86.38
367.505	100.38
367.731	78.38
367.957	85.38
368.184	87.38
368.41	115.38
368.636	116.38
368.862	136.38
369.089	110.38
369.315	99.38
369.541	99.38
369.767	99.38
369.993	92.38
370.219	78.38
370.445	96.38
370.672	92.38
370.898	93.38
371.124	94.38
371.35	75.38
371.576	78.38
371.802	110.38
372.028	73.38
372.254	91.38
372.48	84.38
372.706	92.38
372.932	90.38
373.158	94.38
373.384	107.38
373.61	100.38
373.835	98.38
374.061	99.38
374.287	103.38
374.513	102.38
374.739	81.38
374.965	93.38
375.191	90.38
375.416	89.38
375.642	86.38
375.868	93.38
376.094	84.38
376.319	100.38
376.545	97.38
376.771	94.38
376.997	100.38
377.222	101.38
377.448	107.38
377.674	85.38
377.899	89.38
378.125	102.38
378.35	109.38
378.576	89.38
378.802	84.38
379.027	71.38
379.253	88.38
379.478	87.38
379.704	89.38
379.929	96.38
380.155	93.38
380.38	93.38
380.606	100.38
380.831	78.38
381.057	98.38
381.282	97.38
381.507	97.38
381.733	88.38
381.958	98.38
382.184	101.38
382.409	88.38
382.634	108.38
382.86	101.38
383.085	95.38
383.31	107.38
383.535	97.38
383.761	105.38
383.986	103.38
384.211	112.38
384.436	99.38
384.662	107.38
384.887	108.38
385.112	99.38
385.337	107.38
385.562	110.38
385.787	117.38
386.013	141.38
386.238	118.38
386.463	119.38
386.688	113.38
386.913	121.38
387.138	121.38
387.363	107.38
387.588	110.38
387.813	107.38
388.038	100.38
388.263	122.38
388.488	137.38
388.713	105.38
388.938	92.38
389.163	95.38
389.387	99.38
389.612	90.38
389.837	91.38
390.062	99.38
390.287	103.38
390.512	110.38
390.736	96.38
390.961	76.38
391.186	84.38
391.411	81.38
391.636	88.38
391.86	85.38
392.085	87.38
392.31	94.38
392.534	86.38
392.759	92.38
392.984	91.38
393.208	83.38
393.433	110.38
393.658	100.38
393.882	89.38
394.107	87.38
394.331	71.38
394.556	89.38
394.78	97.38
395.005	83.38
395.229	90.38
395.454	91.38
395.678	88.38
395.903	87.38
396.127	98.38
396.352	92.38
396.576	81.38
396.801	80.38
397.025	100.38
397.249	85.38
397.474	97.38
397.698	75.38
397.922	89.38
398.147	70.38
398.371	79.38
398.595	73.38
398.82	76.38
399.044	84.38
399.268	97.38
399.492	86.38
399.717	89.38
399.941	101.38
400.165	109.38
400.389	100.38
400.613	82.38
400.837	78.38
401.062	95.38
401.286	82.38
401.51	97.38
401.734	89.38
401.958	95.38
402.182	127.38
402.406	177.38
402.63	129.38
402.854	96.38
403.078	94.38
403.302	101.38
403.526	92.38
403.75	92.38
403.974	76.38
404.198	87.38
404.422	101.38
404.645	103.38
404.869	115.38
405.093	86.38
405.317	104.38
405.541	84.38
405.765	103.38
405.988	130.38
406.212	182.38
406.436	255.38
406.66	162.38
406.883	95.38
407.107	103.38
407.331	93.38
407.555	96.38
407.778	116.38
408.002	97.38
408.226	91.38
408.449	91.38
408.673	86.38
408.896	86.38
409.12	87.38
409.344	87.38
409.567	84.38
409.791	95.38
410.014	101.38
410.238	98.38
410.461	83.38
410.685	90.38
410.908	105.38
411.132	114.38
411.355	105.38
411.578	100.38
411.802	84.38
412.025	90.38
412.249	92.38
412.472	93.38
412.695	82.38
412.919	106.38
413.142	93.38
413.365	87.38
413.589	102.38
413.812	109.38
414.035	87.38
414.258	91.38
414.482	91.38
414.705	85.38
414.928	89.38
415.151	91.38
415.374	86.38
415.597	106.38
415.821	82.38
416.044	82.38
416.267	90.38
416.49	100.38
416.713	81.38
416.936	83.38
417.159	77.38
417.382	73.38
417.605	85.38
417.828	99.38
418.051	90.38
418.274	88.38
418.497	81.38
418.72	83.38
418.943	98.38
419.166	83.38
419.389	92.38
419.611	85.38
419.834	83.38
420.057	85.38
420.28	93.38
420.503	82.38
420.726	87.38
420.948	91.38
421.171	91.38
421.394	90.38
421.617	88.38
421.839	94.38
422.062	101.38
422.285	85.38
422.507	105.38
422.73	123.38
422.953	96.38
423.175	81.38
423.398	89.38
423.621	85.38
423.843	86.38
424.066	85.38
424.288	79.38
424.511	82.38
424.733	97.38
424.956	108.38
425.178	109.38
425.401	89.38
425.623	94.38
425.846	88.38
426.068	95.38
426.291	94.38
426.513	79.38
426.735	80.38
426.958	86.38
427.18	99.38
427.402	161.38
427.625	191.38
427.847	146.38
428.069	102.38
428.292	79.38
428.514	83.38
428.736	82.38
428.958	85.38
429.181	82.38
429.403	84.38
429.625	93.38
429.847	100.38
430.069	102.38
430.292	97.38
430.514	95.38
430.736	82.38
430.958	78.38
431.18	86.38
431.402	79.38
431.624	82.38
431.846	79.38
432.068	87.38
432.29	93.38
432.512	80.38
432.734	99.38
432.956	113.38
433.178	104.38
433.4	86.38
433.622	84.38
433.844	84.38
434.066	103.38
434.287	94.38
434.509	95.38
434.731	84.38
434.953	91.38
435.175	93.38
435.397	85.38
435.618	92.38
435.84	109.38
436.062	127.38
436.284	122.38
436.505	101.38
436.727	105.38
436.949	87.38
437.17	88.38
437.392	83.38
437.614	78.38
437.835	98.38
438.057	118.38
438.278	107.38
438.5	102.38
438.721	136.38
438.943	106.38
439.165	84.38
439.386	88.38
439.608	97.38
439.829	117.38
440.05	134.38
440.272	157.38
440.493	125.38
440.715	94.38
440.936	102.38
441.158	76.38
441.379	97.38
441.6	88.38
441.822	91.38
442.043	99.38
442.264	113.38
442.486	109.38
442.707	86.38
442.928	94.38
443.149	114.38
443.371	143.38
443.592	121.38
443.813	117.38
444.034	111.38
444.255	87.38
444.476	85.38
444.698	87.38
444.919	94.38
445.14	122.38
445.361	147.38
445.582	112.38
445.803	142.38
446.024	135.38
446.245	147.38
446.466	136.38
446.687	98.38
446.908	90.38
447.129	70.38
447.35	86.38
447.571	104.38
447.792	91.38
448.013	112.38
448.234	125.38
448.455	109.38
448.675	121.38
448.896	109.38
449.117	106.38
449.338	99.38
449.559	155.38
449.779	145.38
450	99.38
450.221	89.38
450.442	84.38
450.662	86.38
450.883	102.38
451.104	119.38
451.324	105.38
451.545	92.38
451.766	89.38
451.986	91.38
452.207	97.38
452.428	86.38
452.648	92.38
452.869	113.38
453.089	117.38
453.31	122.38
453.53	103.38
453.751	90.38
453.971	106.38
454.192	111.38
454.412	108.38
454.633	78.38
454.853	87.38
455.073	79.38
455.294	94.38
455.514	104.38
455.734	90.38
455.955	97.38
456.175	91.38
456.395	84.38
456.616	77.38
456.836	74.38
457.056	74.38
457.276	90.38
457.497	81.38
457.717	88.38
457.937	83.38
458.157	93.38
458.377	98.38
458.598	111.38
458.818	159.38
459.038	171.38
459.258	121.38
459.478	95.38
459.698	90.38
459.918	79.38
460.138	90.38
460.358	86.38
460.578	89.38
460.798	89.38
461.018	95.38
461.238	86.38
461.458	84.38
461.678	80.38
461.898	77.38
462.118	94.38
462.338	90.38
462.558	82.38
462.777	80.38
462.997	87.38
463.217	87.38
463.437	92.38
463.657	82.38
463.876	79.38
464.096	98.38
464.316	89.38
464.536	86.38
464.755	93.38
464.975	108.38
465.195	186.38
465.414	174.38
465.634	112.38
465.854	97.38
466.073	71.38
466.293	81.38
466.512	84.38
466.732	84.38
466.951	101.38
467.171	87.38
467.391	94.38
467.61	96.38
467.829	101.38
468.049	105.38
468.268	89.38
468.488	80.38
468.707	97.38
468.927	95.38
469.146	82.38
469.365	83.38
469.585	76.38
469.804	102.38
470.023	91.38
470.243	82.38
470.462	104.38
470.681	116.38
470.901	102.38
471.12	82.38
471.339	93.38
471.558	73.38
471.777	69.38
471.997	81.38
472.216	101.38
472.435	100.38
472.654	93.38
472.873	77.38
473.092	67.38
473.311	89.38
473.53	89.38
473.749	94.38
473.968	98.38
474.187	111.38
474.406	102.38
474.625	87.38
474.844	80.38
475.063	82.38
475.282	78.38
475.501	74.38
475.72	87.38
475.939	100.38
476.158	85.38
476.377	105.38
476.596	91.38
476.814	103.38
477.033	94.38
477.252	82.38
477.471	89.38
477.69	98.38
477.908	86.38
478.127	95.38
478.346	81.38
478.564	95.38
478.783	96.38
479.002	97.38
479.22	88.38
479.439	87.38
479.658	96.38
479.876	92.38
480.095	92.38
480.313	92.38
480.532	90.38
480.751	92.38
480.969	95.38
481.188	117.38
481.406	118.38
481.624	88.38
481.843	100.38
482.061	87.38
482.28	73.38
482.498	91.38
482.717	82.38
482.935	103.38
483.153	89.38
483.372	90.38
483.59	81.38
483.808	87.38
484.027	98.38
484.245	96.38
484.463	97.38
484.681	101.38
484.9	85.38
485.118	111.38
485.336	95.38
485.554	93.38
485.772	109.38
485.99	98.38
486.209	114.38
486.427	102.38
486.645	116.38
486.863	113.38
487.081	112.38
487.299	77.38
487.517	93.38
487.735	93.38
487.953	98.38
488.171	87.38
488.389	111.38
488.607	85.38
488.825	83.38
489.043	81.38
489.261	94.38
489.479	90.38
489.696	83.38
489.914	93.38
490.132	82.38
490.35	76.38
490.568	82.38
490.786	76.38
491.003	92.38
491.221	79.38
491.439	86.38
491.657	84.38
491.874	93.38
492.092	92.38
492.31	89.38
492.527	90.38
492.745	105.38
492.963	101.38
493.18	91.38
493.398	85.38
493.615	106.38
493.833	94.38
494.05	82.38
494.268	97.38
494.485	87.38
494.703	90.38
494.92	92.38
495.138	78.38
495.355	96.38
495.573	86.38
495.79	86.38
496.008	94.38
496.225	88.38
496.442	96.38
496.66	99.38
496.877	102.38
497.094	101.38
497.312	82.38
497.529	97.38
497.746	87.38
497.963	84.38
498.181	79.38
498.398	94.38
498.615	123.38
498.832	100.38
499.049	89.38
499.267	103.38
499.484	81.38
499.701	92.38
499.918	85.38
500.135	92.38
500.352	81.38
500.569	87.38
500.786	98.38
501.003	90.38
501.22	77.38
501.437	95.38
501.654	106.38
501.871	121.38
502.088	85.38
502.305	83.38
502.522	90.38
502.739	99.38
502.956	91.38
503.172	95.38
503.389	90.38
503.606	118.38
503.823	112.38
504.04	83.38
504.256	108.38
504.473	101.38
504.69	99.38
504.907	95.38
505.123	98.38
505.34	97.38
505.557	89.38
505.773	97.38
505.99	93.38
506.207	89.38
506.423	85.38
506.64	97.38
506.856	97.38
507.073	79.38
507.289	91.38
507.506	85.38
507.722	109.38
507.939	116.38
508.155	85.38
508.372	95.38
508.588	108.38
508.805	100.38
509.021	82.38
509.238	86.38
509.454	95.38
509.67	107.38
509.887	117.38
510.103	152.38
510.319	244.38
510.536	844.38
510.752	2801.38
510.968	775.38
511.184	169.38
511.401	123.38
511.617	97.38
511.833	101.38
512.049	88.38
512.265	92.38
512.481	89.38
512.698	104.38
512.914	95.38
513.13	95.38
513.346	97.38
513.562	91.38
513.778	116.38
513.994	105.38
514.21	94.38
514.426	136.38
514.642	137.38
514.858	126.38
