Data from Circ_2006_H10_HRD10591_00047.txt Node
Date: Wed Jan 03 10:26:13 EST 2024
User: Yrep
Spectrometer: HR+D1059
Trigger mode: 1
Integration Time (sec): 1.000000E-1
Scans to average: 1
Electric dark correction enabled: true
Nonlinearity correction enabled: false
Boxcar width: 0
XAxis mode: Wavelengths
Number of Pixels in Spectrum: 2048
>>>>>Begin Spectral Data<<<<<
223.165	-10.94
223.4	-10.94
223.635	-10.94
223.869	-23.94
224.104	-21.94
224.338	-8.94
224.573	-23.94
224.808	-14.94
225.042	-8.94
225.277	-4.94
225.511	8.06
225.746	-1.94
225.98	5.06
226.215	5.06
226.449	17.06
226.683	24.06
226.918	26.06
227.152	35.06
227.387	32.06
227.621	43.06
227.856	46.06
228.09	39.06
228.324	57.06
228.559	59.06
228.793	57.06
229.027	64.06
229.262	63.06
229.496	73.06
229.73	81.06
229.964	86.06
230.199	75.06
230.433	73.06
230.667	90.06
230.901	76.06
231.136	76.06
231.37	79.06
231.604	79.06
231.838	79.06
232.072	80.06
232.306	88.06
232.541	83.06
232.775	85.06
233.009	85.06
233.243	88.06
233.477	68.06
233.711	85.06
233.945	74.06
234.179	74.06
234.413	81.06
234.647	85.06
234.881	71.06
235.115	73.06
235.349	67.06
235.583	79.06
235.817	69.06
236.051	78.06
236.285	64.06
236.519	82.06
236.753	64.06
236.987	78.06
237.221	86.06
237.455	99.06
237.689	61.06
237.922	61.06
238.156	72.06
238.39	72.06
238.624	84.06
238.858	83.06
239.091	72.06
239.325	72.06
239.559	88.06
239.793	82.06
240.027	86.06
240.26	73.06
240.494	75.06
240.728	64.06
240.961	82.06
241.195	75.06
241.429	72.06
241.662	75.06
241.896	96.06
242.13	84.06
242.363	60.06
242.597	77.06
242.83	84.06
243.064	85.06
243.298	80.06
243.531	80.06
243.765	69.06
243.998	74.06
244.232	86.06
244.465	82.06
244.699	82.06
244.932	76.06
245.166	83.06
245.399	85.06
245.633	82.06
245.866	80.06
246.099	74.06
246.333	69.06
246.566	64.06
246.8	86.06
247.033	85.06
247.266	82.06
247.5	73.06
247.733	73.06
247.966	61.06
248.2	67.06
248.433	86.06
248.666	73.06
248.899	84.06
249.133	82.06
249.366	95.06
249.599	104.06
249.832	84.06
250.066	82.06
250.299	84.06
250.532	72.06
250.765	85.06
250.998	69.06
251.231	75.06
251.465	93.06
251.698	77.06
251.931	85.06
252.164	86.06
252.397	74.06
252.63	66.06
252.863	79.06
253.096	71.06
253.329	75.06
253.562	78.06
253.795	80.06
254.028	64.06
254.261	91.06
254.494	84.06
254.727	85.06
254.96	74.06
255.193	91.06
255.426	83.06
255.659	80.06
255.892	94.06
256.124	58.06
256.357	60.06
256.59	75.06
256.823	67.06
257.056	82.06
257.289	91.06
257.521	81.06
257.754	74.06
257.987	66.06
258.22	80.06
258.452	81.06
258.685	86.06
258.918	79.06
259.151	94.06
259.383	86.06
259.616	80.06
259.849	69.06
260.081	81.06
260.314	81.06
260.547	86.06
260.779	80.06
261.012	78.06
261.244	85.06
261.477	94.06
261.71	109.06
261.942	118.06
262.175	124.06
262.407	97.06
262.64	78.06
262.872	92.06
263.105	81.06
263.337	81.06
263.57	80.06
263.802	77.06
264.035	96.06
264.267	77.06
264.499	68.06
264.732	65.06
264.964	82.06
265.197	85.06
265.429	74.06
265.661	68.06
265.894	83.06
266.126	84.06
266.358	71.06
266.591	86.06
266.823	77.06
267.055	91.06
267.287	89.06
267.52	95.06
267.752	85.06
267.984	76.06
268.216	101.06
268.448	78.06
268.681	84.06
268.913	90.06
269.145	86.06
269.377	78.06
269.609	76.06
269.841	84.06
270.073	78.06
270.306	74.06
270.538	78.06
270.77	80.06
271.002	73.06
271.234	87.06
271.466	83.06
271.698	80.06
271.93	88.06
272.162	83.06
272.394	90.06
272.626	83.06
272.858	79.06
273.09	84.06
273.322	84.06
273.553	86.06
273.785	88.06
274.017	76.06
274.249	98.06
274.481	75.06
274.713	85.06
274.945	77.06
275.176	92.06
275.408	88.06
275.64	81.06
275.872	99.06
276.104	88.06
276.335	84.06
276.567	106.06
276.799	97.06
277.031	93.06
277.262	91.06
277.494	84.06
277.726	75.06
277.957	91.06
278.189	96.06
278.421	72.06
278.652	78.06
278.884	85.06
279.115	87.06
279.347	85.06
279.579	85.06
279.81	74.06
280.042	93.06
280.273	87.06
280.505	67.06
280.736	95.06
280.968	89.06
281.199	86.06
281.431	82.06
281.662	93.06
281.894	93.06
282.125	97.06
282.356	121.06
282.588	140.06
282.819	100.06
283.051	94.06
283.282	82.06
283.513	93.06
283.745	91.06
283.976	77.06
284.207	80.06
284.439	87.06
284.67	94.06
284.901	78.06
285.132	92.06
285.364	89.06
285.595	84.06
285.826	96.06
286.057	95.06
286.288	85.06
286.52	86.06
286.751	76.06
286.982	81.06
287.213	74.06
287.444	78.06
287.675	85.06
287.906	89.06
288.138	93.06
288.369	80.06
288.6	95.06
288.831	79.06
289.062	82.06
289.293	77.06
289.524	88.06
289.755	95.06
289.986	74.06
290.217	86.06
290.448	74.06
290.679	93.06
290.91	80.06
291.141	82.06
291.371	92.06
291.602	90.06
291.833	89.06
292.064	101.06
292.295	82.06
292.526	87.06
292.757	82.06
292.987	87.06
293.218	90.06
293.449	88.06
293.68	84.06
293.91	88.06
294.141	93.06
294.372	84.06
294.603	82.06
294.833	89.06
295.064	90.06
295.295	90.06
295.525	86.06
295.756	113.06
295.987	118.06
296.217	147.06
296.448	119.06
296.679	100.06
296.909	99.06
297.14	100.06
297.37	85.06
297.601	84.06
297.831	96.06
298.062	83.06
298.292	66.06
298.523	85.06
298.753	78.06
298.984	85.06
299.214	86.06
299.445	102.06
299.675	94.06
299.905	108.06
300.136	83.06
300.366	75.06
300.597	86.06
300.827	82.06
301.057	97.06
301.288	101.06
301.518	91.06
301.748	65.06
301.979	96.06
302.209	95.06
302.439	101.06
302.669	86.06
302.9	89.06
303.13	89.06
303.36	78.06
303.59	109.06
303.82	112.06
304.051	92.06
304.281	88.06
304.511	97.06
304.741	91.06
304.971	86.06
305.201	101.06
305.431	99.06
305.661	76.06
305.891	75.06
306.121	83.06
306.352	95.06
306.582	105.06
306.812	95.06
307.042	92.06
307.272	93.06
307.502	90.06
307.731	92.06
307.961	82.06
308.191	105.06
308.421	93.06
308.651	90.06
308.881	103.06
309.111	91.06
309.341	101.06
309.571	97.06
309.8	101.06
310.03	101.06
310.26	106.06
310.49	84.06
310.72	90.06
310.949	96.06
311.179	108.06
311.409	94.06
311.639	87.06
311.868	100.06
312.098	95.06
312.328	94.06
312.557	109.06
312.787	88.06
313.017	86.06
313.246	103.06
313.476	85.06
313.706	80.06
313.935	97.06
314.165	84.06
314.394	97.06
314.624	81.06
314.853	99.06
315.083	77.06
315.312	89.06
315.542	100.06
315.771	88.06
316.001	95.06
316.23	94.06
316.46	96.06
316.689	82.06
316.919	93.06
317.148	103.06
317.377	86.06
317.607	99.06
317.836	88.06
318.065	89.06
318.295	92.06
318.524	97.06
318.753	92.06
318.983	81.06
319.212	111.06
319.441	96.06
319.67	103.06
319.9	94.06
320.129	97.06
320.358	101.06
320.587	89.06
320.816	97.06
321.046	106.06
321.275	92.06
321.504	103.06
321.733	90.06
321.962	90.06
322.191	97.06
322.42	105.06
322.649	118.06
322.878	118.06
323.108	129.06
323.337	125.06
323.566	127.06
323.795	151.06
324.024	238.06
324.253	496.06
324.482	1046.06
324.71	2193.06
324.939	2876.06
325.168	1012.06
325.397	286.06
325.626	171.06
325.855	150.06
326.084	136.06
326.313	132.06
326.542	164.06
326.77	260.06
326.999	552.06
327.228	1181.06
327.457	2220.06
327.686	1698.06
327.914	454.06
328.143	228.06
328.372	170.06
328.6	120.06
328.829	111.06
329.058	134.06
329.287	120.06
329.515	118.06
329.744	110.06
329.972	101.06
330.201	120.06
330.43	138.06
330.658	129.06
330.887	157.06
331.115	116.06
331.344	99.06
331.572	97.06
331.801	96.06
332.03	92.06
332.258	102.06
332.486	84.06
332.715	94.06
332.943	99.06
333.172	97.06
333.4	110.06
333.629	101.06
333.857	100.06
334.085	104.06
334.314	111.06
334.542	142.06
334.771	142.06
334.999	98.06
335.227	104.06
335.455	87.06
335.684	85.06
335.912	100.06
336.14	99.06
336.369	105.06
336.597	93.06
336.825	108.06
337.053	93.06
337.281	72.06
337.51	82.06
337.738	89.06
337.966	99.06
338.194	87.06
338.422	97.06
338.65	95.06
338.878	83.06
339.106	86.06
339.334	93.06
339.562	86.06
339.79	102.06
340.018	80.06
340.246	81.06
340.474	86.06
340.702	99.06
340.93	90.06
341.158	93.06
341.386	84.06
341.614	95.06
341.842	81.06
342.07	95.06
342.298	96.06
342.526	83.06
342.754	80.06
342.981	85.06
343.209	82.06
343.437	96.06
343.665	82.06
343.893	72.06
344.12	95.06
344.348	86.06
344.576	82.06
344.804	81.06
345.031	91.06
345.259	90.06
345.487	87.06
345.714	83.06
345.942	89.06
346.17	91.06
346.397	89.06
346.625	89.06
346.853	97.06
347.08	109.06
347.308	105.06
347.535	97.06
347.763	101.06
347.99	89.06
348.218	82.06
348.445	95.06
348.673	99.06
348.9	101.06
349.128	94.06
349.355	88.06
349.583	93.06
349.81	93.06
350.037	93.06
350.265	86.06
350.492	106.06
350.72	96.06
350.947	104.06
351.174	97.06
351.402	111.06
351.629	100.06
351.856	89.06
352.083	96.06
352.311	103.06
352.538	111.06
352.765	114.06
352.992	106.06
353.22	113.06
353.447	100.06
353.674	93.06
353.901	99.06
354.128	89.06
354.355	92.06
354.583	96.06
354.81	103.06
355.037	79.06
355.264	103.06
355.491	110.06
355.718	72.06
355.945	93.06
356.172	93.06
356.399	106.06
356.626	82.06
356.853	85.06
357.08	98.06
357.307	101.06
357.534	97.06
357.761	86.06
357.988	99.06
358.215	90.06
358.441	93.06
358.668	92.06
358.895	93.06
359.122	97.06
359.349	85.06
359.576	92.06
359.802	100.06
360.029	111.06
360.256	94.06
360.483	98.06
360.709	90.06
360.936	80.06
361.163	92.06
361.39	89.06
361.616	105.06
361.843	105.06
362.07	99.06
362.296	85.06
362.523	85.06
362.749	80.06
362.976	102.06
363.203	93.06
363.429	73.06
363.656	95.06
363.882	95.06
364.109	77.06
364.335	96.06
364.562	100.06
364.788	86.06
365.015	92.06
365.241	102.06
365.468	104.06
365.694	121.06
365.92	93.06
366.147	96.06
366.373	89.06
366.599	95.06
366.826	95.06
367.052	98.06
367.278	86.06
367.505	86.06
367.731	89.06
367.957	86.06
368.184	102.06
368.41	98.06
368.636	115.06
368.862	127.06
369.089	120.06
369.315	98.06
369.541	78.06
369.767	84.06
369.993	92.06
370.219	88.06
370.445	91.06
370.672	103.06
370.898	95.06
371.124	92.06
371.35	84.06
371.576	91.06
371.802	82.06
372.028	85.06
372.254	82.06
372.48	79.06
372.706	73.06
372.932	90.06
373.158	98.06
373.384	82.06
373.61	96.06
373.835	93.06
374.061	90.06
374.287	88.06
374.513	93.06
374.739	105.06
374.965	86.06
375.191	100.06
375.416	86.06
375.642	76.06
375.868	104.06
376.094	87.06
376.319	82.06
376.545	85.06
376.771	97.06
376.997	85.06
377.222	83.06
377.448	88.06
377.674	96.06
377.899	94.06
378.125	91.06
378.35	98.06
378.576	78.06
378.802	97.06
379.027	86.06
379.253	81.06
379.478	87.06
379.704	83.06
379.929	97.06
380.155	92.06
380.38	110.06
380.606	88.06
380.831	92.06
381.057	91.06
381.282	94.06
381.507	85.06
381.733	95.06
381.958	100.06
382.184	105.06
382.409	90.06
382.634	107.06
382.86	105.06
383.085	100.06
383.31	106.06
383.535	94.06
383.761	96.06
383.986	96.06
384.211	97.06
384.436	96.06
384.662	109.06
384.887	104.06
385.112	104.06
385.337	104.06
385.562	92.06
385.787	105.06
386.013	112.06
386.238	104.06
386.463	120.06
386.688	101.06
386.913	102.06
387.138	111.06
387.363	102.06
387.588	97.06
387.813	94.06
388.038	107.06
388.263	111.06
388.488	110.06
388.713	88.06
388.938	91.06
389.163	99.06
389.387	78.06
389.612	93.06
389.837	89.06
390.062	104.06
390.287	91.06
390.512	92.06
390.736	88.06
390.961	77.06
391.186	91.06
391.411	103.06
391.636	98.06
391.86	93.06
392.085	80.06
392.31	82.06
392.534	84.06
392.759	81.06
392.984	81.06
393.208	98.06
393.433	89.06
393.658	81.06
393.882	76.06
394.107	83.06
394.331	92.06
394.556	79.06
394.78	92.06
395.005	88.06
395.229	88.06
395.454	77.06
395.678	80.06
395.903	86.06
396.127	100.06
396.352	88.06
396.576	79.06
396.801	82.06
397.025	77.06
397.249	86.06
397.474	102.06
397.698	83.06
397.922	81.06
398.147	98.06
398.371	95.06
398.595	82.06
398.82	85.06
399.044	79.06
399.268	85.06
399.492	76.06
399.717	91.06
399.941	92.06
400.165	84.06
400.389	94.06
400.613	68.06
400.837	79.06
401.062	76.06
401.286	87.06
401.51	78.06
401.734	104.06
401.958	96.06
402.182	117.06
402.406	145.06
402.63	118.06
402.854	95.06
403.078	78.06
403.302	92.06
403.526	96.06
403.75	96.06
403.974	82.06
404.198	74.06
404.422	90.06
404.645	92.06
404.869	93.06
405.093	88.06
405.317	95.06
405.541	93.06
405.765	91.06
405.988	112.06
406.212	180.06
406.436	236.06
406.66	155.06
406.883	105.06
407.107	104.06
407.331	79.06
407.555	96.06
407.778	91.06
408.002	97.06
408.226	92.06
408.449	89.06
408.673	97.06
408.896	79.06
409.12	105.06
409.344	87.06
409.567	90.06
409.791	86.06
410.014	93.06
410.238	95.06
410.461	91.06
410.685	93.06
410.908	101.06
411.132	115.06
411.355	102.06
411.578	89.06
411.802	97.06
412.025	84.06
412.249	86.06
412.472	105.06
412.695	105.06
412.919	84.06
413.142	80.06
413.365	96.06
413.589	80.06
413.812	81.06
414.035	92.06
414.258	86.06
414.482	95.06
414.705	73.06
414.928	86.06
415.151	99.06
415.374	106.06
415.597	84.06
415.821	84.06
416.044	83.06
416.267	86.06
416.49	76.06
416.713	92.06
416.936	84.06
417.159	83.06
417.382	84.06
417.605	91.06
417.828	76.06
418.051	92.06
418.274	83.06
418.497	85.06
418.72	83.06
418.943	83.06
419.166	81.06
419.389	89.06
419.611	89.06
419.834	84.06
420.057	78.06
420.28	70.06
420.503	96.06
420.726	93.06
420.948	91.06
421.171	74.06
421.394	81.06
421.617	97.06
421.839	91.06
422.062	93.06
422.285	87.06
422.507	114.06
422.73	94.06
422.953	84.06
423.175	83.06
423.398	90.06
423.621	95.06
423.843	84.06
424.066	81.06
424.288	89.06
424.511	91.06
424.733	100.06
424.956	96.06
425.178	92.06
425.401	102.06
425.623	92.06
425.846	83.06
426.068	93.06
426.291	83.06
426.513	68.06
426.735	84.06
426.958	106.06
427.18	100.06
427.402	137.06
427.625	186.06
427.847	139.06
428.069	108.06
428.292	91.06
428.514	89.06
428.736	80.06
428.958	75.06
429.181	80.06
429.403	80.06
429.625	91.06
429.847	80.06
430.069	95.06
430.292	93.06
430.514	97.06
430.736	81.06
430.958	94.06
431.18	103.06
431.402	78.06
431.624	69.06
431.846	78.06
432.068	85.06
432.29	82.06
432.512	88.06
432.734	71.06
432.956	93.06
433.178	101.06
433.4	94.06
433.622	84.06
433.844	84.06
434.066	90.06
434.287	92.06
434.509	98.06
434.731	81.06
434.953	92.06
435.175	84.06
435.397	84.06
435.618	82.06
435.84	93.06
436.062	132.06
436.284	126.06
436.505	107.06
436.727	115.06
436.949	94.06
437.17	89.06
437.392	82.06
437.614	85.06
437.835	103.06
438.057	123.06
438.278	110.06
438.5	99.06
438.721	130.06
438.943	103.06
439.165	79.06
439.386	73.06
439.608	79.06
439.829	112.06
440.05	112.06
440.272	131.06
440.493	101.06
440.715	79.06
440.936	88.06
441.158	90.06
441.379	81.06
441.6	78.06
441.822	105.06
442.043	107.06
442.264	92.06
442.486	89.06
442.707	98.06
442.928	99.06
443.149	128.06
443.371	124.06
443.592	102.06
443.813	96.06
444.034	98.06
444.255	95.06
444.476	90.06
444.698	93.06
444.919	90.06
445.14	115.06
445.361	111.06
445.582	117.06
445.803	127.06
446.024	126.06
446.245	136.06
446.466	99.06
446.687	96.06
446.908	93.06
447.129	86.06
447.35	70.06
447.571	85.06
447.792	87.06
448.013	99.06
448.234	111.06
448.455	90.06
448.675	99.06
448.896	118.06
449.117	78.06
449.338	105.06
449.559	130.06
449.779	126.06
450	91.06
450.221	99.06
450.442	83.06
450.662	94.06
450.883	97.06
451.104	110.06
451.324	90.06
451.545	85.06
451.766	101.06
451.986	92.06
452.207	88.06
452.428	80.06
452.648	101.06
452.869	112.06
453.089	105.06
453.31	106.06
453.53	100.06
453.751	82.06
453.971	112.06
454.192	108.06
454.412	79.06
454.633	85.06
454.853	90.06
455.073	81.06
455.294	83.06
455.514	116.06
455.734	76.06
455.955	86.06
456.175	76.06
456.395	96.06
456.616	93.06
456.836	80.06
457.056	96.06
457.276	83.06
457.497	79.06
457.717	101.06
457.937	86.06
458.157	96.06
458.377	87.06
458.598	109.06
458.818	141.06
459.038	154.06
459.258	98.06
459.478	78.06
459.698	86.06
459.918	74.06
460.138	88.06
460.358	75.06
460.578	95.06
460.798	96.06
461.018	97.06
461.238	81.06
461.458	86.06
461.678	78.06
461.898	101.06
462.118	95.06
462.338	78.06
462.558	91.06
462.777	90.06
462.997	80.06
463.217	75.06
463.437	75.06
463.657	68.06
463.876	103.06
464.096	83.06
464.316	106.06
464.536	104.06
464.755	105.06
464.975	101.06
465.195	194.06
465.414	148.06
465.634	99.06
465.854	84.06
466.073	77.06
466.293	81.06
466.512	101.06
466.732	88.06
466.951	84.06
467.171	88.06
467.391	93.06
467.61	103.06
467.829	101.06
468.049	95.06
468.268	89.06
468.488	84.06
468.707	89.06
468.927	93.06
469.146	94.06
469.365	89.06
469.585	86.06
469.804	86.06
470.023	95.06
470.243	99.06
470.462	106.06
470.681	108.06
470.901	96.06
471.12	77.06
471.339	87.06
471.558	81.06
471.777	88.06
471.997	108.06
472.216	117.06
472.435	133.06
472.654	90.06
472.873	83.06
473.092	84.06
473.311	85.06
473.53	97.06
473.749	92.06
473.968	89.06
474.187	122.06
474.406	111.06
474.625	85.06
474.844	82.06
475.063	86.06
475.282	57.06
475.501	78.06
475.72	88.06
475.939	80.06
476.158	88.06
476.377	81.06
476.596	91.06
476.814	83.06
477.033	91.06
477.252	87.06
477.471	84.06
477.69	84.06
477.908	73.06
478.127	90.06
478.346	92.06
478.564	85.06
478.783	89.06
479.002	91.06
479.22	84.06
479.439	91.06
479.658	104.06
479.876	94.06
480.095	79.06
480.313	85.06
480.532	79.06
480.751	87.06
480.969	113.06
481.188	195.06
481.406	153.06
481.624	101.06
481.843	100.06
482.061	76.06
482.28	74.06
482.498	86.06
482.717	79.06
482.935	88.06
483.153	94.06
483.372	92.06
483.59	88.06
483.808	86.06
484.027	99.06
484.245	85.06
484.463	96.06
484.681	88.06
484.9	90.06
485.118	83.06
485.336	91.06
485.554	76.06
485.772	80.06
485.99	97.06
486.209	109.06
486.427	94.06
486.645	115.06
486.863	121.06
487.081	115.06
487.299	108.06
487.517	89.06
487.735	84.06
487.953	96.06
488.171	99.06
488.389	101.06
488.607	96.06
488.825	82.06
489.043	91.06
489.261	99.06
489.479	94.06
489.696	73.06
489.914	83.06
490.132	85.06
490.35	96.06
490.568	85.06
490.786	101.06
491.003	88.06
491.221	77.06
491.439	86.06
491.657	95.06
491.874	92.06
492.092	96.06
492.31	92.06
492.527	86.06
492.745	83.06
492.963	95.06
493.18	94.06
493.398	98.06
493.615	97.06
493.833	97.06
494.05	85.06
494.268	87.06
494.485	72.06
494.703	85.06
494.92	84.06
495.138	91.06
495.355	92.06
495.573	93.06
495.79	82.06
496.008	78.06
496.225	92.06
496.442	83.06
496.66	70.06
496.877	93.06
497.094	95.06
497.312	90.06
497.529	88.06
497.746	104.06
497.963	86.06
498.181	83.06
498.398	92.06
498.615	114.06
498.832	102.06
499.049	79.06
499.267	78.06
499.484	79.06
499.701	81.06
499.918	85.06
500.135	88.06
500.352	91.06
500.569	76.06
500.786	77.06
501.003	95.06
501.22	101.06
501.437	90.06
501.654	100.06
501.871	94.06
502.088	83.06
502.305	82.06
502.522	99.06
502.739	96.06
502.956	92.06
503.172	84.06
503.389	91.06
503.606	110.06
503.823	100.06
504.04	94.06
504.256	96.06
504.473	90.06
504.69	80.06
504.907	87.06
505.123	114.06
505.34	81.06
505.557	91.06
505.773	80.06
505.99	82.06
506.207	78.06
506.423	82.06
506.64	90.06
506.856	74.06
507.073	73.06
507.289	68.06
507.506	86.06
507.722	112.06
507.939	116.06
508.155	94.06
508.372	104.06
508.588	100.06
508.805	94.06
509.021	100.06
509.238	98.06
509.454	88.06
509.67	107.06
509.887	102.06
510.103	144.06
510.319	237.06
510.536	867.06
510.752	2780.06
510.968	753.06
511.184	171.06
511.401	104.06
511.617	104.06
511.833	86.06
512.049	100.06
512.265	85.06
512.481	93.06
512.698	88.06
512.914	90.06
513.13	90.06
513.346	105.06
513.562	99.06
513.778	80.06
513.994	99.06
514.21	109.06
514.426	120.06
514.642	140.06
514.858	108.06
515.074	195.06
515.29	516.06
515.506	1737.06
515.721	632.06
515.937	172.06
