Data from Circ_2006_H10_HRD10591_00086.txt Node
Date: Wed Jan 03 10:26:21 EST 2024
User: Yrep
Spectrometer: HR+D1059
Trigger mode: 1
Integration Time (sec): 1.000000E-1
Scans to average: 1
Electric dark correction enabled: true
Nonlinearity correction enabled: false
Boxcar width: 0
XAxis mode: Wavelengths
Number of Pixels in Spectrum: 2048
>>>>>Begin Spectral Data<<<<<
223.165	-22.75
223.4	-22.75
223.635	-22.75
223.869	-18.75
224.104	-3.75
224.338	-13.75
224.573	-15.75
224.808	-15.75
225.042	-11.75
225.277	-14.75
225.511	-2.75
225.746	0.25
225.98	0.25
226.215	14.25
226.449	26.25
226.683	17.25
226.918	24.25
227.152	37.25
227.387	45.25
227.621	44.25
227.856	45.25
228.09	57.25
228.324	45.25
228.559	68.25
228.793	52.25
229.027	63.25
229.262	72.25
229.496	89.25
229.73	93.25
229.964	78.25
230.199	73.25
230.433	76.25
230.667	82.25
230.901	88.25
231.136	78.25
231.37	79.25
231.604	81.25
231.838	77.25
232.072	84.25
232.306	87.25
232.541	87.25
232.775	89.25
233.009	96.25
233.243	86.25
233.477	87.25
233.711	83.25
233.945	82.25
234.179	77.25
234.413	89.25
234.647	73.25
234.881	84.25
235.115	75.25
235.349	85.25
235.583	86.25
235.817	96.25
236.051	69.25
236.285	82.25
236.519	83.25
236.753	74.25
236.987	90.25
237.221	90.25
237.455	88.25
237.689	88.25
237.922	70.25
238.156	86.25
238.39	89.25
238.624	72.25
238.858	77.25
239.091	82.25
239.325	82.25
239.559	88.25
239.793	81.25
240.027	84.25
240.26	84.25
240.494	68.25
240.728	85.25
240.961	75.25
241.195	81.25
241.429	77.25
241.662	75.25
241.896	84.25
242.13	87.25
242.363	78.25
242.597	70.25
242.83	92.25
243.064	69.25
243.298	66.25
243.531	80.25
243.765	65.25
243.998	82.25
244.232	90.25
244.465	95.25
244.699	92.25
244.932	89.25
245.166	86.25
245.399	91.25
245.633	86.25
245.866	81.25
246.099	76.25
246.333	84.25
246.566	83.25
246.8	74.25
247.033	75.25
247.266	85.25
247.5	80.25
247.733	79.25
247.966	94.25
248.2	80.25
248.433	79.25
248.666	81.25
248.899	85.25
249.133	86.25
249.366	107.25
249.599	106.25
249.832	82.25
250.066	95.25
250.299	91.25
250.532	79.25
250.765	81.25
250.998	80.25
251.231	84.25
251.465	86.25
251.698	80.25
251.931	83.25
252.164	86.25
252.397	67.25
252.63	95.25
252.863	81.25
253.096	86.25
253.329	73.25
253.562	97.25
253.795	87.25
254.028	86.25
254.261	79.25
254.494	82.25
254.727	81.25
254.96	79.25
255.193	88.25
255.426	83.25
255.659	104.25
255.892	85.25
256.124	75.25
256.357	73.25
256.59	81.25
256.823	73.25
257.056	83.25
257.289	67.25
257.521	72.25
257.754	88.25
257.987	75.25
258.22	74.25
258.452	89.25
258.685	87.25
258.918	80.25
259.151	87.25
259.383	88.25
259.616	78.25
259.849	89.25
260.081	82.25
260.314	75.25
260.547	76.25
260.779	90.25
261.012	85.25
261.244	90.25
261.477	87.25
261.71	95.25
261.942	109.25
262.175	117.25
262.407	91.25
262.64	75.25
262.872	102.25
263.105	85.25
263.337	83.25
263.57	85.25
263.802	94.25
264.035	90.25
264.267	92.25
264.499	85.25
264.732	82.25
264.964	89.25
265.197	93.25
265.429	100.25
265.661	85.25
265.894	79.25
266.126	98.25
266.358	89.25
266.591	104.25
266.823	91.25
267.055	90.25
267.287	69.25
267.52	76.25
267.752	86.25
267.984	94.25
268.216	81.25
268.448	81.25
268.681	85.25
268.913	98.25
269.145	88.25
269.377	86.25
269.609	88.25
269.841	91.25
270.073	80.25
270.306	86.25
270.538	81.25
270.77	80.25
271.002	83.25
271.234	72.25
271.466	90.25
271.698	90.25
271.93	87.25
272.162	95.25
272.394	91.25
272.626	83.25
272.858	88.25
273.09	88.25
273.322	98.25
273.553	88.25
273.785	103.25
274.017	95.25
274.249	83.25
274.481	96.25
274.713	87.25
274.945	80.25
275.176	85.25
275.408	96.25
275.64	83.25
275.872	84.25
276.104	89.25
276.335	96.25
276.567	94.25
276.799	108.25
277.031	125.25
277.262	93.25
277.494	83.25
277.726	92.25
277.957	84.25
278.189	92.25
278.421	78.25
278.652	93.25
278.884	82.25
279.115	88.25
279.347	92.25
279.579	81.25
279.81	89.25
280.042	101.25
280.273	101.25
280.505	82.25
280.736	90.25
280.968	94.25
281.199	96.25
281.431	94.25
281.662	84.25
281.894	76.25
282.125	88.25
282.356	139.25
282.588	147.25
282.819	121.25
283.051	85.25
283.282	83.25
283.513	95.25
283.745	91.25
283.976	101.25
284.207	101.25
284.439	86.25
284.67	87.25
284.901	95.25
285.132	78.25
285.364	82.25
285.595	80.25
285.826	94.25
286.057	90.25
286.288	88.25
286.52	84.25
286.751	88.25
286.982	76.25
287.213	93.25
287.444	85.25
287.675	82.25
287.906	104.25
288.138	101.25
288.369	104.25
288.6	90.25
288.831	76.25
289.062	80.25
289.293	85.25
289.524	95.25
289.755	80.25
289.986	79.25
290.217	91.25
290.448	90.25
290.679	87.25
290.91	89.25
291.141	82.25
291.371	93.25
291.602	80.25
291.833	94.25
292.064	75.25
292.295	88.25
292.526	90.25
292.757	89.25
292.987	83.25
293.218	86.25
293.449	86.25
293.68	87.25
293.91	79.25
294.141	84.25
294.372	99.25
294.603	94.25
294.833	99.25
295.064	88.25
295.295	77.25
295.525	107.25
295.756	91.25
295.987	131.25
296.217	150.25
296.448	120.25
296.679	103.25
296.909	106.25
297.14	97.25
297.37	83.25
297.601	78.25
297.831	100.25
298.062	77.25
298.292	90.25
298.523	87.25
298.753	92.25
298.984	73.25
299.214	94.25
299.445	96.25
299.675	97.25
299.905	91.25
300.136	100.25
300.366	87.25
300.597	79.25
300.827	80.25
301.057	104.25
301.288	104.25
301.518	96.25
301.748	88.25
301.979	98.25
302.209	103.25
302.439	106.25
302.669	85.25
302.9	89.25
303.13	96.25
303.36	85.25
303.59	93.25
303.82	114.25
304.051	94.25
304.281	98.25
304.511	93.25
304.741	80.25
304.971	109.25
305.201	88.25
305.431	93.25
305.661	99.25
305.891	95.25
306.121	105.25
306.352	118.25
306.582	99.25
306.812	79.25
307.042	89.25
307.272	83.25
307.502	93.25
307.731	84.25
307.961	101.25
308.191	107.25
308.421	98.25
308.651	99.25
308.881	103.25
309.111	77.25
309.341	88.25
309.571	113.25
309.8	111.25
310.03	86.25
310.26	100.25
310.49	103.25
310.72	93.25
310.949	120.25
311.179	103.25
311.409	93.25
311.639	100.25
311.868	95.25
312.098	100.25
312.328	70.25
312.557	99.25
312.787	110.25
313.017	95.25
313.246	89.25
313.476	87.25
313.706	89.25
313.935	94.25
314.165	102.25
314.394	108.25
314.624	93.25
314.853	105.25
315.083	100.25
315.312	94.25
315.542	95.25
315.771	99.25
316.001	89.25
316.23	100.25
316.46	94.25
316.689	100.25
316.919	99.25
317.148	87.25
317.377	89.25
317.607	107.25
317.836	94.25
318.065	103.25
318.295	99.25
318.524	89.25
318.753	102.25
318.983	100.25
319.212	93.25
319.441	121.25
319.67	110.25
319.9	108.25
320.129	102.25
320.358	81.25
320.587	91.25
320.816	98.25
321.046	111.25
321.275	106.25
321.504	102.25
321.733	103.25
321.962	107.25
322.191	118.25
322.42	107.25
322.649	98.25
322.878	115.25
323.108	103.25
323.337	127.25
323.566	128.25
323.795	157.25
324.024	225.25
324.253	459.25
324.482	962.25
324.71	2023.25
324.939	2663.25
325.168	957.25
325.397	273.25
325.626	157.25
325.855	148.25
326.084	139.25
326.313	143.25
326.542	158.25
326.77	262.25
326.999	518.25
327.228	1089.25
327.457	2052.25
327.686	1600.25
327.914	444.25
328.143	221.25
328.372	182.25
328.6	159.25
328.829	115.25
329.058	131.25
329.287	143.25
329.515	114.25
329.744	106.25
329.972	132.25
330.201	164.25
330.43	183.25
330.658	158.25
330.887	159.25
331.115	136.25
331.344	107.25
331.572	119.25
331.801	103.25
332.03	112.25
332.258	99.25
332.486	83.25
332.715	81.25
332.943	106.25
333.172	107.25
333.4	109.25
333.629	113.25
333.857	126.25
334.085	120.25
334.314	158.25
334.542	189.25
334.771	191.25
334.999	106.25
335.227	95.25
335.455	110.25
335.684	108.25
335.912	103.25
336.14	93.25
336.369	101.25
336.597	98.25
336.825	94.25
337.053	97.25
337.281	91.25
337.51	94.25
337.738	97.25
337.966	90.25
338.194	93.25
338.422	96.25
338.65	91.25
338.878	90.25
339.106	101.25
339.334	88.25
339.562	87.25
339.79	96.25
340.018	77.25
340.246	94.25
340.474	94.25
340.702	90.25
340.93	83.25
341.158	85.25
341.386	96.25
341.614	103.25
341.842	95.25
342.07	95.25
342.298	89.25
342.526	87.25
342.754	101.25
342.981	84.25
343.209	97.25
343.437	98.25
343.665	96.25
343.893	89.25
344.12	84.25
344.348	99.25
344.576	101.25
344.804	95.25
345.031	74.25
345.259	112.25
345.487	111.25
345.714	92.25
345.942	103.25
346.17	89.25
346.397	99.25
346.625	100.25
346.853	108.25
347.08	99.25
347.308	103.25
347.535	93.25
347.763	88.25
347.99	97.25
348.218	109.25
348.445	102.25
348.673	91.25
348.9	108.25
349.128	101.25
349.355	94.25
349.583	89.25
349.81	87.25
350.037	91.25
350.265	99.25
350.492	98.25
350.72	91.25
350.947	106.25
351.174	118.25
351.402	127.25
351.629	111.25
351.856	93.25
352.083	98.25
352.311	107.25
352.538	99.25
352.765	98.25
352.992	101.25
353.22	109.25
353.447	96.25
353.674	92.25
353.901	96.25
354.128	90.25
354.355	100.25
354.583	93.25
354.81	97.25
355.037	91.25
355.264	105.25
355.491	86.25
355.718	99.25
355.945	89.25
356.172	92.25
356.399	101.25
356.626	108.25
356.853	93.25
357.08	80.25
357.307	97.25
357.534	101.25
357.761	100.25
357.988	95.25
358.215	86.25
358.441	86.25
358.668	95.25
358.895	98.25
359.122	94.25
359.349	91.25
359.576	96.25
359.802	102.25
360.029	118.25
360.256	101.25
360.483	103.25
360.709	95.25
360.936	85.25
361.163	109.25
361.39	101.25
361.616	88.25
361.843	96.25
362.07	105.25
362.296	85.25
362.523	95.25
362.749	90.25
362.976	83.25
363.203	87.25
363.429	96.25
363.656	96.25
363.882	78.25
364.109	95.25
364.335	111.25
364.562	84.25
364.788	75.25
365.015	89.25
365.241	102.25
365.468	108.25
365.694	117.25
365.92	99.25
366.147	92.25
366.373	92.25
366.599	80.25
366.826	79.25
367.052	97.25
367.278	102.25
367.505	103.25
367.731	96.25
367.957	102.25
368.184	87.25
368.41	108.25
368.636	103.25
368.862	115.25
369.089	115.25
369.315	107.25
369.541	96.25
369.767	100.25
369.993	92.25
370.219	79.25
370.445	90.25
370.672	83.25
370.898	92.25
371.124	86.25
371.35	88.25
371.576	99.25
371.802	101.25
372.028	90.25
372.254	100.25
372.48	95.25
372.706	104.25
372.932	98.25
373.158	90.25
373.384	85.25
373.61	108.25
373.835	101.25
374.061	92.25
374.287	94.25
374.513	83.25
374.739	86.25
374.965	81.25
375.191	94.25
375.416	89.25
375.642	85.25
375.868	95.25
376.094	105.25
376.319	98.25
376.545	83.25
376.771	95.25
376.997	95.25
377.222	93.25
377.448	106.25
377.674	99.25
377.899	86.25
378.125	101.25
378.35	98.25
378.576	103.25
378.802	84.25
379.027	97.25
379.253	78.25
379.478	102.25
379.704	78.25
379.929	81.25
380.155	102.25
380.38	87.25
380.606	112.25
380.831	89.25
381.057	105.25
381.282	103.25
381.507	107.25
381.733	81.25
381.958	101.25
382.184	92.25
382.409	96.25
382.634	96.25
382.86	87.25
383.085	96.25
383.31	110.25
383.535	109.25
383.761	86.25
383.986	98.25
384.211	95.25
384.436	92.25
384.662	91.25
384.887	108.25
385.112	101.25
385.337	90.25
385.562	104.25
385.787	103.25
386.013	106.25
386.238	98.25
386.463	117.25
386.688	110.25
386.913	85.25
387.138	93.25
387.363	93.25
387.588	97.25
387.813	96.25
388.038	94.25
388.263	128.25
388.488	118.25
388.713	96.25
388.938	95.25
389.163	98.25
389.387	93.25
389.612	101.25
389.837	90.25
390.062	83.25
390.287	89.25
390.512	93.25
390.736	101.25
390.961	93.25
391.186	96.25
391.411	95.25
391.636	100.25
391.86	94.25
392.085	97.25
392.31	98.25
392.534	97.25
392.759	89.25
392.984	73.25
393.208	92.25
393.433	75.25
393.658	83.25
393.882	75.25
394.107	82.25
394.331	81.25
394.556	102.25
394.78	89.25
395.005	89.25
395.229	94.25
395.454	68.25
395.678	80.25
395.903	77.25
396.127	87.25
396.352	85.25
396.576	85.25
396.801	96.25
397.025	95.25
397.249	86.25
397.474	98.25
397.698	89.25
397.922	99.25
398.147	80.25
398.371	86.25
398.595	80.25
398.82	96.25
399.044	87.25
399.268	91.25
399.492	108.25
399.717	74.25
399.941	81.25
400.165	89.25
400.389	88.25
400.613	85.25
400.837	94.25
401.062	87.25
401.286	89.25
401.51	88.25
401.734	103.25
401.958	92.25
402.182	130.25
402.406	165.25
402.63	120.25
402.854	95.25
403.078	89.25
403.302	89.25
403.526	97.25
403.75	82.25
403.974	88.25
404.198	107.25
404.422	81.25
404.645	75.25
404.869	86.25
405.093	82.25
405.317	111.25
405.541	100.25
405.765	88.25
405.988	119.25
406.212	188.25
406.436	248.25
406.66	157.25
406.883	108.25
407.107	101.25
407.331	103.25
407.555	105.25
407.778	104.25
408.002	87.25
408.226	87.25
408.449	104.25
408.673	70.25
408.896	95.25
409.12	96.25
409.344	90.25
409.567	101.25
409.791	95.25
410.014	100.25
410.238	100.25
410.461	87.25
410.685	95.25
410.908	88.25
411.132	115.25
411.355	92.25
411.578	94.25
411.802	97.25
412.025	84.25
412.249	104.25
412.472	100.25
412.695	97.25
412.919	92.25
413.142	92.25
413.365	78.25
413.589	103.25
413.812	91.25
414.035	94.25
414.258	94.25
414.482	76.25
414.705	96.25
414.928	83.25
415.151	89.25
415.374	96.25
415.597	94.25
415.821	96.25
416.044	79.25
416.267	97.25
416.49	99.25
416.713	93.25
416.936	89.25
417.159	84.25
417.382	86.25
417.605	84.25
417.828	101.25
418.051	87.25
418.274	89.25
418.497	71.25
418.72	88.25
418.943	81.25
419.166	80.25
419.389	83.25
419.611	91.25
419.834	87.25
420.057	89.25
420.28	95.25
420.503	87.25
420.726	87.25
420.948	96.25
421.171	94.25
421.394	95.25
421.617	73.25
421.839	94.25
422.062	84.25
422.285	80.25
422.507	91.25
422.73	86.25
422.953	111.25
423.175	92.25
423.398	103.25
423.621	85.25
423.843	86.25
424.066	93.25
424.288	94.25
424.511	81.25
424.733	100.25
424.956	109.25
425.178	95.25
425.401	98.25
425.623	105.25
425.846	94.25
426.068	100.25
426.291	98.25
426.513	85.25
426.735	107.25
426.958	91.25
427.18	107.25
427.402	146.25
427.625	179.25
427.847	153.25
428.069	129.25
428.292	93.25
428.514	82.25
428.736	87.25
428.958	75.25
429.181	84.25
429.403	85.25
429.625	86.25
429.847	81.25
430.069	103.25
430.292	94.25
430.514	90.25
430.736	111.25
430.958	99.25
431.18	95.25
431.402	89.25
431.624	95.25
431.846	89.25
432.068	87.25
432.29	88.25
432.512	103.25
432.734	82.25
432.956	101.25
433.178	103.25
433.4	91.25
433.622	88.25
433.844	90.25
434.066	108.25
434.287	94.25
434.509	95.25
434.731	92.25
434.953	89.25
435.175	82.25
435.397	91.25
435.618	102.25
435.84	110.25
436.062	127.25
436.284	125.25
436.505	103.25
436.727	103.25
436.949	99.25
437.17	86.25
437.392	81.25
437.614	94.25
437.835	109.25
438.057	115.25
438.278	119.25
438.5	126.25
438.721	120.25
438.943	109.25
439.165	83.25
439.386	77.25
439.608	98.25
439.829	107.25
440.05	124.25
440.272	137.25
440.493	91.25
440.715	101.25
440.936	94.25
441.158	96.25
441.379	87.25
441.6	77.25
441.822	86.25
442.043	100.25
442.264	93.25
442.486	84.25
442.707	88.25
442.928	111.25
443.149	131.25
443.371	133.25
443.592	113.25
443.813	110.25
444.034	104.25
444.255	101.25
444.476	98.25
444.698	88.25
444.919	96.25
445.14	137.25
445.361	112.25
445.582	127.25
445.803	139.25
446.024	147.25
446.245	145.25
446.466	105.25
446.687	90.25
446.908	100.25
447.129	95.25
447.35	96.25
447.571	96.25
447.792	112.25
448.013	91.25
448.234	107.25
448.455	105.25
448.675	130.25
448.896	108.25
449.117	118.25
449.338	115.25
449.559	129.25
449.779	120.25
450	104.25
450.221	102.25
450.442	106.25
450.662	97.25
450.883	99.25
451.104	117.25
451.324	93.25
451.545	90.25
451.766	95.25
451.986	87.25
452.207	92.25
452.428	87.25
452.648	102.25
452.869	105.25
453.089	126.25
453.31	125.25
453.53	109.25
453.751	80.25
453.971	104.25
454.192	124.25
454.412	109.25
454.633	91.25
454.853	80.25
455.073	92.25
455.294	95.25
455.514	95.25
455.734	78.25
455.955	97.25
456.175	90.25
456.395	78.25
456.616	92.25
456.836	94.25
457.056	85.25
457.276	87.25
457.497	83.25
457.717	84.25
457.937	90.25
458.157	90.25
458.377	97.25
458.598	117.25
458.818	152.25
459.038	166.25
459.258	111.25
459.478	88.25
459.698	84.25
459.918	87.25
460.138	95.25
460.358	95.25
460.578	105.25
460.798	89.25
461.018	89.25
461.238	88.25
461.458	85.25
461.678	92.25
461.898	85.25
462.118	95.25
462.338	85.25
462.558	83.25
462.777	73.25
462.997	96.25
463.217	96.25
463.437	83.25
463.657	101.25
463.876	98.25
464.096	109.25
464.316	101.25
464.536	100.25
464.755	102.25
464.975	104.25
465.195	187.25
465.414	176.25
465.634	94.25
465.854	88.25
466.073	97.25
466.293	83.25
466.512	79.25
466.732	93.25
466.951	83.25
467.171	92.25
467.391	97.25
467.61	122.25
467.829	93.25
468.049	118.25
468.268	123.25
468.488	97.25
468.707	68.25
468.927	69.25
469.146	89.25
469.365	93.25
469.585	91.25
469.804	104.25
470.023	99.25
470.243	101.25
470.462	110.25
470.681	119.25
470.901	86.25
471.12	91.25
471.339	98.25
471.558	98.25
471.777	98.25
471.997	103.25
472.216	161.25
472.435	242.25
472.654	132.25
472.873	82.25
473.092	101.25
473.311	105.25
473.53	80.25
473.749	77.25
473.968	89.25
474.187	105.25
474.406	103.25
474.625	103.25
474.844	85.25
475.063	86.25
475.282	75.25
475.501	90.25
475.72	85.25
475.939	88.25
476.158	92.25
476.377	80.25
476.596	81.25
476.814	100.25
477.033	91.25
477.252	100.25
477.471	86.25
477.69	67.25
477.908	77.25
478.127	79.25
478.346	104.25
478.564	98.25
478.783	105.25
479.002	97.25
479.22	102.25
479.439	103.25
479.658	92.25
479.876	96.25
480.095	89.25
480.313	96.25
480.532	95.25
480.751	108.25
480.969	159.25
481.188	388.25
481.406	271.25
481.624	110.25
481.843	93.25
482.061	81.25
482.28	90.25
482.498	96.25
482.717	88.25
482.935	88.25
483.153	85.25
483.372	92.25
483.59	91.25
483.808	89.25
484.027	90.25
484.245	89.25
484.463	84.25
484.681	106.25
484.9	99.25
485.118	95.25
485.336	95.25
485.554	107.25
485.772	98.25
485.99	93.25
486.209	89.25
486.427	124.25
486.645	110.25
486.863	115.25
487.081	123.25
487.299	97.25
487.517	92.25
487.735	93.25
487.953	101.25
488.171	104.25
488.389	96.25
488.607	82.25
488.825	110.25
489.043	82.25
489.261	86.25
489.479	79.25
489.696	90.25
489.914	80.25
490.132	99.25
490.35	105.25
490.568	86.25
490.786	91.25
491.003	73.25
491.221	91.25
491.439	106.25
491.657	87.25
491.874	107.25
492.092	84.25
492.31	86.25
492.527	97.25
492.745	91.25
492.963	89.25
493.18	89.25
493.398	96.25
493.615	100.25
493.833	92.25
494.05	95.25
494.268	95.25
494.485	98.25
494.703	95.25
494.92	89.25
495.138	88.25
495.355	99.25
495.573	111.25
495.79	76.25
496.008	84.25
496.225	96.25
496.442	78.25
496.66	80.25
496.877	93.25
497.094	99.25
497.312	86.25
497.529	83.25
497.746	88.25
497.963	96.25
498.181	88.25
498.398	95.25
498.615	112.25
498.832	97.25
499.049	89.25
499.267	91.25
499.484	94.25
499.701	97.25
499.918	101.25
500.135	95.25
500.352	86.25
500.569	97.25
500.786	104.25
501.003	99.25
501.22	93.25
501.437	89.25
501.654	79.25
501.871	104.25
502.088	82.25
502.305	91.25
502.522	105.25
502.739	102.25
502.956	96.25
503.172	95.25
503.389	95.25
503.606	101.25
503.823	104.25
504.04	89.25
504.256	84.25
504.473	115.25
504.69	86.25
504.907	92.25
505.123	101.25
505.34	104.25
505.557	96.25
505.773	97.25
505.99	111.25
506.207	99.25
506.423	89.25
506.64	94.25
506.856	94.25
507.073	86.25
507.289	105.25
507.506	111.25
507.722	103.25
507.939	121.25
508.155	104.25
508.372	107.25
508.588	96.25
508.805	89.25
509.021	105.25
509.238	108.25
509.454	95.25
509.67	99.25
509.887	111.25
510.103	147.25
510.319	217.25
510.536	849.25
510.752	2679.25
510.968	733.25
511.184	158.25
511.401	124.25
511.617	109.25
511.833	93.25
512.049	81.25
512.265	89.25
512.481	85.25
512.698	104.25
512.914	106.25
513.13	94.25
513.346	110.25
513.562	111.25
513.778	104.25
513.994	87.25
514.21	106.25
514.426	123.25
