Data from Circ_2006_H10_HRD10591_00004.txt Node
Date: Wed Jan 03 10:26:04 EST 2024
User: Yrep
Spectrometer: HR+D1059
Trigger mode: 1
Integration Time (sec): 1.000000E-1
Scans to average: 1
Electric dark correction enabled: true
Nonlinearity correction enabled: false
Boxcar width: 0
XAxis mode: Wavelengths
Number of Pixels in Spectrum: 2048
>>>>>Begin Spectral Data<<<<<
223.165	-10.12
223.4	-10.12
223.635	-10.12
223.869	-10.12
224.104	-14.12
224.338	-13.12
224.573	-25.12
224.808	-15.12
225.042	-16.12
225.277	4.88
225.511	-5.12
225.746	2.88
225.98	6.88
226.215	-1.12
226.449	16.88
226.683	18.88
226.918	25.88
227.152	33.88
227.387	10.88
227.621	59.88
227.856	44.88
228.09	60.88
228.324	47.88
228.559	53.88
228.793	70.88
229.027	51.88
229.262	54.88
229.496	66.88
229.73	83.88
229.964	79.88
230.199	91.88
230.433	88.88
230.667	67.88
230.901	76.88
231.136	83.88
231.37	79.88
231.604	81.88
231.838	75.88
232.072	76.88
232.306	90.88
232.541	82.88
232.775	76.88
233.009	83.88
233.243	79.88
233.477	81.88
233.711	86.88
233.945	80.88
234.179	88.88
234.413	80.88
234.647	84.88
234.881	79.88
235.115	87.88
235.349	86.88
235.583	86.88
235.817	70.88
236.051	76.88
236.285	81.88
236.519	74.88
236.753	86.88
236.987	77.88
237.221	85.88
237.455	99.88
237.689	71.88
237.922	78.88
238.156	62.88
238.39	70.88
238.624	83.88
238.858	91.88
239.091	72.88
239.325	79.88
239.559	74.88
239.793	77.88
240.027	89.88
240.26	69.88
240.494	72.88
240.728	70.88
240.961	82.88
241.195	92.88
241.429	101.88
241.662	69.88
241.896	82.88
242.13	60.88
242.363	79.88
242.597	79.88
242.83	80.88
243.064	77.88
243.298	68.88
243.531	78.88
243.765	76.88
243.998	75.88
244.232	68.88
244.465	93.88
244.699	90.88
244.932	84.88
245.166	84.88
245.399	79.88
245.633	79.88
245.866	78.88
246.099	74.88
246.333	72.88
246.566	76.88
246.8	83.88
247.033	69.88
247.266	82.88
247.5	72.88
247.733	68.88
247.966	78.88
248.2	81.88
248.433	71.88
248.666	62.88
248.899	80.88
249.133	82.88
249.366	76.88
249.599	89.88
249.832	71.88
250.066	99.88
250.299	68.88
250.532	84.88
250.765	83.88
250.998	99.88
251.231	72.88
251.465	77.88
251.698	85.88
251.931	88.88
252.164	76.88
252.397	82.88
252.63	85.88
252.863	83.88
253.096	88.88
253.329	75.88
253.562	77.88
253.795	76.88
254.028	71.88
254.261	79.88
254.494	87.88
254.727	77.88
254.96	80.88
255.193	89.88
255.426	81.88
255.659	87.88
255.892	83.88
256.124	85.88
256.357	78.88
256.59	87.88
256.823	95.88
257.056	100.88
257.289	78.88
257.521	88.88
257.754	74.88
257.987	81.88
258.22	102.88
258.452	76.88
258.685	85.88
258.918	75.88
259.151	96.88
259.383	88.88
259.616	85.88
259.849	82.88
260.081	81.88
260.314	78.88
260.547	88.88
260.779	71.88
261.012	89.88
261.244	85.88
261.477	84.88
261.71	80.88
261.942	115.88
262.175	116.88
262.407	95.88
262.64	84.88
262.872	81.88
263.105	93.88
263.337	86.88
263.57	98.88
263.802	78.88
264.035	76.88
264.267	66.88
264.499	83.88
264.732	86.88
264.964	91.88
265.197	82.88
265.429	90.88
265.661	79.88
265.894	77.88
266.126	83.88
266.358	79.88
266.591	82.88
266.823	95.88
267.055	91.88
267.287	94.88
267.52	79.88
267.752	94.88
267.984	82.88
268.216	89.88
268.448	80.88
268.681	95.88
268.913	79.88
269.145	84.88
269.377	94.88
269.609	83.88
269.841	76.88
270.073	79.88
270.306	68.88
270.538	78.88
270.77	68.88
271.002	84.88
271.234	87.88
271.466	85.88
271.698	86.88
271.93	78.88
272.162	84.88
272.394	76.88
272.626	78.88
272.858	76.88
273.09	74.88
273.322	89.88
273.553	76.88
273.785	97.88
274.017	85.88
274.249	74.88
274.481	74.88
274.713	75.88
274.945	101.88
275.176	92.88
275.408	96.88
275.64	93.88
275.872	98.88
276.104	83.88
276.335	99.88
276.567	95.88
276.799	96.88
277.031	104.88
277.262	94.88
277.494	86.88
277.726	88.88
277.957	85.88
278.189	90.88
278.421	92.88
278.652	96.88
278.884	100.88
279.115	86.88
279.347	84.88
279.579	92.88
279.81	76.88
280.042	82.88
280.273	79.88
280.505	86.88
280.736	86.88
280.968	78.88
281.199	99.88
281.431	86.88
281.662	91.88
281.894	88.88
282.125	91.88
282.356	111.88
282.588	144.88
282.819	101.88
283.051	98.88
283.282	110.88
283.513	86.88
283.745	82.88
283.976	102.88
284.207	92.88
284.439	94.88
284.67	77.88
284.901	92.88
285.132	87.88
285.364	93.88
285.595	92.88
285.826	91.88
286.057	81.88
286.288	104.88
286.52	98.88
286.751	84.88
286.982	84.88
287.213	78.88
287.444	85.88
287.675	110.88
287.906	83.88
288.138	92.88
288.369	99.88
288.6	96.88
288.831	89.88
289.062	92.88
289.293	81.88
289.524	81.88
289.755	84.88
289.986	86.88
290.217	88.88
290.448	86.88
290.679	91.88
290.91	84.88
291.141	88.88
291.371	95.88
291.602	96.88
291.833	91.88
292.064	82.88
292.295	88.88
292.526	83.88
292.757	88.88
292.987	86.88
293.218	83.88
293.449	72.88
293.68	87.88
293.91	89.88
294.141	103.88
294.372	87.88
294.603	90.88
294.833	82.88
295.064	95.88
295.295	80.88
295.525	82.88
295.756	101.88
295.987	124.88
296.217	132.88
296.448	114.88
296.679	71.88
296.909	84.88
297.14	77.88
297.37	85.88
297.601	88.88
297.831	77.88
298.062	72.88
298.292	95.88
298.523	95.88
298.753	71.88
298.984	72.88
299.214	85.88
299.445	94.88
299.675	85.88
299.905	83.88
300.136	99.88
300.366	82.88
300.597	92.88
300.827	97.88
301.057	92.88
301.288	109.88
301.518	110.88
301.748	83.88
301.979	101.88
302.209	109.88
302.439	99.88
302.669	96.88
302.9	84.88
303.13	99.88
303.36	91.88
303.59	102.88
303.82	94.88
304.051	93.88
304.281	78.88
304.511	97.88
304.741	84.88
304.971	87.88
305.201	87.88
305.431	85.88
305.661	98.88
305.891	86.88
306.121	91.88
306.352	103.88
306.582	100.88
306.812	91.88
307.042	92.88
307.272	88.88
307.502	99.88
307.731	92.88
307.961	100.88
308.191	86.88
308.421	79.88
308.651	92.88
308.881	86.88
309.111	100.88
309.341	102.88
309.571	102.88
309.8	99.88
310.03	93.88
310.26	72.88
310.49	95.88
310.72	103.88
310.949	93.88
311.179	94.88
311.409	101.88
311.639	100.88
311.868	95.88
312.098	86.88
312.328	104.88
312.557	99.88
312.787	90.88
313.017	107.88
313.246	92.88
313.476	103.88
313.706	103.88
313.935	95.88
314.165	103.88
314.394	97.88
314.624	98.88
314.853	90.88
315.083	95.88
315.312	104.88
315.542	88.88
315.771	86.88
316.001	85.88
316.23	89.88
316.46	87.88
316.689	94.88
316.919	86.88
317.148	88.88
317.377	107.88
317.607	86.88
317.836	86.88
318.065	86.88
318.295	90.88
318.524	97.88
318.753	91.88
318.983	116.88
319.212	102.88
319.441	113.88
319.67	112.88
319.9	94.88
320.129	73.88
320.358	100.88
320.587	95.88
320.816	99.88
321.046	100.88
321.275	88.88
321.504	87.88
321.733	92.88
321.962	95.88
322.191	95.88
322.42	113.88
322.649	105.88
322.878	105.88
323.108	115.88
323.337	122.88
323.566	124.88
323.795	134.88
324.024	208.88
324.253	375.88
324.482	769.88
324.71	1531.88
324.939	2032.88
325.168	756.88
325.397	226.88
325.626	149.88
325.855	120.88
326.084	133.88
326.313	116.88
326.542	146.88
326.77	217.88
326.999	443.88
327.228	866.88
327.457	1567.88
327.686	1250.88
327.914	346.88
328.143	184.88
328.372	144.88
328.6	124.88
328.829	122.88
329.058	124.88
329.287	118.88
329.515	92.88
329.744	111.88
329.972	111.88
330.201	101.88
330.43	95.88
330.658	110.88
330.887	118.88
331.115	120.88
331.344	98.88
331.572	98.88
331.801	102.88
332.03	102.88
332.258	98.88
332.486	94.88
332.715	93.88
332.943	96.88
333.172	105.88
333.4	89.88
333.629	115.88
333.857	101.88
334.085	104.88
334.314	98.88
334.542	108.88
334.771	100.88
334.999	98.88
335.227	97.88
335.455	85.88
335.684	93.88
335.912	92.88
336.14	85.88
336.369	103.88
336.597	101.88
336.825	106.88
337.053	96.88
337.281	95.88
337.51	85.88
337.738	89.88
337.966	94.88
338.194	96.88
338.422	103.88
338.65	109.88
338.878	84.88
339.106	86.88
339.334	95.88
339.562	90.88
339.79	82.88
340.018	104.88
340.246	95.88
340.474	93.88
340.702	94.88
340.93	90.88
341.158	92.88
341.386	84.88
341.614	99.88
341.842	78.88
342.07	103.88
342.298	80.88
342.526	86.88
342.754	77.88
342.981	75.88
343.209	102.88
343.437	109.88
343.665	101.88
343.893	88.88
344.12	100.88
344.348	79.88
344.576	87.88
344.804	75.88
345.031	77.88
345.259	99.88
345.487	99.88
345.714	93.88
345.942	85.88
346.17	85.88
346.397	96.88
346.625	79.88
346.853	77.88
347.08	91.88
347.308	95.88
347.535	87.88
347.763	102.88
347.99	96.88
348.218	98.88
348.445	87.88
348.673	98.88
348.9	103.88
349.128	84.88
349.355	91.88
349.583	94.88
349.81	99.88
350.037	94.88
350.265	92.88
350.492	101.88
350.72	97.88
350.947	104.88
351.174	103.88
351.402	108.88
351.629	96.88
351.856	80.88
352.083	88.88
352.311	93.88
352.538	101.88
352.765	100.88
352.992	118.88
353.22	122.88
353.447	98.88
353.674	97.88
353.901	93.88
354.128	110.88
354.355	87.88
354.583	105.88
354.81	98.88
355.037	92.88
355.264	101.88
355.491	87.88
355.718	99.88
355.945	106.88
356.172	102.88
356.399	100.88
356.626	88.88
356.853	94.88
357.08	93.88
357.307	88.88
357.534	86.88
357.761	85.88
357.988	103.88
358.215	104.88
358.441	110.88
358.668	108.88
358.895	91.88
359.122	83.88
359.349	80.88
359.576	86.88
359.802	94.88
360.029	99.88
360.256	102.88
360.483	85.88
360.709	95.88
360.936	94.88
361.163	105.88
361.39	97.88
361.616	87.88
361.843	86.88
362.07	97.88
362.296	96.88
362.523	79.88
362.749	104.88
362.976	76.88
363.203	91.88
363.429	68.88
363.656	84.88
363.882	97.88
364.109	90.88
364.335	94.88
364.562	91.88
364.788	94.88
365.015	98.88
365.241	102.88
365.468	100.88
365.694	104.88
365.92	94.88
366.147	83.88
366.373	94.88
366.599	87.88
366.826	95.88
367.052	96.88
367.278	95.88
367.505	83.88
367.731	103.88
367.957	83.88
368.184	92.88
368.41	106.88
368.636	111.88
368.862	107.88
369.089	109.88
369.315	100.88
369.541	88.88
369.767	86.88
369.993	88.88
370.219	93.88
370.445	93.88
370.672	91.88
370.898	84.88
371.124	83.88
371.35	102.88
371.576	74.88
371.802	98.88
372.028	99.88
372.254	85.88
372.48	89.88
372.706	87.88
372.932	80.88
373.158	82.88
373.384	102.88
373.61	92.88
373.835	93.88
374.061	87.88
374.287	105.88
374.513	86.88
374.739	102.88
374.965	104.88
375.191	91.88
375.416	85.88
375.642	89.88
375.868	100.88
376.094	97.88
376.319	95.88
376.545	99.88
376.771	90.88
376.997	101.88
377.222	90.88
377.448	87.88
377.674	92.88
377.899	96.88
378.125	87.88
378.35	88.88
378.576	84.88
378.802	102.88
379.027	84.88
379.253	86.88
379.478	108.88
379.704	101.88
379.929	110.88
380.155	87.88
380.38	87.88
380.606	88.88
380.831	102.88
381.057	114.88
381.282	99.88
381.507	98.88
381.733	94.88
381.958	108.88
382.184	108.88
382.409	108.88
382.634	104.88
382.86	98.88
383.085	113.88
383.31	119.88
383.535	103.88
383.761	104.88
383.986	114.88
384.211	121.88
384.436	103.88
384.662	117.88
384.887	112.88
385.112	109.88
385.337	116.88
385.562	116.88
385.787	110.88
386.013	130.88
386.238	135.88
386.463	100.88
386.688	124.88
386.913	114.88
387.138	112.88
387.363	122.88
387.588	103.88
387.813	105.88
388.038	125.88
388.263	130.88
388.488	116.88
388.713	95.88
388.938	106.88
389.163	103.88
389.387	95.88
389.612	101.88
389.837	91.88
390.062	100.88
390.287	84.88
390.512	91.88
390.736	107.88
390.961	93.88
391.186	100.88
391.411	103.88
391.636	99.88
391.86	93.88
392.085	92.88
392.31	76.88
392.534	94.88
392.759	98.88
392.984	94.88
393.208	101.88
393.433	116.88
393.658	101.88
393.882	86.88
394.107	95.88
394.331	90.88
394.556	88.88
394.78	93.88
395.005	91.88
395.229	77.88
395.454	106.88
395.678	90.88
395.903	94.88
396.127	91.88
396.352	92.88
396.576	91.88
396.801	94.88
397.025	96.88
397.249	88.88
397.474	89.88
397.698	80.88
397.922	91.88
398.147	87.88
398.371	83.88
398.595	83.88
398.82	85.88
399.044	80.88
399.268	97.88
399.492	91.88
399.717	101.88
399.941	112.88
400.165	101.88
400.389	101.88
400.613	94.88
400.837	88.88
401.062	78.88
401.286	84.88
401.51	99.88
401.734	101.88
401.958	98.88
402.182	117.88
402.406	145.88
402.63	111.88
402.854	101.88
403.078	101.88
403.302	78.88
403.526	86.88
403.75	73.88
403.974	108.88
404.198	92.88
404.422	98.88
404.645	76.88
404.869	74.88
405.093	94.88
405.317	83.88
405.541	104.88
405.765	84.88
405.988	107.88
406.212	152.88
406.436	208.88
406.66	144.88
406.883	95.88
407.107	86.88
407.331	97.88
407.555	106.88
407.778	96.88
408.002	100.88
408.226	77.88
408.449	89.88
408.673	80.88
408.896	95.88
409.12	103.88
409.344	94.88
409.567	95.88
409.791	105.88
410.014	93.88
410.238	99.88
410.461	97.88
410.685	98.88
410.908	101.88
411.132	115.88
411.355	105.88
411.578	92.88
411.802	93.88
412.025	91.88
412.249	90.88
412.472	91.88
412.695	96.88
412.919	88.88
413.142	98.88
413.365	94.88
413.589	97.88
413.812	84.88
414.035	83.88
414.258	87.88
414.482	96.88
414.705	106.88
414.928	111.88
415.151	82.88
415.374	92.88
415.597	92.88
415.821	86.88
416.044	99.88
416.267	85.88
416.49	94.88
416.713	94.88
416.936	88.88
417.159	89.88
417.382	93.88
417.605	91.88
417.828	93.88
418.051	101.88
418.274	95.88
418.497	100.88
418.72	96.88
418.943	95.88
419.166	79.88
419.389	97.88
419.611	99.88
419.834	95.88
420.057	95.88
420.28	86.88
420.503	80.88
420.726	76.88
420.948	96.88
421.171	92.88
421.394	103.88
421.617	85.88
421.839	92.88
422.062	89.88
422.285	92.88
422.507	96.88
422.73	94.88
422.953	98.88
423.175	89.88
423.398	95.88
423.621	98.88
423.843	79.88
424.066	79.88
424.288	91.88
424.511	110.88
424.733	99.88
424.956	96.88
425.178	89.88
425.401	93.88
425.623	103.88
425.846	95.88
426.068	79.88
426.291	86.88
426.513	107.88
426.735	89.88
426.958	82.88
427.18	101.88
427.402	123.88
427.625	163.88
427.847	124.88
428.069	97.88
428.292	95.88
428.514	95.88
428.736	89.88
428.958	71.88
429.181	73.88
429.403	90.88
429.625	86.88
429.847	103.88
430.069	97.88
430.292	94.88
430.514	101.88
430.736	99.88
430.958	81.88
431.18	78.88
431.402	85.88
431.624	82.88
431.846	86.88
432.068	85.88
432.29	87.88
432.512	109.88
432.734	94.88
432.956	95.88
433.178	107.88
433.4	95.88
433.622	93.88
433.844	89.88
434.066	91.88
434.287	82.88
434.509	91.88
434.731	93.88
434.953	85.88
435.175	90.88
435.397	102.88
435.618	89.88
435.84	101.88
436.062	108.88
436.284	102.88
436.505	101.88
436.727	115.88
436.949	87.88
437.17	96.88
437.392	88.88
437.614	86.88
437.835	108.88
438.057	118.88
438.278	111.88
438.5	111.88
438.721	121.88
438.943	103.88
439.165	95.88
439.386	84.88
439.608	100.88
439.829	101.88
440.05	119.88
440.272	142.88
440.493	96.88
440.715	86.88
440.936	97.88
441.158	95.88
441.379	78.88
441.6	88.88
441.822	89.88
442.043	88.88
442.264	102.88
442.486	113.88
442.707	98.88
442.928	97.88
443.149	134.88
443.371	113.88
443.592	110.88
443.813	119.88
444.034	106.88
444.255	87.88
444.476	92.88
444.698	97.88
444.919	91.88
445.14	130.88
445.361	121.88
445.582	109.88
445.803	144.88
446.024	123.88
446.245	130.88
446.466	102.88
446.687	97.88
446.908	108.88
447.129	96.88
447.35	100.88
447.571	109.88
447.792	87.88
448.013	112.88
448.234	93.88
448.455	98.88
448.675	126.88
448.896	96.88
449.117	120.88
449.338	108.88
449.559	117.88
449.779	113.88
450	98.88
450.221	79.88
450.442	97.88
450.662	86.88
450.883	98.88
451.104	108.88
451.324	79.88
451.545	82.88
451.766	104.88
451.986	85.88
452.207	92.88
452.428	89.88
452.648	100.88
452.869	106.88
453.089	111.88
453.31	122.88
453.53	97.88
453.751	91.88
453.971	91.88
454.192	97.88
454.412	103.88
454.633	92.88
454.853	86.88
455.073	82.88
455.294	88.88
455.514	102.88
455.734	84.88
455.955	83.88
456.175	91.88
456.395	87.88
456.616	103.88
456.836	96.88
457.056	82.88
457.276	93.88
457.497	105.88
457.717	96.88
457.937	95.88
458.157	87.88
458.377	96.88
458.598	94.88
458.818	142.88
459.038	164.88
459.258	102.88
459.478	82.88
459.698	83.88
459.918	94.88
460.138	85.88
460.358	93.88
460.578	84.88
460.798	104.88
461.018	91.88
461.238	85.88
461.458	77.88
461.678	87.88
461.898	85.88
462.118	89.88
462.338	86.88
462.558	88.88
462.777	82.88
462.997	97.88
463.217	92.88
463.437	97.88
463.657	102.88
463.876	91.88
464.096	87.88
464.316	91.88
464.536	95.88
464.755	98.88
464.975	102.88
465.195	163.88
465.414	146.88
465.634	105.88
465.854	96.88
466.073	95.88
466.293	87.88
466.512	106.88
466.732	86.88
466.951	103.88
467.171	103.88
467.391	91.88
467.61	101.88
467.829	97.88
468.049	81.88
468.268	97.88
468.488	82.88
468.707	82.88
468.927	88.88
469.146	80.88
469.365	99.88
469.585	99.88
469.804	82.88
470.023	92.88
470.243	94.88
470.462	119.88
470.681	107.88
470.901	84.88
471.12	104.88
471.339	87.88
471.558	93.88
471.777	86.88
471.997	81.88
472.216	80.88
472.435	110.88
472.654	87.88
472.873	94.88
473.092	86.88
473.311	84.88
473.53	76.88
473.749	86.88
473.968	84.88
474.187	98.88
474.406	100.88
474.625	88.88
474.844	79.88
475.063	83.88
475.282	70.88
475.501	79.88
475.72	80.88
475.939	88.88
476.158	93.88
476.377	85.88
476.596	79.88
476.814	80.88
477.033	90.88
477.252	84.88
477.471	81.88
477.69	80.88
477.908	82.88
478.127	89.88
478.346	88.88
478.564	99.88
478.783	95.88
479.002	97.88
479.22	93.88
479.439	101.88
479.658	109.88
479.876	97.88
480.095	96.88
480.313	99.88
480.532	102.88
480.751	76.88
480.969	94.88
481.188	112.88
481.406	101.88
481.624	86.88
481.843	94.88
482.061	89.88
482.28	99.88
482.498	89.88
482.717	97.88
482.935	94.88
483.153	100.88
483.372	91.88
483.59	86.88
483.808	105.88
484.027	85.88
484.245	97.88
484.463	104.88
484.681	97.88
484.9	97.88
485.118	104.88
485.336	92.88
485.554	104.88
485.772	114.88
485.99	99.88
486.209	110.88
486.427	110.88
486.645	107.88
486.863	127.88
487.081	109.88
487.299	98.88
487.517	96.88
487.735	88.88
487.953	108.88
488.171	103.88
488.389	94.88
488.607	90.88
488.825	79.88
489.043	94.88
489.261	104.88
489.479	96.88
489.696	102.88
489.914	100.88
490.132	95.88
490.35	94.88
490.568	87.88
490.786	91.88
491.003	94.88
491.221	94.88
491.439	94.88
491.657	90.88
491.874	103.88
492.092	94.88
492.31	88.88
492.527	85.88
492.745	90.88
492.963	83.88
493.18	89.88
493.398	94.88
493.615	99.88
493.833	96.88
494.05	95.88
494.268	98.88
494.485	88.88
494.703	91.88
494.92	92.88
495.138	95.88
495.355	91.88
495.573	95.88
495.79	101.88
496.008	91.88
496.225	82.88
496.442	110.88
496.66	101.88
496.877	94.88
497.094	85.88
497.312	94.88
497.529	80.88
497.746	86.88
497.963	84.88
498.181	93.88
498.398	91.88
498.615	115.88
498.832	110.88
499.049	94.88
499.267	104.88
499.484	71.88
499.701	105.88
499.918	99.88
500.135	80.88
500.352	93.88
500.569	79.88
500.786	93.88
501.003	102.88
501.22	90.88
501.437	67.88
501.654	88.88
501.871	102.88
502.088	83.88
502.305	101.88
502.522	86.88
502.739	100.88
502.956	98.88
503.172	90.88
503.389	84.88
503.606	97.88
503.823	84.88
504.04	104.88
504.256	102.88
504.473	99.88
504.69	90.88
504.907	82.88
505.123	103.88
505.34	82.88
505.557	94.88
505.773	88.88
505.99	96.88
506.207	86.88
506.423	87.88
506.64	85.88
506.856	80.88
507.073	87.88
507.289	83.88
507.506	100.88
507.722	101.88
507.939	124.88
508.155	96.88
508.372	88.88
508.588	97.88
508.805	83.88
509.021	94.88
509.238	93.88
509.454	102.88
509.67	100.88
509.887	94.88
510.103	118.88
510.319	223.88
510.536	683.88
510.752	2197.88
510.968	614.88
511.184	154.88
511.401	120.88
511.617	100.88
511.833	75.88
512.049	83.88
512.265	91.88
512.481	102.88
512.698	84.88
512.914	96.88
513.13	93.88
513.346	96.88
513.562	98.88
513.778	92.88
513.994	81.88
514.21	98.88
514.426	101.88
514.642	117.88
514.858	126.88
515.074	160.88
