Data from Circ_2006_H10_HRD10591_00061.txt Node
Date: Wed Jan 03 10:26:16 EST 2024
User: Yrep
Spectrometer: HR+D1059
Trigger mode: 1
Integration Time (sec): 1.000000E-1
Scans to average: 1
Electric dark correction enabled: true
Nonlinearity correction enabled: false
Boxcar width: 0
XAxis mode: Wavelengths
Number of Pixels in Spectrum: 2048
>>>>>Begin Spectral Data<<<<<
223.165	-10.88
223.4	-10.88
223.635	-10.88
223.869	-10.88
224.104	-19.88
224.338	-12.88
224.573	-27.88
224.808	2.12
225.042	-17.88
225.277	-1.88
225.511	-14.88
225.746	5.12
225.98	3.12
226.215	13.12
226.449	16.12
226.683	20.12
226.918	21.12
227.152	36.12
227.387	50.12
227.621	55.12
227.856	49.12
228.09	41.12
228.324	54.12
228.559	56.12
228.793	61.12
229.027	63.12
229.262	71.12
229.496	73.12
229.73	94.12
229.964	92.12
230.199	72.12
230.433	81.12
230.667	79.12
230.901	77.12
231.136	86.12
231.37	88.12
231.604	80.12
231.838	87.12
232.072	79.12
232.306	88.12
232.541	85.12
232.775	87.12
233.009	70.12
233.243	88.12
233.477	84.12
233.711	71.12
233.945	89.12
234.179	76.12
234.413	75.12
234.647	88.12
234.881	88.12
235.115	65.12
235.349	71.12
235.583	91.12
235.817	78.12
236.051	75.12
236.285	84.12
236.519	73.12
236.753	79.12
236.987	72.12
237.221	99.12
237.455	76.12
237.689	72.12
237.922	76.12
238.156	70.12
238.39	80.12
238.624	78.12
238.858	76.12
239.091	87.12
239.325	92.12
239.559	86.12
239.793	89.12
240.027	72.12
240.26	79.12
240.494	79.12
240.728	83.12
240.961	82.12
241.195	84.12
241.429	74.12
241.662	84.12
241.896	71.12
242.13	73.12
242.363	77.12
242.597	72.12
242.83	88.12
243.064	71.12
243.298	73.12
243.531	82.12
243.765	86.12
243.998	84.12
244.232	82.12
244.465	83.12
244.699	81.12
244.932	85.12
245.166	72.12
245.399	81.12
245.633	94.12
245.866	79.12
246.099	86.12
246.333	78.12
246.566	74.12
246.8	89.12
247.033	73.12
247.266	88.12
247.5	86.12
247.733	75.12
247.966	75.12
248.2	78.12
248.433	71.12
248.666	75.12
248.899	80.12
249.133	98.12
249.366	91.12
249.599	74.12
249.832	87.12
250.066	99.12
250.299	92.12
250.532	79.12
250.765	80.12
250.998	73.12
251.231	84.12
251.465	78.12
251.698	72.12
251.931	80.12
252.164	80.12
252.397	81.12
252.63	95.12
252.863	71.12
253.096	54.12
253.329	76.12
253.562	78.12
253.795	83.12
254.028	72.12
254.261	85.12
254.494	87.12
254.727	84.12
254.96	91.12
255.193	79.12
255.426	85.12
255.659	78.12
255.892	91.12
256.124	75.12
256.357	88.12
256.59	80.12
256.823	89.12
257.056	79.12
257.289	84.12
257.521	78.12
257.754	86.12
257.987	87.12
258.22	90.12
258.452	82.12
258.685	79.12
258.918	79.12
259.151	75.12
259.383	81.12
259.616	95.12
259.849	84.12
260.081	91.12
260.314	97.12
260.547	89.12
260.779	95.12
261.012	78.12
261.244	91.12
261.477	87.12
261.71	96.12
261.942	118.12
262.175	116.12
262.407	98.12
262.64	89.12
262.872	89.12
263.105	89.12
263.337	93.12
263.57	85.12
263.802	90.12
264.035	85.12
264.267	94.12
264.499	84.12
264.732	91.12
264.964	94.12
265.197	86.12
265.429	83.12
265.661	80.12
265.894	90.12
266.126	86.12
266.358	100.12
266.591	78.12
266.823	85.12
267.055	81.12
267.287	86.12
267.52	103.12
267.752	94.12
267.984	102.12
268.216	84.12
268.448	88.12
268.681	85.12
268.913	88.12
269.145	85.12
269.377	82.12
269.609	88.12
269.841	86.12
270.073	77.12
270.306	79.12
270.538	84.12
270.77	73.12
271.002	80.12
271.234	88.12
271.466	76.12
271.698	92.12
271.93	100.12
272.162	87.12
272.394	99.12
272.626	89.12
272.858	100.12
273.09	86.12
273.322	72.12
273.553	68.12
273.785	87.12
274.017	87.12
274.249	89.12
274.481	85.12
274.713	99.12
274.945	86.12
275.176	86.12
275.408	84.12
275.64	89.12
275.872	77.12
276.104	91.12
276.335	93.12
276.567	108.12
276.799	117.12
277.031	97.12
277.262	103.12
277.494	73.12
277.726	86.12
277.957	92.12
278.189	89.12
278.421	93.12
278.652	96.12
278.884	90.12
279.115	83.12
279.347	83.12
279.579	84.12
279.81	82.12
280.042	84.12
280.273	96.12
280.505	94.12
280.736	88.12
280.968	96.12
281.199	89.12
281.431	87.12
281.662	86.12
281.894	94.12
282.125	89.12
282.356	146.12
282.588	173.12
282.819	124.12
283.051	86.12
283.282	95.12
283.513	92.12
283.745	96.12
283.976	77.12
284.207	90.12
284.439	91.12
284.67	109.12
284.901	94.12
285.132	95.12
285.364	74.12
285.595	77.12
285.826	83.12
286.057	100.12
286.288	86.12
286.52	85.12
286.751	94.12
286.982	85.12
287.213	88.12
287.444	89.12
287.675	88.12
287.906	98.12
288.138	89.12
288.369	99.12
288.6	98.12
288.831	97.12
289.062	90.12
289.293	83.12
289.524	94.12
289.755	104.12
289.986	86.12
290.217	86.12
290.448	87.12
290.679	90.12
290.91	103.12
291.141	91.12
291.371	87.12
291.602	99.12
291.833	95.12
292.064	85.12
292.295	84.12
292.526	89.12
292.757	96.12
292.987	75.12
293.218	84.12
293.449	89.12
293.68	77.12
293.91	95.12
294.141	88.12
294.372	92.12
294.603	87.12
294.833	93.12
295.064	89.12
295.295	94.12
295.525	104.12
295.756	110.12
295.987	118.12
296.217	140.12
296.448	139.12
296.679	100.12
296.909	90.12
297.14	86.12
297.37	95.12
297.601	97.12
297.831	76.12
298.062	97.12
298.292	82.12
298.523	95.12
298.753	87.12
298.984	78.12
299.214	88.12
299.445	92.12
299.675	88.12
299.905	106.12
300.136	91.12
300.366	93.12
300.597	110.12
300.827	102.12
301.057	105.12
301.288	99.12
301.518	84.12
301.748	87.12
301.979	109.12
302.209	97.12
302.439	100.12
302.669	99.12
302.9	92.12
303.13	88.12
303.36	91.12
303.59	109.12
303.82	113.12
304.051	98.12
304.281	89.12
304.511	109.12
304.741	92.12
304.971	84.12
305.201	92.12
305.431	106.12
305.661	90.12
305.891	96.12
306.121	93.12
306.352	101.12
306.582	104.12
306.812	99.12
307.042	106.12
307.272	91.12
307.502	103.12
307.731	81.12
307.961	93.12
308.191	109.12
308.421	96.12
308.651	93.12
308.881	106.12
309.111	105.12
309.341	95.12
309.571	100.12
309.8	103.12
310.03	92.12
310.26	99.12
310.49	89.12
310.72	102.12
310.949	94.12
311.179	88.12
311.409	99.12
311.639	96.12
311.868	89.12
312.098	88.12
312.328	95.12
312.557	92.12
312.787	103.12
313.017	112.12
313.246	87.12
313.476	88.12
313.706	102.12
313.935	110.12
314.165	98.12
314.394	118.12
314.624	103.12
314.853	96.12
315.083	99.12
315.312	95.12
315.542	88.12
315.771	102.12
316.001	86.12
316.23	96.12
316.46	97.12
316.689	96.12
316.919	98.12
317.148	103.12
317.377	105.12
317.607	94.12
317.836	90.12
318.065	95.12
318.295	91.12
318.524	106.12
318.753	92.12
318.983	104.12
319.212	115.12
319.441	116.12
319.67	96.12
319.9	99.12
320.129	94.12
320.358	88.12
320.587	83.12
320.816	104.12
321.046	100.12
321.275	91.12
321.504	89.12
321.733	109.12
321.962	99.12
322.191	101.12
322.42	115.12
322.649	116.12
322.878	122.12
323.108	139.12
323.337	123.12
323.566	137.12
323.795	175.12
324.024	231.12
324.253	487.12
324.482	1029.12
324.71	2141.12
324.939	2802.12
325.168	1007.12
325.397	289.12
325.626	173.12
325.855	141.12
326.084	137.12
326.313	141.12
326.542	172.12
326.77	259.12
326.999	555.12
327.228	1182.12
327.457	2147.12
327.686	1669.12
327.914	447.12
328.143	225.12
328.372	179.12
328.6	145.12
328.829	123.12
329.058	132.12
329.287	141.12
329.515	119.12
329.744	115.12
329.972	117.12
330.201	128.12
330.43	150.12
330.658	145.12
330.887	158.12
331.115	137.12
331.344	116.12
331.572	100.12
331.801	111.12
332.03	123.12
332.258	105.12
332.486	96.12
332.715	90.12
332.943	88.12
333.172	102.12
333.4	103.12
333.629	106.12
333.857	116.12
334.085	117.12
334.314	125.12
334.542	156.12
334.771	149.12
334.999	115.12
335.227	98.12
335.455	100.12
335.684	114.12
335.912	101.12
336.14	103.12
336.369	107.12
336.597	97.12
336.825	104.12
337.053	94.12
337.281	98.12
337.51	102.12
337.738	97.12
337.966	93.12
338.194	92.12
338.422	107.12
338.65	93.12
338.878	93.12
339.106	104.12
339.334	93.12
339.562	86.12
339.79	87.12
340.018	89.12
340.246	89.12
340.474	101.12
340.702	84.12
340.93	93.12
341.158	98.12
341.386	93.12
341.614	101.12
341.842	114.12
342.07	95.12
342.298	101.12
342.526	92.12
342.754	93.12
342.981	79.12
343.209	97.12
343.437	93.12
343.665	83.12
343.893	88.12
344.12	90.12
344.348	80.12
344.576	92.12
344.804	98.12
345.031	100.12
345.259	109.12
345.487	103.12
345.714	96.12
345.942	108.12
346.17	100.12
346.397	101.12
346.625	92.12
346.853	100.12
347.08	94.12
347.308	85.12
347.535	94.12
347.763	107.12
347.99	104.12
348.218	110.12
348.445	102.12
348.673	110.12
348.9	95.12
349.128	103.12
349.355	96.12
349.583	99.12
349.81	103.12
350.037	94.12
350.265	93.12
350.492	103.12
350.72	92.12
350.947	102.12
351.174	118.12
351.402	115.12
351.629	94.12
351.856	108.12
352.083	119.12
352.311	115.12
352.538	109.12
352.765	116.12
352.992	111.12
353.22	123.12
353.447	111.12
353.674	103.12
353.901	101.12
354.128	99.12
354.355	100.12
354.583	87.12
354.81	98.12
355.037	99.12
355.264	101.12
355.491	96.12
355.718	93.12
355.945	86.12
356.172	105.12
356.399	93.12
356.626	95.12
356.853	90.12
357.08	91.12
357.307	82.12
357.534	95.12
357.761	93.12
357.988	94.12
358.215	92.12
358.441	102.12
358.668	84.12
358.895	91.12
359.122	90.12
359.349	89.12
359.576	97.12
359.802	92.12
360.029	114.12
360.256	123.12
360.483	97.12
360.709	87.12
360.936	110.12
361.163	95.12
361.39	105.12
361.616	99.12
361.843	86.12
362.07	99.12
362.296	108.12
362.523	97.12
362.749	90.12
362.976	85.12
363.203	99.12
363.429	89.12
363.656	100.12
363.882	94.12
364.109	101.12
364.335	85.12
364.562	89.12
364.788	76.12
365.015	86.12
365.241	102.12
365.468	100.12
365.694	111.12
365.92	99.12
366.147	92.12
366.373	113.12
366.599	89.12
366.826	87.12
367.052	112.12
367.278	103.12
367.505	97.12
367.731	85.12
367.957	95.12
368.184	87.12
368.41	96.12
368.636	111.12
368.862	130.12
369.089	105.12
369.315	90.12
369.541	78.12
369.767	94.12
369.993	95.12
370.219	80.12
370.445	75.12
370.672	85.12
370.898	100.12
371.124	92.12
371.35	89.12
371.576	82.12
371.802	87.12
372.028	84.12
372.254	84.12
372.48	92.12
372.706	85.12
372.932	82.12
373.158	84.12
373.384	87.12
373.61	103.12
373.835	92.12
374.061	83.12
374.287	89.12
374.513	99.12
374.739	94.12
374.965	99.12
375.191	97.12
375.416	74.12
375.642	95.12
375.868	89.12
376.094	71.12
376.319	97.12
376.545	101.12
376.771	88.12
376.997	91.12
377.222	108.12
377.448	95.12
377.674	91.12
377.899	88.12
378.125	100.12
378.35	93.12
378.576	87.12
378.802	85.12
379.027	93.12
379.253	92.12
379.478	100.12
379.704	83.12
379.929	89.12
380.155	95.12
380.38	96.12
380.606	84.12
380.831	88.12
381.057	97.12
381.282	110.12
381.507	99.12
381.733	100.12
381.958	102.12
382.184	115.12
382.409	98.12
382.634	115.12
382.86	100.12
383.085	110.12
383.31	103.12
383.535	107.12
383.761	97.12
383.986	82.12
384.211	108.12
384.436	104.12
384.662	99.12
384.887	120.12
385.112	109.12
385.337	116.12
385.562	119.12
385.787	103.12
386.013	107.12
386.238	116.12
386.463	105.12
386.688	102.12
386.913	97.12
387.138	104.12
387.363	115.12
387.588	112.12
387.813	108.12
388.038	95.12
388.263	100.12
388.488	112.12
388.713	94.12
388.938	107.12
389.163	92.12
389.387	102.12
389.612	85.12
389.837	92.12
390.062	96.12
390.287	89.12
390.512	99.12
390.736	95.12
390.961	99.12
391.186	92.12
391.411	101.12
391.636	108.12
391.86	89.12
392.085	75.12
392.31	82.12
392.534	86.12
392.759	99.12
392.984	97.12
393.208	95.12
393.433	93.12
393.658	96.12
393.882	84.12
394.107	94.12
394.331	83.12
394.556	93.12
394.78	95.12
395.005	94.12
395.229	95.12
395.454	93.12
395.678	86.12
395.903	104.12
396.127	89.12
396.352	95.12
396.576	83.12
396.801	104.12
397.025	81.12
397.249	79.12
397.474	71.12
397.698	93.12
397.922	88.12
398.147	98.12
398.371	88.12
398.595	104.12
398.82	86.12
399.044	91.12
399.268	94.12
399.492	81.12
399.717	91.12
399.941	91.12
400.165	99.12
400.389	102.12
400.613	95.12
400.837	95.12
401.062	100.12
401.286	94.12
401.51	94.12
401.734	93.12
401.958	104.12
402.182	146.12
402.406	170.12
402.63	132.12
402.854	93.12
403.078	86.12
403.302	85.12
403.526	78.12
403.75	92.12
403.974	84.12
404.198	93.12
404.422	89.12
404.645	87.12
404.869	88.12
405.093	88.12
405.317	97.12
405.541	92.12
405.765	99.12
405.988	129.12
406.212	202.12
406.436	241.12
406.66	166.12
406.883	104.12
407.107	105.12
407.331	93.12
407.555	100.12
407.778	96.12
408.002	89.12
408.226	97.12
408.449	89.12
408.673	79.12
408.896	105.12
409.12	91.12
409.344	93.12
409.567	88.12
409.791	91.12
410.014	84.12
410.238	95.12
410.461	91.12
410.685	89.12
410.908	87.12
411.132	114.12
411.355	91.12
411.578	100.12
411.802	89.12
412.025	85.12
412.249	115.12
412.472	97.12
412.695	91.12
412.919	86.12
413.142	91.12
413.365	95.12
413.589	105.12
413.812	101.12
414.035	99.12
414.258	89.12
414.482	103.12
414.705	88.12
414.928	96.12
415.151	91.12
415.374	91.12
415.597	98.12
415.821	84.12
416.044	94.12
416.267	81.12
416.49	88.12
416.713	68.12
416.936	90.12
417.159	84.12
417.382	91.12
417.605	89.12
417.828	113.12
418.051	98.12
418.274	101.12
418.497	100.12
418.72	85.12
418.943	92.12
419.166	96.12
419.389	95.12
419.611	81.12
419.834	95.12
420.057	114.12
420.28	80.12
420.503	83.12
420.726	94.12
420.948	95.12
421.171	85.12
421.394	97.12
421.617	103.12
421.839	91.12
422.062	95.12
422.285	80.12
422.507	107.12
422.73	104.12
422.953	102.12
423.175	89.12
423.398	101.12
423.621	83.12
423.843	90.12
424.066	97.12
424.288	88.12
424.511	86.12
424.733	93.12
424.956	109.12
425.178	102.12
425.401	111.12
425.623	93.12
425.846	93.12
426.068	89.12
426.291	89.12
426.513	92.12
426.735	107.12
426.958	109.12
427.18	116.12
427.402	150.12
427.625	188.12
427.847	158.12
428.069	123.12
428.292	98.12
428.514	88.12
428.736	98.12
428.958	82.12
429.181	100.12
429.403	92.12
429.625	101.12
429.847	83.12
430.069	88.12
430.292	93.12
430.514	100.12
430.736	84.12
430.958	87.12
431.18	96.12
431.402	94.12
431.624	93.12
431.846	76.12
432.068	95.12
432.29	109.12
432.512	88.12
432.734	84.12
432.956	91.12
433.178	103.12
433.4	102.12
433.622	92.12
433.844	90.12
434.066	110.12
434.287	88.12
434.509	107.12
434.731	97.12
434.953	85.12
435.175	100.12
435.397	99.12
435.618	89.12
435.84	86.12
436.062	117.12
436.284	106.12
436.505	110.12
436.727	103.12
436.949	100.12
437.17	75.12
437.392	85.12
437.614	101.12
437.835	106.12
438.057	138.12
438.278	121.12
438.5	106.12
438.721	113.12
438.943	114.12
439.165	111.12
439.386	89.12
439.608	91.12
439.829	98.12
440.05	120.12
440.272	151.12
440.493	100.12
440.715	86.12
440.936	85.12
441.158	92.12
441.379	99.12
441.6	102.12
441.822	100.12
442.043	105.12
442.264	92.12
442.486	99.12
442.707	100.12
442.928	114.12
443.149	142.12
443.371	132.12
443.592	123.12
443.813	108.12
444.034	102.12
444.255	92.12
444.476	78.12
444.698	80.12
444.919	87.12
445.14	117.12
445.361	129.12
445.582	129.12
445.803	133.12
446.024	154.12
446.245	172.12
446.466	130.12
446.687	88.12
446.908	85.12
447.129	92.12
447.35	90.12
447.571	95.12
447.792	82.12
448.013	105.12
448.234	105.12
448.455	102.12
448.675	109.12
448.896	141.12
449.117	119.12
449.338	91.12
449.559	129.12
449.779	121.12
450	105.12
450.221	79.12
450.442	76.12
450.662	97.12
450.883	112.12
451.104	105.12
451.324	98.12
451.545	80.12
451.766	94.12
451.986	81.12
452.207	74.12
452.428	100.12
452.648	102.12
452.869	118.12
453.089	95.12
453.31	120.12
453.53	101.12
453.751	96.12
453.971	108.12
454.192	121.12
454.412	108.12
454.633	93.12
454.853	87.12
455.073	89.12
455.294	92.12
455.514	91.12
455.734	88.12
455.955	91.12
456.175	87.12
456.395	84.12
456.616	86.12
456.836	85.12
457.056	73.12
457.276	91.12
457.497	78.12
457.717	79.12
457.937	85.12
458.157	92.12
458.377	91.12
458.598	119.12
458.818	157.12
459.038	161.12
459.258	125.12
459.478	96.12
459.698	87.12
459.918	106.12
460.138	82.12
460.358	90.12
460.578	87.12
460.798	103.12
461.018	103.12
461.238	84.12
461.458	93.12
461.678	80.12
461.898	83.12
462.118	101.12
462.338	83.12
462.558	88.12
462.777	81.12
462.997	96.12
463.217	83.12
463.437	93.12
463.657	84.12
463.876	85.12
464.096	110.12
464.316	90.12
464.536	101.12
464.755	103.12
464.975	113.12
465.195	180.12
465.414	191.12
465.634	114.12
465.854	101.12
466.073	88.12
466.293	87.12
466.512	95.12
466.732	78.12
466.951	88.12
467.171	89.12
467.391	107.12
467.61	97.12
467.829	101.12
468.049	105.12
468.268	105.12
468.488	92.12
468.707	84.12
468.927	96.12
469.146	88.12
469.365	93.12
469.585	95.12
469.804	97.12
470.023	89.12
470.243	90.12
470.462	104.12
470.681	113.12
470.901	97.12
471.12	81.12
471.339	81.12
471.558	88.12
471.777	89.12
471.997	76.12
472.216	130.12
472.435	183.12
472.654	109.12
472.873	90.12
473.092	97.12
473.311	85.12
473.53	80.12
473.749	89.12
473.968	78.12
474.187	111.12
474.406	113.12
474.625	106.12
474.844	86.12
475.063	87.12
475.282	86.12
475.501	80.12
475.72	76.12
475.939	83.12
476.158	97.12
476.377	75.12
476.596	92.12
476.814	94.12
477.033	104.12
477.252	101.12
477.471	87.12
477.69	93.12
477.908	86.12
478.127	89.12
478.346	95.12
478.564	101.12
478.783	98.12
479.002	101.12
479.22	104.12
479.439	109.12
479.658	101.12
479.876	94.12
480.095	108.12
480.313	101.12
480.532	101.12
480.751	98.12
480.969	139.12
481.188	260.12
481.406	203.12
481.624	101.12
481.843	83.12
482.061	72.12
482.28	84.12
482.498	90.12
482.717	91.12
482.935	108.12
483.153	97.12
483.372	99.12
483.59	86.12
483.808	98.12
484.027	88.12
484.245	88.12
484.463	96.12
484.681	94.12
484.9	93.12
485.118	99.12
485.336	97.12
485.554	110.12
485.772	102.12
485.99	118.12
486.209	113.12
486.427	110.12
486.645	119.12
486.863	117.12
487.081	100.12
487.299	97.12
487.517	87.12
487.735	103.12
487.953	103.12
488.171	94.12
488.389	107.12
488.607	98.12
488.825	90.12
489.043	90.12
489.261	86.12
489.479	92.12
489.696	83.12
489.914	85.12
490.132	100.12
490.35	93.12
490.568	85.12
490.786	95.12
491.003	85.12
491.221	90.12
491.439	84.12
491.657	84.12
491.874	84.12
492.092	100.12
492.31	99.12
492.527	95.12
492.745	92.12
492.963	85.12
493.18	103.12
493.398	95.12
493.615	95.12
493.833	95.12
494.05	91.12
494.268	94.12
494.485	94.12
494.703	83.12
494.92	107.12
495.138	89.12
495.355	91.12
495.573	92.12
495.79	86.12
496.008	93.12
496.225	90.12
496.442	91.12
496.66	109.12
496.877	93.12
497.094	92.12
497.312	85.12
497.529	95.12
497.746	95.12
497.963	104.12
498.181	94.12
498.398	103.12
498.615	124.12
498.832	105.12
499.049	98.12
499.267	107.12
499.484	95.12
499.701	100.12
499.918	92.12
500.135	97.12
500.352	88.12
500.569	92.12
500.786	96.12
501.003	91.12
501.22	84.12
501.437	82.12
501.654	99.12
501.871	119.12
502.088	101.12
502.305	104.12
502.522	91.12
502.739	99.12
502.956	92.12
503.172	75.12
503.389	102.12
503.606	112.12
503.823	88.12
504.04	104.12
504.256	77.12
504.473	94.12
504.69	98.12
504.907	91.12
505.123	83.12
505.34	88.12
505.557	98.12
505.773	86.12
505.99	79.12
506.207	77.12
506.423	88.12
506.64	85.12
506.856	109.12
507.073	100.12
507.289	98.12
507.506	108.12
507.722	114.12
507.939	126.12
508.155	115.12
508.372	96.12
508.588	109.12
508.805	92.12
509.021	94.12
509.238	107.12
509.454	99.12
509.67	109.12
509.887	113.12
510.103	145.12
510.319	227.12
510.536	923.12
510.752	3043.12
510.968	824.12
511.184	183.12
511.401	119.12
511.617	111.12
511.833	92.12
512.049	98.12
512.265	97.12
512.481	89.12
512.698	96.12
512.914	109.12
513.13	93.12
513.346	70.12
513.562	79.12
513.778	108.12
513.994	88.12
514.21	106.12
