Data from Circ_2006_H10_HRD10591_00007.txt Node
Date: Wed Jan 03 10:26:05 EST 2024
User: Yrep
Spectrometer: HR+D1059
Trigger mode: 1
Integration Time (sec): 1.000000E-1
Scans to average: 1
Electric dark correction enabled: true
Nonlinearity correction enabled: false
Boxcar width: 0
XAxis mode: Wavelengths
Number of Pixels in Spectrum: 2048
>>>>>Begin Spectral Data<<<<<
223.165	-22.75
223.4	-22.75
223.635	-22.75
223.869	-29.75
224.104	-11.75
224.338	-17.75
224.573	-14.75
224.808	-20.75
225.042	-4.75
225.277	-12.75
225.511	0.25
225.746	6.25
225.98	15.25
226.215	16.25
226.449	18.25
226.683	20.25
226.918	26.25
227.152	32.25
227.387	31.25
227.621	41.25
227.856	44.25
228.09	49.25
228.324	51.25
228.559	65.25
228.793	60.25
229.027	70.25
229.262	68.25
229.496	79.25
229.73	96.25
229.964	80.25
230.199	77.25
230.433	83.25
230.667	90.25
230.901	79.25
231.136	70.25
231.37	78.25
231.604	68.25
231.838	66.25
232.072	92.25
232.306	87.25
232.541	82.25
232.775	69.25
233.009	96.25
233.243	88.25
233.477	90.25
233.711	79.25
233.945	85.25
234.179	85.25
234.413	107.25
234.647	86.25
234.881	85.25
235.115	66.25
235.349	73.25
235.583	79.25
235.817	83.25
236.051	84.25
236.285	79.25
236.519	84.25
236.753	82.25
236.987	88.25
237.221	77.25
237.455	90.25
237.689	85.25
237.922	86.25
238.156	78.25
238.39	88.25
238.624	74.25
238.858	82.25
239.091	82.25
239.325	80.25
239.559	66.25
239.793	73.25
240.027	88.25
240.26	88.25
240.494	89.25
240.728	82.25
240.961	73.25
241.195	94.25
241.429	91.25
241.662	73.25
241.896	66.25
242.13	76.25
242.363	78.25
242.597	76.25
242.83	93.25
243.064	77.25
243.298	88.25
243.531	70.25
243.765	81.25
243.998	90.25
244.232	87.25
244.465	103.25
244.699	76.25
244.932	85.25
245.166	69.25
245.399	77.25
245.633	78.25
245.866	82.25
246.099	80.25
246.333	86.25
246.566	69.25
246.8	82.25
247.033	69.25
247.266	84.25
247.5	95.25
247.733	77.25
247.966	82.25
248.2	65.25
248.433	98.25
248.666	69.25
248.899	104.25
249.133	96.25
249.366	103.25
249.599	92.25
249.832	77.25
250.066	76.25
250.299	84.25
250.532	77.25
250.765	77.25
250.998	93.25
251.231	79.25
251.465	80.25
251.698	80.25
251.931	81.25
252.164	84.25
252.397	85.25
252.63	81.25
252.863	81.25
253.096	76.25
253.329	88.25
253.562	82.25
253.795	61.25
254.028	82.25
254.261	80.25
254.494	81.25
254.727	97.25
254.96	88.25
255.193	83.25
255.426	70.25
255.659	72.25
255.892	91.25
256.124	86.25
256.357	89.25
256.59	80.25
256.823	85.25
257.056	88.25
257.289	90.25
257.521	87.25
257.754	84.25
257.987	69.25
258.22	72.25
258.452	87.25
258.685	85.25
258.918	86.25
259.151	91.25
259.383	76.25
259.616	87.25
259.849	73.25
260.081	91.25
260.314	94.25
260.547	98.25
260.779	80.25
261.012	83.25
261.244	84.25
261.477	86.25
261.71	90.25
261.942	117.25
262.175	119.25
262.407	88.25
262.64	87.25
262.872	88.25
263.105	93.25
263.337	95.25
263.57	93.25
263.802	97.25
264.035	93.25
264.267	76.25
264.499	95.25
264.732	109.25
264.964	92.25
265.197	98.25
265.429	84.25
265.661	93.25
265.894	86.25
266.126	87.25
266.358	89.25
266.591	95.25
266.823	77.25
267.055	95.25
267.287	74.25
267.52	84.25
267.752	89.25
267.984	81.25
268.216	85.25
268.448	88.25
268.681	85.25
268.913	84.25
269.145	90.25
269.377	89.25
269.609	74.25
269.841	81.25
270.073	81.25
270.306	82.25
270.538	94.25
270.77	89.25
271.002	90.25
271.234	90.25
271.466	86.25
271.698	94.25
271.93	95.25
272.162	87.25
272.394	87.25
272.626	98.25
272.858	95.25
273.09	93.25
273.322	80.25
273.553	80.25
273.785	93.25
274.017	88.25
274.249	90.25
274.481	89.25
274.713	92.25
274.945	93.25
275.176	95.25
275.408	91.25
275.64	100.25
275.872	97.25
276.104	95.25
276.335	85.25
276.567	99.25
276.799	118.25
277.031	102.25
277.262	92.25
277.494	82.25
277.726	96.25
277.957	80.25
278.189	88.25
278.421	94.25
278.652	92.25
278.884	91.25
279.115	96.25
279.347	85.25
279.579	87.25
279.81	83.25
280.042	79.25
280.273	87.25
280.505	96.25
280.736	85.25
280.968	90.25
281.199	83.25
281.431	87.25
281.662	88.25
281.894	88.25
282.125	83.25
282.356	140.25
282.588	126.25
282.819	100.25
283.051	82.25
283.282	90.25
283.513	79.25
283.745	89.25
283.976	88.25
284.207	100.25
284.439	98.25
284.67	98.25
284.901	109.25
285.132	79.25
285.364	96.25
285.595	92.25
285.826	89.25
286.057	86.25
286.288	88.25
286.52	98.25
286.751	82.25
286.982	87.25
287.213	86.25
287.444	108.25
287.675	83.25
287.906	98.25
288.138	102.25
288.369	88.25
288.6	108.25
288.831	87.25
289.062	93.25
289.293	85.25
289.524	90.25
289.755	88.25
289.986	80.25
290.217	85.25
290.448	95.25
290.679	74.25
290.91	88.25
291.141	84.25
291.371	97.25
291.602	89.25
291.833	100.25
292.064	89.25
292.295	88.25
292.526	97.25
292.757	97.25
292.987	97.25
293.218	94.25
293.449	102.25
293.68	81.25
293.91	94.25
294.141	73.25
294.372	92.25
294.603	106.25
294.833	83.25
295.064	87.25
295.295	107.25
295.525	101.25
295.756	102.25
295.987	118.25
296.217	121.25
296.448	125.25
296.679	100.25
296.909	95.25
297.14	79.25
297.37	83.25
297.601	77.25
297.831	95.25
298.062	95.25
298.292	100.25
298.523	110.25
298.753	103.25
298.984	88.25
299.214	84.25
299.445	84.25
299.675	92.25
299.905	87.25
300.136	94.25
300.366	84.25
300.597	96.25
300.827	94.25
301.057	98.25
301.288	119.25
301.518	103.25
301.748	102.25
301.979	90.25
302.209	84.25
302.439	88.25
302.669	94.25
302.9	95.25
303.13	100.25
303.36	95.25
303.59	93.25
303.82	101.25
304.051	94.25
304.281	98.25
304.511	104.25
304.741	89.25
304.971	98.25
305.201	87.25
305.431	92.25
305.661	94.25
305.891	90.25
306.121	99.25
306.352	94.25
306.582	104.25
306.812	95.25
307.042	85.25
307.272	79.25
307.502	107.25
307.731	96.25
307.961	88.25
308.191	89.25
308.421	97.25
308.651	104.25
308.881	83.25
309.111	84.25
309.341	97.25
309.571	104.25
309.8	107.25
310.03	96.25
310.26	97.25
310.49	98.25
310.72	102.25
310.949	108.25
311.179	102.25
311.409	96.25
311.639	84.25
311.868	108.25
312.098	97.25
312.328	107.25
312.557	100.25
312.787	104.25
313.017	99.25
313.246	76.25
313.476	80.25
313.706	101.25
313.935	100.25
314.165	109.25
314.394	98.25
314.624	91.25
314.853	94.25
315.083	102.25
315.312	92.25
315.542	94.25
315.771	99.25
316.001	103.25
316.23	110.25
316.46	93.25
316.689	96.25
316.919	111.25
317.148	88.25
317.377	108.25
317.607	89.25
317.836	104.25
318.065	87.25
318.295	98.25
318.524	85.25
318.753	111.25
318.983	88.25
319.212	103.25
319.441	99.25
319.67	127.25
319.9	100.25
320.129	93.25
320.358	100.25
320.587	94.25
320.816	104.25
321.046	103.25
321.275	98.25
321.504	106.25
321.733	90.25
321.962	103.25
322.191	102.25
322.42	103.25
322.649	108.25
322.878	115.25
323.108	133.25
323.337	121.25
323.566	142.25
323.795	152.25
324.024	199.25
324.253	422.25
324.482	875.25
324.71	1786.25
324.939	2353.25
325.168	851.25
325.397	254.25
325.626	164.25
325.855	134.25
326.084	129.25
326.313	151.25
326.542	161.25
326.77	224.25
326.999	479.25
327.228	991.25
327.457	1800.25
327.686	1435.25
327.914	376.25
328.143	183.25
328.372	153.25
328.6	133.25
328.829	106.25
329.058	142.25
329.287	128.25
329.515	114.25
329.744	106.25
329.972	104.25
330.201	105.25
330.43	110.25
330.658	126.25
330.887	136.25
331.115	124.25
331.344	109.25
331.572	104.25
331.801	107.25
332.03	108.25
332.258	106.25
332.486	97.25
332.715	95.25
332.943	95.25
333.172	98.25
333.4	94.25
333.629	115.25
333.857	113.25
334.085	96.25
334.314	94.25
334.542	106.25
334.771	106.25
334.999	90.25
335.227	99.25
335.455	110.25
335.684	99.25
335.912	100.25
336.14	109.25
336.369	101.25
336.597	90.25
336.825	97.25
337.053	89.25
337.281	91.25
337.51	85.25
337.738	92.25
337.966	88.25
338.194	101.25
338.422	95.25
338.65	97.25
338.878	100.25
339.106	94.25
339.334	99.25
339.562	98.25
339.79	93.25
340.018	98.25
340.246	107.25
340.474	91.25
340.702	87.25
340.93	98.25
341.158	100.25
341.386	87.25
341.614	97.25
341.842	94.25
342.07	98.25
342.298	110.25
342.526	96.25
342.754	96.25
342.981	86.25
343.209	93.25
343.437	96.25
343.665	103.25
343.893	90.25
344.12	93.25
344.348	102.25
344.576	98.25
344.804	105.25
345.031	92.25
345.259	106.25
345.487	105.25
345.714	102.25
345.942	99.25
346.17	86.25
346.397	88.25
346.625	90.25
346.853	92.25
347.08	82.25
347.308	82.25
347.535	92.25
347.763	99.25
347.99	87.25
348.218	91.25
348.445	109.25
348.673	93.25
348.9	99.25
349.128	94.25
349.355	96.25
349.583	93.25
349.81	100.25
350.037	97.25
350.265	107.25
350.492	101.25
350.72	102.25
350.947	102.25
351.174	112.25
351.402	102.25
351.629	109.25
351.856	106.25
352.083	125.25
352.311	111.25
352.538	105.25
352.765	106.25
352.992	124.25
353.22	114.25
353.447	110.25
353.674	109.25
353.901	94.25
354.128	98.25
354.355	104.25
354.583	99.25
354.81	96.25
355.037	109.25
355.264	103.25
355.491	102.25
355.718	119.25
355.945	96.25
356.172	100.25
356.399	103.25
356.626	85.25
356.853	99.25
357.08	88.25
357.307	98.25
357.534	77.25
357.761	94.25
357.988	111.25
358.215	103.25
358.441	97.25
358.668	100.25
358.895	103.25
359.122	93.25
359.349	98.25
359.576	106.25
359.802	101.25
360.029	117.25
360.256	132.25
360.483	110.25
360.709	94.25
360.936	95.25
361.163	112.25
361.39	90.25
361.616	99.25
361.843	94.25
362.07	101.25
362.296	94.25
362.523	81.25
362.749	91.25
362.976	92.25
363.203	107.25
363.429	93.25
363.656	80.25
363.882	95.25
364.109	103.25
364.335	112.25
364.562	83.25
364.788	96.25
365.015	90.25
365.241	99.25
365.468	107.25
365.694	93.25
365.92	111.25
366.147	98.25
366.373	100.25
366.599	77.25
366.826	101.25
367.052	93.25
367.278	90.25
367.505	94.25
367.731	100.25
367.957	87.25
368.184	84.25
368.41	93.25
368.636	103.25
368.862	110.25
369.089	106.25
369.315	86.25
369.541	90.25
369.767	96.25
369.993	97.25
370.219	109.25
370.445	93.25
370.672	96.25
370.898	92.25
371.124	100.25
371.35	87.25
371.576	96.25
371.802	90.25
372.028	94.25
372.254	87.25
372.48	103.25
372.706	82.25
372.932	82.25
373.158	86.25
373.384	94.25
373.61	86.25
373.835	99.25
374.061	92.25
374.287	96.25
374.513	101.25
374.739	101.25
374.965	82.25
375.191	90.25
375.416	87.25
375.642	102.25
375.868	91.25
376.094	76.25
376.319	94.25
376.545	94.25
376.771	80.25
376.997	104.25
377.222	90.25
377.448	85.25
377.674	93.25
377.899	100.25
378.125	106.25
378.35	90.25
378.576	92.25
378.802	97.25
379.027	87.25
379.253	105.25
379.478	104.25
379.704	91.25
379.929	86.25
380.155	100.25
380.38	86.25
380.606	100.25
380.831	99.25
381.057	88.25
381.282	98.25
381.507	113.25
381.733	85.25
381.958	92.25
382.184	103.25
382.409	97.25
382.634	105.25
382.86	104.25
383.085	99.25
383.31	119.25
383.535	114.25
383.761	110.25
383.986	100.25
384.211	110.25
384.436	102.25
384.662	95.25
384.887	121.25
385.112	116.25
385.337	121.25
385.562	111.25
385.787	117.25
386.013	111.25
386.238	113.25
386.463	110.25
386.688	125.25
386.913	113.25
387.138	141.25
387.363	109.25
387.588	95.25
387.813	113.25
388.038	112.25
388.263	130.25
388.488	133.25
388.713	96.25
388.938	98.25
389.163	106.25
389.387	90.25
389.612	103.25
389.837	89.25
390.062	101.25
390.287	94.25
390.512	81.25
390.736	80.25
390.961	108.25
391.186	100.25
391.411	95.25
391.636	92.25
391.86	103.25
392.085	87.25
392.31	71.25
392.534	93.25
392.759	90.25
392.984	103.25
393.208	94.25
393.433	113.25
393.658	99.25
393.882	94.25
394.107	87.25
394.331	95.25
394.556	80.25
394.78	97.25
395.005	100.25
395.229	90.25
395.454	95.25
395.678	76.25
395.903	85.25
396.127	82.25
396.352	101.25
396.576	95.25
396.801	89.25
397.025	86.25
397.249	90.25
397.474	96.25
397.698	89.25
397.922	91.25
398.147	88.25
398.371	86.25
398.595	86.25
398.82	106.25
399.044	99.25
399.268	103.25
399.492	89.25
399.717	94.25
399.941	89.25
400.165	93.25
400.389	89.25
400.613	92.25
400.837	110.25
401.062	98.25
401.286	76.25
401.51	94.25
401.734	87.25
401.958	101.25
402.182	135.25
402.406	149.25
402.63	100.25
402.854	83.25
403.078	84.25
403.302	98.25
403.526	74.25
403.75	92.25
403.974	81.25
404.198	101.25
404.422	107.25
404.645	104.25
404.869	81.25
405.093	89.25
405.317	87.25
405.541	100.25
405.765	105.25
405.988	108.25
406.212	153.25
406.436	204.25
406.66	140.25
406.883	104.25
407.107	93.25
407.331	107.25
407.555	88.25
407.778	96.25
408.002	86.25
408.226	89.25
408.449	95.25
408.673	85.25
408.896	86.25
409.12	90.25
409.344	106.25
409.567	100.25
409.791	99.25
410.014	86.25
410.238	100.25
410.461	112.25
410.685	90.25
410.908	97.25
411.132	111.25
411.355	105.25
411.578	101.25
411.802	93.25
412.025	78.25
412.249	90.25
412.472	93.25
412.695	98.25
412.919	93.25
413.142	88.25
413.365	90.25
413.589	94.25
413.812	81.25
414.035	96.25
414.258	88.25
414.482	88.25
414.705	92.25
414.928	80.25
415.151	100.25
415.374	104.25
415.597	80.25
415.821	86.25
416.044	90.25
416.267	94.25
416.49	89.25
416.713	74.25
416.936	97.25
417.159	97.25
417.382	91.25
417.605	98.25
417.828	102.25
418.051	93.25
418.274	89.25
418.497	95.25
418.72	82.25
418.943	86.25
419.166	91.25
419.389	85.25
419.611	88.25
419.834	98.25
420.057	93.25
420.28	81.25
420.503	76.25
420.726	69.25
420.948	86.25
421.171	99.25
421.394	122.25
421.617	90.25
421.839	88.25
422.062	89.25
422.285	96.25
422.507	102.25
422.73	110.25
422.953	95.25
423.175	93.25
423.398	111.25
423.621	90.25
423.843	89.25
424.066	107.25
424.288	96.25
424.511	99.25
424.733	96.25
424.956	110.25
425.178	103.25
425.401	103.25
425.623	94.25
425.846	90.25
426.068	105.25
426.291	92.25
426.513	87.25
426.735	93.25
426.958	91.25
427.18	90.25
427.402	130.25
427.625	157.25
427.847	127.25
428.069	97.25
428.292	89.25
428.514	80.25
428.736	86.25
428.958	84.25
429.181	90.25
429.403	88.25
429.625	90.25
429.847	88.25
430.069	97.25
430.292	97.25
430.514	74.25
430.736	77.25
430.958	72.25
431.18	93.25
431.402	98.25
431.624	78.25
431.846	98.25
432.068	83.25
432.29	107.25
432.512	86.25
432.734	84.25
432.956	104.25
433.178	90.25
433.4	111.25
433.622	90.25
433.844	77.25
434.066	81.25
434.287	87.25
434.509	96.25
434.731	100.25
434.953	91.25
435.175	101.25
435.397	94.25
435.618	105.25
435.84	108.25
436.062	129.25
436.284	121.25
436.505	106.25
436.727	115.25
436.949	98.25
437.17	101.25
437.392	89.25
437.614	90.25
437.835	93.25
438.057	108.25
438.278	111.25
438.5	101.25
438.721	117.25
438.943	110.25
439.165	95.25
439.386	71.25
439.608	94.25
439.829	95.25
440.05	118.25
440.272	133.25
440.493	92.25
440.715	97.25
440.936	93.25
441.158	100.25
441.379	103.25
441.6	96.25
441.822	80.25
442.043	95.25
442.264	94.25
442.486	103.25
442.707	93.25
442.928	101.25
443.149	127.25
443.371	118.25
443.592	118.25
443.813	114.25
444.034	121.25
444.255	93.25
444.476	108.25
444.698	87.25
444.919	103.25
445.14	146.25
445.361	140.25
445.582	125.25
445.803	127.25
446.024	132.25
446.245	141.25
446.466	112.25
446.687	90.25
446.908	98.25
447.129	76.25
447.35	74.25
447.571	87.25
447.792	101.25
448.013	99.25
448.234	100.25
448.455	105.25
448.675	108.25
448.896	121.25
449.117	109.25
449.338	108.25
449.559	127.25
449.779	145.25
450	97.25
450.221	88.25
450.442	98.25
450.662	101.25
450.883	95.25
451.104	107.25
451.324	88.25
451.545	94.25
451.766	88.25
451.986	78.25
452.207	105.25
452.428	97.25
452.648	94.25
452.869	100.25
453.089	116.25
453.31	125.25
453.53	89.25
453.751	74.25
453.971	112.25
454.192	116.25
454.412	109.25
454.633	101.25
454.853	85.25
455.073	92.25
455.294	100.25
455.514	100.25
455.734	81.25
455.955	82.25
456.175	90.25
456.395	92.25
456.616	100.25
456.836	71.25
457.056	72.25
457.276	86.25
457.497	93.25
457.717	80.25
457.937	74.25
458.157	86.25
458.377	90.25
458.598	105.25
458.818	136.25
459.038	154.25
459.258	113.25
459.478	88.25
459.698	91.25
459.918	84.25
460.138	79.25
460.358	96.25
460.578	98.25
460.798	103.25
461.018	83.25
461.238	75.25
461.458	77.25
461.678	91.25
461.898	89.25
462.118	98.25
462.338	85.25
462.558	98.25
462.777	87.25
462.997	88.25
463.217	92.25
463.437	84.25
463.657	86.25
463.876	88.25
464.096	88.25
464.316	89.25
464.536	107.25
464.755	89.25
464.975	90.25
465.195	159.25
465.414	137.25
465.634	85.25
465.854	95.25
466.073	92.25
466.293	89.25
466.512	98.25
466.732	93.25
466.951	87.25
467.171	93.25
467.391	87.25
467.61	106.25
467.829	97.25
468.049	89.25
468.268	80.25
468.488	76.25
468.707	94.25
468.927	96.25
469.146	93.25
469.365	96.25
469.585	98.25
469.804	112.25
470.023	99.25
470.243	92.25
470.462	98.25
470.681	129.25
470.901	89.25
471.12	93.25
471.339	92.25
471.558	78.25
471.777	84.25
471.997	96.25
472.216	77.25
472.435	88.25
472.654	87.25
472.873	96.25
473.092	105.25
473.311	93.25
473.53	84.25
473.749	94.25
473.968	104.25
474.187	112.25
474.406	96.25
474.625	85.25
474.844	90.25
475.063	91.25
475.282	86.25
475.501	94.25
475.72	82.25
475.939	86.25
476.158	86.25
476.377	85.25
476.596	84.25
476.814	111.25
477.033	90.25
477.252	109.25
477.471	91.25
477.69	100.25
477.908	83.25
478.127	86.25
478.346	100.25
478.564	87.25
478.783	105.25
479.002	96.25
479.22	104.25
479.439	99.25
479.658	91.25
479.876	106.25
480.095	93.25
480.313	98.25
480.532	88.25
480.751	105.25
480.969	100.25
481.188	121.25
481.406	110.25
481.624	95.25
481.843	79.25
482.061	93.25
482.28	98.25
482.498	96.25
482.717	102.25
482.935	91.25
483.153	93.25
483.372	100.25
483.59	86.25
483.808	89.25
484.027	91.25
484.245	85.25
484.463	100.25
484.681	104.25
484.9	89.25
485.118	102.25
485.336	89.25
485.554	105.25
485.772	110.25
485.99	102.25
486.209	105.25
486.427	100.25
486.645	108.25
486.863	119.25
487.081	106.25
487.299	89.25
487.517	88.25
487.735	90.25
487.953	104.25
488.171	93.25
488.389	94.25
488.607	110.25
488.825	103.25
489.043	94.25
489.261	103.25
489.479	87.25
489.696	80.25
489.914	85.25
490.132	86.25
490.35	88.25
490.568	93.25
490.786	82.25
491.003	98.25
491.221	90.25
491.439	80.25
491.657	90.25
491.874	88.25
492.092	83.25
492.31	84.25
492.527	98.25
492.745	96.25
492.963	94.25
493.18	83.25
493.398	82.25
493.615	93.25
493.833	97.25
494.05	89.25
494.268	98.25
494.485	89.25
494.703	102.25
494.92	93.25
495.138	103.25
495.355	86.25
495.573	81.25
495.79	97.25
496.008	95.25
496.225	97.25
496.442	98.25
496.66	102.25
496.877	97.25
497.094	93.25
497.312	90.25
497.529	104.25
497.746	100.25
497.963	91.25
498.181	85.25
498.398	101.25
498.615	96.25
498.832	96.25
499.049	86.25
499.267	89.25
499.484	108.25
499.701	98.25
499.918	96.25
500.135	86.25
500.352	89.25
500.569	98.25
500.786	97.25
501.003	96.25
501.22	93.25
501.437	87.25
501.654	107.25
501.871	108.25
502.088	106.25
502.305	102.25
502.522	91.25
502.739	101.25
502.956	113.25
503.172	114.25
503.389	93.25
503.606	108.25
503.823	93.25
504.04	93.25
504.256	95.25
504.473	91.25
504.69	97.25
504.907	90.25
505.123	88.25
505.34	100.25
505.557	89.25
505.773	92.25
505.99	102.25
506.207	94.25
506.423	87.25
506.64	91.25
506.856	83.25
507.073	93.25
507.289	84.25
507.506	119.25
507.722	106.25
507.939	119.25
508.155	98.25
508.372	99.25
508.588	86.25
508.805	101.25
509.021	95.25
509.238	96.25
509.454	85.25
509.67	117.25
509.887	126.25
510.103	129.25
510.319	207.25
510.536	703.25
510.752	2244.25
510.968	644.25
511.184	146.25
511.401	127.25
511.617	101.25
511.833	85.25
512.049	94.25
512.265	88.25
512.481	106.25
512.698	85.25
512.914	82.25
513.13	82.25
513.346	101.25
513.562	98.25
513.778	91.25
513.994	95.25
514.21	104.25
