Data from Circ_2006_H10_HRD10591_00010.txt Node
Date: Wed Jan 03 10:26:05 EST 2024
User: Yrep
Spectrometer: HR+D1059
Trigger mode: 1
Integration Time (sec): 1.000000E-1
Scans to average: 1
Electric dark correction enabled: true
Nonlinearity correction enabled: false
Boxcar width: 0
XAxis mode: Wavelengths
Number of Pixels in Spectrum: 2048
>>>>>Begin Spectral Data<<<<<
223.165	-22.94
223.4	-22.94
223.635	-22.94
223.869	-20.94
224.104	-23.94
224.338	-20.94
224.573	7.06
224.808	-7.94
225.042	-1.94
225.277	-2.94
225.511	-7.94
225.746	-4.94
225.98	9.06
226.215	6.06
226.449	8.06
226.683	18.06
226.918	34.06
227.152	32.06
227.387	42.06
227.621	39.06
227.856	46.06
228.09	53.06
228.324	58.06
228.559	50.06
228.793	62.06
229.027	60.06
229.262	63.06
229.496	68.06
229.73	87.06
229.964	94.06
230.199	76.06
230.433	75.06
230.667	69.06
230.901	78.06
231.136	77.06
231.37	80.06
231.604	73.06
231.838	76.06
232.072	80.06
232.306	90.06
232.541	88.06
232.775	88.06
233.009	73.06
233.243	81.06
233.477	76.06
233.711	73.06
233.945	82.06
234.179	77.06
234.413	88.06
234.647	89.06
234.881	77.06
235.115	73.06
235.349	73.06
235.583	72.06
235.817	78.06
236.051	83.06
236.285	72.06
236.519	84.06
236.753	87.06
236.987	67.06
237.221	76.06
237.455	85.06
237.689	76.06
237.922	61.06
238.156	79.06
238.39	68.06
238.624	85.06
238.858	87.06
239.091	73.06
239.325	73.06
239.559	77.06
239.793	84.06
240.027	88.06
240.26	77.06
240.494	74.06
240.728	65.06
240.961	84.06
241.195	69.06
241.429	71.06
241.662	82.06
241.896	71.06
242.13	74.06
242.363	68.06
242.597	82.06
242.83	65.06
243.064	61.06
243.298	69.06
243.531	76.06
243.765	80.06
243.998	80.06
244.232	85.06
244.465	82.06
244.699	89.06
244.932	74.06
245.166	87.06
245.399	93.06
245.633	76.06
245.866	69.06
246.099	79.06
246.333	78.06
246.566	70.06
246.8	89.06
247.033	85.06
247.266	54.06
247.5	82.06
247.733	83.06
247.966	90.06
248.2	78.06
248.433	80.06
248.666	69.06
248.899	96.06
249.133	77.06
249.366	93.06
249.599	89.06
249.832	77.06
250.066	91.06
250.299	76.06
250.532	67.06
250.765	84.06
250.998	67.06
251.231	77.06
251.465	70.06
251.698	68.06
251.931	87.06
252.164	76.06
252.397	76.06
252.63	76.06
252.863	67.06
253.096	87.06
253.329	70.06
253.562	78.06
253.795	81.06
254.028	86.06
254.261	54.06
254.494	93.06
254.727	91.06
254.96	75.06
255.193	78.06
255.426	81.06
255.659	82.06
255.892	81.06
256.124	89.06
256.357	65.06
256.59	75.06
256.823	78.06
257.056	53.06
257.289	74.06
257.521	75.06
257.754	82.06
257.987	94.06
258.22	70.06
258.452	83.06
258.685	76.06
258.918	95.06
259.151	91.06
259.383	83.06
259.616	90.06
259.849	78.06
260.081	72.06
260.314	87.06
260.547	91.06
260.779	79.06
261.012	75.06
261.244	83.06
261.477	77.06
261.71	88.06
261.942	123.06
262.175	131.06
262.407	112.06
262.64	80.06
262.872	95.06
263.105	95.06
263.337	69.06
263.57	79.06
263.802	83.06
264.035	74.06
264.267	78.06
264.499	84.06
264.732	90.06
264.964	71.06
265.197	79.06
265.429	92.06
265.661	79.06
265.894	79.06
266.126	72.06
266.358	91.06
266.591	98.06
266.823	89.06
267.055	90.06
267.287	75.06
267.52	82.06
267.752	86.06
267.984	74.06
268.216	77.06
268.448	76.06
268.681	84.06
268.913	86.06
269.145	94.06
269.377	97.06
269.609	87.06
269.841	94.06
270.073	85.06
270.306	86.06
270.538	74.06
270.77	78.06
271.002	83.06
271.234	72.06
271.466	78.06
271.698	93.06
271.93	89.06
272.162	80.06
272.394	87.06
272.626	88.06
272.858	78.06
273.09	93.06
273.322	98.06
273.553	86.06
273.785	87.06
274.017	84.06
274.249	75.06
274.481	89.06
274.713	86.06
274.945	88.06
275.176	79.06
275.408	79.06
275.64	86.06
275.872	86.06
276.104	92.06
276.335	92.06
276.567	99.06
276.799	129.06
277.031	106.06
277.262	89.06
277.494	84.06
277.726	96.06
277.957	100.06
278.189	91.06
278.421	83.06
278.652	79.06
278.884	80.06
279.115	82.06
279.347	106.06
279.579	82.06
279.81	93.06
280.042	89.06
280.273	85.06
280.505	89.06
280.736	94.06
280.968	87.06
281.199	87.06
281.431	80.06
281.662	94.06
281.894	90.06
282.125	106.06
282.356	122.06
282.588	143.06
282.819	117.06
283.051	83.06
283.282	82.06
283.513	91.06
283.745	84.06
283.976	87.06
284.207	84.06
284.439	79.06
284.67	95.06
284.901	78.06
285.132	87.06
285.364	92.06
285.595	84.06
285.826	90.06
286.057	95.06
286.288	90.06
286.52	84.06
286.751	84.06
286.982	77.06
287.213	94.06
287.444	75.06
287.675	93.06
287.906	90.06
288.138	91.06
288.369	89.06
288.6	80.06
288.831	83.06
289.062	83.06
289.293	89.06
289.524	92.06
289.755	83.06
289.986	85.06
290.217	85.06
290.448	72.06
290.679	68.06
290.91	76.06
291.141	83.06
291.371	98.06
291.602	93.06
291.833	77.06
292.064	105.06
292.295	105.06
292.526	92.06
292.757	91.06
292.987	91.06
293.218	107.06
293.449	96.06
293.68	83.06
293.91	87.06
294.141	101.06
294.372	93.06
294.603	85.06
294.833	77.06
295.064	78.06
295.295	89.06
295.525	77.06
295.756	108.06
295.987	130.06
296.217	165.06
296.448	145.06
296.679	93.06
296.909	86.06
297.14	99.06
297.37	93.06
297.601	72.06
297.831	85.06
298.062	81.06
298.292	82.06
298.523	79.06
298.753	94.06
298.984	97.06
299.214	105.06
299.445	101.06
299.675	94.06
299.905	96.06
300.136	94.06
300.366	79.06
300.597	94.06
300.827	96.06
301.057	111.06
301.288	110.06
301.518	94.06
301.748	101.06
301.979	100.06
302.209	90.06
302.439	91.06
302.669	97.06
302.9	91.06
303.13	89.06
303.36	82.06
303.59	105.06
303.82	117.06
304.051	103.06
304.281	84.06
304.511	80.06
304.741	100.06
304.971	93.06
305.201	98.06
305.431	86.06
305.661	99.06
305.891	78.06
306.121	91.06
306.352	112.06
306.582	91.06
306.812	106.06
307.042	102.06
307.272	89.06
307.502	90.06
307.731	96.06
307.961	79.06
308.191	70.06
308.421	84.06
308.651	95.06
308.881	100.06
309.111	110.06
309.341	100.06
309.571	98.06
309.8	99.06
310.03	102.06
310.26	96.06
310.49	96.06
310.72	96.06
310.949	107.06
311.179	117.06
311.409	106.06
311.639	97.06
311.868	99.06
312.098	84.06
312.328	91.06
312.557	95.06
312.787	98.06
313.017	99.06
313.246	89.06
313.476	96.06
313.706	100.06
313.935	89.06
314.165	103.06
314.394	122.06
314.624	90.06
314.853	91.06
315.083	103.06
315.312	73.06
315.542	91.06
315.771	96.06
316.001	98.06
316.23	97.06
316.46	97.06
316.689	98.06
316.919	85.06
317.148	85.06
317.377	102.06
317.607	101.06
317.836	105.06
318.065	88.06
318.295	86.06
318.524	95.06
318.753	83.06
318.983	102.06
319.212	116.06
319.441	125.06
319.67	111.06
319.9	110.06
320.129	86.06
320.358	92.06
320.587	107.06
320.816	110.06
321.046	107.06
321.275	109.06
321.504	90.06
321.733	96.06
321.962	113.06
322.191	87.06
322.42	106.06
322.649	107.06
322.878	125.06
323.108	126.06
323.337	139.06
323.566	163.06
323.795	188.06
324.024	269.06
324.253	571.06
324.482	1269.06
324.71	2693.06
324.939	3663.06
325.168	1285.06
325.397	351.06
325.626	195.06
325.855	147.06
326.084	140.06
326.313	156.06
326.542	192.06
326.77	310.06
326.999	668.06
327.228	1484.06
327.457	2765.06
327.686	2118.06
327.914	529.06
328.143	244.06
328.372	179.06
328.6	137.06
328.829	148.06
329.058	146.06
329.287	157.06
329.515	121.06
329.744	119.06
329.972	105.06
330.201	104.06
330.43	129.06
330.658	155.06
330.887	183.06
331.115	144.06
331.344	110.06
331.572	100.06
331.801	112.06
332.03	103.06
332.258	98.06
332.486	96.06
332.715	97.06
332.943	100.06
333.172	87.06
333.4	97.06
333.629	120.06
333.857	123.06
334.085	98.06
334.314	116.06
334.542	112.06
334.771	118.06
334.999	109.06
335.227	115.06
335.455	110.06
335.684	107.06
335.912	105.06
336.14	93.06
336.369	105.06
336.597	101.06
336.825	102.06
337.053	88.06
337.281	83.06
337.51	100.06
337.738	88.06
337.966	90.06
338.194	103.06
338.422	111.06
338.65	105.06
338.878	86.06
339.106	86.06
339.334	84.06
339.562	90.06
339.79	89.06
340.018	85.06
340.246	87.06
340.474	106.06
340.702	95.06
340.93	100.06
341.158	98.06
341.386	99.06
341.614	88.06
341.842	92.06
342.07	89.06
342.298	101.06
342.526	97.06
342.754	73.06
342.981	92.06
343.209	92.06
343.437	98.06
343.665	81.06
343.893	92.06
344.12	95.06
344.348	87.06
344.576	76.06
344.804	84.06
345.031	101.06
345.259	84.06
345.487	102.06
345.714	90.06
345.942	86.06
346.17	95.06
346.397	94.06
346.625	98.06
346.853	108.06
347.08	106.06
347.308	95.06
347.535	104.06
347.763	106.06
347.99	100.06
348.218	90.06
348.445	94.06
348.673	103.06
348.9	90.06
349.128	90.06
349.355	87.06
349.583	89.06
349.81	91.06
350.037	110.06
350.265	91.06
350.492	93.06
350.72	106.06
350.947	89.06
351.174	118.06
351.402	123.06
351.629	110.06
351.856	109.06
352.083	89.06
352.311	122.06
352.538	119.06
352.765	115.06
352.992	124.06
353.22	114.06
353.447	117.06
353.674	101.06
353.901	98.06
354.128	81.06
354.355	90.06
354.583	112.06
354.81	114.06
355.037	81.06
355.264	95.06
355.491	97.06
355.718	82.06
355.945	99.06
356.172	97.06
356.399	85.06
356.626	91.06
356.853	97.06
357.08	102.06
357.307	107.06
357.534	97.06
357.761	91.06
357.988	102.06
358.215	89.06
358.441	89.06
358.668	94.06
358.895	96.06
359.122	92.06
359.349	100.06
359.576	114.06
359.802	112.06
360.029	129.06
360.256	119.06
360.483	117.06
360.709	89.06
360.936	102.06
361.163	92.06
361.39	92.06
361.616	100.06
361.843	94.06
362.07	103.06
362.296	97.06
362.523	106.06
362.749	96.06
362.976	99.06
363.203	96.06
363.429	99.06
363.656	99.06
363.882	96.06
364.109	79.06
364.335	104.06
364.562	97.06
364.788	105.06
365.015	97.06
365.241	109.06
365.468	107.06
365.694	106.06
365.92	99.06
366.147	90.06
366.373	93.06
366.599	98.06
366.826	86.06
367.052	98.06
367.278	92.06
367.505	83.06
367.731	97.06
367.957	95.06
368.184	98.06
368.41	104.06
368.636	111.06
368.862	138.06
369.089	115.06
369.315	95.06
369.541	87.06
369.767	77.06
369.993	85.06
370.219	94.06
370.445	83.06
370.672	84.06
370.898	92.06
371.124	102.06
371.35	90.06
371.576	87.06
371.802	87.06
372.028	73.06
372.254	103.06
372.48	82.06
372.706	97.06
372.932	91.06
373.158	87.06
373.384	101.06
373.61	102.06
373.835	89.06
374.061	86.06
374.287	86.06
374.513	99.06
374.739	87.06
374.965	83.06
375.191	84.06
375.416	102.06
375.642	92.06
375.868	90.06
376.094	88.06
376.319	87.06
376.545	94.06
376.771	108.06
376.997	100.06
377.222	96.06
377.448	95.06
377.674	102.06
377.899	101.06
378.125	92.06
378.35	103.06
378.576	89.06
378.802	89.06
379.027	97.06
379.253	86.06
379.478	100.06
379.704	100.06
379.929	91.06
380.155	105.06
380.38	101.06
380.606	102.06
380.831	105.06
381.057	93.06
381.282	80.06
381.507	105.06
381.733	110.06
381.958	117.06
382.184	106.06
382.409	106.06
382.634	102.06
382.86	112.06
383.085	107.06
383.31	100.06
383.535	107.06
383.761	93.06
383.986	116.06
384.211	97.06
384.436	119.06
384.662	112.06
384.887	104.06
385.112	103.06
385.337	117.06
385.562	108.06
385.787	111.06
386.013	112.06
386.238	129.06
386.463	101.06
386.688	110.06
386.913	108.06
387.138	118.06
387.363	112.06
387.588	110.06
387.813	122.06
388.038	118.06
388.263	120.06
388.488	130.06
388.713	106.06
388.938	77.06
389.163	90.06
389.387	90.06
389.612	93.06
389.837	98.06
390.062	96.06
390.287	92.06
390.512	87.06
390.736	89.06
390.961	89.06
391.186	86.06
391.411	91.06
391.636	94.06
391.86	91.06
392.085	81.06
392.31	104.06
392.534	87.06
392.759	82.06
392.984	81.06
393.208	90.06
393.433	87.06
393.658	99.06
393.882	82.06
394.107	92.06
394.331	89.06
394.556	90.06
394.78	79.06
395.005	78.06
395.229	91.06
395.454	92.06
395.678	85.06
395.903	87.06
396.127	87.06
396.352	101.06
396.576	78.06
396.801	85.06
397.025	86.06
397.249	78.06
397.474	86.06
397.698	83.06
397.922	98.06
398.147	88.06
398.371	74.06
398.595	77.06
398.82	82.06
399.044	90.06
399.268	81.06
399.492	95.06
399.717	98.06
399.941	102.06
400.165	103.06
400.389	93.06
400.613	101.06
400.837	93.06
401.062	94.06
401.286	95.06
401.51	87.06
401.734	96.06
401.958	118.06
402.182	158.06
402.406	202.06
402.63	154.06
402.854	97.06
403.078	91.06
403.302	77.06
403.526	101.06
403.75	88.06
403.974	90.06
404.198	86.06
404.422	86.06
404.645	84.06
404.869	91.06
405.093	88.06
405.317	102.06
405.541	90.06
405.765	102.06
405.988	122.06
406.212	195.06
406.436	297.06
406.66	188.06
406.883	96.06
407.107	112.06
407.331	92.06
407.555	123.06
407.778	105.06
408.002	95.06
408.226	84.06
408.449	101.06
408.673	91.06
408.896	97.06
409.12	90.06
409.344	95.06
409.567	90.06
409.791	97.06
410.014	87.06
410.238	85.06
410.461	101.06
410.685	89.06
410.908	93.06
411.132	111.06
411.355	111.06
411.578	101.06
411.802	89.06
412.025	87.06
412.249	85.06
412.472	87.06
412.695	91.06
412.919	96.06
413.142	86.06
413.365	109.06
413.589	102.06
413.812	93.06
414.035	69.06
414.258	76.06
414.482	91.06
414.705	73.06
414.928	82.06
415.151	100.06
415.374	93.06
415.597	95.06
415.821	90.06
416.044	110.06
416.267	95.06
416.49	81.06
416.713	97.06
416.936	82.06
417.159	78.06
417.382	100.06
417.605	101.06
417.828	103.06
418.051	91.06
418.274	106.06
418.497	86.06
418.72	85.06
418.943	79.06
419.166	80.06
419.389	108.06
419.611	92.06
419.834	98.06
420.057	97.06
420.28	92.06
420.503	85.06
420.726	75.06
420.948	87.06
421.171	87.06
421.394	95.06
421.617	103.06
421.839	89.06
422.062	92.06
422.285	91.06
422.507	112.06
422.73	106.06
422.953	99.06
423.175	97.06
423.398	100.06
423.621	89.06
423.843	70.06
424.066	86.06
424.288	93.06
424.511	86.06
424.733	103.06
424.956	116.06
425.178	109.06
425.401	109.06
425.623	114.06
425.846	85.06
426.068	80.06
426.291	80.06
426.513	90.06
426.735	97.06
426.958	108.06
427.18	121.06
427.402	180.06
427.625	206.06
427.847	151.06
428.069	115.06
428.292	102.06
428.514	91.06
428.736	84.06
428.958	89.06
429.181	87.06
429.403	98.06
429.625	85.06
429.847	96.06
430.069	101.06
430.292	96.06
430.514	100.06
430.736	93.06
430.958	88.06
431.18	94.06
431.402	85.06
431.624	82.06
431.846	81.06
432.068	78.06
432.29	89.06
432.512	93.06
432.734	83.06
432.956	92.06
433.178	104.06
433.4	98.06
433.622	93.06
433.844	100.06
434.066	94.06
434.287	88.06
434.509	90.06
434.731	100.06
434.953	87.06
435.175	92.06
435.397	89.06
435.618	109.06
435.84	132.06
436.062	145.06
436.284	120.06
436.505	102.06
436.727	117.06
436.949	99.06
437.17	100.06
437.392	94.06
437.614	96.06
437.835	121.06
438.057	123.06
438.278	118.06
438.5	117.06
438.721	138.06
438.943	101.06
439.165	93.06
439.386	84.06
439.608	89.06
439.829	107.06
440.05	145.06
440.272	167.06
440.493	103.06
440.715	101.06
440.936	79.06
441.158	102.06
441.379	91.06
441.6	86.06
441.822	101.06
442.043	97.06
442.264	98.06
442.486	101.06
442.707	97.06
442.928	111.06
443.149	166.06
443.371	156.06
443.592	123.06
443.813	113.06
444.034	124.06
444.255	97.06
444.476	91.06
444.698	91.06
444.919	84.06
445.14	135.06
445.361	137.06
445.582	127.06
445.803	171.06
446.024	168.06
446.245	156.06
446.466	121.06
446.687	96.06
446.908	105.06
447.129	94.06
447.35	92.06
447.571	85.06
447.792	98.06
448.013	105.06
448.234	113.06
448.455	116.06
448.675	130.06
448.896	129.06
449.117	110.06
449.338	110.06
449.559	140.06
449.779	129.06
450	93.06
450.221	79.06
450.442	94.06
450.662	107.06
450.883	115.06
451.104	127.06
451.324	110.06
451.545	86.06
451.766	86.06
451.986	90.06
452.207	87.06
452.428	92.06
452.648	92.06
452.869	124.06
453.089	136.06
453.31	124.06
453.53	92.06
453.751	101.06
453.971	109.06
454.192	118.06
454.412	88.06
454.633	79.06
454.853	98.06
455.073	99.06
455.294	92.06
455.514	102.06
455.734	83.06
455.955	91.06
456.175	95.06
456.395	77.06
456.616	78.06
456.836	84.06
457.056	88.06
457.276	90.06
457.497	79.06
457.717	97.06
457.937	87.06
458.157	107.06
458.377	88.06
458.598	129.06
458.818	183.06
459.038	199.06
459.258	125.06
459.478	95.06
459.698	93.06
459.918	79.06
460.138	89.06
460.358	87.06
460.578	91.06
460.798	85.06
461.018	93.06
461.238	83.06
461.458	86.06
461.678	85.06
461.898	78.06
462.118	89.06
462.338	94.06
462.558	84.06
462.777	100.06
462.997	93.06
463.217	94.06
463.437	76.06
463.657	76.06
463.876	92.06
464.096	93.06
464.316	93.06
464.536	93.06
464.755	109.06
464.975	127.06
465.195	205.06
465.414	204.06
465.634	115.06
465.854	96.06
466.073	80.06
466.293	93.06
466.512	101.06
466.732	78.06
466.951	79.06
467.171	101.06
467.391	94.06
467.61	119.06
467.829	97.06
468.049	86.06
468.268	84.06
468.488	94.06
468.707	90.06
468.927	86.06
469.146	73.06
469.365	92.06
469.585	95.06
469.804	107.06
470.023	101.06
470.243	109.06
470.462	105.06
470.681	121.06
470.901	100.06
471.12	93.06
471.339	92.06
471.558	85.06
471.777	87.06
471.997	101.06
472.216	103.06
472.435	116.06
472.654	95.06
472.873	86.06
473.092	89.06
473.311	80.06
473.53	91.06
473.749	76.06
473.968	86.06
474.187	93.06
474.406	91.06
474.625	83.06
474.844	88.06
475.063	101.06
475.282	78.06
475.501	85.06
475.72	88.06
475.939	90.06
476.158	87.06
476.377	91.06
476.596	96.06
476.814	108.06
477.033	94.06
477.252	78.06
477.471	93.06
477.69	79.06
477.908	105.06
478.127	113.06
478.346	85.06
478.564	100.06
478.783	117.06
479.002	93.06
479.22	92.06
479.439	113.06
479.658	108.06
479.876	102.06
480.095	96.06
480.313	100.06
480.532	86.06
480.751	96.06
480.969	107.06
481.188	153.06
481.406	131.06
481.624	103.06
481.843	102.06
482.061	95.06
482.28	104.06
482.498	91.06
482.717	80.06
482.935	82.06
483.153	88.06
483.372	101.06
483.59	97.06
483.808	89.06
484.027	89.06
484.245	98.06
484.463	102.06
484.681	101.06
484.9	93.06
485.118	113.06
485.336	87.06
485.554	104.06
485.772	98.06
485.99	104.06
486.209	106.06
486.427	113.06
486.645	116.06
486.863	121.06
487.081	113.06
487.299	101.06
487.517	107.06
487.735	100.06
487.953	89.06
488.171	99.06
488.389	94.06
488.607	94.06
488.825	105.06
489.043	102.06
489.261	85.06
489.479	93.06
489.696	99.06
489.914	90.06
490.132	94.06
490.35	93.06
490.568	84.06
490.786	97.06
491.003	87.06
491.221	85.06
491.439	98.06
491.657	99.06
491.874	92.06
492.092	99.06
492.31	94.06
492.527	82.06
492.745	87.06
492.963	84.06
493.18	81.06
493.398	87.06
493.615	95.06
493.833	98.06
494.05	95.06
494.268	91.06
494.485	96.06
494.703	96.06
494.92	89.06
495.138	93.06
495.355	90.06
495.573	109.06
495.79	105.06
496.008	105.06
496.225	75.06
496.442	95.06
496.66	102.06
496.877	96.06
497.094	95.06
497.312	99.06
497.529	80.06
497.746	90.06
497.963	86.06
498.181	90.06
498.398	104.06
498.615	109.06
498.832	112.06
499.049	98.06
499.267	95.06
499.484	87.06
499.701	95.06
499.918	86.06
500.135	100.06
500.352	92.06
500.569	92.06
500.786	92.06
501.003	94.06
501.22	97.06
501.437	93.06
501.654	106.06
501.871	117.06
502.088	90.06
502.305	93.06
502.522	86.06
502.739	90.06
502.956	84.06
503.172	91.06
503.389	86.06
503.606	107.06
503.823	106.06
504.04	90.06
504.256	92.06
504.473	97.06
504.69	89.06
504.907	93.06
505.123	94.06
505.34	68.06
505.557	100.06
505.773	98.06
505.99	90.06
506.207	77.06
506.423	103.06
506.64	85.06
506.856	85.06
507.073	97.06
507.289	102.06
507.506	104.06
507.722	113.06
507.939	111.06
508.155	110.06
508.372	103.06
508.588	96.06
508.805	98.06
509.021	109.06
509.238	118.06
509.454	107.06
509.67	110.06
509.887	121.06
510.103	151.06
510.319	259.06
510.536	962.06
510.752	3361.06
510.968	906.06
511.184	181.06
511.401	137.06
511.617	110.06
511.833	113.06
512.049	102.06
512.265	90.06
512.481	83.06
512.698	97.06
512.914	104.06
513.13	99.06
513.346	94.06
513.562	92.06
513.778	101.06
513.994	115.06
514.21	114.06
