Data from Circ_2006_H10_HRD10591_00077.txt Node
Date: Wed Jan 03 10:26:19 EST 2024
User: Yrep
Spectrometer: HR+D1059
Trigger mode: 1
Integration Time (sec): 1.000000E-1
Scans to average: 1
Electric dark correction enabled: true
Nonlinearity correction enabled: false
Boxcar width: 0
XAxis mode: Wavelengths
Number of Pixels in Spectrum: 2048
>>>>>Begin Spectral Data<<<<<
223.165	-14.06
223.4	-14.06
223.635	-14.06
223.869	-21.06
224.104	-11.06
224.338	-12.06
224.573	-22.06
224.808	-5.06
225.042	2.94
225.277	-7.06
225.511	1.94
225.746	-6.06
225.98	11.94
226.215	-1.06
226.449	8.94
226.683	10.94
226.918	33.94
227.152	28.94
227.387	32.94
227.621	42.94
227.856	47.94
228.09	41.94
228.324	47.94
228.559	60.94
228.793	73.94
229.027	56.94
229.262	58.94
229.496	85.94
229.73	88.94
229.964	73.94
230.199	78.94
230.433	72.94
230.667	79.94
230.901	72.94
231.136	71.94
231.37	70.94
231.604	76.94
231.838	69.94
232.072	68.94
232.306	84.94
232.541	75.94
232.775	73.94
233.009	94.94
233.243	83.94
233.477	66.94
233.711	68.94
233.945	76.94
234.179	68.94
234.413	72.94
234.647	63.94
234.881	75.94
235.115	64.94
235.349	60.94
235.583	62.94
235.817	73.94
236.051	63.94
236.285	60.94
236.519	62.94
236.753	80.94
236.987	82.94
237.221	82.94
237.455	85.94
237.689	82.94
237.922	61.94
238.156	73.94
238.39	69.94
238.624	75.94
238.858	87.94
239.091	62.94
239.325	76.94
239.559	65.94
239.793	78.94
240.027	81.94
240.26	66.94
240.494	66.94
240.728	78.94
240.961	64.94
241.195	57.94
241.429	77.94
241.662	79.94
241.896	89.94
242.13	81.94
242.363	79.94
242.597	53.94
242.83	54.94
243.064	72.94
243.298	70.94
243.531	68.94
243.765	52.94
243.998	80.94
244.232	71.94
244.465	76.94
244.699	61.94
244.932	72.94
245.166	60.94
245.399	74.94
245.633	80.94
245.866	65.94
246.099	74.94
246.333	75.94
246.566	79.94
246.8	73.94
247.033	88.94
247.266	83.94
247.5	72.94
247.733	81.94
247.966	82.94
248.2	82.94
248.433	69.94
248.666	71.94
248.899	90.94
249.133	84.94
249.366	90.94
249.599	102.94
249.832	81.94
250.066	95.94
250.299	76.94
250.532	65.94
250.765	76.94
250.998	71.94
251.231	77.94
251.465	84.94
251.698	77.94
251.931	76.94
252.164	77.94
252.397	73.94
252.63	77.94
252.863	78.94
253.096	73.94
253.329	73.94
253.562	63.94
253.795	86.94
254.028	77.94
254.261	79.94
254.494	75.94
254.727	104.94
254.96	65.94
255.193	72.94
255.426	78.94
255.659	75.94
255.892	82.94
256.124	75.94
256.357	82.94
256.59	88.94
256.823	65.94
257.056	72.94
257.289	64.94
257.521	61.94
257.754	76.94
257.987	79.94
258.22	71.94
258.452	78.94
258.685	63.94
258.918	71.94
259.151	80.94
259.383	77.94
259.616	82.94
259.849	79.94
260.081	73.94
260.314	79.94
260.547	82.94
260.779	92.94
261.012	60.94
261.244	75.94
261.477	92.94
261.71	98.94
261.942	121.94
262.175	126.94
262.407	82.94
262.64	69.94
262.872	77.94
263.105	82.94
263.337	72.94
263.57	71.94
263.802	62.94
264.035	84.94
264.267	91.94
264.499	69.94
264.732	69.94
264.964	76.94
265.197	77.94
265.429	63.94
265.661	80.94
265.894	94.94
266.126	88.94
266.358	74.94
266.591	74.94
266.823	77.94
267.055	81.94
267.287	75.94
267.52	79.94
267.752	81.94
267.984	67.94
268.216	73.94
268.448	72.94
268.681	68.94
268.913	81.94
269.145	86.94
269.377	88.94
269.609	67.94
269.841	78.94
270.073	74.94
270.306	89.94
270.538	78.94
270.77	71.94
271.002	80.94
271.234	69.94
271.466	80.94
271.698	85.94
271.93	77.94
272.162	69.94
272.394	84.94
272.626	62.94
272.858	80.94
273.09	78.94
273.322	68.94
273.553	75.94
273.785	63.94
274.017	81.94
274.249	89.94
274.481	83.94
274.713	89.94
274.945	90.94
275.176	83.94
275.408	92.94
275.64	87.94
275.872	89.94
276.104	90.94
276.335	90.94
276.567	105.94
276.799	111.94
277.031	107.94
277.262	91.94
277.494	86.94
277.726	86.94
277.957	75.94
278.189	89.94
278.421	88.94
278.652	78.94
278.884	81.94
279.115	84.94
279.347	71.94
279.579	74.94
279.81	70.94
280.042	95.94
280.273	88.94
280.505	93.94
280.736	84.94
280.968	81.94
281.199	85.94
281.431	77.94
281.662	85.94
281.894	82.94
282.125	100.94
282.356	107.94
282.588	141.94
282.819	118.94
283.051	71.94
283.282	86.94
283.513	90.94
283.745	84.94
283.976	69.94
284.207	87.94
284.439	77.94
284.67	79.94
284.901	78.94
285.132	62.94
285.364	89.94
285.595	77.94
285.826	82.94
286.057	98.94
286.288	88.94
286.52	81.94
286.751	79.94
286.982	82.94
287.213	70.94
287.444	73.94
287.675	77.94
287.906	83.94
288.138	70.94
288.369	86.94
288.6	72.94
288.831	74.94
289.062	81.94
289.293	91.94
289.524	73.94
289.755	89.94
289.986	69.94
290.217	76.94
290.448	90.94
290.679	75.94
290.91	62.94
291.141	77.94
291.371	88.94
291.602	81.94
291.833	77.94
292.064	70.94
292.295	82.94
292.526	81.94
292.757	71.94
292.987	77.94
293.218	95.94
293.449	83.94
293.68	80.94
293.91	77.94
294.141	84.94
294.372	82.94
294.603	76.94
294.833	75.94
295.064	81.94
295.295	80.94
295.525	86.94
295.756	100.94
295.987	116.94
296.217	172.94
296.448	135.94
296.679	79.94
296.909	89.94
297.14	83.94
297.37	78.94
297.601	92.94
297.831	84.94
298.062	87.94
298.292	87.94
298.523	86.94
298.753	81.94
298.984	90.94
299.214	88.94
299.445	90.94
299.675	93.94
299.905	99.94
300.136	90.94
300.366	81.94
300.597	93.94
300.827	101.94
301.057	106.94
301.288	112.94
301.518	97.94
301.748	83.94
301.979	89.94
302.209	100.94
302.439	97.94
302.669	80.94
302.9	77.94
303.13	95.94
303.36	84.94
303.59	93.94
303.82	116.94
304.051	83.94
304.281	96.94
304.511	90.94
304.741	85.94
304.971	85.94
305.201	74.94
305.431	89.94
305.661	95.94
305.891	79.94
306.121	83.94
306.352	97.94
306.582	92.94
306.812	88.94
307.042	97.94
307.272	84.94
307.502	82.94
307.731	88.94
307.961	85.94
308.191	89.94
308.421	80.94
308.651	81.94
308.881	87.94
309.111	91.94
309.341	97.94
309.571	90.94
309.8	88.94
310.03	86.94
310.26	90.94
310.49	83.94
310.72	88.94
310.949	94.94
311.179	104.94
311.409	96.94
311.639	80.94
311.868	80.94
312.098	86.94
312.328	84.94
312.557	101.94
312.787	112.94
313.017	106.94
313.246	83.94
313.476	77.94
313.706	87.94
313.935	93.94
314.165	86.94
314.394	97.94
314.624	81.94
314.853	90.94
315.083	91.94
315.312	76.94
315.542	84.94
315.771	92.94
316.001	98.94
316.23	75.94
316.46	89.94
316.689	95.94
316.919	89.94
317.148	102.94
317.377	96.94
317.607	87.94
317.836	94.94
318.065	88.94
318.295	82.94
318.524	79.94
318.753	89.94
318.983	91.94
319.212	98.94
319.441	99.94
319.67	104.94
319.9	96.94
320.129	106.94
320.358	100.94
320.587	92.94
320.816	93.94
321.046	98.94
321.275	106.94
321.504	95.94
321.733	81.94
321.962	96.94
322.191	95.94
322.42	107.94
322.649	125.94
322.878	123.94
323.108	134.94
323.337	143.94
323.566	138.94
323.795	162.94
324.024	228.94
324.253	492.94
324.482	1095.94
324.71	2310.94
324.939	2990.94
325.168	1083.94
325.397	307.94
325.626	177.94
325.855	146.94
326.084	125.94
326.313	144.94
326.542	163.94
326.77	263.94
326.999	596.94
327.228	1228.94
327.457	2252.94
327.686	1789.94
327.914	480.94
328.143	254.94
328.372	184.94
328.6	156.94
328.829	130.94
329.058	148.94
329.287	133.94
329.515	113.94
329.744	122.94
329.972	145.94
330.201	174.94
330.43	223.94
330.658	168.94
330.887	170.94
331.115	142.94
331.344	104.94
331.572	100.94
331.801	117.94
332.03	101.94
332.258	104.94
332.486	92.94
332.715	93.94
332.943	92.94
333.172	108.94
333.4	96.94
333.629	107.94
333.857	128.94
334.085	131.94
334.314	172.94
334.542	242.94
334.771	241.94
334.999	125.94
335.227	120.94
335.455	98.94
335.684	87.94
335.912	81.94
336.14	86.94
336.369	105.94
336.597	95.94
336.825	100.94
337.053	81.94
337.281	82.94
337.51	79.94
337.738	70.94
337.966	89.94
338.194	93.94
338.422	105.94
338.65	85.94
338.878	92.94
339.106	71.94
339.334	90.94
339.562	84.94
339.79	81.94
340.018	90.94
340.246	91.94
340.474	94.94
340.702	82.94
340.93	101.94
341.158	87.94
341.386	84.94
341.614	96.94
341.842	101.94
342.07	86.94
342.298	92.94
342.526	96.94
342.754	75.94
342.981	79.94
343.209	88.94
343.437	100.94
343.665	73.94
343.893	89.94
344.12	84.94
344.348	82.94
344.576	101.94
344.804	86.94
345.031	89.94
345.259	87.94
345.487	82.94
345.714	83.94
345.942	81.94
346.17	76.94
346.397	91.94
346.625	97.94
346.853	76.94
347.08	94.94
347.308	81.94
347.535	96.94
347.763	100.94
347.99	93.94
348.218	87.94
348.445	93.94
348.673	91.94
348.9	89.94
349.128	87.94
349.355	86.94
349.583	98.94
349.81	80.94
350.037	94.94
350.265	99.94
350.492	97.94
350.72	97.94
350.947	102.94
351.174	100.94
351.402	99.94
351.629	99.94
351.856	105.94
352.083	104.94
352.311	100.94
352.538	109.94
352.765	109.94
352.992	120.94
353.22	106.94
353.447	116.94
353.674	102.94
353.901	89.94
354.128	80.94
354.355	98.94
354.583	92.94
354.81	102.94
355.037	98.94
355.264	93.94
355.491	97.94
355.718	96.94
355.945	92.94
356.172	82.94
356.399	91.94
356.626	81.94
356.853	90.94
357.08	100.94
357.307	87.94
357.534	75.94
357.761	93.94
357.988	79.94
358.215	81.94
358.441	80.94
358.668	81.94
358.895	79.94
359.122	72.94
359.349	91.94
359.576	100.94
359.802	87.94
360.029	114.94
360.256	118.94
360.483	94.94
360.709	84.94
360.936	89.94
361.163	95.94
361.39	91.94
361.616	94.94
361.843	82.94
362.07	105.94
362.296	82.94
362.523	82.94
362.749	85.94
362.976	83.94
363.203	97.94
363.429	102.94
363.656	88.94
363.882	83.94
364.109	94.94
364.335	88.94
364.562	88.94
364.788	95.94
365.015	79.94
365.241	89.94
365.468	124.94
365.694	104.94
365.92	100.94
366.147	97.94
366.373	77.94
366.599	82.94
366.826	95.94
367.052	93.94
367.278	90.94
367.505	88.94
367.731	82.94
367.957	82.94
368.184	91.94
368.41	87.94
368.636	104.94
368.862	139.94
369.089	116.94
369.315	93.94
369.541	101.94
369.767	82.94
369.993	89.94
370.219	87.94
370.445	86.94
370.672	71.94
370.898	69.94
371.124	75.94
371.35	72.94
371.576	81.94
371.802	83.94
372.028	70.94
372.254	90.94
372.48	66.94
372.706	86.94
372.932	80.94
373.158	82.94
373.384	71.94
373.61	75.94
373.835	84.94
374.061	71.94
374.287	82.94
374.513	83.94
374.739	90.94
374.965	81.94
375.191	80.94
375.416	78.94
375.642	75.94
375.868	96.94
376.094	82.94
376.319	85.94
376.545	86.94
376.771	86.94
376.997	75.94
377.222	88.94
377.448	91.94
377.674	66.94
377.899	85.94
378.125	91.94
378.35	88.94
378.576	89.94
378.802	72.94
379.027	86.94
379.253	88.94
379.478	86.94
379.704	65.94
379.929	89.94
380.155	86.94
380.38	96.94
380.606	103.94
380.831	87.94
381.057	92.94
381.282	81.94
381.507	75.94
381.733	93.94
381.958	73.94
382.184	101.94
382.409	100.94
382.634	85.94
382.86	98.94
383.085	93.94
383.31	85.94
383.535	99.94
383.761	92.94
383.986	87.94
384.211	89.94
384.436	97.94
384.662	101.94
384.887	93.94
385.112	91.94
385.337	96.94
385.562	104.94
385.787	103.94
386.013	101.94
386.238	107.94
386.463	103.94
386.688	105.94
386.913	102.94
387.138	101.94
387.363	85.94
387.588	83.94
387.813	84.94
388.038	99.94
388.263	109.94
388.488	102.94
388.713	78.94
388.938	94.94
389.163	87.94
389.387	91.94
389.612	80.94
389.837	90.94
390.062	91.94
390.287	92.94
390.512	88.94
390.736	81.94
390.961	82.94
391.186	73.94
391.411	82.94
391.636	77.94
391.86	88.94
392.085	77.94
392.31	81.94
392.534	78.94
392.759	73.94
392.984	83.94
393.208	82.94
393.433	82.94
393.658	93.94
393.882	87.94
394.107	83.94
394.331	78.94
394.556	91.94
394.78	87.94
395.005	87.94
395.229	80.94
395.454	82.94
395.678	87.94
395.903	87.94
396.127	81.94
396.352	84.94
396.576	89.94
396.801	75.94
397.025	87.94
397.249	75.94
397.474	97.94
397.698	94.94
397.922	74.94
398.147	87.94
398.371	88.94
398.595	91.94
398.82	88.94
399.044	75.94
399.268	83.94
399.492	85.94
399.717	80.94
399.941	88.94
400.165	103.94
400.389	106.94
400.613	97.94
400.837	74.94
401.062	72.94
401.286	90.94
401.51	77.94
401.734	85.94
401.958	96.94
402.182	117.94
402.406	157.94
402.63	125.94
402.854	100.94
403.078	93.94
403.302	79.94
403.526	78.94
403.75	74.94
403.974	80.94
404.198	89.94
404.422	73.94
404.645	81.94
404.869	90.94
405.093	90.94
405.317	90.94
405.541	102.94
405.765	111.94
405.988	130.94
406.212	176.94
406.436	274.94
406.66	173.94
406.883	104.94
407.107	100.94
407.331	87.94
407.555	87.94
407.778	94.94
408.002	87.94
408.226	79.94
408.449	81.94
408.673	85.94
408.896	84.94
409.12	82.94
409.344	88.94
409.567	88.94
409.791	106.94
410.014	97.94
410.238	93.94
410.461	99.94
410.685	88.94
410.908	109.94
411.132	93.94
411.355	106.94
411.578	116.94
411.802	86.94
412.025	72.94
412.249	86.94
412.472	88.94
412.695	89.94
412.919	95.94
413.142	82.94
413.365	70.94
413.589	87.94
413.812	81.94
414.035	100.94
414.258	78.94
414.482	79.94
414.705	63.94
414.928	96.94
415.151	84.94
415.374	66.94
415.597	79.94
415.821	86.94
416.044	90.94
416.267	90.94
416.49	78.94
416.713	85.94
416.936	72.94
417.159	90.94
417.382	81.94
417.605	79.94
417.828	92.94
418.051	87.94
418.274	77.94
418.497	73.94
418.72	87.94
418.943	80.94
419.166	77.94
419.389	81.94
419.611	83.94
419.834	91.94
420.057	82.94
420.28	85.94
420.503	93.94
420.726	83.94
420.948	77.94
421.171	79.94
421.394	72.94
421.617	75.94
421.839	91.94
422.062	81.94
422.285	84.94
422.507	81.94
422.73	105.94
422.953	86.94
423.175	102.94
423.398	88.94
423.621	87.94
423.843	94.94
424.066	70.94
424.288	86.94
424.511	70.94
424.733	91.94
424.956	115.94
425.178	101.94
425.401	95.94
425.623	108.94
425.846	97.94
426.068	82.94
426.291	94.94
426.513	96.94
426.735	83.94
426.958	96.94
427.18	110.94
427.402	139.94
427.625	197.94
427.847	152.94
428.069	133.94
428.292	86.94
428.514	85.94
428.736	79.94
428.958	82.94
429.181	89.94
429.403	76.94
429.625	80.94
429.847	88.94
430.069	94.94
430.292	78.94
430.514	78.94
430.736	75.94
430.958	70.94
431.18	76.94
431.402	90.94
431.624	85.94
431.846	78.94
432.068	72.94
432.29	80.94
432.512	85.94
432.734	81.94
432.956	99.94
433.178	93.94
433.4	101.94
433.622	94.94
433.844	82.94
434.066	87.94
434.287	87.94
434.509	76.94
434.731	81.94
434.953	91.94
435.175	93.94
435.397	77.94
435.618	85.94
435.84	96.94
436.062	126.94
436.284	132.94
436.505	91.94
436.727	102.94
436.949	90.94
437.17	80.94
437.392	82.94
437.614	105.94
437.835	102.94
438.057	118.94
438.278	111.94
438.5	113.94
438.721	109.94
438.943	96.94
439.165	80.94
439.386	82.94
439.608	85.94
439.829	84.94
440.05	123.94
440.272	153.94
440.493	103.94
440.715	80.94
440.936	101.94
441.158	94.94
441.379	82.94
441.6	81.94
441.822	84.94
442.043	89.94
442.264	97.94
442.486	90.94
442.707	106.94
442.928	102.94
443.149	152.94
443.371	146.94
443.592	101.94
443.813	112.94
444.034	106.94
444.255	94.94
444.476	70.94
444.698	84.94
444.919	79.94
445.14	112.94
445.361	118.94
445.582	118.94
445.803	151.94
446.024	144.94
446.245	154.94
446.466	118.94
446.687	88.94
446.908	79.94
447.129	88.94
447.35	82.94
447.571	86.94
447.792	98.94
448.013	96.94
448.234	108.94
448.455	97.94
448.675	105.94
448.896	118.94
449.117	101.94
449.338	93.94
449.559	133.94
449.779	151.94
450	86.94
450.221	92.94
450.442	82.94
450.662	85.94
450.883	116.94
451.104	111.94
451.324	97.94
451.545	80.94
451.766	70.94
451.986	83.94
452.207	93.94
452.428	99.94
452.648	100.94
452.869	116.94
453.089	118.94
453.31	134.94
453.53	92.94
453.751	92.94
453.971	101.94
454.192	115.94
454.412	89.94
454.633	90.94
454.853	81.94
455.073	86.94
455.294	86.94
455.514	99.94
455.734	91.94
455.955	90.94
456.175	72.94
456.395	80.94
456.616	92.94
456.836	75.94
457.056	74.94
457.276	83.94
457.497	69.94
457.717	73.94
457.937	90.94
458.157	81.94
458.377	81.94
458.598	108.94
458.818	182.94
459.038	190.94
459.258	127.94
459.478	95.94
459.698	79.94
459.918	86.94
460.138	73.94
460.358	76.94
460.578	88.94
460.798	73.94
461.018	84.94
461.238	80.94
461.458	79.94
461.678	80.94
461.898	95.94
462.118	81.94
462.338	76.94
462.558	70.94
462.777	89.94
462.997	79.94
463.217	79.94
463.437	78.94
463.657	88.94
463.876	79.94
464.096	97.94
464.316	100.94
464.536	90.94
464.755	84.94
464.975	97.94
465.195	196.94
465.414	196.94
465.634	107.94
465.854	86.94
466.073	88.94
466.293	87.94
466.512	89.94
466.732	82.94
466.951	82.94
467.171	90.94
467.391	95.94
467.61	116.94
467.829	97.94
468.049	123.94
468.268	147.94
468.488	81.94
468.707	88.94
468.927	79.94
469.146	94.94
469.365	81.94
469.585	78.94
469.804	89.94
470.023	104.94
470.243	107.94
470.462	107.94
470.681	126.94
470.901	81.94
471.12	84.94
471.339	96.94
471.558	76.94
471.777	76.94
471.997	98.94
472.216	175.94
472.435	287.94
472.654	140.94
472.873	96.94
473.092	81.94
473.311	81.94
473.53	97.94
473.749	80.94
473.968	78.94
474.187	106.94
474.406	97.94
474.625	75.94
474.844	77.94
475.063	82.94
475.282	69.94
475.501	77.94
475.72	96.94
475.939	94.94
476.158	87.94
476.377	101.94
476.596	93.94
476.814	90.94
477.033	103.94
477.252	82.94
477.471	90.94
477.69	87.94
477.908	89.94
478.127	77.94
478.346	80.94
478.564	93.94
478.783	104.94
479.002	96.94
479.22	89.94
479.439	105.94
479.658	94.94
479.876	91.94
480.095	92.94
480.313	86.94
480.532	99.94
480.751	99.94
480.969	176.94
481.188	484.94
481.406	328.94
481.624	117.94
481.843	86.94
482.061	80.94
482.28	78.94
482.498	85.94
482.717	99.94
482.935	102.94
483.153	79.94
483.372	95.94
483.59	77.94
483.808	99.94
484.027	94.94
484.245	93.94
484.463	89.94
484.681	94.94
484.9	97.94
485.118	92.94
485.336	94.94
485.554	78.94
485.772	103.94
485.99	101.94
486.209	119.94
486.427	108.94
486.645	105.94
486.863	119.94
487.081	110.94
487.299	94.94
487.517	85.94
487.735	81.94
487.953	81.94
488.171	71.94
488.389	96.94
488.607	97.94
488.825	69.94
489.043	77.94
489.261	82.94
489.479	84.94
489.696	94.94
489.914	78.94
490.132	89.94
490.35	74.94
490.568	85.94
490.786	91.94
491.003	93.94
491.221	100.94
491.439	84.94
491.657	80.94
491.874	93.94
492.092	85.94
492.31	80.94
492.527	80.94
492.745	78.94
492.963	80.94
493.18	77.94
493.398	87.94
493.615	81.94
493.833	81.94
494.05	96.94
494.268	91.94
494.485	99.94
494.703	95.94
494.92	74.94
495.138	80.94
495.355	93.94
495.573	89.94
495.79	97.94
496.008	99.94
496.225	83.94
496.442	76.94
496.66	95.94
496.877	94.94
497.094	92.94
497.312	90.94
497.529	81.94
497.746	101.94
497.963	97.94
498.181	92.94
498.398	85.94
498.615	97.94
498.832	113.94
499.049	99.94
499.267	84.94
499.484	83.94
499.701	85.94
499.918	93.94
500.135	88.94
500.352	90.94
500.569	90.94
500.786	82.94
501.003	81.94
501.22	75.94
501.437	96.94
501.654	99.94
501.871	116.94
502.088	93.94
502.305	78.94
502.522	76.94
502.739	77.94
502.956	86.94
503.172	93.94
503.389	99.94
503.606	111.94
503.823	98.94
504.04	92.94
504.256	82.94
504.473	73.94
504.69	95.94
504.907	94.94
505.123	80.94
505.34	93.94
505.557	87.94
505.773	81.94
505.99	79.94
506.207	67.94
506.423	76.94
506.64	81.94
506.856	76.94
507.073	81.94
507.289	106.94
507.506	88.94
507.722	117.94
507.939	116.94
508.155	96.94
508.372	88.94
508.588	93.94
508.805	98.94
509.021	87.94
509.238	104.94
509.454	91.94
509.67	96.94
509.887	106.94
510.103	132.94
510.319	246.94
510.536	971.94
510.752	3220.94
510.968	884.94
511.184	174.94
511.401	107.94
511.617	108.94
511.833	96.94
512.049	86.94
512.265	79.94
512.481	107.94
512.698	81.94
512.914	89.94
513.13	80.94
513.346	87.94
513.562	113.94
513.778	106.94
513.994	102.94
514.21	85.94
514.426	127.94
514.642	149.94
514.858	138.94
515.074	192.94
515.29	612.94
515.506	2184.94
515.721	764.94
515.937	178.94
516.153	129.94
516.369	98.94
