Data from Circ_2006_H10_HRD10591_00071.txt Node
Date: Wed Jan 03 10:26:18 EST 2024
User: Yrep
Spectrometer: HR+D1059
Trigger mode: 1
Integration Time (sec): 1.000000E-1
Scans to average: 1
Electric dark correction enabled: true
Nonlinearity correction enabled: false
Boxcar width: 0
XAxis mode: Wavelengths
Number of Pixels in Spectrum: 2048
>>>>>Begin Spectral Data<<<<<
223.165	-12.25
223.4	-12.25
223.635	-12.25
223.869	-16.25
224.104	-16.25
224.338	-17.25
224.573	-5.25
224.808	-8.25
225.042	-9.25
225.277	-4.25
225.511	-17.25
225.746	-0.25
225.98	19.75
226.215	10.75
226.449	5.75
226.683	11.75
226.918	24.75
227.152	33.75
227.387	28.75
227.621	25.75
227.856	33.75
228.09	33.75
228.324	47.75
228.559	47.75
228.793	47.75
229.027	72.75
229.262	79.75
229.496	71.75
229.73	73.75
229.964	69.75
230.199	68.75
230.433	74.75
230.667	72.75
230.901	60.75
231.136	77.75
231.37	80.75
231.604	71.75
231.838	66.75
232.072	81.75
232.306	68.75
232.541	68.75
232.775	79.75
233.009	73.75
233.243	80.75
233.477	80.75
233.711	73.75
233.945	79.75
234.179	69.75
234.413	76.75
234.647	61.75
234.881	69.75
235.115	77.75
235.349	74.75
235.583	78.75
235.817	65.75
236.051	69.75
236.285	66.75
236.519	72.75
236.753	67.75
236.987	78.75
237.221	93.75
237.455	85.75
237.689	78.75
237.922	77.75
238.156	61.75
238.39	71.75
238.624	70.75
238.858	77.75
239.091	79.75
239.325	83.75
239.559	71.75
239.793	66.75
240.027	80.75
240.26	64.75
240.494	66.75
240.728	79.75
240.961	70.75
241.195	70.75
241.429	73.75
241.662	77.75
241.896	69.75
242.13	71.75
242.363	78.75
242.597	86.75
242.83	70.75
243.064	81.75
243.298	75.75
243.531	69.75
243.765	70.75
243.998	72.75
244.232	80.75
244.465	78.75
244.699	76.75
244.932	70.75
245.166	75.75
245.399	77.75
245.633	85.75
245.866	76.75
246.099	66.75
246.333	78.75
246.566	79.75
246.8	67.75
247.033	70.75
247.266	83.75
247.5	82.75
247.733	73.75
247.966	68.75
248.2	56.75
248.433	83.75
248.666	69.75
248.899	70.75
249.133	73.75
249.366	98.75
249.599	87.75
249.832	68.75
250.066	69.75
250.299	66.75
250.532	85.75
250.765	61.75
250.998	68.75
251.231	74.75
251.465	68.75
251.698	53.75
251.931	77.75
252.164	74.75
252.397	67.75
252.63	88.75
252.863	59.75
253.096	83.75
253.329	77.75
253.562	81.75
253.795	67.75
254.028	82.75
254.261	87.75
254.494	71.75
254.727	72.75
254.96	77.75
255.193	74.75
255.426	83.75
255.659	71.75
255.892	77.75
256.124	89.75
256.357	80.75
256.59	68.75
256.823	79.75
257.056	84.75
257.289	79.75
257.521	74.75
257.754	72.75
257.987	62.75
258.22	65.75
258.452	83.75
258.685	65.75
258.918	84.75
259.151	80.75
259.383	72.75
259.616	85.75
259.849	78.75
260.081	77.75
260.314	69.75
260.547	67.75
260.779	76.75
261.012	87.75
261.244	80.75
261.477	82.75
261.71	102.75
261.942	118.75
262.175	117.75
262.407	82.75
262.64	84.75
262.872	81.75
263.105	78.75
263.337	72.75
263.57	85.75
263.802	55.75
264.035	74.75
264.267	83.75
264.499	75.75
264.732	65.75
264.964	77.75
265.197	82.75
265.429	71.75
265.661	76.75
265.894	79.75
266.126	83.75
266.358	70.75
266.591	90.75
266.823	76.75
267.055	79.75
267.287	85.75
267.52	93.75
267.752	89.75
267.984	80.75
268.216	73.75
268.448	81.75
268.681	82.75
268.913	81.75
269.145	86.75
269.377	65.75
269.609	66.75
269.841	83.75
270.073	87.75
270.306	74.75
270.538	80.75
270.77	84.75
271.002	78.75
271.234	84.75
271.466	90.75
271.698	80.75
271.93	72.75
272.162	78.75
272.394	69.75
272.626	77.75
272.858	82.75
273.09	86.75
273.322	72.75
273.553	69.75
273.785	75.75
274.017	78.75
274.249	80.75
274.481	74.75
274.713	77.75
274.945	75.75
275.176	84.75
275.408	78.75
275.64	85.75
275.872	81.75
276.104	82.75
276.335	86.75
276.567	90.75
276.799	113.75
277.031	99.75
277.262	103.75
277.494	87.75
277.726	79.75
277.957	91.75
278.189	83.75
278.421	82.75
278.652	86.75
278.884	73.75
279.115	95.75
279.347	74.75
279.579	80.75
279.81	86.75
280.042	80.75
280.273	93.75
280.505	87.75
280.736	83.75
280.968	85.75
281.199	83.75
281.431	86.75
281.662	82.75
281.894	95.75
282.125	107.75
282.356	107.75
282.588	158.75
282.819	117.75
283.051	89.75
283.282	74.75
283.513	67.75
283.745	85.75
283.976	82.75
284.207	76.75
284.439	73.75
284.67	79.75
284.901	70.75
285.132	77.75
285.364	69.75
285.595	80.75
285.826	94.75
286.057	83.75
286.288	85.75
286.52	84.75
286.751	88.75
286.982	73.75
287.213	76.75
287.444	83.75
287.675	82.75
287.906	84.75
288.138	101.75
288.369	97.75
288.6	90.75
288.831	86.75
289.062	98.75
289.293	82.75
289.524	80.75
289.755	77.75
289.986	86.75
290.217	87.75
290.448	88.75
290.679	102.75
290.91	84.75
291.141	87.75
291.371	96.75
291.602	81.75
291.833	87.75
292.064	70.75
292.295	77.75
292.526	90.75
292.757	89.75
292.987	79.75
293.218	93.75
293.449	76.75
293.68	91.75
293.91	86.75
294.141	86.75
294.372	74.75
294.603	85.75
294.833	86.75
295.064	83.75
295.295	90.75
295.525	84.75
295.756	100.75
295.987	126.75
296.217	148.75
296.448	134.75
296.679	91.75
296.909	78.75
297.14	99.75
297.37	90.75
297.601	81.75
297.831	87.75
298.062	83.75
298.292	81.75
298.523	86.75
298.753	89.75
298.984	88.75
299.214	80.75
299.445	85.75
299.675	78.75
299.905	100.75
300.136	76.75
300.366	86.75
300.597	90.75
300.827	96.75
301.057	97.75
301.288	102.75
301.518	89.75
301.748	86.75
301.979	94.75
302.209	79.75
302.439	87.75
302.669	84.75
302.9	90.75
303.13	80.75
303.36	93.75
303.59	83.75
303.82	105.75
304.051	96.75
304.281	86.75
304.511	83.75
304.741	87.75
304.971	81.75
305.201	86.75
305.431	76.75
305.661	72.75
305.891	80.75
306.121	91.75
306.352	101.75
306.582	106.75
306.812	97.75
307.042	100.75
307.272	90.75
307.502	99.75
307.731	97.75
307.961	77.75
308.191	94.75
308.421	70.75
308.651	92.75
308.881	101.75
309.111	84.75
309.341	99.75
309.571	101.75
309.8	90.75
310.03	86.75
310.26	102.75
310.49	90.75
310.72	85.75
310.949	113.75
311.179	97.75
311.409	83.75
311.639	97.75
311.868	85.75
312.098	88.75
312.328	107.75
312.557	81.75
312.787	106.75
313.017	91.75
313.246	88.75
313.476	81.75
313.706	91.75
313.935	82.75
314.165	91.75
314.394	84.75
314.624	97.75
314.853	89.75
315.083	85.75
315.312	89.75
315.542	94.75
315.771	93.75
316.001	87.75
316.23	86.75
316.46	77.75
316.689	84.75
316.919	93.75
317.148	80.75
317.377	89.75
317.607	98.75
317.836	88.75
318.065	84.75
318.295	81.75
318.524	79.75
318.753	94.75
318.983	82.75
319.212	88.75
319.441	108.75
319.67	100.75
319.9	90.75
320.129	88.75
320.358	93.75
320.587	113.75
320.816	98.75
321.046	104.75
321.275	98.75
321.504	104.75
321.733	91.75
321.962	82.75
322.191	98.75
322.42	102.75
322.649	117.75
322.878	106.75
323.108	129.75
323.337	136.75
323.566	152.75
323.795	175.75
324.024	245.75
324.253	511.75
324.482	1103.75
324.71	2324.75
324.939	3085.75
325.168	1098.75
325.397	311.75
325.626	169.75
325.855	135.75
326.084	142.75
326.313	143.75
326.542	181.75
326.77	281.75
326.999	597.75
327.228	1280.75
327.457	2389.75
327.686	1849.75
327.914	484.75
328.143	228.75
328.372	171.75
328.6	177.75
328.829	126.75
329.058	131.75
329.287	131.75
329.515	111.75
329.744	93.75
329.972	145.75
330.201	172.75
330.43	223.75
330.658	162.75
330.887	174.75
331.115	142.75
331.344	91.75
331.572	107.75
331.801	101.75
332.03	105.75
332.258	95.75
332.486	89.75
332.715	94.75
332.943	98.75
333.172	111.75
333.4	100.75
333.629	94.75
333.857	119.75
334.085	139.75
334.314	173.75
334.542	262.75
334.771	251.75
334.999	126.75
335.227	99.75
335.455	91.75
335.684	99.75
335.912	72.75
336.14	83.75
336.369	91.75
336.597	108.75
336.825	91.75
337.053	96.75
337.281	85.75
337.51	95.75
337.738	96.75
337.966	89.75
338.194	109.75
338.422	83.75
338.65	94.75
338.878	85.75
339.106	90.75
339.334	96.75
339.562	90.75
339.79	95.75
340.018	97.75
340.246	94.75
340.474	90.75
340.702	95.75
340.93	92.75
341.158	92.75
341.386	93.75
341.614	94.75
341.842	88.75
342.07	83.75
342.298	87.75
342.526	90.75
342.754	87.75
342.981	86.75
343.209	88.75
343.437	93.75
343.665	93.75
343.893	90.75
344.12	87.75
344.348	93.75
344.576	95.75
344.804	82.75
345.031	94.75
345.259	101.75
345.487	93.75
345.714	94.75
345.942	84.75
346.17	81.75
346.397	81.75
346.625	73.75
346.853	94.75
347.08	87.75
347.308	89.75
347.535	97.75
347.763	105.75
347.99	110.75
348.218	101.75
348.445	102.75
348.673	82.75
348.9	105.75
349.128	107.75
349.355	83.75
349.583	91.75
349.81	93.75
350.037	92.75
350.265	97.75
350.492	89.75
350.72	93.75
350.947	109.75
351.174	121.75
351.402	114.75
351.629	98.75
351.856	83.75
352.083	104.75
352.311	99.75
352.538	112.75
352.765	112.75
352.992	123.75
353.22	107.75
353.447	99.75
353.674	109.75
353.901	93.75
354.128	93.75
354.355	91.75
354.583	103.75
354.81	91.75
355.037	101.75
355.264	102.75
355.491	85.75
355.718	83.75
355.945	96.75
356.172	87.75
356.399	95.75
356.626	83.75
356.853	74.75
357.08	95.75
357.307	81.75
357.534	80.75
357.761	101.75
357.988	87.75
358.215	96.75
358.441	89.75
358.668	90.75
358.895	86.75
359.122	89.75
359.349	86.75
359.576	86.75
359.802	91.75
360.029	123.75
360.256	115.75
360.483	98.75
360.709	83.75
360.936	85.75
361.163	90.75
361.39	117.75
361.616	83.75
361.843	83.75
362.07	87.75
362.296	98.75
362.523	98.75
362.749	97.75
362.976	95.75
363.203	86.75
363.429	89.75
363.656	92.75
363.882	83.75
364.109	93.75
364.335	98.75
364.562	93.75
364.788	100.75
365.015	111.75
365.241	91.75
365.468	96.75
365.694	106.75
365.92	91.75
366.147	93.75
366.373	100.75
366.599	75.75
366.826	79.75
367.052	88.75
367.278	90.75
367.505	94.75
367.731	88.75
367.957	90.75
368.184	97.75
368.41	87.75
368.636	120.75
368.862	121.75
369.089	116.75
369.315	99.75
369.541	89.75
369.767	93.75
369.993	95.75
370.219	83.75
370.445	80.75
370.672	87.75
370.898	97.75
371.124	81.75
371.35	74.75
371.576	76.75
371.802	87.75
372.028	91.75
372.254	76.75
372.48	90.75
372.706	84.75
372.932	73.75
373.158	76.75
373.384	86.75
373.61	87.75
373.835	82.75
374.061	83.75
374.287	90.75
374.513	92.75
374.739	90.75
374.965	86.75
375.191	90.75
375.416	75.75
375.642	86.75
375.868	87.75
376.094	89.75
376.319	72.75
376.545	92.75
376.771	80.75
376.997	83.75
377.222	89.75
377.448	89.75
377.674	79.75
377.899	88.75
378.125	85.75
378.35	78.75
378.576	89.75
378.802	82.75
379.027	87.75
379.253	87.75
379.478	87.75
379.704	91.75
379.929	101.75
380.155	96.75
380.38	88.75
380.606	86.75
380.831	87.75
381.057	101.75
381.282	93.75
381.507	105.75
381.733	94.75
381.958	97.75
382.184	101.75
382.409	86.75
382.634	87.75
382.86	105.75
383.085	102.75
383.31	90.75
383.535	101.75
383.761	89.75
383.986	86.75
384.211	97.75
384.436	102.75
384.662	87.75
384.887	82.75
385.112	105.75
385.337	82.75
385.562	112.75
385.787	102.75
386.013	108.75
386.238	113.75
386.463	110.75
386.688	105.75
386.913	113.75
387.138	105.75
387.363	86.75
387.588	87.75
387.813	96.75
388.038	99.75
388.263	126.75
388.488	105.75
388.713	87.75
388.938	88.75
389.163	81.75
389.387	85.75
389.612	98.75
389.837	85.75
390.062	63.75
390.287	91.75
390.512	89.75
390.736	89.75
390.961	87.75
391.186	95.75
391.411	93.75
391.636	70.75
391.86	80.75
392.085	73.75
392.31	76.75
392.534	72.75
392.759	88.75
392.984	89.75
393.208	94.75
393.433	89.75
393.658	78.75
393.882	72.75
394.107	85.75
394.331	81.75
394.556	83.75
394.78	92.75
395.005	91.75
395.229	88.75
395.454	79.75
395.678	79.75
395.903	86.75
396.127	91.75
396.352	86.75
396.576	91.75
396.801	74.75
397.025	83.75
397.249	96.75
397.474	96.75
397.698	85.75
397.922	94.75
398.147	91.75
398.371	87.75
398.595	78.75
398.82	98.75
399.044	84.75
399.268	75.75
399.492	86.75
399.717	77.75
399.941	100.75
400.165	86.75
400.389	83.75
400.613	74.75
400.837	77.75
401.062	87.75
401.286	102.75
401.51	91.75
401.734	94.75
401.958	94.75
402.182	126.75
402.406	177.75
402.63	128.75
402.854	78.75
403.078	92.75
403.302	78.75
403.526	81.75
403.75	101.75
403.974	87.75
404.198	80.75
404.422	87.75
404.645	93.75
404.869	94.75
405.093	92.75
405.317	114.75
405.541	95.75
405.765	95.75
405.988	115.75
406.212	186.75
406.436	256.75
406.66	153.75
406.883	99.75
407.107	93.75
407.331	94.75
407.555	103.75
407.778	104.75
408.002	102.75
408.226	92.75
408.449	90.75
408.673	91.75
408.896	108.75
409.12	97.75
409.344	83.75
409.567	88.75
409.791	91.75
410.014	110.75
410.238	82.75
410.461	89.75
410.685	89.75
410.908	86.75
411.132	93.75
411.355	88.75
411.578	87.75
411.802	85.75
412.025	92.75
412.249	97.75
412.472	96.75
412.695	108.75
412.919	101.75
413.142	88.75
413.365	85.75
413.589	71.75
413.812	78.75
414.035	92.75
414.258	89.75
414.482	92.75
414.705	88.75
414.928	87.75
415.151	99.75
415.374	94.75
415.597	92.75
415.821	86.75
416.044	89.75
416.267	83.75
416.49	94.75
416.713	82.75
416.936	98.75
417.159	77.75
417.382	78.75
417.605	86.75
417.828	91.75
418.051	88.75
418.274	87.75
418.497	86.75
418.72	97.75
418.943	85.75
419.166	86.75
419.389	79.75
419.611	81.75
419.834	91.75
420.057	86.75
420.28	86.75
420.503	86.75
420.726	92.75
420.948	106.75
421.171	103.75
421.394	94.75
421.617	70.75
421.839	83.75
422.062	94.75
422.285	88.75
422.507	87.75
422.73	109.75
422.953	92.75
423.175	91.75
423.398	110.75
423.621	88.75
423.843	74.75
424.066	87.75
424.288	88.75
424.511	95.75
424.733	102.75
424.956	111.75
425.178	103.75
425.401	90.75
425.623	110.75
425.846	92.75
426.068	93.75
426.291	91.75
426.513	93.75
426.735	94.75
426.958	89.75
427.18	106.75
427.402	145.75
427.625	195.75
427.847	165.75
428.069	135.75
428.292	96.75
428.514	98.75
428.736	84.75
428.958	94.75
429.181	85.75
429.403	81.75
429.625	89.75
429.847	84.75
430.069	83.75
430.292	83.75
430.514	90.75
430.736	87.75
430.958	92.75
431.18	88.75
431.402	78.75
431.624	75.75
431.846	86.75
432.068	68.75
432.29	81.75
432.512	89.75
432.734	80.75
432.956	91.75
433.178	95.75
433.4	101.75
433.622	92.75
433.844	100.75
434.066	99.75
434.287	99.75
434.509	93.75
434.731	79.75
434.953	73.75
435.175	95.75
435.397	96.75
435.618	101.75
435.84	111.75
436.062	123.75
436.284	145.75
436.505	106.75
436.727	101.75
436.949	93.75
437.17	89.75
437.392	82.75
437.614	88.75
437.835	122.75
438.057	123.75
438.278	118.75
438.5	112.75
438.721	127.75
438.943	103.75
439.165	83.75
439.386	85.75
439.608	96.75
439.829	96.75
440.05	130.75
440.272	156.75
440.493	90.75
440.715	66.75
440.936	77.75
441.158	80.75
441.379	98.75
441.6	90.75
441.822	101.75
442.043	95.75
442.264	103.75
442.486	100.75
442.707	90.75
442.928	115.75
443.149	139.75
443.371	140.75
443.592	123.75
443.813	125.75
444.034	112.75
444.255	109.75
444.476	91.75
444.698	86.75
444.919	80.75
445.14	138.75
445.361	133.75
445.582	124.75
445.803	161.75
446.024	161.75
446.245	142.75
446.466	107.75
446.687	90.75
446.908	81.75
447.129	88.75
447.35	82.75
447.571	94.75
447.792	94.75
448.013	105.75
448.234	97.75
448.455	122.75
448.675	112.75
448.896	122.75
449.117	91.75
449.338	110.75
449.559	139.75
449.779	144.75
450	97.75
450.221	89.75
450.442	92.75
450.662	104.75
450.883	114.75
451.104	111.75
451.324	89.75
451.545	91.75
451.766	85.75
451.986	75.75
452.207	88.75
452.428	106.75
452.648	104.75
452.869	114.75
453.089	105.75
453.31	118.75
453.53	78.75
453.751	92.75
453.971	99.75
454.192	122.75
454.412	88.75
454.633	84.75
454.853	85.75
455.073	80.75
455.294	96.75
455.514	106.75
455.734	89.75
455.955	95.75
456.175	78.75
456.395	86.75
456.616	87.75
456.836	95.75
457.056	79.75
457.276	86.75
457.497	82.75
457.717	87.75
457.937	80.75
458.157	91.75
458.377	87.75
458.598	114.75
458.818	156.75
459.038	187.75
459.258	130.75
459.478	89.75
459.698	69.75
459.918	83.75
460.138	98.75
460.358	93.75
460.578	91.75
460.798	93.75
461.018	90.75
461.238	94.75
461.458	90.75
461.678	94.75
461.898	81.75
462.118	80.75
462.338	81.75
462.558	88.75
462.777	73.75
462.997	98.75
463.217	90.75
463.437	85.75
463.657	69.75
463.876	78.75
464.096	82.75
464.316	101.75
464.536	88.75
464.755	102.75
464.975	102.75
465.195	186.75
465.414	187.75
465.634	105.75
465.854	86.75
466.073	73.75
466.293	93.75
466.512	89.75
466.732	85.75
466.951	78.75
467.171	105.75
467.391	104.75
467.61	113.75
467.829	105.75
468.049	131.75
468.268	153.75
468.488	91.75
468.707	82.75
468.927	91.75
469.146	81.75
469.365	90.75
469.585	92.75
469.804	95.75
470.023	109.75
470.243	89.75
470.462	104.75
470.681	110.75
470.901	71.75
471.12	91.75
471.339	96.75
471.558	97.75
471.777	89.75
471.997	117.75
472.216	181.75
472.435	315.75
472.654	121.75
472.873	93.75
473.092	95.75
473.311	79.75
473.53	78.75
473.749	89.75
473.968	95.75
474.187	107.75
474.406	91.75
474.625	87.75
474.844	97.75
475.063	86.75
475.282	85.75
475.501	97.75
475.72	103.75
475.939	87.75
476.158	81.75
476.377	79.75
476.596	93.75
476.814	102.75
477.033	85.75
477.252	82.75
477.471	78.75
477.69	83.75
477.908	81.75
478.127	97.75
478.346	88.75
478.564	95.75
478.783	97.75
479.002	102.75
479.22	91.75
479.439	99.75
479.658	100.75
479.876	87.75
480.095	94.75
480.313	89.75
480.532	92.75
480.751	103.75
480.969	193.75
481.188	473.75
481.406	348.75
481.624	102.75
481.843	88.75
482.061	88.75
482.28	75.75
482.498	73.75
482.717	85.75
482.935	92.75
483.153	97.75
483.372	86.75
483.59	92.75
483.808	67.75
484.027	99.75
484.245	87.75
484.463	88.75
484.681	92.75
484.9	92.75
485.118	82.75
485.336	84.75
485.554	97.75
485.772	108.75
485.99	97.75
486.209	102.75
486.427	112.75
486.645	93.75
486.863	126.75
487.081	107.75
487.299	80.75
487.517	103.75
487.735	102.75
487.953	85.75
488.171	91.75
488.389	97.75
488.607	113.75
488.825	100.75
489.043	110.75
489.261	97.75
489.479	93.75
489.696	93.75
489.914	97.75
490.132	77.75
490.35	84.75
490.568	83.75
490.786	92.75
491.003	84.75
491.221	97.75
491.439	90.75
491.657	89.75
491.874	87.75
492.092	83.75
492.31	88.75
492.527	87.75
492.745	97.75
492.963	90.75
493.18	91.75
493.398	101.75
493.615	83.75
493.833	88.75
494.05	92.75
494.268	90.75
494.485	98.75
494.703	82.75
494.92	89.75
495.138	89.75
495.355	89.75
495.573	74.75
495.79	71.75
496.008	97.75
496.225	83.75
496.442	77.75
496.66	85.75
496.877	88.75
497.094	87.75
497.312	95.75
497.529	88.75
497.746	98.75
497.963	93.75
498.181	85.75
498.398	98.75
498.615	101.75
498.832	96.75
499.049	84.75
499.267	89.75
499.484	94.75
499.701	93.75
499.918	91.75
500.135	83.75
500.352	81.75
500.569	94.75
500.786	91.75
501.003	79.75
501.22	88.75
501.437	86.75
501.654	93.75
501.871	105.75
502.088	104.75
502.305	89.75
502.522	83.75
502.739	81.75
502.956	70.75
503.172	96.75
503.389	89.75
503.606	102.75
503.823	91.75
504.04	94.75
504.256	78.75
504.473	90.75
504.69	73.75
504.907	99.75
505.123	81.75
505.34	81.75
505.557	91.75
505.773	100.75
505.99	85.75
506.207	96.75
506.423	85.75
506.64	83.75
506.856	87.75
507.073	81.75
507.289	93.75
507.506	107.75
507.722	135.75
507.939	114.75
508.155	81.75
508.372	95.75
508.588	102.75
508.805	117.75
509.021	106.75
509.238	114.75
509.454	107.75
509.67	99.75
509.887	106.75
510.103	132.75
510.319	229.75
510.536	915.75
510.752	2958.75
510.968	816.75
511.184	159.75
511.401	117.75
511.617	86.75
511.833	93.75
512.049	90.75
512.265	90.75
512.481	86.75
512.698	102.75
512.914	87.75
513.13	80.75
513.346	93.75
513.562	81.75
513.778	93.75
513.994	101.75
514.21	103.75
514.426	119.75
514.642	137.75
514.858	129.75
515.074	196.75
515.29	557.75
515.506	1937.75
515.721	689.75
515.937	177.75
