Data from Circ_2006_H10_HRD10591_00052.txt Node
Date: Wed Jan 03 10:26:14 EST 2024
User: Yrep
Spectrometer: HR+D1059
Trigger mode: 1
Integration Time (sec): 1.000000E-1
Scans to average: 1
Electric dark correction enabled: true
Nonlinearity correction enabled: false
Boxcar width: 0
XAxis mode: Wavelengths
Number of Pixels in Spectrum: 2048
>>>>>Begin Spectral Data<<<<<
223.165	-22.62
223.4	-22.62
223.635	-22.62
223.869	-16.62
224.104	-18.62
224.338	-17.62
224.573	-4.62
224.808	-38.62
225.042	-16.62
225.277	3.38
225.511	-6.62
225.746	13.38
225.98	18.38
226.215	15.38
226.449	10.38
226.683	26.38
226.918	26.38
227.152	28.38
227.387	39.38
227.621	31.38
227.856	36.38
228.09	47.38
228.324	53.38
228.559	64.38
228.793	61.38
229.027	65.38
229.262	67.38
229.496	84.38
229.73	87.38
229.964	97.38
230.199	73.38
230.433	74.38
230.667	72.38
230.901	89.38
231.136	68.38
231.37	71.38
231.604	86.38
231.838	87.38
232.072	76.38
232.306	81.38
232.541	75.38
232.775	73.38
233.009	87.38
233.243	91.38
233.477	88.38
233.711	98.38
233.945	82.38
234.179	82.38
234.413	86.38
234.647	86.38
234.881	77.38
235.115	80.38
235.349	78.38
235.583	62.38
235.817	66.38
236.051	87.38
236.285	84.38
236.519	88.38
236.753	74.38
236.987	86.38
237.221	87.38
237.455	92.38
237.689	85.38
237.922	78.38
238.156	70.38
238.39	86.38
238.624	65.38
238.858	71.38
239.091	91.38
239.325	73.38
239.559	86.38
239.793	78.38
240.027	86.38
240.26	86.38
240.494	82.38
240.728	85.38
240.961	78.38
241.195	87.38
241.429	78.38
241.662	78.38
241.896	85.38
242.13	65.38
242.363	72.38
242.597	90.38
242.83	78.38
243.064	89.38
243.298	95.38
243.531	86.38
243.765	80.38
243.998	82.38
244.232	89.38
244.465	103.38
244.699	85.38
244.932	72.38
245.166	91.38
245.399	86.38
245.633	77.38
245.866	88.38
246.099	90.38
246.333	85.38
246.566	76.38
246.8	87.38
247.033	85.38
247.266	74.38
247.5	81.38
247.733	80.38
247.966	86.38
248.2	74.38
248.433	95.38
248.666	79.38
248.899	82.38
249.133	80.38
249.366	97.38
249.599	109.38
249.832	89.38
250.066	74.38
250.299	95.38
250.532	81.38
250.765	91.38
250.998	94.38
251.231	80.38
251.465	69.38
251.698	87.38
251.931	88.38
252.164	96.38
252.397	75.38
252.63	81.38
252.863	90.38
253.096	79.38
253.329	72.38
253.562	88.38
253.795	99.38
254.028	100.38
254.261	82.38
254.494	83.38
254.727	94.38
254.96	58.38
255.193	95.38
255.426	82.38
255.659	79.38
255.892	86.38
256.124	80.38
256.357	83.38
256.59	79.38
256.823	90.38
257.056	90.38
257.289	74.38
257.521	91.38
257.754	93.38
257.987	88.38
258.22	100.38
258.452	81.38
258.685	87.38
258.918	101.38
259.151	70.38
259.383	90.38
259.616	86.38
259.849	85.38
260.081	88.38
260.314	98.38
260.547	86.38
260.779	84.38
261.012	98.38
261.244	83.38
261.477	95.38
261.71	105.38
261.942	128.38
262.175	129.38
262.407	104.38
262.64	91.38
262.872	89.38
263.105	80.38
263.337	85.38
263.57	84.38
263.802	89.38
264.035	92.38
264.267	79.38
264.499	82.38
264.732	80.38
264.964	99.38
265.197	86.38
265.429	87.38
265.661	80.38
265.894	97.38
266.126	92.38
266.358	88.38
266.591	90.38
266.823	88.38
267.055	90.38
267.287	94.38
267.52	80.38
267.752	99.38
267.984	85.38
268.216	100.38
268.448	83.38
268.681	89.38
268.913	83.38
269.145	78.38
269.377	91.38
269.609	86.38
269.841	86.38
270.073	95.38
270.306	88.38
270.538	87.38
270.77	87.38
271.002	87.38
271.234	78.38
271.466	91.38
271.698	90.38
271.93	97.38
272.162	86.38
272.394	109.38
272.626	85.38
272.858	91.38
273.09	93.38
273.322	101.38
273.553	94.38
273.785	88.38
274.017	87.38
274.249	98.38
274.481	83.38
274.713	90.38
274.945	83.38
275.176	94.38
275.408	89.38
275.64	96.38
275.872	83.38
276.104	99.38
276.335	103.38
276.567	113.38
276.799	116.38
277.031	104.38
277.262	81.38
277.494	89.38
277.726	88.38
277.957	90.38
278.189	90.38
278.421	78.38
278.652	80.38
278.884	86.38
279.115	92.38
279.347	74.38
279.579	82.38
279.81	88.38
280.042	88.38
280.273	109.38
280.505	101.38
280.736	105.38
280.968	85.38
281.199	99.38
281.431	90.38
281.662	112.38
281.894	94.38
282.125	108.38
282.356	133.38
282.588	158.38
282.819	133.38
283.051	97.38
283.282	77.38
283.513	101.38
283.745	94.38
283.976	100.38
284.207	93.38
284.439	87.38
284.67	85.38
284.901	84.38
285.132	85.38
285.364	87.38
285.595	90.38
285.826	91.38
286.057	90.38
286.288	84.38
286.52	100.38
286.751	90.38
286.982	94.38
287.213	89.38
287.444	97.38
287.675	87.38
287.906	91.38
288.138	98.38
288.369	112.38
288.6	109.38
288.831	98.38
289.062	90.38
289.293	84.38
289.524	86.38
289.755	85.38
289.986	84.38
290.217	94.38
290.448	90.38
290.679	86.38
290.91	95.38
291.141	85.38
291.371	96.38
291.602	83.38
291.833	100.38
292.064	82.38
292.295	98.38
292.526	99.38
292.757	94.38
292.987	91.38
293.218	92.38
293.449	85.38
293.68	87.38
293.91	105.38
294.141	98.38
294.372	83.38
294.603	81.38
294.833	90.38
295.064	95.38
295.295	86.38
295.525	99.38
295.756	103.38
295.987	126.38
296.217	164.38
296.448	144.38
296.679	97.38
296.909	102.38
297.14	87.38
297.37	79.38
297.601	105.38
297.831	101.38
298.062	93.38
298.292	88.38
298.523	94.38
298.753	86.38
298.984	86.38
299.214	89.38
299.445	85.38
299.675	96.38
299.905	103.38
300.136	99.38
300.366	81.38
300.597	82.38
300.827	94.38
301.057	116.38
301.288	118.38
301.518	100.38
301.748	89.38
301.979	114.38
302.209	100.38
302.439	105.38
302.669	96.38
302.9	89.38
303.13	109.38
303.36	89.38
303.59	120.38
303.82	108.38
304.051	103.38
304.281	87.38
304.511	97.38
304.741	104.38
304.971	101.38
305.201	95.38
305.431	105.38
305.661	92.38
305.891	87.38
306.121	104.38
306.352	106.38
306.582	112.38
306.812	111.38
307.042	106.38
307.272	97.38
307.502	102.38
307.731	95.38
307.961	90.38
308.191	102.38
308.421	108.38
308.651	95.38
308.881	92.38
309.111	86.38
309.341	99.38
309.571	97.38
309.8	98.38
310.03	117.38
310.26	112.38
310.49	100.38
310.72	104.38
310.949	98.38
311.179	118.38
311.409	101.38
311.639	104.38
311.868	85.38
312.098	112.38
312.328	115.38
312.557	106.38
312.787	120.38
313.017	89.38
313.246	118.38
313.476	96.38
313.706	109.38
313.935	100.38
314.165	106.38
314.394	99.38
314.624	104.38
314.853	110.38
315.083	88.38
315.312	106.38
315.542	104.38
315.771	92.38
316.001	90.38
316.23	98.38
316.46	102.38
316.689	87.38
316.919	90.38
317.148	96.38
317.377	99.38
317.607	104.38
317.836	101.38
318.065	100.38
318.295	97.38
318.524	99.38
318.753	96.38
318.983	103.38
319.212	102.38
319.441	122.38
319.67	115.38
319.9	91.38
320.129	101.38
320.358	103.38
320.587	117.38
320.816	106.38
321.046	96.38
321.275	101.38
321.504	106.38
321.733	101.38
321.962	110.38
322.191	108.38
322.42	115.38
322.649	101.38
322.878	125.38
323.108	132.38
323.337	139.38
323.566	161.38
323.795	191.38
324.024	259.38
324.253	529.38
324.482	1137.38
324.71	2463.38
324.939	3185.38
325.168	1116.38
325.397	318.38
325.626	178.38
325.855	154.38
326.084	146.38
326.313	143.38
326.542	190.38
326.77	304.38
326.999	608.38
327.228	1354.38
327.457	2441.38
327.686	1898.38
327.914	506.38
328.143	257.38
328.372	201.38
328.6	155.38
328.829	130.38
329.058	131.38
329.287	143.38
329.515	130.38
329.744	113.38
329.972	131.38
330.201	145.38
330.43	165.38
330.658	156.38
330.887	175.38
331.115	152.38
331.344	112.38
331.572	142.38
331.801	120.38
332.03	118.38
332.258	89.38
332.486	96.38
332.715	100.38
332.943	106.38
333.172	91.38
333.4	100.38
333.629	119.38
333.857	137.38
334.085	130.38
334.314	121.38
334.542	167.38
334.771	153.38
334.999	113.38
335.227	117.38
335.455	112.38
335.684	97.38
335.912	108.38
336.14	117.38
336.369	100.38
336.597	107.38
336.825	100.38
337.053	91.38
337.281	101.38
337.51	101.38
337.738	106.38
337.966	105.38
338.194	109.38
338.422	100.38
338.65	83.38
338.878	93.38
339.106	94.38
339.334	101.38
339.562	101.38
339.79	91.38
340.018	103.38
340.246	105.38
340.474	99.38
340.702	106.38
340.93	91.38
341.158	89.38
341.386	102.38
341.614	111.38
341.842	107.38
342.07	89.38
342.298	102.38
342.526	95.38
342.754	91.38
342.981	91.38
343.209	99.38
343.437	103.38
343.665	85.38
343.893	92.38
344.12	118.38
344.348	96.38
344.576	98.38
344.804	102.38
345.031	106.38
345.259	96.38
345.487	90.38
345.714	105.38
345.942	108.38
346.17	92.38
346.397	91.38
346.625	97.38
346.853	92.38
347.08	100.38
347.308	96.38
347.535	111.38
347.763	123.38
347.99	101.38
348.218	82.38
348.445	101.38
348.673	107.38
348.9	107.38
349.128	94.38
349.355	98.38
349.583	103.38
349.81	89.38
350.037	95.38
350.265	95.38
350.492	100.38
350.72	94.38
350.947	105.38
351.174	132.38
351.402	135.38
351.629	114.38
351.856	120.38
352.083	113.38
352.311	108.38
352.538	106.38
352.765	108.38
352.992	125.38
353.22	118.38
353.447	104.38
353.674	118.38
353.901	114.38
354.128	112.38
354.355	96.38
354.583	107.38
354.81	111.38
355.037	95.38
355.264	90.38
355.491	99.38
355.718	114.38
355.945	109.38
356.172	96.38
356.399	110.38
356.626	101.38
356.853	91.38
357.08	115.38
357.307	95.38
357.534	102.38
357.761	93.38
357.988	115.38
358.215	108.38
358.441	89.38
358.668	99.38
358.895	90.38
359.122	103.38
359.349	96.38
359.576	92.38
359.802	117.38
360.029	122.38
360.256	131.38
360.483	101.38
360.709	90.38
360.936	102.38
361.163	102.38
361.39	109.38
361.616	94.38
361.843	91.38
362.07	106.38
362.296	113.38
362.523	94.38
362.749	94.38
362.976	105.38
363.203	107.38
363.429	85.38
363.656	82.38
363.882	98.38
364.109	91.38
364.335	90.38
364.562	97.38
364.788	88.38
365.015	99.38
365.241	107.38
365.468	118.38
365.694	114.38
365.92	110.38
366.147	85.38
366.373	93.38
366.599	100.38
366.826	90.38
367.052	91.38
367.278	97.38
367.505	92.38
367.731	95.38
367.957	107.38
368.184	108.38
368.41	112.38
368.636	122.38
368.862	131.38
369.089	111.38
369.315	117.38
369.541	88.38
369.767	109.38
369.993	99.38
370.219	100.38
370.445	91.38
370.672	87.38
370.898	94.38
371.124	89.38
371.35	93.38
371.576	87.38
371.802	91.38
372.028	98.38
372.254	100.38
372.48	106.38
372.706	85.38
372.932	87.38
373.158	105.38
373.384	108.38
373.61	91.38
373.835	99.38
374.061	100.38
374.287	94.38
374.513	86.38
374.739	101.38
374.965	85.38
375.191	102.38
375.416	88.38
375.642	91.38
375.868	107.38
376.094	93.38
376.319	90.38
376.545	103.38
376.771	89.38
376.997	81.38
377.222	103.38
377.448	97.38
377.674	91.38
377.899	85.38
378.125	93.38
378.35	107.38
378.576	101.38
378.802	96.38
379.027	101.38
379.253	96.38
379.478	88.38
379.704	96.38
379.929	99.38
380.155	94.38
380.38	90.38
380.606	101.38
380.831	94.38
381.057	104.38
381.282	98.38
381.507	97.38
381.733	99.38
381.958	95.38
382.184	86.38
382.409	106.38
382.634	103.38
382.86	104.38
383.085	96.38
383.31	98.38
383.535	99.38
383.761	101.38
383.986	107.38
384.211	112.38
384.436	111.38
384.662	113.38
384.887	111.38
385.112	109.38
385.337	109.38
385.562	87.38
385.787	118.38
386.013	116.38
386.238	107.38
386.463	114.38
386.688	112.38
386.913	94.38
387.138	113.38
387.363	109.38
387.588	108.38
387.813	104.38
388.038	102.38
388.263	116.38
388.488	104.38
388.713	100.38
388.938	101.38
389.163	99.38
389.387	112.38
389.612	97.38
389.837	87.38
390.062	99.38
390.287	90.38
390.512	95.38
390.736	95.38
390.961	96.38
391.186	105.38
391.411	94.38
391.636	94.38
391.86	95.38
392.085	89.38
392.31	103.38
392.534	90.38
392.759	90.38
392.984	105.38
393.208	97.38
393.433	86.38
393.658	103.38
393.882	77.38
394.107	88.38
394.331	88.38
394.556	89.38
394.78	91.38
395.005	86.38
395.229	85.38
395.454	99.38
395.678	94.38
395.903	87.38
396.127	102.38
396.352	70.38
396.576	95.38
396.801	93.38
397.025	101.38
397.249	91.38
397.474	92.38
397.698	87.38
397.922	101.38
398.147	88.38
398.371	85.38
398.595	88.38
398.82	89.38
399.044	84.38
399.268	85.38
399.492	87.38
399.717	97.38
399.941	102.38
400.165	97.38
400.389	102.38
400.613	94.38
400.837	81.38
401.062	80.38
401.286	96.38
401.51	90.38
401.734	89.38
401.958	100.38
402.182	128.38
402.406	178.38
402.63	130.38
402.854	110.38
403.078	74.38
403.302	104.38
403.526	102.38
403.75	94.38
403.974	91.38
404.198	81.38
404.422	103.38
404.645	98.38
404.869	90.38
405.093	93.38
405.317	121.38
405.541	96.38
405.765	114.38
405.988	141.38
406.212	206.38
406.436	284.38
406.66	173.38
406.883	112.38
407.107	99.38
407.331	91.38
407.555	98.38
407.778	92.38
408.002	103.38
408.226	117.38
408.449	98.38
408.673	102.38
408.896	110.38
409.12	104.38
409.344	84.38
409.567	83.38
409.791	99.38
410.014	108.38
410.238	108.38
410.461	96.38
410.685	86.38
410.908	111.38
411.132	115.38
411.355	117.38
411.578	96.38
411.802	87.38
412.025	86.38
412.249	104.38
412.472	109.38
412.695	95.38
412.919	95.38
413.142	84.38
413.365	81.38
413.589	102.38
413.812	109.38
414.035	103.38
414.258	86.38
414.482	95.38
414.705	95.38
414.928	88.38
415.151	91.38
415.374	88.38
415.597	94.38
415.821	83.38
416.044	87.38
416.267	99.38
416.49	100.38
416.713	101.38
416.936	100.38
417.159	78.38
417.382	90.38
417.605	87.38
417.828	115.38
418.051	99.38
418.274	93.38
418.497	88.38
418.72	86.38
418.943	89.38
419.166	89.38
419.389	94.38
419.611	87.38
419.834	101.38
420.057	97.38
420.28	98.38
420.503	106.38
420.726	102.38
420.948	102.38
421.171	101.38
421.394	96.38
421.617	86.38
421.839	80.38
422.062	89.38
422.285	99.38
422.507	104.38
422.73	105.38
422.953	99.38
423.175	105.38
423.398	89.38
423.621	80.38
423.843	89.38
424.066	85.38
424.288	106.38
424.511	96.38
424.733	111.38
424.956	112.38
425.178	86.38
425.401	103.38
425.623	114.38
425.846	107.38
426.068	83.38
426.291	98.38
426.513	96.38
426.735	95.38
426.958	90.38
427.18	104.38
427.402	153.38
427.625	218.38
427.847	156.38
428.069	125.38
428.292	102.38
428.514	88.38
428.736	74.38
428.958	88.38
429.181	95.38
429.403	77.38
429.625	86.38
429.847	114.38
430.069	92.38
430.292	92.38
430.514	82.38
430.736	89.38
430.958	79.38
431.18	103.38
431.402	94.38
431.624	85.38
431.846	91.38
432.068	89.38
432.29	103.38
432.512	89.38
432.734	93.38
432.956	93.38
433.178	114.38
433.4	87.38
433.622	87.38
433.844	101.38
434.066	90.38
434.287	96.38
434.509	111.38
434.731	98.38
434.953	100.38
435.175	88.38
435.397	103.38
435.618	95.38
435.84	122.38
436.062	125.38
436.284	126.38
436.505	113.38
436.727	107.38
436.949	110.38
437.17	95.38
437.392	88.38
437.614	90.38
437.835	126.38
438.057	154.38
438.278	112.38
438.5	113.38
438.721	131.38
438.943	121.38
439.165	79.38
439.386	92.38
439.608	104.38
439.829	116.38
440.05	144.38
440.272	168.38
440.493	109.38
440.715	89.38
440.936	99.38
441.158	100.38
441.379	107.38
441.6	83.38
441.822	104.38
442.043	114.38
442.264	112.38
442.486	104.38
442.707	110.38
442.928	120.38
443.149	149.38
443.371	152.38
443.592	98.38
443.813	122.38
444.034	136.38
444.255	98.38
444.476	96.38
444.698	99.38
444.919	100.38
445.14	129.38
445.361	141.38
445.582	119.38
445.803	161.38
446.024	163.38
446.245	155.38
446.466	127.38
446.687	110.38
446.908	90.38
447.129	97.38
447.35	106.38
447.571	90.38
447.792	87.38
448.013	105.38
448.234	116.38
448.455	103.38
448.675	120.38
448.896	128.38
449.117	114.38
449.338	116.38
449.559	130.38
449.779	153.38
450	98.38
450.221	88.38
450.442	91.38
450.662	109.38
450.883	117.38
451.104	106.38
451.324	115.38
451.545	99.38
451.766	90.38
451.986	99.38
452.207	104.38
452.428	100.38
452.648	107.38
452.869	105.38
453.089	127.38
453.31	125.38
453.53	110.38
453.751	92.38
453.971	106.38
454.192	109.38
454.412	102.38
454.633	90.38
454.853	91.38
455.073	87.38
455.294	89.38
455.514	101.38
455.734	90.38
455.955	100.38
456.175	97.38
456.395	86.38
456.616	87.38
456.836	87.38
457.056	81.38
457.276	96.38
457.497	91.38
457.717	72.38
457.937	86.38
458.157	92.38
458.377	102.38
458.598	132.38
458.818	186.38
459.038	191.38
459.258	137.38
459.478	97.38
459.698	86.38
459.918	89.38
460.138	98.38
460.358	84.38
460.578	91.38
460.798	97.38
461.018	90.38
461.238	80.38
461.458	95.38
461.678	91.38
461.898	81.38
462.118	105.38
462.338	78.38
462.558	83.38
462.777	105.38
462.997	90.38
463.217	94.38
463.437	102.38
463.657	90.38
463.876	75.38
464.096	85.38
464.316	101.38
464.536	90.38
464.755	97.38
464.975	118.38
465.195	213.38
465.414	197.38
465.634	114.38
465.854	99.38
466.073	91.38
466.293	93.38
466.512	86.38
466.732	99.38
466.951	91.38
467.171	97.38
467.391	95.38
467.61	127.38
467.829	113.38
468.049	106.38
468.268	129.38
468.488	103.38
468.707	80.38
468.927	82.38
469.146	83.38
469.365	100.38
469.585	90.38
469.804	88.38
470.023	115.38
470.243	105.38
470.462	109.38
470.681	119.38
470.901	97.38
471.12	94.38
471.339	91.38
471.558	101.38
471.777	89.38
471.997	95.38
472.216	131.38
472.435	180.38
472.654	109.38
472.873	97.38
473.092	88.38
473.311	101.38
473.53	79.38
473.749	89.38
473.968	81.38
474.187	114.38
474.406	87.38
474.625	91.38
474.844	82.38
475.063	87.38
475.282	97.38
475.501	88.38
475.72	83.38
475.939	66.38
476.158	96.38
476.377	93.38
476.596	96.38
476.814	88.38
477.033	110.38
477.252	88.38
477.471	97.38
477.69	90.38
477.908	97.38
478.127	85.38
478.346	88.38
478.564	89.38
478.783	104.38
479.002	90.38
479.22	90.38
479.439	103.38
479.658	109.38
479.876	99.38
480.095	102.38
480.313	105.38
480.532	90.38
480.751	94.38
480.969	136.38
481.188	265.38
481.406	214.38
481.624	102.38
481.843	101.38
482.061	106.38
482.28	107.38
482.498	97.38
482.717	84.38
482.935	86.38
483.153	99.38
483.372	102.38
483.59	82.38
483.808	91.38
484.027	102.38
484.245	97.38
484.463	99.38
484.681	100.38
484.9	93.38
485.118	106.38
485.336	94.38
485.554	102.38
485.772	109.38
485.99	111.38
486.209	105.38
486.427	110.38
486.645	112.38
486.863	117.38
487.081	104.38
487.299	99.38
487.517	95.38
487.735	92.38
487.953	102.38
488.171	101.38
488.389	106.38
488.607	101.38
488.825	112.38
489.043	100.38
489.261	102.38
489.479	84.38
489.696	94.38
489.914	94.38
490.132	97.38
490.35	102.38
490.568	102.38
490.786	102.38
491.003	92.38
491.221	109.38
491.439	89.38
491.657	92.38
491.874	87.38
492.092	110.38
492.31	98.38
492.527	107.38
492.745	86.38
492.963	83.38
493.18	87.38
493.398	86.38
493.615	101.38
493.833	88.38
494.05	96.38
494.268	101.38
494.485	85.38
494.703	85.38
494.92	85.38
495.138	98.38
495.355	87.38
495.573	86.38
495.79	98.38
496.008	102.38
496.225	98.38
496.442	96.38
496.66	100.38
496.877	103.38
497.094	101.38
497.312	97.38
497.529	109.38
497.746	80.38
497.963	94.38
498.181	93.38
498.398	90.38
498.615	120.38
498.832	113.38
499.049	94.38
499.267	107.38
499.484	78.38
499.701	84.38
499.918	91.38
500.135	102.38
500.352	79.38
500.569	91.38
500.786	96.38
501.003	102.38
501.22	92.38
501.437	94.38
501.654	97.38
501.871	117.38
502.088	108.38
502.305	94.38
502.522	95.38
502.739	95.38
502.956	100.38
503.172	101.38
503.389	95.38
503.606	114.38
503.823	91.38
504.04	87.38
504.256	105.38
504.473	95.38
504.69	97.38
504.907	102.38
505.123	88.38
505.34	107.38
505.557	104.38
505.773	95.38
505.99	74.38
506.207	101.38
506.423	95.38
506.64	96.38
506.856	78.38
507.073	97.38
507.289	103.38
507.506	95.38
507.722	127.38
507.939	129.38
508.155	104.38
508.372	101.38
508.588	100.38
508.805	74.38
509.021	92.38
509.238	97.38
509.454	96.38
509.67	112.38
509.887	119.38
510.103	145.38
510.319	237.38
510.536	934.38
510.752	3095.38
510.968	844.38
511.184	180.38
511.401	116.38
511.617	98.38
511.833	82.38
512.049	102.38
512.265	107.38
512.481	116.38
