Data from Circ_2006_H10_HRD10591_00037.txt Node
Date: Wed Jan 03 10:26:11 EST 2024
User: Yrep
Spectrometer: HR+D1059
Trigger mode: 1
Integration Time (sec): 1.000000E-1
Scans to average: 1
Electric dark correction enabled: true
Nonlinearity correction enabled: false
Boxcar width: 0
XAxis mode: Wavelengths
Number of Pixels in Spectrum: 2048
>>>>>Begin Spectral Data<<<<<
223.165	-3.62
223.4	-3.62
223.635	-3.62
223.869	-25.62
224.104	-16.62
224.338	-8.62
224.573	-23.62
224.808	-11.62
225.042	-22.62
225.277	5.38
225.511	-1.62
225.746	-4.62
225.98	10.38
226.215	5.38
226.449	15.38
226.683	24.38
226.918	22.38
227.152	35.38
227.387	29.38
227.621	24.38
227.856	44.38
228.09	37.38
228.324	51.38
228.559	51.38
228.793	70.38
229.027	64.38
229.262	44.38
229.496	74.38
229.73	73.38
229.964	80.38
230.199	84.38
230.433	89.38
230.667	68.38
230.901	74.38
231.136	64.38
231.37	81.38
231.604	68.38
231.838	67.38
232.072	76.38
232.306	60.38
232.541	84.38
232.775	93.38
233.009	86.38
233.243	84.38
233.477	86.38
233.711	75.38
233.945	73.38
234.179	69.38
234.413	77.38
234.647	77.38
234.881	76.38
235.115	77.38
235.349	78.38
235.583	80.38
235.817	86.38
236.051	74.38
236.285	59.38
236.519	76.38
236.753	86.38
236.987	75.38
237.221	87.38
237.455	76.38
237.689	82.38
237.922	70.38
238.156	68.38
238.39	69.38
238.624	82.38
238.858	77.38
239.091	72.38
239.325	79.38
239.559	75.38
239.793	98.38
240.027	68.38
240.26	66.38
240.494	69.38
240.728	73.38
240.961	62.38
241.195	78.38
241.429	76.38
241.662	92.38
241.896	79.38
242.13	66.38
242.363	81.38
242.597	71.38
242.83	67.38
243.064	88.38
243.298	73.38
243.531	75.38
243.765	93.38
243.998	76.38
244.232	92.38
244.465	75.38
244.699	82.38
244.932	70.38
245.166	74.38
245.399	79.38
245.633	74.38
245.866	81.38
246.099	87.38
246.333	77.38
246.566	74.38
246.8	86.38
247.033	85.38
247.266	83.38
247.5	85.38
247.733	76.38
247.966	66.38
248.2	75.38
248.433	66.38
248.666	73.38
248.899	84.38
249.133	83.38
249.366	94.38
249.599	97.38
249.832	77.38
250.066	75.38
250.299	64.38
250.532	77.38
250.765	74.38
250.998	61.38
251.231	89.38
251.465	78.38
251.698	83.38
251.931	66.38
252.164	82.38
252.397	78.38
252.63	76.38
252.863	69.38
253.096	82.38
253.329	70.38
253.562	79.38
253.795	78.38
254.028	80.38
254.261	77.38
254.494	69.38
254.727	77.38
254.96	83.38
255.193	67.38
255.426	69.38
255.659	74.38
255.892	80.38
256.124	84.38
256.357	79.38
256.59	92.38
256.823	70.38
257.056	92.38
257.289	89.38
257.521	79.38
257.754	77.38
257.987	86.38
258.22	91.38
258.452	83.38
258.685	94.38
258.918	87.38
259.151	77.38
259.383	91.38
259.616	83.38
259.849	72.38
260.081	58.38
260.314	75.38
260.547	86.38
260.779	75.38
261.012	82.38
261.244	96.38
261.477	86.38
261.71	93.38
261.942	126.38
262.175	108.38
262.407	81.38
262.64	75.38
262.872	84.38
263.105	94.38
263.337	81.38
263.57	72.38
263.802	82.38
264.035	93.38
264.267	77.38
264.499	79.38
264.732	93.38
264.964	85.38
265.197	85.38
265.429	78.38
265.661	74.38
265.894	94.38
266.126	79.38
266.358	90.38
266.591	69.38
266.823	86.38
267.055	85.38
267.287	88.38
267.52	92.38
267.752	77.38
267.984	80.38
268.216	83.38
268.448	90.38
268.681	88.38
268.913	92.38
269.145	74.38
269.377	58.38
269.609	79.38
269.841	76.38
270.073	82.38
270.306	79.38
270.538	80.38
270.77	93.38
271.002	90.38
271.234	90.38
271.466	75.38
271.698	78.38
271.93	68.38
272.162	83.38
272.394	93.38
272.626	91.38
272.858	84.38
273.09	80.38
273.322	72.38
273.553	71.38
273.785	92.38
274.017	76.38
274.249	77.38
274.481	78.38
274.713	76.38
274.945	86.38
275.176	87.38
275.408	86.38
275.64	79.38
275.872	83.38
276.104	86.38
276.335	98.38
276.567	106.38
276.799	113.38
277.031	113.38
277.262	87.38
277.494	84.38
277.726	91.38
277.957	84.38
278.189	91.38
278.421	91.38
278.652	81.38
278.884	85.38
279.115	79.38
279.347	72.38
279.579	82.38
279.81	81.38
280.042	80.38
280.273	85.38
280.505	94.38
280.736	86.38
280.968	88.38
281.199	82.38
281.431	99.38
281.662	81.38
281.894	82.38
282.125	95.38
282.356	114.38
282.588	143.38
282.819	120.38
283.051	97.38
283.282	89.38
283.513	100.38
283.745	84.38
283.976	95.38
284.207	81.38
284.439	70.38
284.67	86.38
284.901	80.38
285.132	89.38
285.364	93.38
285.595	92.38
285.826	97.38
286.057	86.38
286.288	80.38
286.52	83.38
286.751	93.38
286.982	96.38
287.213	81.38
287.444	85.38
287.675	78.38
287.906	89.38
288.138	99.38
288.369	95.38
288.6	93.38
288.831	94.38
289.062	84.38
289.293	97.38
289.524	81.38
289.755	81.38
289.986	105.38
290.217	80.38
290.448	82.38
290.679	76.38
290.91	91.38
291.141	85.38
291.371	90.38
291.602	86.38
291.833	84.38
292.064	96.38
292.295	96.38
292.526	75.38
292.757	97.38
292.987	97.38
293.218	89.38
293.449	92.38
293.68	93.38
293.91	99.38
294.141	99.38
294.372	81.38
294.603	80.38
294.833	91.38
295.064	89.38
295.295	82.38
295.525	97.38
295.756	105.38
295.987	111.38
296.217	155.38
296.448	132.38
296.679	97.38
296.909	89.38
297.14	85.38
297.37	77.38
297.601	94.38
297.831	83.38
298.062	93.38
298.292	81.38
298.523	86.38
298.753	93.38
298.984	88.38
299.214	82.38
299.445	94.38
299.675	93.38
299.905	93.38
300.136	104.38
300.366	94.38
300.597	77.38
300.827	95.38
301.057	94.38
301.288	99.38
301.518	92.38
301.748	95.38
301.979	98.38
302.209	79.38
302.439	90.38
302.669	89.38
302.9	99.38
303.13	93.38
303.36	98.38
303.59	105.38
303.82	90.38
304.051	88.38
304.281	91.38
304.511	92.38
304.741	89.38
304.971	87.38
305.201	78.38
305.431	92.38
305.661	95.38
305.891	92.38
306.121	80.38
306.352	109.38
306.582	104.38
306.812	84.38
307.042	96.38
307.272	91.38
307.502	94.38
307.731	89.38
307.961	80.38
308.191	88.38
308.421	95.38
308.651	80.38
308.881	105.38
309.111	88.38
309.341	99.38
309.571	101.38
309.8	97.38
310.03	96.38
310.26	99.38
310.49	103.38
310.72	96.38
310.949	106.38
311.179	100.38
311.409	96.38
311.639	83.38
311.868	100.38
312.098	102.38
312.328	104.38
312.557	101.38
312.787	113.38
313.017	98.38
313.246	95.38
313.476	93.38
313.706	91.38
313.935	95.38
314.165	97.38
314.394	95.38
314.624	102.38
314.853	94.38
315.083	98.38
315.312	98.38
315.542	99.38
315.771	83.38
316.001	81.38
316.23	91.38
316.46	98.38
316.689	100.38
316.919	96.38
317.148	105.38
317.377	92.38
317.607	88.38
317.836	85.38
318.065	102.38
318.295	88.38
318.524	92.38
318.753	80.38
318.983	98.38
319.212	101.38
319.441	120.38
319.67	113.38
319.9	99.38
320.129	96.38
320.358	91.38
320.587	106.38
320.816	99.38
321.046	106.38
321.275	111.38
321.504	99.38
321.733	97.38
321.962	97.38
322.191	92.38
322.42	107.38
322.649	113.38
322.878	107.38
323.108	114.38
323.337	140.38
323.566	140.38
323.795	177.38
324.024	244.38
324.253	508.38
324.482	1115.38
324.71	2342.38
324.939	3033.38
325.168	1110.38
325.397	297.38
325.626	172.38
325.855	143.38
326.084	148.38
326.313	159.38
326.542	173.38
326.77	282.38
326.999	579.38
327.228	1265.38
327.457	2349.38
327.686	1832.38
327.914	458.38
328.143	233.38
328.372	181.38
328.6	135.38
328.829	129.38
329.058	156.38
329.287	143.38
329.515	111.38
329.744	90.38
329.972	107.38
330.201	128.38
330.43	129.38
330.658	131.38
330.887	168.38
331.115	150.38
331.344	112.38
331.572	99.38
331.801	105.38
332.03	105.38
332.258	104.38
332.486	100.38
332.715	84.38
332.943	90.38
333.172	100.38
333.4	108.38
333.629	115.38
333.857	134.38
334.085	101.38
334.314	124.38
334.542	116.38
334.771	140.38
334.999	105.38
335.227	92.38
335.455	91.38
335.684	98.38
335.912	89.38
336.14	105.38
336.369	102.38
336.597	106.38
336.825	95.38
337.053	109.38
337.281	95.38
337.51	85.38
337.738	78.38
337.966	96.38
338.194	88.38
338.422	114.38
338.65	95.38
338.878	105.38
339.106	90.38
339.334	104.38
339.562	90.38
339.79	82.38
340.018	97.38
340.246	94.38
340.474	106.38
340.702	88.38
340.93	86.38
341.158	92.38
341.386	90.38
341.614	95.38
341.842	93.38
342.07	88.38
342.298	93.38
342.526	82.38
342.754	72.38
342.981	92.38
343.209	78.38
343.437	88.38
343.665	78.38
343.893	96.38
344.12	101.38
344.348	101.38
344.576	99.38
344.804	96.38
345.031	81.38
345.259	103.38
345.487	94.38
345.714	95.38
345.942	101.38
346.17	101.38
346.397	90.38
346.625	90.38
346.853	94.38
347.08	83.38
347.308	92.38
347.535	104.38
347.763	102.38
347.99	98.38
348.218	108.38
348.445	107.38
348.673	112.38
348.9	107.38
349.128	103.38
349.355	81.38
349.583	93.38
349.81	103.38
350.037	98.38
350.265	99.38
350.492	94.38
350.72	100.38
350.947	107.38
351.174	110.38
351.402	125.38
351.629	112.38
351.856	111.38
352.083	110.38
352.311	111.38
352.538	122.38
352.765	133.38
352.992	129.38
353.22	109.38
353.447	101.38
353.674	96.38
353.901	111.38
354.128	98.38
354.355	96.38
354.583	94.38
354.81	93.38
355.037	77.38
355.264	100.38
355.491	88.38
355.718	93.38
355.945	94.38
356.172	105.38
356.399	86.38
356.626	95.38
356.853	91.38
357.08	93.38
357.307	89.38
357.534	90.38
357.761	110.38
357.988	90.38
358.215	86.38
358.441	91.38
358.668	90.38
358.895	97.38
359.122	102.38
359.349	92.38
359.576	104.38
359.802	98.38
360.029	125.38
360.256	110.38
360.483	109.38
360.709	108.38
360.936	97.38
361.163	93.38
361.39	94.38
361.616	86.38
361.843	99.38
362.07	95.38
362.296	89.38
362.523	88.38
362.749	88.38
362.976	96.38
363.203	93.38
363.429	98.38
363.656	94.38
363.882	80.38
364.109	95.38
364.335	102.38
364.562	86.38
364.788	86.38
365.015	106.38
365.241	109.38
365.468	116.38
365.694	104.38
365.92	104.38
366.147	84.38
366.373	81.38
366.599	88.38
366.826	94.38
367.052	83.38
367.278	79.38
367.505	86.38
367.731	92.38
367.957	109.38
368.184	86.38
368.41	100.38
368.636	135.38
368.862	131.38
369.089	98.38
369.315	85.38
369.541	75.38
369.767	86.38
369.993	94.38
370.219	85.38
370.445	94.38
370.672	85.38
370.898	96.38
371.124	79.38
371.35	73.38
371.576	87.38
371.802	90.38
372.028	84.38
372.254	94.38
372.48	93.38
372.706	71.38
372.932	78.38
373.158	77.38
373.384	90.38
373.61	80.38
373.835	94.38
374.061	83.38
374.287	92.38
374.513	90.38
374.739	100.38
374.965	79.38
375.191	84.38
375.416	100.38
375.642	92.38
375.868	91.38
376.094	101.38
376.319	78.38
376.545	81.38
376.771	73.38
376.997	104.38
377.222	96.38
377.448	94.38
377.674	90.38
377.899	103.38
378.125	96.38
378.35	93.38
378.576	99.38
378.802	95.38
379.027	84.38
379.253	85.38
379.478	89.38
379.704	88.38
379.929	105.38
380.155	97.38
380.38	81.38
380.606	79.38
380.831	86.38
381.057	106.38
381.282	105.38
381.507	100.38
381.733	107.38
381.958	98.38
382.184	107.38
382.409	101.38
382.634	108.38
382.86	89.38
383.085	97.38
383.31	97.38
383.535	112.38
383.761	101.38
383.986	101.38
384.211	96.38
384.436	100.38
384.662	85.38
384.887	108.38
385.112	104.38
385.337	104.38
385.562	105.38
385.787	110.38
386.013	115.38
386.238	111.38
386.463	83.38
386.688	100.38
386.913	100.38
387.138	112.38
387.363	103.38
387.588	99.38
387.813	111.38
388.038	109.38
388.263	113.38
388.488	113.38
388.713	84.38
388.938	91.38
389.163	102.38
389.387	97.38
389.612	90.38
389.837	96.38
390.062	85.38
390.287	84.38
390.512	96.38
390.736	78.38
390.961	89.38
391.186	83.38
391.411	96.38
391.636	96.38
391.86	96.38
392.085	85.38
392.31	72.38
392.534	101.38
392.759	85.38
392.984	89.38
393.208	98.38
393.433	86.38
393.658	88.38
393.882	96.38
394.107	93.38
394.331	90.38
394.556	86.38
394.78	99.38
395.005	87.38
395.229	93.38
395.454	79.38
395.678	81.38
395.903	88.38
396.127	97.38
396.352	77.38
396.576	73.38
396.801	91.38
397.025	86.38
397.249	89.38
397.474	101.38
397.698	87.38
397.922	95.38
398.147	98.38
398.371	78.38
398.595	86.38
398.82	108.38
399.044	93.38
399.268	98.38
399.492	101.38
399.717	104.38
399.941	90.38
400.165	92.38
400.389	104.38
400.613	94.38
400.837	92.38
401.062	86.38
401.286	109.38
401.51	93.38
401.734	98.38
401.958	113.38
402.182	143.38
402.406	176.38
402.63	145.38
402.854	106.38
403.078	93.38
403.302	79.38
403.526	90.38
403.75	90.38
403.974	89.38
404.198	82.38
404.422	80.38
404.645	82.38
404.869	112.38
405.093	104.38
405.317	96.38
405.541	88.38
405.765	93.38
405.988	127.38
406.212	197.38
406.436	240.38
406.66	171.38
406.883	118.38
407.107	85.38
407.331	113.38
407.555	94.38
407.778	108.38
408.002	88.38
408.226	73.38
408.449	97.38
408.673	97.38
408.896	112.38
409.12	113.38
409.344	89.38
409.567	86.38
409.791	84.38
410.014	93.38
410.238	85.38
410.461	96.38
410.685	95.38
410.908	94.38
411.132	112.38
411.355	90.38
411.578	84.38
411.802	86.38
412.025	86.38
412.249	74.38
412.472	94.38
412.695	90.38
412.919	79.38
413.142	78.38
413.365	84.38
413.589	85.38
413.812	82.38
414.035	86.38
414.258	81.38
414.482	86.38
414.705	89.38
414.928	91.38
415.151	108.38
415.374	89.38
415.597	81.38
415.821	91.38
416.044	80.38
416.267	83.38
416.49	85.38
416.713	83.38
416.936	79.38
417.159	99.38
417.382	92.38
417.605	102.38
417.828	97.38
418.051	98.38
418.274	83.38
418.497	82.38
418.72	99.38
418.943	96.38
419.166	91.38
419.389	92.38
419.611	83.38
419.834	85.38
420.057	91.38
420.28	97.38
420.503	93.38
420.726	91.38
420.948	81.38
421.171	104.38
421.394	98.38
421.617	82.38
421.839	91.38
422.062	84.38
422.285	89.38
422.507	87.38
422.73	102.38
422.953	80.38
423.175	97.38
423.398	85.38
423.621	86.38
423.843	86.38
424.066	83.38
424.288	108.38
424.511	94.38
424.733	108.38
424.956	123.38
425.178	102.38
425.401	99.38
425.623	100.38
425.846	92.38
426.068	109.38
426.291	98.38
426.513	99.38
426.735	94.38
426.958	109.38
427.18	93.38
427.402	155.38
427.625	197.38
427.847	154.38
428.069	111.38
428.292	99.38
428.514	93.38
428.736	90.38
428.958	85.38
429.181	73.38
429.403	82.38
429.625	78.38
429.847	85.38
430.069	98.38
430.292	104.38
430.514	86.38
430.736	79.38
430.958	84.38
431.18	79.38
431.402	84.38
431.624	85.38
431.846	84.38
432.068	83.38
432.29	89.38
432.512	78.38
432.734	80.38
432.956	101.38
433.178	100.38
433.4	94.38
433.622	88.38
433.844	95.38
434.066	83.38
434.287	91.38
434.509	89.38
434.731	75.38
434.953	90.38
435.175	92.38
435.397	98.38
435.618	96.38
435.84	111.38
436.062	141.38
436.284	126.38
436.505	112.38
436.727	114.38
436.949	82.38
437.17	83.38
437.392	82.38
437.614	92.38
437.835	110.38
438.057	127.38
438.278	114.38
438.5	106.38
438.721	123.38
438.943	101.38
439.165	82.38
439.386	91.38
439.608	89.38
439.829	108.38
440.05	138.38
440.272	152.38
440.493	115.38
440.715	92.38
440.936	83.38
441.158	86.38
441.379	100.38
441.6	91.38
441.822	96.38
442.043	95.38
442.264	116.38
442.486	95.38
442.707	107.38
442.928	120.38
443.149	151.38
443.371	146.38
443.592	112.38
443.813	126.38
444.034	113.38
444.255	86.38
444.476	80.38
444.698	92.38
444.919	85.38
445.14	129.38
445.361	130.38
445.582	128.38
445.803	166.38
446.024	152.38
446.245	149.38
446.466	128.38
446.687	105.38
446.908	69.38
447.129	104.38
447.35	81.38
447.571	98.38
447.792	76.38
448.013	86.38
448.234	115.38
448.455	106.38
448.675	127.38
448.896	113.38
449.117	107.38
449.338	107.38
449.559	136.38
449.779	150.38
450	102.38
450.221	83.38
450.442	87.38
450.662	104.38
450.883	117.38
451.104	122.38
451.324	97.38
451.545	90.38
451.766	88.38
451.986	89.38
452.207	86.38
452.428	91.38
452.648	106.38
452.869	115.38
453.089	124.38
453.31	124.38
453.53	98.38
453.751	96.38
453.971	99.38
454.192	124.38
454.412	94.38
454.633	84.38
454.853	98.38
455.073	92.38
455.294	95.38
455.514	101.38
455.734	85.38
455.955	92.38
456.175	84.38
456.395	80.38
456.616	103.38
456.836	90.38
457.056	93.38
457.276	95.38
457.497	85.38
457.717	77.38
457.937	95.38
458.157	77.38
458.377	99.38
458.598	98.38
458.818	164.38
459.038	195.38
459.258	131.38
459.478	91.38
459.698	97.38
459.918	96.38
460.138	83.38
460.358	85.38
460.578	85.38
460.798	78.38
461.018	79.38
461.238	91.38
461.458	83.38
461.678	70.38
461.898	84.38
462.118	91.38
462.338	80.38
462.558	80.38
462.777	83.38
462.997	88.38
463.217	86.38
463.437	85.38
463.657	96.38
463.876	86.38
464.096	86.38
464.316	88.38
464.536	85.38
464.755	97.38
464.975	122.38
465.195	180.38
465.414	173.38
465.634	110.38
465.854	84.38
466.073	88.38
466.293	82.38
466.512	82.38
466.732	83.38
466.951	101.38
467.171	98.38
467.391	92.38
467.61	120.38
467.829	101.38
468.049	101.38
468.268	107.38
468.488	94.38
468.707	89.38
468.927	94.38
469.146	72.38
469.365	95.38
469.585	90.38
469.804	99.38
470.023	99.38
470.243	100.38
470.462	98.38
470.681	120.38
470.901	84.38
471.12	99.38
471.339	81.38
471.558	80.38
471.777	110.38
471.997	84.38
472.216	121.38
472.435	123.38
472.654	90.38
472.873	86.38
473.092	91.38
473.311	83.38
473.53	88.38
473.749	88.38
473.968	96.38
474.187	114.38
474.406	87.38
474.625	87.38
474.844	88.38
475.063	89.38
475.282	88.38
475.501	81.38
475.72	98.38
475.939	94.38
476.158	91.38
476.377	91.38
476.596	88.38
476.814	96.38
477.033	81.38
477.252	91.38
477.471	90.38
477.69	102.38
477.908	96.38
478.127	94.38
478.346	106.38
478.564	104.38
478.783	104.38
479.002	91.38
479.22	75.38
479.439	113.38
479.658	111.38
479.876	86.38
480.095	95.38
480.313	76.38
480.532	82.38
480.751	80.38
480.969	92.38
481.188	162.38
481.406	143.38
481.624	80.38
481.843	72.38
482.061	81.38
482.28	95.38
482.498	90.38
482.717	90.38
482.935	98.38
483.153	86.38
483.372	88.38
483.59	85.38
483.808	84.38
484.027	90.38
484.245	111.38
484.463	96.38
484.681	93.38
484.9	103.38
485.118	96.38
485.336	100.38
485.554	106.38
485.772	96.38
485.99	94.38
486.209	109.38
486.427	118.38
486.645	116.38
486.863	104.38
487.081	113.38
487.299	102.38
487.517	99.38
487.735	89.38
487.953	94.38
488.171	97.38
488.389	94.38
488.607	102.38
488.825	93.38
489.043	80.38
489.261	88.38
489.479	90.38
489.696	77.38
489.914	76.38
490.132	91.38
490.35	84.38
490.568	88.38
490.786	97.38
491.003	83.38
491.221	104.38
491.439	101.38
491.657	98.38
491.874	95.38
492.092	96.38
492.31	101.38
492.527	91.38
492.745	85.38
492.963	78.38
493.18	87.38
493.398	96.38
493.615	100.38
493.833	76.38
494.05	88.38
494.268	92.38
494.485	88.38
494.703	97.38
494.92	91.38
495.138	76.38
495.355	87.38
495.573	95.38
495.79	79.38
496.008	99.38
496.225	93.38
496.442	79.38
496.66	96.38
496.877	100.38
497.094	96.38
497.312	89.38
497.529	79.38
497.746	101.38
497.963	73.38
498.181	94.38
498.398	82.38
498.615	112.38
498.832	116.38
499.049	101.38
499.267	90.38
499.484	95.38
499.701	73.38
499.918	80.38
500.135	97.38
500.352	96.38
500.569	89.38
500.786	91.38
501.003	91.38
501.22	87.38
501.437	81.38
501.654	95.38
501.871	114.38
502.088	97.38
502.305	99.38
502.522	103.38
502.739	92.38
502.956	72.38
503.172	82.38
503.389	99.38
503.606	112.38
503.823	109.38
504.04	98.38
504.256	95.38
504.473	91.38
504.69	89.38
504.907	80.38
505.123	97.38
505.34	101.38
505.557	83.38
505.773	101.38
505.99	81.38
506.207	84.38
506.423	99.38
506.64	88.38
506.856	105.38
507.073	97.38
507.289	88.38
507.506	83.38
507.722	113.38
507.939	106.38
508.155	99.38
508.372	77.38
508.588	91.38
508.805	97.38
509.021	99.38
509.238	99.38
509.454	96.38
509.67	112.38
509.887	124.38
510.103	143.38
510.319	224.38
510.536	928.38
510.752	3029.38
510.968	824.38
511.184	161.38
511.401	124.38
511.617	94.38
511.833	99.38
512.049	106.38
512.265	100.38
512.481	103.38
512.698	99.38
512.914	110.38
513.13	90.38
513.346	97.38
513.562	94.38
513.778	99.38
513.994	90.38
514.21	95.38
514.426	129.38
514.642	148.38
514.858	149.38
515.074	191.38
515.29	592.38
