Data from Circ_2006_H10_HRD10591_00087.txt Node
Date: Wed Jan 03 10:26:21 EST 2024
User: Yrep
Spectrometer: HR+D1059
Trigger mode: 1
Integration Time (sec): 1.000000E-1
Scans to average: 1
Electric dark correction enabled: true
Nonlinearity correction enabled: false
Boxcar width: 0
XAxis mode: Wavelengths
Number of Pixels in Spectrum: 2048
>>>>>Begin Spectral Data<<<<<
223.165	-20.5
223.4	-20.5
223.635	-20.5
223.869	-18.5
224.104	-10.5
224.338	-10.5
224.573	-18.5
224.808	-14.5
225.042	-13.5
225.277	6.5
225.511	-3.5
225.746	11.5
225.98	9.5
226.215	14.5
226.449	4.5
226.683	26.5
226.918	9.5
227.152	27.5
227.387	54.5
227.621	30.5
227.856	44.5
228.09	39.5
228.324	65.5
228.559	69.5
228.793	54.5
229.027	61.5
229.262	66.5
229.496	78.5
229.73	79.5
229.964	83.5
230.199	65.5
230.433	66.5
230.667	65.5
230.901	82.5
231.136	78.5
231.37	70.5
231.604	75.5
231.838	68.5
232.072	74.5
232.306	82.5
232.541	98.5
232.775	81.5
233.009	78.5
233.243	83.5
233.477	80.5
233.711	77.5
233.945	78.5
234.179	77.5
234.413	74.5
234.647	74.5
234.881	75.5
235.115	78.5
235.349	75.5
235.583	76.5
235.817	70.5
236.051	63.5
236.285	75.5
236.519	77.5
236.753	75.5
236.987	75.5
237.221	86.5
237.455	92.5
237.689	78.5
237.922	79.5
238.156	75.5
238.39	72.5
238.624	73.5
238.858	81.5
239.091	69.5
239.325	76.5
239.559	85.5
239.793	92.5
240.027	79.5
240.26	64.5
240.494	84.5
240.728	75.5
240.961	79.5
241.195	75.5
241.429	64.5
241.662	64.5
241.896	89.5
242.13	69.5
242.363	67.5
242.597	73.5
242.83	81.5
243.064	81.5
243.298	84.5
243.531	81.5
243.765	75.5
243.998	78.5
244.232	84.5
244.465	72.5
244.699	65.5
244.932	77.5
245.166	77.5
245.399	74.5
245.633	82.5
245.866	78.5
246.099	85.5
246.333	77.5
246.566	72.5
246.8	68.5
247.033	81.5
247.266	77.5
247.5	76.5
247.733	80.5
247.966	86.5
248.2	80.5
248.433	85.5
248.666	76.5
248.899	82.5
249.133	83.5
249.366	81.5
249.599	98.5
249.832	86.5
250.066	86.5
250.299	95.5
250.532	78.5
250.765	80.5
250.998	81.5
251.231	69.5
251.465	90.5
251.698	74.5
251.931	72.5
252.164	63.5
252.397	82.5
252.63	77.5
252.863	75.5
253.096	83.5
253.329	82.5
253.562	86.5
253.795	65.5
254.028	70.5
254.261	86.5
254.494	77.5
254.727	93.5
254.96	84.5
255.193	85.5
255.426	76.5
255.659	80.5
255.892	76.5
256.124	67.5
256.357	72.5
256.59	76.5
256.823	79.5
257.056	85.5
257.289	76.5
257.521	93.5
257.754	74.5
257.987	80.5
258.22	85.5
258.452	82.5
258.685	84.5
258.918	82.5
259.151	77.5
259.383	77.5
259.616	61.5
259.849	80.5
260.081	93.5
260.314	85.5
260.547	92.5
260.779	88.5
261.012	79.5
261.244	82.5
261.477	101.5
261.71	106.5
261.942	104.5
262.175	119.5
262.407	89.5
262.64	90.5
262.872	81.5
263.105	82.5
263.337	97.5
263.57	85.5
263.802	75.5
264.035	88.5
264.267	85.5
264.499	83.5
264.732	88.5
264.964	80.5
265.197	74.5
265.429	74.5
265.661	75.5
265.894	89.5
266.126	84.5
266.358	76.5
266.591	72.5
266.823	93.5
267.055	82.5
267.287	74.5
267.52	85.5
267.752	80.5
267.984	78.5
268.216	75.5
268.448	81.5
268.681	92.5
268.913	98.5
269.145	89.5
269.377	89.5
269.609	72.5
269.841	94.5
270.073	85.5
270.306	91.5
270.538	92.5
270.77	75.5
271.002	77.5
271.234	81.5
271.466	94.5
271.698	98.5
271.93	77.5
272.162	85.5
272.394	88.5
272.626	85.5
272.858	88.5
273.09	85.5
273.322	91.5
273.553	84.5
273.785	77.5
274.017	89.5
274.249	84.5
274.481	87.5
274.713	93.5
274.945	82.5
275.176	92.5
275.408	82.5
275.64	80.5
275.872	80.5
276.104	92.5
276.335	98.5
276.567	111.5
276.799	105.5
277.031	93.5
277.262	93.5
277.494	85.5
277.726	91.5
277.957	89.5
278.189	72.5
278.421	88.5
278.652	81.5
278.884	79.5
279.115	86.5
279.347	77.5
279.579	97.5
279.81	69.5
280.042	89.5
280.273	86.5
280.505	79.5
280.736	83.5
280.968	93.5
281.199	92.5
281.431	100.5
281.662	105.5
281.894	97.5
282.125	110.5
282.356	133.5
282.588	144.5
282.819	114.5
283.051	98.5
283.282	87.5
283.513	76.5
283.745	81.5
283.976	80.5
284.207	93.5
284.439	81.5
284.67	95.5
284.901	85.5
285.132	80.5
285.364	81.5
285.595	83.5
285.826	81.5
286.057	84.5
286.288	90.5
286.52	80.5
286.751	84.5
286.982	83.5
287.213	86.5
287.444	69.5
287.675	91.5
287.906	77.5
288.138	75.5
288.369	92.5
288.6	88.5
288.831	77.5
289.062	99.5
289.293	104.5
289.524	88.5
289.755	88.5
289.986	79.5
290.217	97.5
290.448	79.5
290.679	84.5
290.91	79.5
291.141	93.5
291.371	74.5
291.602	86.5
291.833	82.5
292.064	91.5
292.295	91.5
292.526	81.5
292.757	91.5
292.987	94.5
293.218	89.5
293.449	79.5
293.68	95.5
293.91	89.5
294.141	102.5
294.372	71.5
294.603	86.5
294.833	93.5
295.064	77.5
295.295	91.5
295.525	88.5
295.756	102.5
295.987	109.5
296.217	149.5
296.448	124.5
296.679	80.5
296.909	84.5
297.14	99.5
297.37	92.5
297.601	80.5
297.831	84.5
298.062	90.5
298.292	96.5
298.523	88.5
298.753	93.5
298.984	102.5
299.214	97.5
299.445	85.5
299.675	104.5
299.905	104.5
300.136	84.5
300.366	84.5
300.597	89.5
300.827	107.5
301.057	94.5
301.288	101.5
301.518	85.5
301.748	76.5
301.979	95.5
302.209	88.5
302.439	82.5
302.669	80.5
302.9	96.5
303.13	86.5
303.36	84.5
303.59	100.5
303.82	104.5
304.051	99.5
304.281	100.5
304.511	99.5
304.741	91.5
304.971	89.5
305.201	85.5
305.431	84.5
305.661	76.5
305.891	89.5
306.121	93.5
306.352	98.5
306.582	104.5
306.812	91.5
307.042	90.5
307.272	109.5
307.502	95.5
307.731	89.5
307.961	81.5
308.191	102.5
308.421	99.5
308.651	93.5
308.881	86.5
309.111	90.5
309.341	103.5
309.571	95.5
309.8	98.5
310.03	97.5
310.26	80.5
310.49	89.5
310.72	92.5
310.949	89.5
311.179	77.5
311.409	88.5
311.639	111.5
311.868	95.5
312.098	95.5
312.328	101.5
312.557	111.5
312.787	97.5
313.017	98.5
313.246	85.5
313.476	88.5
313.706	99.5
313.935	94.5
314.165	91.5
314.394	99.5
314.624	98.5
314.853	92.5
315.083	81.5
315.312	88.5
315.542	99.5
315.771	96.5
316.001	86.5
316.23	101.5
316.46	96.5
316.689	82.5
316.919	94.5
317.148	81.5
317.377	82.5
317.607	98.5
317.836	91.5
318.065	83.5
318.295	75.5
318.524	80.5
318.753	94.5
318.983	94.5
319.212	93.5
319.441	92.5
319.67	107.5
319.9	98.5
320.129	85.5
320.358	93.5
320.587	100.5
320.816	99.5
321.046	108.5
321.275	101.5
321.504	99.5
321.733	96.5
321.962	86.5
322.191	88.5
322.42	103.5
322.649	111.5
322.878	109.5
323.108	99.5
323.337	124.5
323.566	131.5
323.795	138.5
324.024	206.5
324.253	433.5
324.482	901.5
324.71	1846.5
324.939	2449.5
325.168	877.5
325.397	261.5
325.626	136.5
325.855	142.5
326.084	138.5
326.313	135.5
326.542	154.5
326.77	245.5
326.999	487.5
327.228	1001.5
327.457	1845.5
327.686	1459.5
327.914	395.5
328.143	206.5
328.372	164.5
328.6	134.5
328.829	118.5
329.058	121.5
329.287	126.5
329.515	109.5
329.744	116.5
329.972	110.5
330.201	146.5
330.43	180.5
330.658	151.5
330.887	146.5
331.115	133.5
331.344	90.5
331.572	101.5
331.801	104.5
332.03	97.5
332.258	108.5
332.486	98.5
332.715	107.5
332.943	99.5
333.172	92.5
333.4	96.5
333.629	98.5
333.857	137.5
334.085	132.5
334.314	151.5
334.542	203.5
334.771	184.5
334.999	105.5
335.227	103.5
335.455	98.5
335.684	101.5
335.912	101.5
336.14	97.5
336.369	104.5
336.597	106.5
336.825	109.5
337.053	91.5
337.281	100.5
337.51	90.5
337.738	93.5
337.966	96.5
338.194	111.5
338.422	101.5
338.65	91.5
338.878	83.5
339.106	85.5
339.334	97.5
339.562	87.5
339.79	105.5
340.018	85.5
340.246	81.5
340.474	100.5
340.702	94.5
340.93	101.5
341.158	97.5
341.386	99.5
341.614	99.5
341.842	96.5
342.07	78.5
342.298	88.5
342.526	85.5
342.754	88.5
342.981	107.5
343.209	83.5
343.437	98.5
343.665	93.5
343.893	85.5
344.12	91.5
344.348	95.5
344.576	96.5
344.804	88.5
345.031	98.5
345.259	106.5
345.487	108.5
345.714	92.5
345.942	91.5
346.17	97.5
346.397	99.5
346.625	83.5
346.853	86.5
347.08	93.5
347.308	92.5
347.535	95.5
347.763	99.5
347.99	90.5
348.218	105.5
348.445	99.5
348.673	98.5
348.9	77.5
349.128	88.5
349.355	104.5
349.583	95.5
349.81	99.5
350.037	89.5
350.265	107.5
350.492	83.5
350.72	93.5
350.947	104.5
351.174	100.5
351.402	124.5
351.629	113.5
351.856	94.5
352.083	116.5
352.311	105.5
352.538	93.5
352.765	115.5
352.992	106.5
353.22	101.5
353.447	91.5
353.674	100.5
353.901	95.5
354.128	98.5
354.355	110.5
354.583	86.5
354.81	93.5
355.037	92.5
355.264	79.5
355.491	82.5
355.718	108.5
355.945	102.5
356.172	95.5
356.399	78.5
356.626	74.5
356.853	96.5
357.08	84.5
357.307	92.5
357.534	104.5
357.761	81.5
357.988	107.5
358.215	94.5
358.441	86.5
358.668	94.5
358.895	102.5
359.122	86.5
359.349	91.5
359.576	85.5
359.802	87.5
360.029	113.5
360.256	109.5
360.483	85.5
360.709	76.5
360.936	88.5
361.163	93.5
361.39	105.5
361.616	89.5
361.843	92.5
362.07	101.5
362.296	100.5
362.523	93.5
362.749	67.5
362.976	93.5
363.203	78.5
363.429	87.5
363.656	89.5
363.882	81.5
364.109	81.5
364.335	81.5
364.562	80.5
364.788	89.5
365.015	86.5
365.241	90.5
365.468	98.5
365.694	103.5
365.92	88.5
366.147	92.5
366.373	81.5
366.599	86.5
366.826	93.5
367.052	89.5
367.278	94.5
367.505	90.5
367.731	83.5
367.957	90.5
368.184	101.5
368.41	102.5
368.636	105.5
368.862	120.5
369.089	98.5
369.315	90.5
369.541	88.5
369.767	91.5
369.993	86.5
370.219	76.5
370.445	79.5
370.672	84.5
370.898	98.5
371.124	84.5
371.35	80.5
371.576	79.5
371.802	92.5
372.028	81.5
372.254	82.5
372.48	82.5
372.706	83.5
372.932	83.5
373.158	85.5
373.384	76.5
373.61	96.5
373.835	95.5
374.061	80.5
374.287	89.5
374.513	97.5
374.739	80.5
374.965	78.5
375.191	94.5
375.416	88.5
375.642	86.5
375.868	90.5
376.094	88.5
376.319	97.5
376.545	91.5
376.771	82.5
376.997	80.5
377.222	77.5
377.448	91.5
377.674	80.5
377.899	78.5
378.125	78.5
378.35	85.5
378.576	94.5
378.802	77.5
379.027	94.5
379.253	81.5
379.478	93.5
379.704	84.5
379.929	93.5
380.155	74.5
380.38	92.5
380.606	89.5
380.831	86.5
381.057	99.5
381.282	87.5
381.507	93.5
381.733	94.5
381.958	87.5
382.184	99.5
382.409	106.5
382.634	97.5
382.86	107.5
383.085	93.5
383.31	93.5
383.535	95.5
383.761	87.5
383.986	96.5
384.211	79.5
384.436	102.5
384.662	94.5
384.887	99.5
385.112	117.5
385.337	97.5
385.562	96.5
385.787	95.5
386.013	109.5
386.238	110.5
386.463	107.5
386.688	108.5
386.913	91.5
387.138	94.5
387.363	108.5
387.588	91.5
387.813	97.5
388.038	92.5
388.263	97.5
388.488	107.5
388.713	84.5
388.938	95.5
389.163	88.5
389.387	80.5
389.612	94.5
389.837	90.5
390.062	101.5
390.287	78.5
390.512	72.5
390.736	87.5
390.961	90.5
391.186	89.5
391.411	98.5
391.636	81.5
391.86	86.5
392.085	94.5
392.31	96.5
392.534	74.5
392.759	93.5
392.984	86.5
393.208	86.5
393.433	81.5
393.658	76.5
393.882	78.5
394.107	77.5
394.331	77.5
394.556	84.5
394.78	80.5
395.005	106.5
395.229	70.5
395.454	82.5
395.678	86.5
395.903	69.5
396.127	90.5
396.352	77.5
396.576	83.5
396.801	81.5
397.025	91.5
397.249	90.5
397.474	82.5
397.698	72.5
397.922	92.5
398.147	82.5
398.371	75.5
398.595	82.5
398.82	84.5
399.044	88.5
399.268	74.5
399.492	94.5
399.717	109.5
399.941	90.5
400.165	98.5
400.389	85.5
400.613	80.5
400.837	70.5
401.062	77.5
401.286	84.5
401.51	83.5
401.734	101.5
401.958	110.5
402.182	126.5
402.406	157.5
402.63	121.5
402.854	92.5
403.078	85.5
403.302	96.5
403.526	73.5
403.75	91.5
403.974	79.5
404.198	88.5
404.422	77.5
404.645	83.5
404.869	94.5
405.093	83.5
405.317	105.5
405.541	100.5
405.765	89.5
405.988	111.5
406.212	163.5
406.436	233.5
406.66	130.5
406.883	94.5
407.107	84.5
407.331	101.5
407.555	83.5
407.778	84.5
408.002	93.5
408.226	81.5
408.449	87.5
408.673	81.5
408.896	87.5
409.12	76.5
409.344	88.5
409.567	78.5
409.791	93.5
410.014	98.5
410.238	97.5
410.461	88.5
410.685	92.5
410.908	85.5
411.132	105.5
411.355	99.5
411.578	93.5
411.802	80.5
412.025	75.5
412.249	92.5
412.472	100.5
412.695	88.5
412.919	85.5
413.142	88.5
413.365	82.5
413.589	87.5
413.812	85.5
414.035	90.5
414.258	87.5
414.482	93.5
414.705	81.5
414.928	93.5
415.151	85.5
415.374	85.5
415.597	95.5
415.821	84.5
416.044	90.5
416.267	98.5
416.49	90.5
416.713	79.5
416.936	83.5
417.159	94.5
417.382	66.5
417.605	88.5
417.828	83.5
418.051	94.5
418.274	86.5
418.497	84.5
418.72	68.5
418.943	86.5
419.166	82.5
419.389	84.5
419.611	82.5
419.834	75.5
420.057	86.5
420.28	80.5
420.503	90.5
420.726	90.5
420.948	93.5
421.171	89.5
421.394	85.5
421.617	89.5
421.839	97.5
422.062	101.5
422.285	91.5
422.507	85.5
422.73	88.5
422.953	92.5
423.175	79.5
423.398	82.5
423.621	94.5
423.843	88.5
424.066	81.5
424.288	85.5
424.511	84.5
424.733	90.5
424.956	102.5
425.178	103.5
425.401	109.5
425.623	89.5
425.846	102.5
426.068	97.5
426.291	92.5
426.513	92.5
426.735	75.5
426.958	95.5
427.18	104.5
427.402	133.5
427.625	165.5
427.847	142.5
428.069	121.5
428.292	108.5
428.514	84.5
428.736	85.5
428.958	96.5
429.181	88.5
429.403	91.5
429.625	96.5
429.847	95.5
430.069	106.5
430.292	94.5
430.514	81.5
430.736	90.5
430.958	91.5
431.18	83.5
431.402	87.5
431.624	85.5
431.846	89.5
432.068	74.5
432.29	77.5
432.512	93.5
432.734	97.5
432.956	79.5
433.178	91.5
433.4	89.5
433.622	89.5
433.844	90.5
434.066	90.5
434.287	85.5
434.509	87.5
434.731	94.5
434.953	77.5
435.175	82.5
435.397	93.5
435.618	83.5
435.84	97.5
436.062	117.5
436.284	110.5
436.505	101.5
436.727	81.5
436.949	91.5
437.17	84.5
437.392	89.5
437.614	81.5
437.835	103.5
438.057	110.5
438.278	107.5
438.5	83.5
438.721	108.5
438.943	101.5
439.165	92.5
439.386	85.5
439.608	94.5
439.829	99.5
440.05	119.5
440.272	138.5
440.493	89.5
440.715	88.5
440.936	89.5
441.158	73.5
441.379	79.5
441.6	92.5
441.822	80.5
442.043	86.5
442.264	88.5
442.486	108.5
442.707	92.5
442.928	91.5
443.149	114.5
443.371	123.5
443.592	107.5
443.813	102.5
444.034	106.5
444.255	89.5
444.476	85.5
444.698	98.5
444.919	85.5
445.14	133.5
445.361	138.5
445.582	111.5
445.803	117.5
446.024	138.5
446.245	123.5
446.466	95.5
446.687	93.5
446.908	88.5
447.129	78.5
447.35	85.5
447.571	88.5
447.792	83.5
448.013	91.5
448.234	91.5
448.455	106.5
448.675	98.5
448.896	117.5
449.117	89.5
449.338	105.5
449.559	124.5
449.779	123.5
450	97.5
450.221	89.5
450.442	94.5
450.662	107.5
450.883	99.5
451.104	113.5
451.324	90.5
451.545	93.5
451.766	103.5
451.986	92.5
452.207	88.5
452.428	95.5
452.648	110.5
452.869	112.5
453.089	109.5
453.31	119.5
453.53	76.5
453.751	75.5
453.971	91.5
454.192	104.5
454.412	101.5
454.633	81.5
454.853	81.5
455.073	82.5
455.294	78.5
455.514	95.5
455.734	96.5
455.955	82.5
456.175	90.5
456.395	88.5
456.616	78.5
456.836	83.5
457.056	96.5
457.276	85.5
457.497	78.5
457.717	85.5
457.937	81.5
458.157	78.5
458.377	90.5
458.598	109.5
458.818	149.5
459.038	179.5
459.258	99.5
459.478	85.5
459.698	91.5
459.918	94.5
460.138	89.5
460.358	95.5
460.578	83.5
460.798	93.5
461.018	86.5
461.238	94.5
461.458	85.5
461.678	81.5
461.898	89.5
462.118	86.5
462.338	98.5
462.558	67.5
462.777	78.5
462.997	91.5
463.217	80.5
463.437	77.5
463.657	97.5
463.876	76.5
464.096	91.5
464.316	93.5
464.536	85.5
464.755	94.5
464.975	101.5
465.195	161.5
465.414	173.5
465.634	86.5
465.854	91.5
466.073	86.5
466.293	89.5
466.512	77.5
466.732	75.5
466.951	86.5
467.171	94.5
467.391	103.5
467.61	100.5
467.829	89.5
468.049	110.5
468.268	121.5
468.488	90.5
468.707	78.5
468.927	83.5
469.146	86.5
469.365	78.5
469.585	93.5
469.804	84.5
470.023	94.5
470.243	86.5
470.462	109.5
470.681	101.5
470.901	85.5
471.12	87.5
471.339	94.5
471.558	95.5
471.777	88.5
471.997	98.5
472.216	149.5
472.435	215.5
472.654	129.5
472.873	105.5
473.092	87.5
473.311	86.5
473.53	75.5
473.749	85.5
473.968	104.5
474.187	94.5
474.406	99.5
474.625	102.5
474.844	94.5
475.063	91.5
475.282	82.5
475.501	91.5
475.72	95.5
475.939	80.5
476.158	89.5
476.377	84.5
476.596	84.5
476.814	74.5
477.033	92.5
477.252	86.5
477.471	83.5
477.69	90.5
477.908	96.5
478.127	89.5
478.346	91.5
478.564	86.5
478.783	85.5
479.002	85.5
479.22	83.5
479.439	95.5
479.658	103.5
479.876	95.5
480.095	100.5
480.313	94.5
480.532	91.5
480.751	97.5
480.969	148.5
481.188	361.5
481.406	238.5
481.624	95.5
481.843	92.5
482.061	76.5
482.28	92.5
482.498	84.5
482.717	85.5
482.935	80.5
483.153	96.5
483.372	86.5
483.59	91.5
483.808	97.5
484.027	96.5
484.245	86.5
484.463	88.5
484.681	99.5
484.9	84.5
485.118	95.5
485.336	93.5
485.554	94.5
485.772	108.5
485.99	91.5
486.209	101.5
486.427	114.5
486.645	109.5
486.863	124.5
487.081	95.5
487.299	91.5
487.517	84.5
487.735	108.5
487.953	94.5
488.171	92.5
488.389	97.5
488.607	89.5
488.825	75.5
489.043	92.5
489.261	87.5
489.479	81.5
489.696	95.5
489.914	77.5
490.132	92.5
490.35	83.5
490.568	97.5
490.786	86.5
491.003	98.5
491.221	89.5
491.439	84.5
491.657	96.5
491.874	82.5
492.092	113.5
492.31	95.5
492.527	96.5
492.745	83.5
492.963	95.5
493.18	82.5
493.398	71.5
493.615	104.5
493.833	82.5
494.05	84.5
494.268	94.5
494.485	76.5
494.703	92.5
494.92	94.5
495.138	91.5
495.355	97.5
495.573	90.5
495.79	83.5
496.008	85.5
496.225	102.5
496.442	83.5
496.66	83.5
496.877	104.5
497.094	101.5
497.312	96.5
497.529	89.5
497.746	93.5
497.963	76.5
498.181	98.5
498.398	95.5
498.615	107.5
498.832	101.5
499.049	95.5
499.267	101.5
499.484	100.5
499.701	94.5
499.918	92.5
500.135	96.5
500.352	81.5
500.569	102.5
500.786	76.5
501.003	90.5
501.22	85.5
501.437	91.5
501.654	94.5
501.871	112.5
502.088	78.5
502.305	108.5
502.522	96.5
502.739	87.5
502.956	86.5
503.172	89.5
503.389	83.5
503.606	98.5
503.823	84.5
504.04	103.5
504.256	98.5
504.473	86.5
504.69	102.5
504.907	100.5
505.123	91.5
505.34	90.5
505.557	98.5
505.773	86.5
505.99	79.5
506.207	96.5
506.423	88.5
506.64	83.5
506.856	100.5
507.073	91.5
507.289	99.5
507.506	97.5
507.722	112.5
507.939	104.5
508.155	97.5
508.372	94.5
508.588	93.5
508.805	96.5
509.021	93.5
509.238	93.5
509.454	104.5
509.67	107.5
509.887	118.5
510.103	133.5
510.319	216.5
510.536	826.5
510.752	2613.5
510.968	726.5
511.184	170.5
511.401	112.5
511.617	101.5
511.833	94.5
512.049	88.5
512.265	71.5
512.481	102.5
512.698	101.5
512.914	87.5
513.13	95.5
513.346	92.5
513.562	78.5
513.778	112.5
513.994	85.5
514.21	100.5
514.426	128.5
514.642	117.5
514.858	128.5
515.074	196.5
515.29	478.5
515.506	1634.5
515.721	602.5
515.937	162.5
516.153	110.5
516.369	104.5
516.585	95.5
516.801	92.5
517.016	91.5
517.232	94.5
517.448	99.5
517.664	88.5
517.879	92.5
518.095	96.5
518.311	99.5
518.527	83.5
518.742	101.5
518.958	88.5
519.173	89.5
519.389	92.5
519.605	94.5
519.82	110.5
520.036	106.5
520.251	109.5
520.467	102.5
520.682	103.5
520.898	107.5
521.113	120.5
521.329	141.5
521.544	204.5
521.76	592.5
521.975	2624.5
522.19	1656.5
522.406	338.5
522.621	127.5
522.836	99.5
523.052	112.5
523.267	103.5
523.482	107.5
523.698	99.5
523.913	112.5
524.128	104.5
524.343	89.5
524.559	102.5
524.774	96.5
524.989	103.5
525.204	112.5
525.419	93.5
525.634	92.5
525.849	93.5
526.064	85.5
526.28	97.5
526.495	71.5
526.71	100.5
526.925	87.5
527.14	82.5
527.355	81.5
527.57	104.5
527.785	88.5
527.999	93.5
528.214	84.5
528.429	92.5
528.644	83.5
528.859	93.5
529.074	98.5
529.289	126.5
529.503	184.5
529.718	99.5
529.933	99.5
530.148	90.5
530.363	86.5
530.577	94.5
530.792	95.5
531.007	99.5
531.221	93.5
531.436	96.5
531.651	82.5
531.865	98.5
532.08	79.5
532.295	103.5
532.509	86.5
532.724	82.5
532.938	92.5
533.153	77.5
533.367	102.5
533.582	91.5
533.796	99.5
534.011	92.5
534.225	78.5
534.44	90.5
534.654	85.5
534.868	92.5
535.083	91.5
535.297	87.5
535.511	95.5
535.726	95.5
