Data from Circ_2006_H10_HRD10591_00029.txt Node
Date: Wed Jan 03 10:26:09 EST 2024
User: Yrep
Spectrometer: HR+D1059
Trigger mode: 1
Integration Time (sec): 1.000000E-1
Scans to average: 1
Electric dark correction enabled: true
Nonlinearity correction enabled: false
Boxcar width: 0
XAxis mode: Wavelengths
Number of Pixels in Spectrum: 2048
>>>>>Begin Spectral Data<<<<<
223.165	-22.75
223.4	-22.75
223.635	-22.75
223.869	-7.75
224.104	-9.75
224.338	-6.75
224.573	-17.75
224.808	-10.75
225.042	-13.75
225.277	1.25
225.511	0.25
225.746	4.25
225.98	6.25
226.215	7.25
226.449	15.25
226.683	18.25
226.918	13.25
227.152	23.25
227.387	33.25
227.621	59.25
227.856	29.25
228.09	38.25
228.324	47.25
228.559	60.25
228.793	71.25
229.027	69.25
229.262	57.25
229.496	79.25
229.73	91.25
229.964	88.25
230.199	89.25
230.433	85.25
230.667	77.25
230.901	72.25
231.136	78.25
231.37	76.25
231.604	87.25
231.838	85.25
232.072	88.25
232.306	87.25
232.541	84.25
232.775	89.25
233.009	101.25
233.243	91.25
233.477	91.25
233.711	78.25
233.945	71.25
234.179	80.25
234.413	78.25
234.647	86.25
234.881	85.25
235.115	85.25
235.349	85.25
235.583	77.25
235.817	79.25
236.051	78.25
236.285	80.25
236.519	77.25
236.753	75.25
236.987	81.25
237.221	90.25
237.455	90.25
237.689	92.25
237.922	83.25
238.156	86.25
238.39	78.25
238.624	76.25
238.858	97.25
239.091	83.25
239.325	78.25
239.559	75.25
239.793	77.25
240.027	89.25
240.26	82.25
240.494	89.25
240.728	76.25
240.961	83.25
241.195	76.25
241.429	96.25
241.662	98.25
241.896	91.25
242.13	65.25
242.363	79.25
242.597	95.25
242.83	74.25
243.064	87.25
243.298	74.25
243.531	81.25
243.765	80.25
243.998	84.25
244.232	80.25
244.465	89.25
244.699	80.25
244.932	91.25
245.166	87.25
245.399	75.25
245.633	69.25
245.866	86.25
246.099	83.25
246.333	88.25
246.566	72.25
246.8	88.25
247.033	66.25
247.266	89.25
247.5	86.25
247.733	86.25
247.966	81.25
248.2	72.25
248.433	83.25
248.666	85.25
248.899	87.25
249.133	97.25
249.366	103.25
249.599	116.25
249.832	99.25
250.066	83.25
250.299	95.25
250.532	89.25
250.765	81.25
250.998	79.25
251.231	67.25
251.465	95.25
251.698	87.25
251.931	90.25
252.164	85.25
252.397	81.25
252.63	88.25
252.863	88.25
253.096	91.25
253.329	78.25
253.562	73.25
253.795	80.25
254.028	88.25
254.261	83.25
254.494	86.25
254.727	92.25
254.96	89.25
255.193	73.25
255.426	94.25
255.659	69.25
255.892	94.25
256.124	102.25
256.357	97.25
256.59	73.25
256.823	69.25
257.056	79.25
257.289	92.25
257.521	88.25
257.754	89.25
257.987	72.25
258.22	81.25
258.452	81.25
258.685	80.25
258.918	80.25
259.151	87.25
259.383	84.25
259.616	74.25
259.849	87.25
260.081	75.25
260.314	71.25
260.547	88.25
260.779	86.25
261.012	73.25
261.244	83.25
261.477	98.25
261.71	103.25
261.942	126.25
262.175	125.25
262.407	83.25
262.64	82.25
262.872	92.25
263.105	77.25
263.337	96.25
263.57	96.25
263.802	94.25
264.035	84.25
264.267	89.25
264.499	100.25
264.732	94.25
264.964	98.25
265.197	91.25
265.429	103.25
265.661	84.25
265.894	76.25
266.126	88.25
266.358	96.25
266.591	89.25
266.823	86.25
267.055	94.25
267.287	68.25
267.52	92.25
267.752	95.25
267.984	76.25
268.216	83.25
268.448	90.25
268.681	77.25
268.913	85.25
269.145	107.25
269.377	87.25
269.609	74.25
269.841	94.25
270.073	101.25
270.306	104.25
270.538	103.25
270.77	83.25
271.002	90.25
271.234	89.25
271.466	85.25
271.698	90.25
271.93	103.25
272.162	101.25
272.394	103.25
272.626	93.25
272.858	86.25
273.09	85.25
273.322	79.25
273.553	96.25
273.785	75.25
274.017	92.25
274.249	97.25
274.481	80.25
274.713	101.25
274.945	100.25
275.176	77.25
275.408	98.25
275.64	94.25
275.872	81.25
276.104	102.25
276.335	75.25
276.567	96.25
276.799	115.25
277.031	97.25
277.262	96.25
277.494	95.25
277.726	91.25
277.957	82.25
278.189	81.25
278.421	77.25
278.652	81.25
278.884	77.25
279.115	82.25
279.347	98.25
279.579	86.25
279.81	80.25
280.042	85.25
280.273	85.25
280.505	84.25
280.736	89.25
280.968	81.25
281.199	82.25
281.431	102.25
281.662	84.25
281.894	102.25
282.125	96.25
282.356	130.25
282.588	153.25
282.819	127.25
283.051	111.25
283.282	90.25
283.513	85.25
283.745	93.25
283.976	92.25
284.207	95.25
284.439	90.25
284.67	95.25
284.901	97.25
285.132	95.25
285.364	95.25
285.595	97.25
285.826	88.25
286.057	93.25
286.288	93.25
286.52	78.25
286.751	98.25
286.982	89.25
287.213	97.25
287.444	100.25
287.675	98.25
287.906	86.25
288.138	105.25
288.369	102.25
288.6	102.25
288.831	101.25
289.062	94.25
289.293	80.25
289.524	92.25
289.755	97.25
289.986	92.25
290.217	93.25
290.448	86.25
290.679	79.25
290.91	87.25
291.141	72.25
291.371	97.25
291.602	97.25
291.833	95.25
292.064	81.25
292.295	95.25
292.526	90.25
292.757	101.25
292.987	98.25
293.218	95.25
293.449	89.25
293.68	102.25
293.91	92.25
294.141	85.25
294.372	92.25
294.603	82.25
294.833	89.25
295.064	87.25
295.295	82.25
295.525	90.25
295.756	106.25
295.987	128.25
296.217	157.25
296.448	133.25
296.679	93.25
296.909	102.25
297.14	95.25
297.37	85.25
297.601	91.25
297.831	103.25
298.062	101.25
298.292	91.25
298.523	79.25
298.753	95.25
298.984	103.25
299.214	98.25
299.445	96.25
299.675	98.25
299.905	102.25
300.136	103.25
300.366	92.25
300.597	91.25
300.827	96.25
301.057	94.25
301.288	115.25
301.518	102.25
301.748	107.25
301.979	98.25
302.209	91.25
302.439	85.25
302.669	90.25
302.9	102.25
303.13	90.25
303.36	106.25
303.59	106.25
303.82	127.25
304.051	97.25
304.281	103.25
304.511	89.25
304.741	84.25
304.971	109.25
305.201	90.25
305.431	105.25
305.661	85.25
305.891	99.25
306.121	101.25
306.352	117.25
306.582	116.25
306.812	104.25
307.042	90.25
307.272	85.25
307.502	96.25
307.731	102.25
307.961	84.25
308.191	93.25
308.421	97.25
308.651	102.25
308.881	93.25
309.111	86.25
309.341	104.25
309.571	107.25
309.8	94.25
310.03	103.25
310.26	110.25
310.49	113.25
310.72	91.25
310.949	101.25
311.179	94.25
311.409	98.25
311.639	103.25
311.868	85.25
312.098	106.25
312.328	103.25
312.557	101.25
312.787	113.25
313.017	109.25
313.246	99.25
313.476	104.25
313.706	101.25
313.935	112.25
314.165	114.25
314.394	101.25
314.624	103.25
314.853	118.25
315.083	103.25
315.312	108.25
315.542	94.25
315.771	85.25
316.001	82.25
316.23	101.25
316.46	87.25
316.689	107.25
316.919	87.25
317.148	97.25
317.377	100.25
317.607	95.25
317.836	106.25
318.065	112.25
318.295	100.25
318.524	101.25
318.753	101.25
318.983	93.25
319.212	112.25
319.441	106.25
319.67	109.25
319.9	115.25
320.129	102.25
320.358	113.25
320.587	90.25
320.816	97.25
321.046	107.25
321.275	112.25
321.504	98.25
321.733	96.25
321.962	119.25
322.191	88.25
322.42	103.25
322.649	120.25
322.878	136.25
323.108	131.25
323.337	154.25
323.566	161.25
323.795	171.25
324.024	240.25
324.253	495.25
324.482	1093.25
324.71	2279.25
324.939	2982.25
325.168	1063.25
325.397	305.25
325.626	158.25
325.855	137.25
326.084	124.25
326.313	146.25
326.542	171.25
326.77	287.25
326.999	624.25
327.228	1255.25
327.457	2350.25
327.686	1805.25
327.914	465.25
328.143	227.25
328.372	174.25
328.6	130.25
328.829	115.25
329.058	143.25
329.287	147.25
329.515	125.25
329.744	113.25
329.972	107.25
330.201	111.25
330.43	150.25
330.658	138.25
330.887	150.25
331.115	149.25
331.344	103.25
331.572	104.25
331.801	107.25
332.03	110.25
332.258	102.25
332.486	97.25
332.715	113.25
332.943	87.25
333.172	114.25
333.4	97.25
333.629	115.25
333.857	118.25
334.085	111.25
334.314	118.25
334.542	127.25
334.771	128.25
334.999	107.25
335.227	101.25
335.455	94.25
335.684	104.25
335.912	106.25
336.14	113.25
336.369	92.25
336.597	110.25
336.825	109.25
337.053	101.25
337.281	107.25
337.51	95.25
337.738	108.25
337.966	107.25
338.194	101.25
338.422	93.25
338.65	88.25
338.878	100.25
339.106	80.25
339.334	102.25
339.562	93.25
339.79	89.25
340.018	101.25
340.246	93.25
340.474	90.25
340.702	88.25
340.93	96.25
341.158	97.25
341.386	100.25
341.614	97.25
341.842	90.25
342.07	109.25
342.298	102.25
342.526	99.25
342.754	100.25
342.981	101.25
343.209	97.25
343.437	96.25
343.665	98.25
343.893	89.25
344.12	93.25
344.348	95.25
344.576	97.25
344.804	105.25
345.031	105.25
345.259	86.25
345.487	95.25
345.714	102.25
345.942	103.25
346.17	102.25
346.397	97.25
346.625	103.25
346.853	94.25
347.08	94.25
347.308	116.25
347.535	102.25
347.763	97.25
347.99	99.25
348.218	110.25
348.445	115.25
348.673	108.25
348.9	88.25
349.128	101.25
349.355	93.25
349.583	88.25
349.81	90.25
350.037	106.25
350.265	96.25
350.492	111.25
350.72	107.25
350.947	97.25
351.174	121.25
351.402	108.25
351.629	105.25
351.856	96.25
352.083	123.25
352.311	112.25
352.538	118.25
352.765	133.25
352.992	111.25
353.22	117.25
353.447	104.25
353.674	105.25
353.901	87.25
354.128	94.25
354.355	103.25
354.583	87.25
354.81	89.25
355.037	97.25
355.264	103.25
355.491	97.25
355.718	98.25
355.945	100.25
356.172	100.25
356.399	98.25
356.626	91.25
356.853	105.25
357.08	95.25
357.307	83.25
357.534	92.25
357.761	94.25
357.988	91.25
358.215	87.25
358.441	95.25
358.668	101.25
358.895	100.25
359.122	100.25
359.349	87.25
359.576	95.25
359.802	106.25
360.029	111.25
360.256	122.25
360.483	114.25
360.709	95.25
360.936	101.25
361.163	114.25
361.39	102.25
361.616	107.25
361.843	98.25
362.07	95.25
362.296	94.25
362.523	90.25
362.749	84.25
362.976	92.25
363.203	101.25
363.429	82.25
363.656	90.25
363.882	99.25
364.109	99.25
364.335	86.25
364.562	98.25
364.788	108.25
365.015	99.25
365.241	102.25
365.468	104.25
365.694	122.25
365.92	98.25
366.147	96.25
366.373	104.25
366.599	90.25
366.826	83.25
367.052	87.25
367.278	94.25
367.505	90.25
367.731	90.25
367.957	100.25
368.184	97.25
368.41	94.25
368.636	113.25
368.862	123.25
369.089	116.25
369.315	93.25
369.541	92.25
369.767	99.25
369.993	85.25
370.219	99.25
370.445	93.25
370.672	95.25
370.898	85.25
371.124	92.25
371.35	86.25
371.576	89.25
371.802	88.25
372.028	86.25
372.254	94.25
372.48	94.25
372.706	98.25
372.932	87.25
373.158	96.25
373.384	89.25
373.61	83.25
373.835	94.25
374.061	96.25
374.287	86.25
374.513	88.25
374.739	82.25
374.965	88.25
375.191	94.25
375.416	107.25
375.642	99.25
375.868	84.25
376.094	91.25
376.319	99.25
376.545	95.25
376.771	93.25
376.997	86.25
377.222	97.25
377.448	89.25
377.674	89.25
377.899	92.25
378.125	101.25
378.35	83.25
378.576	89.25
378.802	97.25
379.027	86.25
379.253	95.25
379.478	93.25
379.704	99.25
379.929	103.25
380.155	98.25
380.38	99.25
380.606	111.25
380.831	104.25
381.057	93.25
381.282	105.25
381.507	91.25
381.733	95.25
381.958	98.25
382.184	111.25
382.409	122.25
382.634	107.25
382.86	96.25
383.085	109.25
383.31	104.25
383.535	116.25
383.761	105.25
383.986	95.25
384.211	103.25
384.436	106.25
384.662	101.25
384.887	95.25
385.112	106.25
385.337	118.25
385.562	111.25
385.787	127.25
386.013	130.25
386.238	111.25
386.463	111.25
386.688	116.25
386.913	114.25
387.138	110.25
387.363	113.25
387.588	96.25
387.813	112.25
388.038	112.25
388.263	115.25
388.488	119.25
388.713	103.25
388.938	105.25
389.163	103.25
389.387	94.25
389.612	107.25
389.837	87.25
390.062	97.25
390.287	91.25
390.512	92.25
390.736	83.25
390.961	89.25
391.186	98.25
391.411	104.25
391.636	88.25
391.86	91.25
392.085	98.25
392.31	92.25
392.534	93.25
392.759	83.25
392.984	101.25
393.208	93.25
393.433	105.25
393.658	96.25
393.882	79.25
394.107	98.25
394.331	90.25
394.556	104.25
394.78	89.25
395.005	97.25
395.229	81.25
395.454	95.25
395.678	99.25
395.903	100.25
396.127	91.25
396.352	84.25
396.576	97.25
396.801	96.25
397.025	89.25
397.249	86.25
397.474	97.25
397.698	82.25
397.922	77.25
398.147	90.25
398.371	85.25
398.595	90.25
398.82	86.25
399.044	82.25
399.268	91.25
399.492	95.25
399.717	95.25
399.941	105.25
400.165	106.25
400.389	97.25
400.613	99.25
400.837	83.25
401.062	80.25
401.286	92.25
401.51	111.25
401.734	83.25
401.958	112.25
402.182	138.25
402.406	192.25
402.63	133.25
402.854	106.25
403.078	92.25
403.302	75.25
403.526	107.25
403.75	102.25
403.974	90.25
404.198	90.25
404.422	91.25
404.645	96.25
404.869	89.25
405.093	85.25
405.317	104.25
405.541	109.25
405.765	102.25
405.988	107.25
406.212	188.25
406.436	263.25
406.66	173.25
406.883	105.25
407.107	93.25
407.331	102.25
407.555	117.25
407.778	98.25
408.002	104.25
408.226	98.25
408.449	106.25
408.673	97.25
408.896	109.25
409.12	98.25
409.344	86.25
409.567	90.25
409.791	89.25
410.014	87.25
410.238	99.25
410.461	82.25
410.685	89.25
410.908	105.25
411.132	118.25
411.355	109.25
411.578	94.25
411.802	95.25
412.025	82.25
412.249	92.25
412.472	97.25
412.695	104.25
412.919	88.25
413.142	98.25
413.365	95.25
413.589	99.25
413.812	90.25
414.035	100.25
414.258	115.25
414.482	100.25
414.705	104.25
414.928	91.25
415.151	95.25
415.374	98.25
415.597	94.25
415.821	96.25
416.044	90.25
416.267	89.25
416.49	87.25
416.713	98.25
416.936	84.25
417.159	90.25
417.382	87.25
417.605	94.25
417.828	97.25
418.051	109.25
418.274	86.25
418.497	89.25
418.72	89.25
418.943	96.25
419.166	95.25
419.389	94.25
419.611	89.25
419.834	83.25
420.057	86.25
420.28	98.25
420.503	86.25
420.726	83.25
420.948	104.25
421.171	103.25
421.394	104.25
421.617	86.25
421.839	101.25
422.062	81.25
422.285	88.25
422.507	110.25
422.73	98.25
422.953	102.25
423.175	101.25
423.398	91.25
423.621	81.25
423.843	95.25
424.066	96.25
424.288	100.25
424.511	96.25
424.733	113.25
424.956	118.25
425.178	110.25
425.401	112.25
425.623	86.25
425.846	94.25
426.068	95.25
426.291	103.25
426.513	91.25
426.735	92.25
426.958	75.25
427.18	135.25
427.402	147.25
427.625	207.25
427.847	158.25
428.069	114.25
428.292	98.25
428.514	98.25
428.736	96.25
428.958	91.25
429.181	93.25
429.403	85.25
429.625	86.25
429.847	102.25
430.069	105.25
430.292	96.25
430.514	106.25
430.736	92.25
430.958	100.25
431.18	79.25
431.402	105.25
431.624	98.25
431.846	82.25
432.068	105.25
432.29	84.25
432.512	91.25
432.734	82.25
432.956	103.25
433.178	108.25
433.4	119.25
433.622	89.25
433.844	87.25
434.066	96.25
434.287	93.25
434.509	102.25
434.731	99.25
434.953	87.25
435.175	88.25
435.397	105.25
435.618	99.25
435.84	122.25
436.062	125.25
436.284	129.25
436.505	114.25
436.727	118.25
436.949	108.25
437.17	91.25
437.392	96.25
437.614	107.25
437.835	127.25
438.057	125.25
438.278	111.25
438.5	114.25
438.721	139.25
438.943	103.25
439.165	94.25
439.386	102.25
439.608	100.25
439.829	116.25
440.05	151.25
440.272	149.25
440.493	111.25
440.715	99.25
440.936	102.25
441.158	89.25
441.379	99.25
441.6	105.25
441.822	102.25
442.043	107.25
442.264	106.25
442.486	111.25
442.707	93.25
442.928	120.25
443.149	129.25
443.371	148.25
443.592	118.25
443.813	125.25
444.034	111.25
444.255	92.25
444.476	96.25
444.698	95.25
444.919	101.25
445.14	134.25
445.361	145.25
445.582	124.25
445.803	148.25
446.024	156.25
446.245	148.25
446.466	109.25
446.687	109.25
446.908	103.25
447.129	95.25
447.35	107.25
447.571	101.25
447.792	104.25
448.013	117.25
448.234	135.25
448.455	106.25
448.675	122.25
448.896	120.25
449.117	93.25
449.338	108.25
449.559	136.25
449.779	159.25
450	99.25
450.221	106.25
450.442	108.25
450.662	99.25
450.883	113.25
451.104	131.25
451.324	95.25
451.545	89.25
451.766	100.25
451.986	80.25
452.207	92.25
452.428	76.25
452.648	96.25
452.869	106.25
453.089	106.25
453.31	121.25
453.53	106.25
453.751	101.25
453.971	100.25
454.192	126.25
454.412	101.25
454.633	93.25
454.853	99.25
455.073	84.25
455.294	109.25
455.514	114.25
455.734	98.25
455.955	89.25
456.175	89.25
456.395	107.25
456.616	93.25
456.836	83.25
457.056	88.25
457.276	90.25
457.497	90.25
457.717	91.25
457.937	89.25
458.157	94.25
458.377	96.25
458.598	117.25
458.818	155.25
459.038	195.25
459.258	126.25
459.478	100.25
459.698	101.25
459.918	88.25
460.138	88.25
460.358	102.25
460.578	95.25
460.798	96.25
461.018	107.25
461.238	90.25
461.458	85.25
461.678	85.25
461.898	98.25
462.118	94.25
462.338	85.25
462.558	88.25
462.777	80.25
462.997	84.25
463.217	98.25
463.437	77.25
463.657	80.25
463.876	93.25
464.096	79.25
464.316	106.25
464.536	102.25
464.755	94.25
464.975	112.25
465.195	200.25
465.414	199.25
465.634	88.25
465.854	95.25
466.073	92.25
466.293	87.25
466.512	94.25
466.732	90.25
466.951	105.25
467.171	99.25
467.391	88.25
467.61	110.25
467.829	100.25
468.049	85.25
468.268	113.25
468.488	90.25
468.707	82.25
468.927	78.25
469.146	88.25
469.365	96.25
469.585	108.25
469.804	106.25
470.023	105.25
470.243	96.25
470.462	117.25
470.681	127.25
470.901	103.25
471.12	94.25
471.339	90.25
471.558	81.25
471.777	89.25
471.997	103.25
472.216	120.25
472.435	138.25
472.654	113.25
472.873	97.25
473.092	94.25
473.311	88.25
473.53	89.25
473.749	89.25
473.968	91.25
474.187	101.25
474.406	88.25
474.625	103.25
474.844	86.25
475.063	90.25
475.282	82.25
475.501	76.25
475.72	88.25
475.939	97.25
476.158	81.25
476.377	102.25
476.596	98.25
476.814	87.25
477.033	96.25
477.252	85.25
477.471	88.25
477.69	92.25
477.908	93.25
478.127	96.25
478.346	99.25
478.564	103.25
478.783	98.25
479.002	92.25
479.22	102.25
479.439	102.25
479.658	105.25
479.876	98.25
480.095	96.25
480.313	115.25
480.532	102.25
480.751	89.25
480.969	111.25
481.188	158.25
481.406	141.25
481.624	95.25
481.843	104.25
482.061	88.25
482.28	95.25
482.498	101.25
482.717	86.25
482.935	86.25
483.153	91.25
483.372	86.25
483.59	105.25
483.808	85.25
484.027	100.25
484.245	88.25
484.463	93.25
484.681	113.25
484.9	95.25
485.118	101.25
485.336	104.25
485.554	104.25
485.772	122.25
485.99	104.25
486.209	110.25
486.427	108.25
486.645	120.25
486.863	128.25
487.081	112.25
487.299	102.25
487.517	88.25
487.735	106.25
487.953	98.25
488.171	93.25
488.389	99.25
488.607	95.25
488.825	105.25
489.043	102.25
489.261	84.25
489.479	84.25
489.696	93.25
489.914	96.25
490.132	99.25
490.35	101.25
490.568	93.25
490.786	83.25
491.003	99.25
491.221	102.25
491.439	96.25
491.657	105.25
491.874	102.25
492.092	104.25
492.31	107.25
492.527	112.25
492.745	98.25
492.963	99.25
493.18	102.25
493.398	94.25
493.615	102.25
493.833	97.25
494.05	101.25
494.268	80.25
494.485	95.25
494.703	94.25
494.92	90.25
495.138	84.25
495.355	92.25
495.573	86.25
495.79	101.25
496.008	96.25
496.225	105.25
496.442	84.25
496.66	85.25
496.877	88.25
497.094	97.25
497.312	82.25
497.529	84.25
497.746	97.25
497.963	104.25
498.181	82.25
498.398	99.25
498.615	127.25
498.832	115.25
499.049	99.25
499.267	87.25
499.484	95.25
499.701	103.25
499.918	96.25
500.135	99.25
500.352	91.25
500.569	80.25
500.786	95.25
501.003	93.25
501.22	99.25
501.437	93.25
501.654	95.25
501.871	103.25
502.088	89.25
502.305	93.25
502.522	106.25
502.739	96.25
502.956	94.25
503.172	96.25
503.389	106.25
503.606	115.25
503.823	91.25
504.04	97.25
504.256	87.25
504.473	97.25
504.69	99.25
504.907	101.25
505.123	95.25
505.34	98.25
505.557	102.25
505.773	90.25
505.99	80.25
506.207	102.25
506.423	91.25
506.64	92.25
506.856	98.25
507.073	83.25
507.289	90.25
507.506	104.25
507.722	124.25
507.939	112.25
508.155	103.25
508.372	93.25
508.588	91.25
508.805	102.25
509.021	91.25
509.238	92.25
509.454	104.25
509.67	104.25
509.887	130.25
510.103	141.25
510.319	229.25
510.536	876.25
510.752	2863.25
510.968	792.25
511.184	181.25
511.401	121.25
511.617	116.25
511.833	97.25
512.049	95.25
512.265	105.25
512.481	107.25
512.698	88.25
512.914	94.25
513.13	91.25
