Data from Circ_2006_H10_HRD10591_00082.txt Node
Date: Wed Jan 03 10:26:20 EST 2024
User: Yrep
Spectrometer: HR+D1059
Trigger mode: 1
Integration Time (sec): 1.000000E-1
Scans to average: 1
Electric dark correction enabled: true
Nonlinearity correction enabled: false
Boxcar width: 0
XAxis mode: Wavelengths
Number of Pixels in Spectrum: 2048
>>>>>Begin Spectral Data<<<<<
223.165	-9.06
223.4	-9.06
223.635	-9.06
223.869	-26.06
224.104	-20.06
224.338	-12.06
224.573	-18.06
224.808	-17.06
225.042	0.94
225.277	-5.06
225.511	-3.06
225.746	3.94
225.98	5.94
226.215	1.94
226.449	17.94
226.683	21.94
226.918	26.94
227.152	30.94
227.387	27.94
227.621	41.94
227.856	26.94
228.09	49.94
228.324	52.94
228.559	64.94
228.793	60.94
229.027	62.94
229.262	50.94
229.496	67.94
229.73	94.94
229.964	87.94
230.199	68.94
230.433	77.94
230.667	81.94
230.901	95.94
231.136	100.94
231.37	73.94
231.604	93.94
231.838	91.94
232.072	68.94
232.306	78.94
232.541	80.94
232.775	85.94
233.009	82.94
233.243	94.94
233.477	69.94
233.711	88.94
233.945	86.94
234.179	81.94
234.413	90.94
234.647	76.94
234.881	80.94
235.115	68.94
235.349	82.94
235.583	80.94
235.817	84.94
236.051	78.94
236.285	77.94
236.519	76.94
236.753	78.94
236.987	83.94
237.221	85.94
237.455	68.94
237.689	77.94
237.922	89.94
238.156	76.94
238.39	80.94
238.624	94.94
238.858	86.94
239.091	73.94
239.325	74.94
239.559	72.94
239.793	72.94
240.027	72.94
240.26	79.94
240.494	72.94
240.728	79.94
240.961	64.94
241.195	73.94
241.429	86.94
241.662	65.94
241.896	96.94
242.13	72.94
242.363	66.94
242.597	68.94
242.83	80.94
243.064	80.94
243.298	64.94
243.531	63.94
243.765	73.94
243.998	76.94
244.232	92.94
244.465	88.94
244.699	79.94
244.932	70.94
245.166	74.94
245.399	80.94
245.633	88.94
245.866	81.94
246.099	84.94
246.333	75.94
246.566	72.94
246.8	100.94
247.033	82.94
247.266	84.94
247.5	85.94
247.733	76.94
247.966	74.94
248.2	80.94
248.433	80.94
248.666	83.94
248.899	75.94
249.133	80.94
249.366	104.94
249.599	94.94
249.832	79.94
250.066	81.94
250.299	95.94
250.532	83.94
250.765	80.94
250.998	79.94
251.231	80.94
251.465	86.94
251.698	82.94
251.931	72.94
252.164	73.94
252.397	84.94
252.63	82.94
252.863	90.94
253.096	93.94
253.329	72.94
253.562	69.94
253.795	80.94
254.028	90.94
254.261	75.94
254.494	93.94
254.727	81.94
254.96	94.94
255.193	72.94
255.426	78.94
255.659	77.94
255.892	92.94
256.124	89.94
256.357	92.94
256.59	82.94
256.823	84.94
257.056	67.94
257.289	86.94
257.521	96.94
257.754	84.94
257.987	73.94
258.22	87.94
258.452	81.94
258.685	80.94
258.918	95.94
259.151	72.94
259.383	86.94
259.616	88.94
259.849	85.94
260.081	80.94
260.314	74.94
260.547	81.94
260.779	80.94
261.012	95.94
261.244	88.94
261.477	100.94
261.71	94.94
261.942	117.94
262.175	144.94
262.407	92.94
262.64	93.94
262.872	86.94
263.105	84.94
263.337	78.94
263.57	82.94
263.802	81.94
264.035	92.94
264.267	89.94
264.499	86.94
264.732	86.94
264.964	79.94
265.197	89.94
265.429	99.94
265.661	90.94
265.894	85.94
266.126	87.94
266.358	94.94
266.591	84.94
266.823	98.94
267.055	93.94
267.287	72.94
267.52	85.94
267.752	84.94
267.984	86.94
268.216	93.94
268.448	92.94
268.681	85.94
268.913	76.94
269.145	82.94
269.377	88.94
269.609	96.94
269.841	90.94
270.073	87.94
270.306	88.94
270.538	96.94
270.77	93.94
271.002	86.94
271.234	94.94
271.466	78.94
271.698	80.94
271.93	94.94
272.162	87.94
272.394	92.94
272.626	86.94
272.858	80.94
273.09	88.94
273.322	91.94
273.553	79.94
273.785	81.94
274.017	96.94
274.249	92.94
274.481	87.94
274.713	99.94
274.945	96.94
275.176	89.94
275.408	94.94
275.64	89.94
275.872	96.94
276.104	87.94
276.335	110.94
276.567	96.94
276.799	112.94
277.031	105.94
277.262	99.94
277.494	97.94
277.726	86.94
277.957	77.94
278.189	94.94
278.421	94.94
278.652	95.94
278.884	89.94
279.115	94.94
279.347	82.94
279.579	78.94
279.81	79.94
280.042	81.94
280.273	102.94
280.505	88.94
280.736	97.94
280.968	85.94
281.199	99.94
281.431	108.94
281.662	89.94
281.894	82.94
282.125	80.94
282.356	119.94
282.588	144.94
282.819	122.94
283.051	94.94
283.282	85.94
283.513	88.94
283.745	84.94
283.976	80.94
284.207	86.94
284.439	98.94
284.67	95.94
284.901	85.94
285.132	93.94
285.364	87.94
285.595	100.94
285.826	97.94
286.057	93.94
286.288	96.94
286.52	85.94
286.751	92.94
286.982	101.94
287.213	77.94
287.444	100.94
287.675	83.94
287.906	77.94
288.138	81.94
288.369	81.94
288.6	79.94
288.831	84.94
289.062	89.94
289.293	94.94
289.524	89.94
289.755	91.94
289.986	93.94
290.217	94.94
290.448	80.94
290.679	96.94
290.91	95.94
291.141	93.94
291.371	79.94
291.602	84.94
291.833	93.94
292.064	74.94
292.295	89.94
292.526	91.94
292.757	88.94
292.987	100.94
293.218	90.94
293.449	97.94
293.68	83.94
293.91	78.94
294.141	77.94
294.372	79.94
294.603	84.94
294.833	95.94
295.064	86.94
295.295	106.94
295.525	91.94
295.756	95.94
295.987	111.94
296.217	142.94
296.448	136.94
296.679	102.94
296.909	86.94
297.14	89.94
297.37	85.94
297.601	85.94
297.831	93.94
298.062	95.94
298.292	76.94
298.523	90.94
298.753	92.94
298.984	94.94
299.214	82.94
299.445	93.94
299.675	98.94
299.905	92.94
300.136	94.94
300.366	97.94
300.597	96.94
300.827	101.94
301.057	106.94
301.288	124.94
301.518	90.94
301.748	99.94
301.979	98.94
302.209	87.94
302.439	85.94
302.669	92.94
302.9	92.94
303.13	90.94
303.36	86.94
303.59	98.94
303.82	113.94
304.051	90.94
304.281	95.94
304.511	101.94
304.741	86.94
304.971	103.94
305.201	104.94
305.431	79.94
305.661	82.94
305.891	83.94
306.121	94.94
306.352	115.94
306.582	111.94
306.812	93.94
307.042	111.94
307.272	101.94
307.502	93.94
307.731	94.94
307.961	88.94
308.191	105.94
308.421	95.94
308.651	95.94
308.881	93.94
309.111	104.94
309.341	90.94
309.571	103.94
309.8	83.94
310.03	94.94
310.26	105.94
310.49	95.94
310.72	106.94
310.949	98.94
311.179	96.94
311.409	100.94
311.639	98.94
311.868	100.94
312.098	90.94
312.328	110.94
312.557	115.94
312.787	94.94
313.017	106.94
313.246	88.94
313.476	106.94
313.706	89.94
313.935	94.94
314.165	107.94
314.394	107.94
314.624	79.94
314.853	103.94
315.083	98.94
315.312	87.94
315.542	101.94
315.771	96.94
316.001	74.94
316.23	108.94
316.46	93.94
316.689	95.94
316.919	95.94
317.148	91.94
317.377	101.94
317.607	101.94
317.836	105.94
318.065	87.94
318.295	90.94
318.524	78.94
318.753	108.94
318.983	107.94
319.212	107.94
319.441	114.94
319.67	118.94
319.9	105.94
320.129	100.94
320.358	100.94
320.587	97.94
320.816	104.94
321.046	108.94
321.275	109.94
321.504	107.94
321.733	104.94
321.962	100.94
322.191	103.94
322.42	99.94
322.649	128.94
322.878	115.94
323.108	118.94
323.337	138.94
323.566	156.94
323.795	184.94
324.024	256.94
324.253	520.94
324.482	1085.94
324.71	2292.94
324.939	3012.94
325.168	1068.94
325.397	304.94
325.626	170.94
325.855	156.94
326.084	144.94
326.313	146.94
326.542	182.94
326.77	280.94
326.999	592.94
327.228	1257.94
327.457	2293.94
327.686	1792.94
327.914	455.94
328.143	233.94
328.372	186.94
328.6	143.94
328.829	127.94
329.058	135.94
329.287	143.94
329.515	128.94
329.744	137.94
329.972	124.94
330.201	158.94
330.43	200.94
330.658	170.94
330.887	157.94
331.115	133.94
331.344	92.94
331.572	109.94
331.801	113.94
332.03	120.94
332.258	101.94
332.486	101.94
332.715	95.94
332.943	92.94
333.172	102.94
333.4	101.94
333.629	113.94
333.857	119.94
334.085	131.94
334.314	170.94
334.542	222.94
334.771	208.94
334.999	125.94
335.227	115.94
335.455	100.94
335.684	86.94
335.912	106.94
336.14	103.94
336.369	96.94
336.597	108.94
336.825	105.94
337.053	93.94
337.281	105.94
337.51	86.94
337.738	97.94
337.966	105.94
338.194	99.94
338.422	103.94
338.65	104.94
338.878	108.94
339.106	94.94
339.334	78.94
339.562	85.94
339.79	96.94
340.018	89.94
340.246	94.94
340.474	88.94
340.702	78.94
340.93	100.94
341.158	106.94
341.386	95.94
341.614	94.94
341.842	79.94
342.07	106.94
342.298	110.94
342.526	92.94
342.754	83.94
342.981	84.94
343.209	93.94
343.437	91.94
343.665	90.94
343.893	86.94
344.12	107.94
344.348	98.94
344.576	93.94
344.804	97.94
345.031	101.94
345.259	106.94
345.487	103.94
345.714	110.94
345.942	92.94
346.17	82.94
346.397	87.94
346.625	93.94
346.853	100.94
347.08	97.94
347.308	95.94
347.535	100.94
347.763	102.94
347.99	101.94
348.218	98.94
348.445	117.94
348.673	107.94
348.9	87.94
349.128	93.94
349.355	100.94
349.583	90.94
349.81	97.94
350.037	94.94
350.265	95.94
350.492	116.94
350.72	99.94
350.947	90.94
351.174	113.94
351.402	126.94
351.629	103.94
351.856	96.94
352.083	103.94
352.311	109.94
352.538	111.94
352.765	128.94
352.992	135.94
353.22	115.94
353.447	115.94
353.674	105.94
353.901	101.94
354.128	103.94
354.355	103.94
354.583	98.94
354.81	104.94
355.037	94.94
355.264	100.94
355.491	91.94
355.718	93.94
355.945	102.94
356.172	98.94
356.399	113.94
356.626	91.94
356.853	97.94
357.08	88.94
357.307	94.94
357.534	97.94
357.761	99.94
357.988	102.94
358.215	113.94
358.441	97.94
358.668	93.94
358.895	91.94
359.122	94.94
359.349	101.94
359.576	109.94
359.802	106.94
360.029	107.94
360.256	112.94
360.483	108.94
360.709	97.94
360.936	80.94
361.163	101.94
361.39	90.94
361.616	110.94
361.843	96.94
362.07	110.94
362.296	100.94
362.523	101.94
362.749	100.94
362.976	97.94
363.203	89.94
363.429	82.94
363.656	89.94
363.882	84.94
364.109	88.94
364.335	90.94
364.562	93.94
364.788	90.94
365.015	108.94
365.241	101.94
365.468	104.94
365.694	103.94
365.92	101.94
366.147	116.94
366.373	86.94
366.599	87.94
366.826	90.94
367.052	88.94
367.278	92.94
367.505	98.94
367.731	99.94
367.957	89.94
368.184	102.94
368.41	105.94
368.636	121.94
368.862	141.94
369.089	128.94
369.315	113.94
369.541	94.94
369.767	95.94
369.993	85.94
370.219	83.94
370.445	95.94
370.672	105.94
370.898	94.94
371.124	92.94
371.35	86.94
371.576	94.94
371.802	81.94
372.028	96.94
372.254	84.94
372.48	94.94
372.706	82.94
372.932	88.94
373.158	97.94
373.384	80.94
373.61	95.94
373.835	107.94
374.061	103.94
374.287	100.94
374.513	81.94
374.739	97.94
374.965	94.94
375.191	93.94
375.416	88.94
375.642	99.94
375.868	95.94
376.094	107.94
376.319	113.94
376.545	95.94
376.771	85.94
376.997	106.94
377.222	82.94
377.448	95.94
377.674	99.94
377.899	90.94
378.125	107.94
378.35	93.94
378.576	88.94
378.802	87.94
379.027	89.94
379.253	99.94
379.478	105.94
379.704	102.94
379.929	94.94
380.155	93.94
380.38	104.94
380.606	97.94
380.831	89.94
381.057	101.94
381.282	94.94
381.507	97.94
381.733	105.94
381.958	110.94
382.184	99.94
382.409	102.94
382.634	101.94
382.86	89.94
383.085	109.94
383.31	104.94
383.535	95.94
383.761	109.94
383.986	89.94
384.211	104.94
384.436	90.94
384.662	111.94
384.887	96.94
385.112	102.94
385.337	103.94
385.562	92.94
385.787	110.94
386.013	119.94
386.238	120.94
386.463	109.94
386.688	114.94
386.913	109.94
387.138	118.94
387.363	98.94
387.588	119.94
387.813	108.94
388.038	109.94
388.263	103.94
388.488	110.94
388.713	97.94
388.938	118.94
389.163	115.94
389.387	98.94
389.612	100.94
389.837	85.94
390.062	92.94
390.287	80.94
390.512	101.94
390.736	90.94
390.961	91.94
391.186	97.94
391.411	110.94
391.636	88.94
391.86	102.94
392.085	96.94
392.31	76.94
392.534	93.94
392.759	104.94
392.984	93.94
393.208	101.94
393.433	99.94
393.658	84.94
393.882	88.94
394.107	89.94
394.331	87.94
394.556	85.94
394.78	97.94
395.005	91.94
395.229	86.94
395.454	107.94
395.678	72.94
395.903	79.94
396.127	101.94
396.352	90.94
396.576	73.94
396.801	82.94
397.025	97.94
397.249	96.94
397.474	86.94
397.698	101.94
397.922	93.94
398.147	97.94
398.371	85.94
398.595	92.94
398.82	95.94
399.044	97.94
399.268	95.94
399.492	81.94
399.717	99.94
399.941	84.94
400.165	93.94
400.389	89.94
400.613	88.94
400.837	92.94
401.062	87.94
401.286	94.94
401.51	92.94
401.734	94.94
401.958	105.94
402.182	148.94
402.406	178.94
402.63	131.94
402.854	92.94
403.078	89.94
403.302	98.94
403.526	81.94
403.75	82.94
403.974	85.94
404.198	100.94
404.422	91.94
404.645	86.94
404.869	100.94
405.093	106.94
405.317	102.94
405.541	112.94
405.765	111.94
405.988	137.94
406.212	205.94
406.436	286.94
406.66	171.94
406.883	119.94
407.107	89.94
407.331	98.94
407.555	113.94
407.778	109.94
408.002	97.94
408.226	108.94
408.449	92.94
408.673	83.94
408.896	106.94
409.12	79.94
409.344	102.94
409.567	100.94
409.791	91.94
410.014	115.94
410.238	89.94
410.461	90.94
410.685	89.94
410.908	103.94
411.132	111.94
411.355	109.94
411.578	101.94
411.802	72.94
412.025	89.94
412.249	96.94
412.472	102.94
412.695	108.94
412.919	88.94
413.142	84.94
413.365	98.94
413.589	90.94
413.812	93.94
414.035	105.94
414.258	97.94
414.482	100.94
414.705	99.94
414.928	95.94
415.151	105.94
415.374	106.94
415.597	80.94
415.821	89.94
416.044	94.94
416.267	98.94
416.49	82.94
416.713	98.94
416.936	98.94
417.159	82.94
417.382	86.94
417.605	99.94
417.828	102.94
418.051	94.94
418.274	87.94
418.497	84.94
418.72	95.94
418.943	96.94
419.166	89.94
419.389	102.94
419.611	92.94
419.834	93.94
420.057	85.94
420.28	85.94
420.503	97.94
420.726	89.94
420.948	81.94
421.171	87.94
421.394	111.94
421.617	97.94
421.839	102.94
422.062	86.94
422.285	108.94
422.507	101.94
422.73	101.94
422.953	87.94
423.175	109.94
423.398	99.94
423.621	97.94
423.843	91.94
424.066	93.94
424.288	109.94
424.511	94.94
424.733	103.94
424.956	114.94
425.178	112.94
425.401	98.94
425.623	114.94
425.846	81.94
426.068	93.94
426.291	102.94
426.513	103.94
426.735	99.94
426.958	95.94
427.18	111.94
427.402	160.94
427.625	189.94
427.847	172.94
428.069	119.94
428.292	102.94
428.514	84.94
428.736	93.94
428.958	69.94
429.181	86.94
429.403	79.94
429.625	100.94
429.847	107.94
430.069	106.94
430.292	106.94
430.514	96.94
430.736	99.94
430.958	78.94
431.18	83.94
431.402	102.94
431.624	90.94
431.846	87.94
432.068	89.94
432.29	86.94
432.512	97.94
432.734	91.94
432.956	103.94
433.178	108.94
433.4	106.94
433.622	92.94
433.844	88.94
434.066	99.94
434.287	100.94
434.509	102.94
434.731	91.94
434.953	90.94
435.175	108.94
435.397	95.94
435.618	103.94
435.84	101.94
436.062	141.94
436.284	123.94
436.505	104.94
436.727	102.94
436.949	103.94
437.17	84.94
437.392	99.94
437.614	96.94
437.835	118.94
438.057	122.94
438.278	115.94
438.5	108.94
438.721	141.94
438.943	94.94
439.165	88.94
439.386	87.94
439.608	92.94
439.829	101.94
440.05	148.94
440.272	158.94
440.493	104.94
440.715	87.94
440.936	94.94
441.158	94.94
441.379	89.94
441.6	95.94
441.822	100.94
442.043	90.94
442.264	102.94
442.486	91.94
442.707	92.94
442.928	98.94
443.149	140.94
443.371	140.94
443.592	121.94
443.813	120.94
444.034	116.94
444.255	116.94
444.476	105.94
444.698	94.94
444.919	77.94
445.14	130.94
445.361	150.94
445.582	125.94
445.803	155.94
446.024	167.94
446.245	152.94
446.466	109.94
446.687	86.94
446.908	92.94
447.129	92.94
447.35	84.94
447.571	95.94
447.792	106.94
448.013	101.94
448.234	113.94
448.455	101.94
448.675	118.94
448.896	124.94
449.117	121.94
449.338	114.94
449.559	137.94
449.779	129.94
450	104.94
450.221	88.94
450.442	82.94
450.662	99.94
450.883	128.94
451.104	117.94
451.324	103.94
451.545	89.94
451.766	76.94
451.986	81.94
452.207	95.94
452.428	87.94
452.648	104.94
452.869	123.94
453.089	132.94
453.31	131.94
453.53	97.94
453.751	91.94
453.971	106.94
454.192	116.94
454.412	102.94
454.633	103.94
454.853	78.94
455.073	88.94
455.294	80.94
455.514	86.94
455.734	94.94
455.955	87.94
456.175	83.94
456.395	94.94
456.616	83.94
456.836	95.94
457.056	91.94
457.276	98.94
457.497	92.94
457.717	88.94
457.937	86.94
458.157	108.94
458.377	89.94
458.598	115.94
458.818	180.94
459.038	190.94
459.258	128.94
459.478	100.94
459.698	80.94
459.918	80.94
460.138	86.94
460.358	96.94
460.578	78.94
460.798	92.94
461.018	84.94
461.238	92.94
461.458	79.94
461.678	72.94
461.898	78.94
462.118	90.94
462.338	87.94
462.558	83.94
462.777	107.94
462.997	97.94
463.217	79.94
463.437	98.94
463.657	100.94
463.876	87.94
464.096	80.94
464.316	91.94
464.536	110.94
464.755	103.94
464.975	122.94
465.195	193.94
465.414	176.94
465.634	104.94
465.854	84.94
466.073	88.94
466.293	106.94
466.512	81.94
466.732	99.94
466.951	99.94
467.171	96.94
467.391	101.94
467.61	98.94
467.829	115.94
468.049	128.94
468.268	129.94
468.488	86.94
468.707	89.94
468.927	92.94
469.146	92.94
469.365	90.94
469.585	91.94
469.804	98.94
470.023	96.94
470.243	104.94
470.462	94.94
470.681	121.94
470.901	91.94
471.12	88.94
471.339	89.94
471.558	87.94
471.777	92.94
471.997	100.94
472.216	167.94
472.435	288.94
472.654	126.94
472.873	89.94
473.092	90.94
473.311	88.94
473.53	102.94
473.749	101.94
473.968	96.94
474.187	111.94
474.406	95.94
474.625	91.94
474.844	87.94
475.063	85.94
475.282	94.94
475.501	90.94
475.72	104.94
475.939	75.94
476.158	100.94
476.377	84.94
476.596	93.94
476.814	110.94
477.033	99.94
477.252	76.94
477.471	102.94
477.69	87.94
477.908	90.94
478.127	88.94
478.346	91.94
478.564	96.94
478.783	103.94
479.002	113.94
479.22	90.94
479.439	102.94
479.658	114.94
479.876	109.94
480.095	108.94
480.313	101.94
480.532	100.94
480.751	97.94
480.969	178.94
481.188	423.94
481.406	301.94
481.624	114.94
481.843	93.94
482.061	86.94
482.28	85.94
482.498	98.94
482.717	85.94
482.935	84.94
483.153	99.94
483.372	100.94
483.59	94.94
483.808	97.94
484.027	88.94
484.245	104.94
484.463	94.94
484.681	109.94
484.9	95.94
485.118	108.94
485.336	103.94
485.554	98.94
485.772	111.94
485.99	106.94
486.209	106.94
486.427	100.94
486.645	108.94
486.863	120.94
487.081	107.94
487.299	109.94
487.517	113.94
487.735	104.94
487.953	104.94
488.171	96.94
488.389	98.94
488.607	111.94
488.825	105.94
489.043	101.94
489.261	104.94
489.479	96.94
489.696	100.94
489.914	92.94
490.132	80.94
490.35	64.94
490.568	104.94
490.786	101.94
491.003	100.94
491.221	91.94
491.439	86.94
491.657	74.94
491.874	84.94
492.092	95.94
492.31	97.94
492.527	91.94
492.745	82.94
492.963	86.94
493.18	100.94
493.398	91.94
493.615	95.94
493.833	103.94
494.05	94.94
494.268	107.94
494.485	98.94
494.703	96.94
494.92	90.94
495.138	100.94
495.355	94.94
495.573	81.94
495.79	97.94
496.008	84.94
496.225	85.94
496.442	78.94
496.66	92.94
496.877	93.94
497.094	96.94
497.312	98.94
497.529	89.94
497.746	90.94
497.963	92.94
498.181	89.94
498.398	102.94
498.615	114.94
498.832	108.94
499.049	84.94
499.267	88.94
499.484	102.94
499.701	100.94
499.918	78.94
500.135	88.94
500.352	90.94
500.569	98.94
500.786	97.94
501.003	89.94
501.22	96.94
501.437	96.94
501.654	95.94
501.871	107.94
502.088	87.94
502.305	98.94
502.522	82.94
502.739	89.94
502.956	81.94
503.172	89.94
503.389	110.94
503.606	100.94
503.823	85.94
504.04	98.94
504.256	102.94
504.473	93.94
504.69	80.94
504.907	92.94
505.123	80.94
505.34	96.94
505.557	94.94
505.773	113.94
505.99	98.94
506.207	88.94
506.423	111.94
506.64	94.94
506.856	97.94
507.073	81.94
507.289	101.94
507.506	100.94
507.722	132.94
507.939	113.94
508.155	110.94
508.372	87.94
508.588	90.94
508.805	109.94
509.021	100.94
509.238	110.94
509.454	104.94
509.67	96.94
509.887	110.94
510.103	144.94
510.319	246.94
510.536	952.94
510.752	3150.94
510.968	851.94
511.184	192.94
511.401	130.94
511.617	106.94
511.833	86.94
512.049	99.94
512.265	104.94
512.481	100.94
512.698	88.94
512.914	94.94
513.13	87.94
513.346	110.94
513.562	93.94
