Data from Circ_2006_H10_HRD10591_00015.txt Node
Date: Wed Jan 03 10:26:06 EST 2024
User: Yrep
Spectrometer: HR+D1059
Trigger mode: 1
Integration Time (sec): 1.000000E-1
Scans to average: 1
Electric dark correction enabled: true
Nonlinearity correction enabled: false
Boxcar width: 0
XAxis mode: Wavelengths
Number of Pixels in Spectrum: 2048
>>>>>Begin Spectral Data<<<<<
223.165	-23.25
223.4	-23.25
223.635	-23.25
223.869	-14.25
224.104	-12.25
224.338	-15.25
224.573	-21.25
224.808	-10.25
225.042	-10.25
225.277	-17.25
225.511	-16.25
225.746	4.75
225.98	-12.25
226.215	27.75
226.449	31.75
226.683	22.75
226.918	29.75
227.152	35.75
227.387	28.75
227.621	40.75
227.856	42.75
228.09	39.75
228.324	40.75
228.559	53.75
228.793	55.75
229.027	51.75
229.262	82.75
229.496	86.75
229.73	98.75
229.964	88.75
230.199	74.75
230.433	81.75
230.667	82.75
230.901	74.75
231.136	83.75
231.37	74.75
231.604	75.75
231.838	81.75
232.072	91.75
232.306	82.75
232.541	87.75
232.775	85.75
233.009	86.75
233.243	72.75
233.477	76.75
233.711	76.75
233.945	61.75
234.179	67.75
234.413	86.75
234.647	91.75
234.881	86.75
235.115	84.75
235.349	75.75
235.583	62.75
235.817	77.75
236.051	73.75
236.285	87.75
236.519	81.75
236.753	92.75
236.987	92.75
237.221	84.75
237.455	72.75
237.689	85.75
237.922	78.75
238.156	71.75
238.39	74.75
238.624	77.75
238.858	77.75
239.091	86.75
239.325	73.75
239.559	77.75
239.793	73.75
240.027	74.75
240.26	64.75
240.494	92.75
240.728	72.75
240.961	80.75
241.195	94.75
241.429	72.75
241.662	73.75
241.896	81.75
242.13	69.75
242.363	76.75
242.597	79.75
242.83	83.75
243.064	85.75
243.298	59.75
243.531	82.75
243.765	68.75
243.998	86.75
244.232	76.75
244.465	74.75
244.699	94.75
244.932	83.75
245.166	66.75
245.399	80.75
245.633	78.75
245.866	77.75
246.099	68.75
246.333	66.75
246.566	79.75
246.8	74.75
247.033	77.75
247.266	81.75
247.5	76.75
247.733	68.75
247.966	74.75
248.2	82.75
248.433	69.75
248.666	86.75
248.899	86.75
249.133	89.75
249.366	94.75
249.599	74.75
249.832	85.75
250.066	87.75
250.299	77.75
250.532	94.75
250.765	86.75
250.998	78.75
251.231	73.75
251.465	72.75
251.698	65.75
251.931	80.75
252.164	84.75
252.397	68.75
252.63	78.75
252.863	65.75
253.096	77.75
253.329	76.75
253.562	82.75
253.795	68.75
254.028	67.75
254.261	84.75
254.494	84.75
254.727	83.75
254.96	86.75
255.193	73.75
255.426	79.75
255.659	85.75
255.892	74.75
256.124	76.75
256.357	60.75
256.59	87.75
256.823	75.75
257.056	81.75
257.289	74.75
257.521	77.75
257.754	81.75
257.987	86.75
258.22	88.75
258.452	93.75
258.685	90.75
258.918	83.75
259.151	79.75
259.383	85.75
259.616	74.75
259.849	69.75
260.081	82.75
260.314	82.75
260.547	88.75
260.779	90.75
261.012	88.75
261.244	91.75
261.477	76.75
261.71	81.75
261.942	141.75
262.175	130.75
262.407	82.75
262.64	81.75
262.872	87.75
263.105	90.75
263.337	86.75
263.57	90.75
263.802	75.75
264.035	84.75
264.267	69.75
264.499	77.75
264.732	79.75
264.964	82.75
265.197	89.75
265.429	88.75
265.661	84.75
265.894	82.75
266.126	89.75
266.358	78.75
266.591	82.75
266.823	87.75
267.055	90.75
267.287	79.75
267.52	85.75
267.752	84.75
267.984	84.75
268.216	71.75
268.448	99.75
268.681	86.75
268.913	82.75
269.145	83.75
269.377	83.75
269.609	69.75
269.841	83.75
270.073	96.75
270.306	76.75
270.538	85.75
270.77	83.75
271.002	82.75
271.234	79.75
271.466	86.75
271.698	82.75
271.93	92.75
272.162	79.75
272.394	80.75
272.626	86.75
272.858	74.75
273.09	79.75
273.322	89.75
273.553	72.75
273.785	76.75
274.017	74.75
274.249	83.75
274.481	87.75
274.713	87.75
274.945	85.75
275.176	79.75
275.408	73.75
275.64	96.75
275.872	84.75
276.104	97.75
276.335	91.75
276.567	105.75
276.799	126.75
277.031	116.75
277.262	84.75
277.494	96.75
277.726	100.75
277.957	71.75
278.189	83.75
278.421	82.75
278.652	76.75
278.884	81.75
279.115	89.75
279.347	78.75
279.579	100.75
279.81	91.75
280.042	69.75
280.273	75.75
280.505	92.75
280.736	87.75
280.968	90.75
281.199	90.75
281.431	96.75
281.662	89.75
281.894	92.75
282.125	93.75
282.356	128.75
282.588	173.75
282.819	122.75
283.051	97.75
283.282	86.75
283.513	92.75
283.745	84.75
283.976	94.75
284.207	78.75
284.439	82.75
284.67	87.75
284.901	83.75
285.132	97.75
285.364	72.75
285.595	83.75
285.826	96.75
286.057	89.75
286.288	85.75
286.52	89.75
286.751	77.75
286.982	86.75
287.213	83.75
287.444	94.75
287.675	91.75
287.906	77.75
288.138	87.75
288.369	87.75
288.6	90.75
288.831	83.75
289.062	84.75
289.293	91.75
289.524	87.75
289.755	86.75
289.986	98.75
290.217	98.75
290.448	104.75
290.679	90.75
290.91	88.75
291.141	82.75
291.371	88.75
291.602	79.75
291.833	89.75
292.064	70.75
292.295	93.75
292.526	100.75
292.757	85.75
292.987	94.75
293.218	89.75
293.449	76.75
293.68	65.75
293.91	90.75
294.141	76.75
294.372	87.75
294.603	76.75
294.833	102.75
295.064	101.75
295.295	82.75
295.525	76.75
295.756	106.75
295.987	121.75
296.217	193.75
296.448	136.75
296.679	96.75
296.909	96.75
297.14	100.75
297.37	80.75
297.601	88.75
297.831	77.75
298.062	94.75
298.292	81.75
298.523	85.75
298.753	93.75
298.984	87.75
299.214	77.75
299.445	87.75
299.675	86.75
299.905	96.75
300.136	100.75
300.366	97.75
300.597	86.75
300.827	100.75
301.057	95.75
301.288	107.75
301.518	91.75
301.748	88.75
301.979	103.75
302.209	83.75
302.439	108.75
302.669	94.75
302.9	92.75
303.13	92.75
303.36	99.75
303.59	112.75
303.82	100.75
304.051	92.75
304.281	103.75
304.511	74.75
304.741	87.75
304.971	88.75
305.201	86.75
305.431	96.75
305.661	79.75
305.891	85.75
306.121	87.75
306.352	107.75
306.582	105.75
306.812	102.75
307.042	101.75
307.272	96.75
307.502	105.75
307.731	83.75
307.961	90.75
308.191	80.75
308.421	93.75
308.651	95.75
308.881	98.75
309.111	93.75
309.341	111.75
309.571	95.75
309.8	103.75
310.03	103.75
310.26	108.75
310.49	91.75
310.72	106.75
310.949	132.75
311.179	100.75
311.409	90.75
311.639	98.75
311.868	96.75
312.098	95.75
312.328	101.75
312.557	97.75
312.787	110.75
313.017	110.75
313.246	86.75
313.476	109.75
313.706	106.75
313.935	113.75
314.165	107.75
314.394	109.75
314.624	113.75
314.853	90.75
315.083	88.75
315.312	95.75
315.542	83.75
315.771	93.75
316.001	104.75
316.23	102.75
316.46	98.75
316.689	92.75
316.919	92.75
317.148	101.75
317.377	93.75
317.607	94.75
317.836	106.75
318.065	96.75
318.295	100.75
318.524	85.75
318.753	87.75
318.983	87.75
319.212	96.75
319.441	123.75
319.67	116.75
319.9	85.75
320.129	97.75
320.358	84.75
320.587	93.75
320.816	116.75
321.046	103.75
321.275	108.75
321.504	97.75
321.733	109.75
321.962	101.75
322.191	106.75
322.42	123.75
322.649	109.75
322.878	140.75
323.108	142.75
323.337	144.75
323.566	165.75
323.795	202.75
324.024	300.75
324.253	611.75
324.482	1352.75
324.71	2842.75
324.939	3724.75
325.168	1286.75
325.397	344.75
325.626	192.75
325.855	153.75
326.084	144.75
326.313	156.75
326.542	180.75
326.77	305.75
326.999	710.75
327.228	1489.75
327.457	2790.75
327.686	2160.75
327.914	550.75
328.143	277.75
328.372	181.75
328.6	151.75
328.829	136.75
329.058	151.75
329.287	145.75
329.515	132.75
329.744	107.75
329.972	117.75
330.201	123.75
330.43	136.75
330.658	150.75
330.887	190.75
331.115	155.75
331.344	114.75
331.572	109.75
331.801	117.75
332.03	106.75
332.258	118.75
332.486	90.75
332.715	84.75
332.943	92.75
333.172	93.75
333.4	97.75
333.629	105.75
333.857	140.75
334.085	120.75
334.314	117.75
334.542	126.75
334.771	112.75
334.999	106.75
335.227	104.75
335.455	102.75
335.684	103.75
335.912	103.75
336.14	99.75
336.369	122.75
336.597	109.75
336.825	97.75
337.053	97.75
337.281	86.75
337.51	99.75
337.738	99.75
337.966	97.75
338.194	98.75
338.422	108.75
338.65	98.75
338.878	88.75
339.106	84.75
339.334	82.75
339.562	100.75
339.79	92.75
340.018	85.75
340.246	98.75
340.474	98.75
340.702	79.75
340.93	96.75
341.158	103.75
341.386	91.75
341.614	100.75
341.842	104.75
342.07	100.75
342.298	98.75
342.526	86.75
342.754	111.75
342.981	81.75
343.209	88.75
343.437	90.75
343.665	84.75
343.893	101.75
344.12	89.75
344.348	87.75
344.576	96.75
344.804	95.75
345.031	107.75
345.259	112.75
345.487	93.75
345.714	91.75
345.942	90.75
346.17	92.75
346.397	105.75
346.625	99.75
346.853	106.75
347.08	97.75
347.308	106.75
347.535	101.75
347.763	110.75
347.99	99.75
348.218	113.75
348.445	113.75
348.673	109.75
348.9	110.75
349.128	89.75
349.355	101.75
349.583	108.75
349.81	80.75
350.037	93.75
350.265	107.75
350.492	92.75
350.72	104.75
350.947	102.75
351.174	123.75
351.402	124.75
351.629	105.75
351.856	105.75
352.083	121.75
352.311	106.75
352.538	120.75
352.765	112.75
352.992	123.75
353.22	110.75
353.447	125.75
353.674	117.75
353.901	93.75
354.128	91.75
354.355	95.75
354.583	110.75
354.81	104.75
355.037	108.75
355.264	73.75
355.491	91.75
355.718	90.75
355.945	107.75
356.172	73.75
356.399	93.75
356.626	88.75
356.853	82.75
357.08	78.75
357.307	80.75
357.534	102.75
357.761	87.75
357.988	95.75
358.215	99.75
358.441	96.75
358.668	88.75
358.895	86.75
359.122	86.75
359.349	97.75
359.576	101.75
359.802	112.75
360.029	129.75
360.256	136.75
360.483	97.75
360.709	93.75
360.936	94.75
361.163	101.75
361.39	107.75
361.616	102.75
361.843	97.75
362.07	97.75
362.296	94.75
362.523	107.75
362.749	84.75
362.976	82.75
363.203	99.75
363.429	93.75
363.656	97.75
363.882	90.75
364.109	97.75
364.335	83.75
364.562	76.75
364.788	104.75
365.015	92.75
365.241	90.75
365.468	116.75
365.694	114.75
365.92	101.75
366.147	95.75
366.373	97.75
366.599	96.75
366.826	95.75
367.052	88.75
367.278	99.75
367.505	88.75
367.731	89.75
367.957	85.75
368.184	97.75
368.41	111.75
368.636	121.75
368.862	124.75
369.089	128.75
369.315	105.75
369.541	89.75
369.767	104.75
369.993	91.75
370.219	86.75
370.445	78.75
370.672	78.75
370.898	89.75
371.124	97.75
371.35	93.75
371.576	83.75
371.802	81.75
372.028	93.75
372.254	84.75
372.48	86.75
372.706	90.75
372.932	92.75
373.158	80.75
373.384	107.75
373.61	80.75
373.835	92.75
374.061	100.75
374.287	95.75
374.513	102.75
374.739	81.75
374.965	90.75
375.191	87.75
375.416	91.75
375.642	82.75
375.868	96.75
376.094	90.75
376.319	97.75
376.545	92.75
376.771	100.75
376.997	82.75
377.222	91.75
377.448	96.75
377.674	75.75
377.899	83.75
378.125	93.75
378.35	94.75
378.576	85.75
378.802	98.75
379.027	86.75
379.253	104.75
379.478	97.75
379.704	91.75
379.929	105.75
380.155	91.75
380.38	101.75
380.606	99.75
380.831	102.75
381.057	96.75
381.282	91.75
381.507	115.75
381.733	97.75
381.958	94.75
382.184	106.75
382.409	99.75
382.634	108.75
382.86	106.75
383.085	102.75
383.31	107.75
383.535	125.75
383.761	104.75
383.986	97.75
384.211	97.75
384.436	103.75
384.662	104.75
384.887	111.75
385.112	124.75
385.337	118.75
385.562	116.75
385.787	113.75
386.013	120.75
386.238	136.75
386.463	110.75
386.688	96.75
386.913	109.75
387.138	136.75
387.363	105.75
387.588	104.75
387.813	113.75
388.038	116.75
388.263	121.75
388.488	119.75
388.713	97.75
388.938	104.75
389.163	101.75
389.387	102.75
389.612	108.75
389.837	105.75
390.062	78.75
390.287	100.75
390.512	99.75
390.736	106.75
390.961	93.75
391.186	100.75
391.411	89.75
391.636	93.75
391.86	69.75
392.085	90.75
392.31	85.75
392.534	93.75
392.759	84.75
392.984	89.75
393.208	103.75
393.433	100.75
393.658	96.75
393.882	92.75
394.107	89.75
394.331	89.75
394.556	86.75
394.78	89.75
395.005	81.75
395.229	76.75
395.454	91.75
395.678	87.75
395.903	89.75
396.127	80.75
396.352	85.75
396.576	95.75
396.801	90.75
397.025	99.75
397.249	84.75
397.474	92.75
397.698	90.75
397.922	89.75
398.147	93.75
398.371	80.75
398.595	79.75
398.82	102.75
399.044	82.75
399.268	77.75
399.492	76.75
399.717	91.75
399.941	84.75
400.165	97.75
400.389	93.75
400.613	86.75
400.837	88.75
401.062	97.75
401.286	83.75
401.51	96.75
401.734	103.75
401.958	118.75
402.182	137.75
402.406	201.75
402.63	141.75
402.854	117.75
403.078	88.75
403.302	86.75
403.526	90.75
403.75	88.75
403.974	74.75
404.198	81.75
404.422	80.75
404.645	98.75
404.869	92.75
405.093	94.75
405.317	97.75
405.541	105.75
405.765	102.75
405.988	134.75
406.212	215.75
406.436	302.75
406.66	205.75
406.883	120.75
407.107	120.75
407.331	109.75
407.555	106.75
407.778	105.75
408.002	86.75
408.226	89.75
408.449	88.75
408.673	95.75
408.896	95.75
409.12	100.75
409.344	91.75
409.567	89.75
409.791	94.75
410.014	97.75
410.238	92.75
410.461	99.75
410.685	99.75
410.908	103.75
411.132	114.75
411.355	98.75
411.578	92.75
411.802	87.75
412.025	86.75
412.249	85.75
412.472	90.75
412.695	96.75
412.919	90.75
413.142	91.75
413.365	93.75
413.589	96.75
413.812	70.75
414.035	84.75
414.258	86.75
414.482	95.75
414.705	83.75
414.928	81.75
415.151	107.75
415.374	102.75
415.597	92.75
415.821	78.75
416.044	96.75
416.267	101.75
416.49	91.75
416.713	85.75
416.936	86.75
417.159	86.75
417.382	96.75
417.605	107.75
417.828	92.75
418.051	99.75
418.274	83.75
418.497	95.75
418.72	82.75
418.943	85.75
419.166	89.75
419.389	81.75
419.611	98.75
419.834	91.75
420.057	102.75
420.28	101.75
420.503	86.75
420.726	89.75
420.948	83.75
421.171	95.75
421.394	94.75
421.617	91.75
421.839	104.75
422.062	99.75
422.285	82.75
422.507	101.75
422.73	111.75
422.953	93.75
423.175	93.75
423.398	90.75
423.621	84.75
423.843	105.75
424.066	101.75
424.288	86.75
424.511	78.75
424.733	103.75
424.956	105.75
425.178	106.75
425.401	114.75
425.623	104.75
425.846	94.75
426.068	93.75
426.291	100.75
426.513	93.75
426.735	92.75
426.958	97.75
427.18	118.75
427.402	166.75
427.625	223.75
427.847	164.75
428.069	119.75
428.292	92.75
428.514	93.75
428.736	97.75
428.958	82.75
429.181	101.75
429.403	89.75
429.625	89.75
429.847	82.75
430.069	112.75
430.292	103.75
430.514	89.75
430.736	86.75
430.958	82.75
431.18	68.75
431.402	75.75
431.624	86.75
431.846	89.75
432.068	93.75
432.29	82.75
432.512	81.75
432.734	94.75
432.956	99.75
433.178	105.75
433.4	97.75
433.622	89.75
433.844	87.75
434.066	86.75
434.287	92.75
434.509	91.75
434.731	98.75
434.953	90.75
435.175	92.75
435.397	79.75
435.618	102.75
435.84	109.75
436.062	159.75
436.284	128.75
436.505	111.75
436.727	113.75
436.949	92.75
437.17	85.75
437.392	82.75
437.614	101.75
437.835	122.75
438.057	149.75
438.278	112.75
438.5	89.75
438.721	139.75
438.943	115.75
439.165	87.75
439.386	88.75
439.608	85.75
439.829	121.75
440.05	138.75
440.272	193.75
440.493	102.75
440.715	87.75
440.936	98.75
441.158	81.75
441.379	104.75
441.6	99.75
441.822	112.75
442.043	103.75
442.264	115.75
442.486	109.75
442.707	110.75
442.928	123.75
443.149	151.75
443.371	159.75
443.592	121.75
443.813	99.75
444.034	115.75
444.255	80.75
444.476	84.75
444.698	90.75
444.919	84.75
445.14	137.75
445.361	141.75
445.582	106.75
445.803	169.75
446.024	161.75
446.245	162.75
446.466	125.75
446.687	108.75
446.908	96.75
447.129	99.75
447.35	99.75
447.571	97.75
447.792	102.75
448.013	111.75
448.234	123.75
448.455	116.75
448.675	132.75
448.896	140.75
449.117	102.75
449.338	122.75
449.559	143.75
449.779	140.75
450	88.75
450.221	83.75
450.442	85.75
450.662	105.75
450.883	120.75
451.104	136.75
451.324	110.75
451.545	99.75
451.766	84.75
451.986	88.75
452.207	82.75
452.428	98.75
452.648	101.75
452.869	130.75
453.089	138.75
453.31	124.75
453.53	95.75
453.751	96.75
453.971	122.75
454.192	122.75
454.412	97.75
454.633	95.75
454.853	96.75
455.073	87.75
455.294	93.75
455.514	81.75
455.734	77.75
455.955	84.75
456.175	66.75
456.395	96.75
456.616	88.75
456.836	81.75
457.056	78.75
457.276	93.75
457.497	105.75
457.717	84.75
457.937	86.75
458.157	83.75
458.377	94.75
458.598	129.75
458.818	188.75
459.038	213.75
459.258	146.75
459.478	91.75
459.698	100.75
459.918	98.75
460.138	80.75
460.358	92.75
460.578	93.75
460.798	91.75
461.018	84.75
461.238	86.75
461.458	79.75
461.678	90.75
461.898	89.75
462.118	84.75
462.338	98.75
462.558	82.75
462.777	77.75
462.997	84.75
463.217	85.75
463.437	89.75
463.657	93.75
463.876	85.75
464.096	106.75
464.316	103.75
464.536	85.75
464.755	97.75
464.975	122.75
465.195	222.75
465.414	196.75
465.634	107.75
465.854	88.75
466.073	89.75
466.293	76.75
466.512	98.75
466.732	83.75
466.951	93.75
467.171	91.75
467.391	104.75
467.61	112.75
467.829	110.75
468.049	104.75
468.268	119.75
468.488	80.75
468.707	86.75
468.927	77.75
469.146	105.75
469.365	94.75
469.585	91.75
469.804	104.75
470.023	94.75
470.243	101.75
470.462	101.75
470.681	121.75
470.901	96.75
471.12	83.75
471.339	77.75
471.558	85.75
471.777	74.75
471.997	89.75
472.216	103.75
472.435	131.75
472.654	91.75
472.873	97.75
473.092	85.75
473.311	96.75
473.53	98.75
473.749	89.75
473.968	99.75
474.187	97.75
474.406	86.75
474.625	103.75
474.844	95.75
475.063	80.75
475.282	74.75
475.501	92.75
475.72	89.75
475.939	73.75
476.158	75.75
476.377	93.75
476.596	90.75
476.814	95.75
477.033	99.75
477.252	97.75
477.471	86.75
477.69	93.75
477.908	100.75
478.127	95.75
478.346	93.75
478.564	96.75
478.783	97.75
479.002	96.75
479.22	96.75
479.439	105.75
479.658	105.75
479.876	98.75
480.095	90.75
480.313	115.75
480.532	79.75
480.751	95.75
480.969	108.75
481.188	159.75
481.406	156.75
481.624	93.75
481.843	90.75
482.061	86.75
482.28	87.75
482.498	85.75
482.717	106.75
482.935	87.75
483.153	103.75
483.372	91.75
483.59	92.75
483.808	96.75
484.027	98.75
484.245	90.75
484.463	97.75
484.681	95.75
484.9	98.75
485.118	101.75
485.336	93.75
485.554	104.75
485.772	97.75
485.99	108.75
486.209	104.75
486.427	89.75
486.645	122.75
486.863	114.75
487.081	108.75
487.299	98.75
487.517	93.75
487.735	97.75
487.953	89.75
488.171	104.75
488.389	99.75
488.607	102.75
488.825	102.75
489.043	88.75
489.261	96.75
489.479	86.75
489.696	90.75
489.914	97.75
490.132	81.75
490.35	99.75
490.568	88.75
490.786	93.75
491.003	83.75
491.221	98.75
491.439	101.75
491.657	92.75
491.874	112.75
492.092	99.75
492.31	93.75
492.527	86.75
492.745	96.75
492.963	94.75
493.18	98.75
493.398	93.75
493.615	80.75
493.833	86.75
494.05	92.75
494.268	99.75
494.485	77.75
494.703	96.75
494.92	85.75
495.138	102.75
495.355	92.75
495.573	107.75
495.79	77.75
496.008	94.75
496.225	93.75
496.442	96.75
496.66	88.75
496.877	82.75
497.094	83.75
497.312	91.75
497.529	89.75
497.746	95.75
497.963	95.75
498.181	86.75
498.398	78.75
498.615	102.75
498.832	123.75
499.049	85.75
499.267	97.75
499.484	93.75
499.701	87.75
499.918	97.75
500.135	93.75
500.352	95.75
500.569	89.75
500.786	103.75
501.003	90.75
501.22	101.75
501.437	99.75
501.654	97.75
501.871	129.75
502.088	113.75
502.305	77.75
502.522	90.75
502.739	82.75
502.956	86.75
503.172	102.75
503.389	79.75
503.606	138.75
503.823	82.75
504.04	84.75
504.256	99.75
504.473	97.75
504.69	91.75
504.907	100.75
505.123	82.75
505.34	93.75
505.557	88.75
505.773	86.75
505.99	84.75
506.207	85.75
506.423	81.75
506.64	86.75
506.856	86.75
507.073	82.75
507.289	99.75
507.506	104.75
507.722	127.75
507.939	115.75
508.155	102.75
508.372	92.75
508.588	77.75
508.805	97.75
509.021	99.75
509.238	97.75
509.454	114.75
509.67	108.75
509.887	110.75
510.103	148.75
510.319	269.75
510.536	1055.75
510.752	3533.75
510.968	940.75
511.184	196.75
511.401	136.75
511.617	105.75
511.833	85.75
512.049	93.75
512.265	84.75
512.481	83.75
512.698	104.75
512.914	102.75
513.13	108.75
513.346	108.75
513.562	102.75
513.778	91.75
513.994	94.75
514.21	103.75
