Data from Circ_2006_H10_HRD10591_00022.txt Node
Date: Wed Jan 03 10:26:08 EST 2024
User: Yrep
Spectrometer: HR+D1059
Trigger mode: 1
Integration Time (sec): 1.000000E-1
Scans to average: 1
Electric dark correction enabled: true
Nonlinearity correction enabled: false
Boxcar width: 0
XAxis mode: Wavelengths
Number of Pixels in Spectrum: 2048
>>>>>Begin Spectral Data<<<<<
223.165	-14.06
223.4	-14.06
223.635	-14.06
223.869	-21.06
224.104	-10.06
224.338	-16.06
224.573	-15.06
224.808	-21.06
225.042	-7.06
225.277	-12.06
225.511	-2.06
225.746	1.94
225.98	-8.06
226.215	15.94
226.449	18.94
226.683	22.94
226.918	18.94
227.152	47.94
227.387	48.94
227.621	53.94
227.856	41.94
228.09	35.94
228.324	46.94
228.559	43.94
228.793	53.94
229.027	55.94
229.262	68.94
229.496	74.94
229.73	98.94
229.964	82.94
230.199	71.94
230.433	68.94
230.667	83.94
230.901	68.94
231.136	61.94
231.37	72.94
231.604	63.94
231.838	65.94
232.072	62.94
232.306	78.94
232.541	79.94
232.775	88.94
233.009	71.94
233.243	85.94
233.477	71.94
233.711	83.94
233.945	85.94
234.179	66.94
234.413	84.94
234.647	83.94
234.881	67.94
235.115	74.94
235.349	96.94
235.583	73.94
235.817	70.94
236.051	72.94
236.285	80.94
236.519	91.94
236.753	84.94
236.987	69.94
237.221	86.94
237.455	96.94
237.689	78.94
237.922	73.94
238.156	83.94
238.39	73.94
238.624	69.94
238.858	71.94
239.091	83.94
239.325	74.94
239.559	87.94
239.793	90.94
240.027	83.94
240.26	93.94
240.494	83.94
240.728	76.94
240.961	63.94
241.195	101.94
241.429	84.94
241.662	66.94
241.896	82.94
242.13	90.94
242.363	81.94
242.597	73.94
242.83	82.94
243.064	64.94
243.298	81.94
243.531	88.94
243.765	76.94
243.998	73.94
244.232	81.94
244.465	69.94
244.699	76.94
244.932	87.94
245.166	70.94
245.399	71.94
245.633	83.94
245.866	68.94
246.099	75.94
246.333	74.94
246.566	86.94
246.8	77.94
247.033	101.94
247.266	68.94
247.5	88.94
247.733	92.94
247.966	89.94
248.2	95.94
248.433	66.94
248.666	83.94
248.899	76.94
249.133	77.94
249.366	101.94
249.599	96.94
249.832	75.94
250.066	79.94
250.299	67.94
250.532	76.94
250.765	86.94
250.998	81.94
251.231	88.94
251.465	80.94
251.698	85.94
251.931	86.94
252.164	72.94
252.397	71.94
252.63	76.94
252.863	76.94
253.096	85.94
253.329	94.94
253.562	85.94
253.795	80.94
254.028	92.94
254.261	74.94
254.494	81.94
254.727	86.94
254.96	87.94
255.193	84.94
255.426	70.94
255.659	93.94
255.892	71.94
256.124	78.94
256.357	79.94
256.59	91.94
256.823	80.94
257.056	88.94
257.289	71.94
257.521	77.94
257.754	66.94
257.987	84.94
258.22	93.94
258.452	83.94
258.685	83.94
258.918	99.94
259.151	76.94
259.383	97.94
259.616	82.94
259.849	79.94
260.081	89.94
260.314	101.94
260.547	89.94
260.779	80.94
261.012	84.94
261.244	98.94
261.477	86.94
261.71	100.94
261.942	136.94
262.175	133.94
262.407	87.94
262.64	91.94
262.872	91.94
263.105	82.94
263.337	70.94
263.57	71.94
263.802	85.94
264.035	76.94
264.267	75.94
264.499	91.94
264.732	93.94
264.964	79.94
265.197	88.94
265.429	69.94
265.661	81.94
265.894	53.94
266.126	90.94
266.358	81.94
266.591	76.94
266.823	84.94
267.055	87.94
267.287	78.94
267.52	95.94
267.752	90.94
267.984	106.94
268.216	89.94
268.448	74.94
268.681	91.94
268.913	87.94
269.145	83.94
269.377	78.94
269.609	79.94
269.841	94.94
270.073	68.94
270.306	87.94
270.538	84.94
270.77	69.94
271.002	78.94
271.234	83.94
271.466	84.94
271.698	92.94
271.93	91.94
272.162	99.94
272.394	102.94
272.626	87.94
272.858	69.94
273.09	77.94
273.322	85.94
273.553	79.94
273.785	92.94
274.017	74.94
274.249	79.94
274.481	81.94
274.713	92.94
274.945	85.94
275.176	89.94
275.408	98.94
275.64	87.94
275.872	86.94
276.104	85.94
276.335	95.94
276.567	102.94
276.799	120.94
277.031	121.94
277.262	92.94
277.494	80.94
277.726	86.94
277.957	84.94
278.189	72.94
278.421	83.94
278.652	93.94
278.884	80.94
279.115	84.94
279.347	101.94
279.579	97.94
279.81	86.94
280.042	88.94
280.273	96.94
280.505	82.94
280.736	74.94
280.968	83.94
281.199	83.94
281.431	100.94
281.662	94.94
281.894	88.94
282.125	91.94
282.356	142.94
282.588	177.94
282.819	123.94
283.051	93.94
283.282	93.94
283.513	103.94
283.745	84.94
283.976	79.94
284.207	57.94
284.439	81.94
284.67	92.94
284.901	85.94
285.132	83.94
285.364	79.94
285.595	81.94
285.826	89.94
286.057	82.94
286.288	90.94
286.52	98.94
286.751	90.94
286.982	91.94
287.213	77.94
287.444	90.94
287.675	91.94
287.906	91.94
288.138	86.94
288.369	98.94
288.6	91.94
288.831	78.94
289.062	79.94
289.293	91.94
289.524	83.94
289.755	91.94
289.986	77.94
290.217	85.94
290.448	76.94
290.679	86.94
290.91	95.94
291.141	89.94
291.371	86.94
291.602	78.94
291.833	90.94
292.064	89.94
292.295	86.94
292.526	94.94
292.757	92.94
292.987	102.94
293.218	81.94
293.449	78.94
293.68	97.94
293.91	87.94
294.141	85.94
294.372	83.94
294.603	81.94
294.833	96.94
295.064	82.94
295.295	77.94
295.525	101.94
295.756	103.94
295.987	125.94
296.217	165.94
296.448	148.94
296.679	107.94
296.909	87.94
297.14	94.94
297.37	95.94
297.601	80.94
297.831	100.94
298.062	95.94
298.292	85.94
298.523	99.94
298.753	98.94
298.984	76.94
299.214	95.94
299.445	91.94
299.675	93.94
299.905	94.94
300.136	86.94
300.366	88.94
300.597	94.94
300.827	81.94
301.057	116.94
301.288	108.94
301.518	95.94
301.748	99.94
301.979	114.94
302.209	98.94
302.439	95.94
302.669	93.94
302.9	85.94
303.13	95.94
303.36	102.94
303.59	106.94
303.82	108.94
304.051	88.94
304.281	93.94
304.511	95.94
304.741	85.94
304.971	90.94
305.201	92.94
305.431	92.94
305.661	97.94
305.891	100.94
306.121	98.94
306.352	108.94
306.582	108.94
306.812	94.94
307.042	90.94
307.272	93.94
307.502	95.94
307.731	92.94
307.961	91.94
308.191	77.94
308.421	94.94
308.651	97.94
308.881	85.94
309.111	91.94
309.341	84.94
309.571	115.94
309.8	86.94
310.03	100.94
310.26	111.94
310.49	106.94
310.72	103.94
310.949	116.94
311.179	106.94
311.409	95.94
311.639	105.94
311.868	86.94
312.098	114.94
312.328	105.94
312.557	100.94
312.787	113.94
313.017	111.94
313.246	99.94
313.476	100.94
313.706	102.94
313.935	97.94
314.165	118.94
314.394	108.94
314.624	99.94
314.853	109.94
315.083	97.94
315.312	91.94
315.542	90.94
315.771	88.94
316.001	85.94
316.23	95.94
316.46	98.94
316.689	92.94
316.919	95.94
317.148	108.94
317.377	106.94
317.607	113.94
317.836	98.94
318.065	83.94
318.295	92.94
318.524	93.94
318.753	101.94
318.983	105.94
319.212	106.94
319.441	101.94
319.67	124.94
319.9	107.94
320.129	93.94
320.358	101.94
320.587	103.94
320.816	109.94
321.046	118.94
321.275	103.94
321.504	96.94
321.733	99.94
321.962	101.94
322.191	108.94
322.42	123.94
322.649	118.94
322.878	126.94
323.108	136.94
323.337	151.94
323.566	155.94
323.795	181.94
324.024	280.94
324.253	607.94
324.482	1355.94
324.71	2814.94
324.939	3670.94
325.168	1327.94
325.397	361.94
325.626	204.94
325.855	149.94
326.084	143.94
326.313	163.94
326.542	199.94
326.77	304.94
326.999	695.94
327.228	1490.94
327.457	2788.94
327.686	2156.94
327.914	522.94
328.143	275.94
328.372	194.94
328.6	147.94
328.829	132.94
329.058	149.94
329.287	152.94
329.515	128.94
329.744	117.94
329.972	111.94
330.201	122.94
330.43	147.94
330.658	151.94
330.887	182.94
331.115	143.94
331.344	108.94
331.572	113.94
331.801	117.94
332.03	117.94
332.258	95.94
332.486	96.94
332.715	97.94
332.943	100.94
333.172	116.94
333.4	103.94
333.629	110.94
333.857	117.94
334.085	102.94
334.314	126.94
334.542	128.94
334.771	135.94
334.999	94.94
335.227	79.94
335.455	99.94
335.684	89.94
335.912	92.94
336.14	98.94
336.369	112.94
336.597	110.94
336.825	115.94
337.053	90.94
337.281	93.94
337.51	92.94
337.738	95.94
337.966	108.94
338.194	106.94
338.422	102.94
338.65	103.94
338.878	109.94
339.106	94.94
339.334	96.94
339.562	96.94
339.79	93.94
340.018	88.94
340.246	92.94
340.474	113.94
340.702	97.94
340.93	97.94
341.158	93.94
341.386	97.94
341.614	109.94
341.842	92.94
342.07	89.94
342.298	93.94
342.526	91.94
342.754	93.94
342.981	84.94
343.209	89.94
343.437	96.94
343.665	89.94
343.893	77.94
344.12	92.94
344.348	94.94
344.576	82.94
344.804	93.94
345.031	98.94
345.259	125.94
345.487	95.94
345.714	103.94
345.942	94.94
346.17	83.94
346.397	82.94
346.625	108.94
346.853	107.94
347.08	104.94
347.308	111.94
347.535	110.94
347.763	104.94
347.99	99.94
348.218	99.94
348.445	114.94
348.673	111.94
348.9	101.94
349.128	104.94
349.355	105.94
349.583	96.94
349.81	99.94
350.037	101.94
350.265	102.94
350.492	77.94
350.72	118.94
350.947	96.94
351.174	112.94
351.402	120.94
351.629	97.94
351.856	110.94
352.083	108.94
352.311	117.94
352.538	116.94
352.765	112.94
352.992	110.94
353.22	125.94
353.447	118.94
353.674	103.94
353.901	108.94
354.128	101.94
354.355	92.94
354.583	95.94
354.81	95.94
355.037	97.94
355.264	95.94
355.491	105.94
355.718	86.94
355.945	92.94
356.172	96.94
356.399	85.94
356.626	106.94
356.853	102.94
357.08	94.94
357.307	83.94
357.534	98.94
357.761	91.94
357.988	100.94
358.215	102.94
358.441	90.94
358.668	93.94
358.895	87.94
359.122	96.94
359.349	91.94
359.576	112.94
359.802	122.94
360.029	127.94
360.256	129.94
360.483	112.94
360.709	94.94
360.936	93.94
361.163	110.94
361.39	94.94
361.616	115.94
361.843	101.94
362.07	107.94
362.296	111.94
362.523	94.94
362.749	93.94
362.976	102.94
363.203	93.94
363.429	86.94
363.656	104.94
363.882	91.94
364.109	94.94
364.335	109.94
364.562	101.94
364.788	85.94
365.015	105.94
365.241	107.94
365.468	109.94
365.694	123.94
365.92	109.94
366.147	90.94
366.373	97.94
366.599	105.94
366.826	94.94
367.052	87.94
367.278	90.94
367.505	93.94
367.731	96.94
367.957	99.94
368.184	95.94
368.41	104.94
368.636	126.94
368.862	153.94
369.089	125.94
369.315	95.94
369.541	96.94
369.767	98.94
369.993	105.94
370.219	98.94
370.445	83.94
370.672	95.94
370.898	91.94
371.124	86.94
371.35	99.94
371.576	93.94
371.802	89.94
372.028	80.94
372.254	107.94
372.48	90.94
372.706	82.94
372.932	83.94
373.158	85.94
373.384	101.94
373.61	82.94
373.835	92.94
374.061	93.94
374.287	95.94
374.513	74.94
374.739	92.94
374.965	92.94
375.191	81.94
375.416	86.94
375.642	82.94
375.868	83.94
376.094	85.94
376.319	94.94
376.545	82.94
376.771	86.94
376.997	99.94
377.222	100.94
377.448	100.94
377.674	98.94
377.899	97.94
378.125	87.94
378.35	92.94
378.576	92.94
378.802	100.94
379.027	94.94
379.253	89.94
379.478	87.94
379.704	94.94
379.929	86.94
380.155	119.94
380.38	97.94
380.606	102.94
380.831	93.94
381.057	96.94
381.282	86.94
381.507	81.94
381.733	99.94
381.958	99.94
382.184	88.94
382.409	107.94
382.634	116.94
382.86	107.94
383.085	105.94
383.31	94.94
383.535	103.94
383.761	96.94
383.986	98.94
384.211	90.94
384.436	90.94
384.662	118.94
384.887	103.94
385.112	106.94
385.337	116.94
385.562	102.94
385.787	115.94
386.013	119.94
386.238	126.94
386.463	118.94
386.688	115.94
386.913	121.94
387.138	120.94
387.363	96.94
387.588	91.94
387.813	102.94
388.038	106.94
388.263	115.94
388.488	104.94
388.713	106.94
388.938	98.94
389.163	96.94
389.387	104.94
389.612	114.94
389.837	95.94
390.062	102.94
390.287	87.94
390.512	86.94
390.736	94.94
390.961	97.94
391.186	98.94
391.411	95.94
391.636	76.94
391.86	82.94
392.085	86.94
392.31	85.94
392.534	101.94
392.759	91.94
392.984	84.94
393.208	91.94
393.433	105.94
393.658	82.94
393.882	93.94
394.107	77.94
394.331	90.94
394.556	74.94
394.78	90.94
395.005	86.94
395.229	105.94
395.454	96.94
395.678	100.94
395.903	84.94
396.127	81.94
396.352	79.94
396.576	82.94
396.801	84.94
397.025	95.94
397.249	90.94
397.474	95.94
397.698	84.94
397.922	89.94
398.147	90.94
398.371	84.94
398.595	87.94
398.82	85.94
399.044	91.94
399.268	84.94
399.492	91.94
399.717	89.94
399.941	99.94
400.165	102.94
400.389	103.94
400.613	95.94
400.837	90.94
401.062	92.94
401.286	82.94
401.51	86.94
401.734	100.94
401.958	125.94
402.182	161.94
402.406	203.94
402.63	157.94
402.854	91.94
403.078	100.94
403.302	92.94
403.526	98.94
403.75	78.94
403.974	90.94
404.198	92.94
404.422	83.94
404.645	79.94
404.869	100.94
405.093	104.94
405.317	121.94
405.541	99.94
405.765	109.94
405.988	143.94
406.212	221.94
406.436	308.94
406.66	189.94
406.883	114.94
407.107	101.94
407.331	94.94
407.555	103.94
407.778	100.94
408.002	91.94
408.226	105.94
408.449	87.94
408.673	97.94
408.896	87.94
409.12	105.94
409.344	105.94
409.567	77.94
409.791	104.94
410.014	84.94
410.238	78.94
410.461	91.94
410.685	99.94
410.908	93.94
411.132	112.94
411.355	93.94
411.578	104.94
411.802	83.94
412.025	96.94
412.249	102.94
412.472	91.94
412.695	93.94
412.919	89.94
413.142	84.94
413.365	93.94
413.589	90.94
413.812	94.94
414.035	110.94
414.258	78.94
414.482	96.94
414.705	97.94
414.928	87.94
415.151	94.94
415.374	89.94
415.597	91.94
415.821	89.94
416.044	108.94
416.267	74.94
416.49	83.94
416.713	77.94
416.936	92.94
417.159	100.94
417.382	100.94
417.605	91.94
417.828	102.94
418.051	88.94
418.274	90.94
418.497	92.94
418.72	89.94
418.943	95.94
419.166	98.94
419.389	89.94
419.611	94.94
419.834	85.94
420.057	100.94
420.28	91.94
420.503	94.94
420.726	93.94
420.948	98.94
421.171	116.94
421.394	100.94
421.617	100.94
421.839	93.94
422.062	83.94
422.285	97.94
422.507	99.94
422.73	116.94
422.953	117.94
423.175	81.94
423.398	91.94
423.621	76.94
423.843	82.94
424.066	83.94
424.288	98.94
424.511	99.94
424.733	99.94
424.956	121.94
425.178	109.94
425.401	105.94
425.623	105.94
425.846	110.94
426.068	100.94
426.291	100.94
426.513	101.94
426.735	92.94
426.958	101.94
427.18	117.94
427.402	167.94
427.625	228.94
427.847	168.94
428.069	117.94
428.292	92.94
428.514	77.94
428.736	87.94
428.958	86.94
429.181	83.94
429.403	73.94
429.625	82.94
429.847	102.94
430.069	112.94
430.292	105.94
430.514	91.94
430.736	95.94
430.958	97.94
431.18	93.94
431.402	84.94
431.624	92.94
431.846	87.94
432.068	87.94
432.29	78.94
432.512	97.94
432.734	101.94
432.956	91.94
433.178	111.94
433.4	87.94
433.622	100.94
433.844	91.94
434.066	98.94
434.287	83.94
434.509	108.94
434.731	97.94
434.953	94.94
435.175	94.94
435.397	86.94
435.618	101.94
435.84	100.94
436.062	139.94
436.284	130.94
436.505	116.94
436.727	116.94
436.949	88.94
437.17	99.94
437.392	82.94
437.614	108.94
437.835	134.94
438.057	151.94
438.278	119.94
438.5	120.94
438.721	139.94
438.943	118.94
439.165	81.94
439.386	90.94
439.608	97.94
439.829	107.94
440.05	143.94
440.272	168.94
440.493	115.94
440.715	88.94
440.936	87.94
441.158	93.94
441.379	83.94
441.6	92.94
441.822	104.94
442.043	102.94
442.264	107.94
442.486	108.94
442.707	98.94
442.928	121.94
443.149	163.94
443.371	170.94
443.592	133.94
443.813	113.94
444.034	126.94
444.255	98.94
444.476	94.94
444.698	94.94
444.919	92.94
445.14	141.94
445.361	131.94
445.582	137.94
445.803	189.94
446.024	175.94
446.245	158.94
446.466	136.94
446.687	97.94
446.908	93.94
447.129	97.94
447.35	96.94
447.571	98.94
447.792	92.94
448.013	114.94
448.234	137.94
448.455	120.94
448.675	135.94
448.896	148.94
449.117	112.94
449.338	111.94
449.559	150.94
449.779	174.94
450	93.94
450.221	95.94
450.442	90.94
450.662	83.94
450.883	114.94
451.104	134.94
451.324	108.94
451.545	94.94
451.766	78.94
451.986	86.94
452.207	97.94
452.428	97.94
452.648	86.94
452.869	115.94
453.089	134.94
453.31	142.94
453.53	99.94
453.751	105.94
453.971	123.94
454.192	121.94
454.412	106.94
454.633	91.94
454.853	82.94
455.073	75.94
455.294	90.94
455.514	113.94
455.734	93.94
455.955	92.94
456.175	85.94
456.395	95.94
456.616	77.94
456.836	88.94
457.056	72.94
457.276	78.94
457.497	84.94
457.717	93.94
457.937	75.94
458.157	93.94
458.377	103.94
458.598	131.94
458.818	189.94
459.038	215.94
459.258	123.94
459.478	95.94
459.698	93.94
459.918	86.94
460.138	88.94
460.358	82.94
460.578	97.94
460.798	82.94
461.018	89.94
461.238	97.94
461.458	79.94
461.678	84.94
461.898	79.94
462.118	87.94
462.338	81.94
462.558	92.94
462.777	78.94
462.997	87.94
463.217	96.94
463.437	87.94
463.657	84.94
463.876	85.94
464.096	83.94
464.316	101.94
464.536	97.94
464.755	97.94
464.975	148.94
465.195	242.94
465.414	216.94
465.634	107.94
465.854	84.94
466.073	82.94
466.293	74.94
466.512	83.94
466.732	86.94
466.951	83.94
467.171	87.94
467.391	106.94
467.61	117.94
467.829	105.94
468.049	86.94
468.268	82.94
468.488	86.94
468.707	75.94
468.927	92.94
469.146	77.94
469.365	69.94
469.585	89.94
469.804	106.94
470.023	89.94
470.243	109.94
470.462	113.94
470.681	137.94
470.901	86.94
471.12	92.94
471.339	92.94
471.558	82.94
471.777	98.94
471.997	90.94
472.216	90.94
472.435	116.94
472.654	109.94
472.873	92.94
473.092	100.94
473.311	82.94
473.53	102.94
473.749	110.94
473.968	102.94
474.187	110.94
474.406	110.94
474.625	82.94
474.844	79.94
475.063	79.94
475.282	95.94
475.501	94.94
475.72	86.94
475.939	94.94
476.158	97.94
476.377	94.94
476.596	87.94
476.814	106.94
477.033	112.94
477.252	84.94
477.471	85.94
477.69	99.94
477.908	94.94
478.127	102.94
478.346	71.94
478.564	88.94
478.783	98.94
479.002	110.94
479.22	97.94
479.439	115.94
479.658	107.94
479.876	109.94
480.095	101.94
480.313	107.94
480.532	87.94
480.751	69.94
480.969	102.94
481.188	150.94
481.406	133.94
481.624	95.94
481.843	93.94
482.061	91.94
482.28	81.94
482.498	98.94
482.717	89.94
482.935	86.94
483.153	94.94
483.372	100.94
483.59	102.94
483.808	92.94
484.027	86.94
484.245	90.94
484.463	105.94
484.681	103.94
484.9	86.94
485.118	92.94
485.336	88.94
485.554	105.94
485.772	109.94
485.99	117.94
486.209	114.94
486.427	116.94
486.645	109.94
486.863	134.94
487.081	106.94
487.299	106.94
487.517	85.94
487.735	94.94
487.953	97.94
488.171	94.94
488.389	99.94
488.607	109.94
488.825	87.94
489.043	91.94
489.261	98.94
489.479	87.94
489.696	90.94
489.914	92.94
490.132	97.94
490.35	100.94
490.568	94.94
490.786	87.94
491.003	89.94
491.221	96.94
491.439	97.94
491.657	96.94
491.874	89.94
492.092	80.94
492.31	99.94
492.527	82.94
492.745	90.94
492.963	91.94
493.18	91.94
493.398	96.94
493.615	100.94
493.833	94.94
494.05	93.94
494.268	101.94
494.485	72.94
494.703	85.94
494.92	84.94
495.138	76.94
495.355	99.94
495.573	95.94
495.79	80.94
496.008	95.94
496.225	87.94
496.442	92.94
496.66	107.94
496.877	95.94
497.094	101.94
497.312	83.94
497.529	86.94
497.746	86.94
497.963	95.94
498.181	84.94
498.398	98.94
498.615	116.94
498.832	121.94
499.049	98.94
499.267	103.94
499.484	90.94
499.701	85.94
499.918	99.94
500.135	84.94
500.352	104.94
500.569	93.94
500.786	94.94
501.003	86.94
501.22	83.94
501.437	93.94
501.654	117.94
501.871	124.94
502.088	102.94
502.305	97.94
502.522	94.94
502.739	102.94
502.956	83.94
503.172	86.94
503.389	100.94
503.606	112.94
503.823	110.94
504.04	105.94
504.256	84.94
504.473	96.94
504.69	91.94
504.907	117.94
505.123	88.94
505.34	93.94
505.557	79.94
505.773	78.94
505.99	96.94
506.207	96.94
506.423	81.94
506.64	94.94
506.856	84.94
507.073	77.94
507.289	90.94
507.506	112.94
507.722	123.94
507.939	117.94
508.155	102.94
508.372	106.94
508.588	98.94
508.805	88.94
509.021	100.94
509.238	106.94
509.454	114.94
509.67	102.94
509.887	110.94
510.103	157.94
510.319	265.94
510.536	993.94
510.752	3483.94
510.968	928.94
511.184	180.94
511.401	131.94
511.617	106.94
511.833	110.94
512.049	97.94
512.265	90.94
512.481	100.94
512.698	93.94
512.914	82.94
513.13	103.94
513.346	111.94
513.562	103.94
513.778	109.94
