Data from Circ_2006_H10_HRD10591_00094.txt Node
Date: Wed Jan 03 10:26:22 EST 2024
User: Yrep
Spectrometer: HR+D1059
Trigger mode: 1
Integration Time (sec): 1.000000E-1
Scans to average: 1
Electric dark correction enabled: true
Nonlinearity correction enabled: false
Boxcar width: 0
XAxis mode: Wavelengths
Number of Pixels in Spectrum: 2048
>>>>>Begin Spectral Data<<<<<
223.165	-12.75
223.4	-12.75
223.635	-12.75
223.869	-9.75
224.104	-20.75
224.338	-33.75
224.573	-19.75
224.808	-5.75
225.042	7.25
225.277	-6.75
225.511	-0.75
225.746	5.25
225.98	5.25
226.215	14.25
226.449	25.25
226.683	12.25
226.918	19.25
227.152	21.25
227.387	37.25
227.621	41.25
227.856	49.25
228.09	51.25
228.324	48.25
228.559	52.25
228.793	62.25
229.027	66.25
229.262	78.25
229.496	72.25
229.73	81.25
229.964	76.25
230.199	76.25
230.433	69.25
230.667	78.25
230.901	70.25
231.136	85.25
231.37	82.25
231.604	63.25
231.838	87.25
232.072	76.25
232.306	83.25
232.541	85.25
232.775	78.25
233.009	66.25
233.243	86.25
233.477	85.25
233.711	65.25
233.945	72.25
234.179	83.25
234.413	84.25
234.647	107.25
234.881	93.25
235.115	97.25
235.349	72.25
235.583	88.25
235.817	78.25
236.051	97.25
236.285	74.25
236.519	75.25
236.753	91.25
236.987	88.25
237.221	97.25
237.455	94.25
237.689	99.25
237.922	66.25
238.156	84.25
238.39	78.25
238.624	77.25
238.858	66.25
239.091	71.25
239.325	92.25
239.559	77.25
239.793	91.25
240.027	75.25
240.26	73.25
240.494	93.25
240.728	74.25
240.961	81.25
241.195	77.25
241.429	77.25
241.662	82.25
241.896	73.25
242.13	67.25
242.363	73.25
242.597	73.25
242.83	88.25
243.064	76.25
243.298	80.25
243.531	84.25
243.765	84.25
243.998	81.25
244.232	90.25
244.465	88.25
244.699	80.25
244.932	70.25
245.166	82.25
245.399	79.25
245.633	76.25
245.866	83.25
246.099	86.25
246.333	78.25
246.566	81.25
246.8	87.25
247.033	79.25
247.266	65.25
247.5	87.25
247.733	88.25
247.966	77.25
248.2	89.25
248.433	76.25
248.666	93.25
248.899	83.25
249.133	93.25
249.366	106.25
249.599	101.25
249.832	77.25
250.066	77.25
250.299	92.25
250.532	86.25
250.765	80.25
250.998	79.25
251.231	100.25
251.465	80.25
251.698	64.25
251.931	75.25
252.164	82.25
252.397	84.25
252.63	86.25
252.863	89.25
253.096	83.25
253.329	88.25
253.562	78.25
253.795	90.25
254.028	81.25
254.261	72.25
254.494	88.25
254.727	90.25
254.96	87.25
255.193	80.25
255.426	78.25
255.659	75.25
255.892	80.25
256.124	89.25
256.357	86.25
256.59	82.25
256.823	76.25
257.056	80.25
257.289	81.25
257.521	65.25
257.754	86.25
257.987	84.25
258.22	87.25
258.452	89.25
258.685	85.25
258.918	73.25
259.151	94.25
259.383	69.25
259.616	108.25
259.849	87.25
260.081	82.25
260.314	73.25
260.547	83.25
260.779	83.25
261.012	84.25
261.244	83.25
261.477	102.25
261.71	95.25
261.942	127.25
262.175	118.25
262.407	84.25
262.64	93.25
262.872	82.25
263.105	72.25
263.337	84.25
263.57	95.25
263.802	78.25
264.035	69.25
264.267	85.25
264.499	86.25
264.732	79.25
264.964	77.25
265.197	73.25
265.429	78.25
265.661	88.25
265.894	77.25
266.126	84.25
266.358	87.25
266.591	92.25
266.823	83.25
267.055	76.25
267.287	89.25
267.52	90.25
267.752	79.25
267.984	83.25
268.216	83.25
268.448	96.25
268.681	87.25
268.913	83.25
269.145	87.25
269.377	100.25
269.609	103.25
269.841	88.25
270.073	80.25
270.306	74.25
270.538	74.25
270.77	84.25
271.002	69.25
271.234	84.25
271.466	83.25
271.698	84.25
271.93	87.25
272.162	101.25
272.394	93.25
272.626	92.25
272.858	85.25
273.09	92.25
273.322	95.25
273.553	89.25
273.785	81.25
274.017	86.25
274.249	71.25
274.481	91.25
274.713	88.25
274.945	95.25
275.176	72.25
275.408	85.25
275.64	97.25
275.872	92.25
276.104	94.25
276.335	89.25
276.567	105.25
276.799	128.25
277.031	113.25
277.262	107.25
277.494	102.25
277.726	83.25
277.957	73.25
278.189	80.25
278.421	84.25
278.652	87.25
278.884	95.25
279.115	93.25
279.347	99.25
279.579	88.25
279.81	73.25
280.042	81.25
280.273	93.25
280.505	87.25
280.736	89.25
280.968	86.25
281.199	93.25
281.431	72.25
281.662	83.25
281.894	77.25
282.125	111.25
282.356	117.25
282.588	153.25
282.819	109.25
283.051	81.25
283.282	95.25
283.513	86.25
283.745	77.25
283.976	76.25
284.207	70.25
284.439	88.25
284.67	89.25
284.901	96.25
285.132	88.25
285.364	89.25
285.595	84.25
285.826	98.25
286.057	86.25
286.288	95.25
286.52	92.25
286.751	100.25
286.982	101.25
287.213	88.25
287.444	81.25
287.675	97.25
287.906	88.25
288.138	80.25
288.369	91.25
288.6	91.25
288.831	89.25
289.062	106.25
289.293	96.25
289.524	100.25
289.755	95.25
289.986	102.25
290.217	83.25
290.448	89.25
290.679	86.25
290.91	85.25
291.141	101.25
291.371	98.25
291.602	87.25
291.833	94.25
292.064	91.25
292.295	99.25
292.526	95.25
292.757	84.25
292.987	103.25
293.218	102.25
293.449	79.25
293.68	87.25
293.91	90.25
294.141	97.25
294.372	83.25
294.603	102.25
294.833	99.25
295.064	88.25
295.295	83.25
295.525	97.25
295.756	86.25
295.987	119.25
296.217	142.25
296.448	129.25
296.679	92.25
296.909	102.25
297.14	94.25
297.37	91.25
297.601	107.25
297.831	85.25
298.062	88.25
298.292	94.25
298.523	94.25
298.753	96.25
298.984	89.25
299.214	104.25
299.445	96.25
299.675	91.25
299.905	89.25
300.136	83.25
300.366	100.25
300.597	90.25
300.827	79.25
301.057	99.25
301.288	99.25
301.518	108.25
301.748	92.25
301.979	102.25
302.209	92.25
302.439	100.25
302.669	93.25
302.9	98.25
303.13	101.25
303.36	86.25
303.59	109.25
303.82	119.25
304.051	105.25
304.281	85.25
304.511	96.25
304.741	83.25
304.971	93.25
305.201	93.25
305.431	86.25
305.661	87.25
305.891	102.25
306.121	87.25
306.352	96.25
306.582	103.25
306.812	88.25
307.042	90.25
307.272	99.25
307.502	112.25
307.731	93.25
307.961	98.25
308.191	86.25
308.421	91.25
308.651	106.25
308.881	104.25
309.111	97.25
309.341	98.25
309.571	91.25
309.8	102.25
310.03	107.25
310.26	105.25
310.49	104.25
310.72	101.25
310.949	102.25
311.179	91.25
311.409	92.25
311.639	100.25
311.868	93.25
312.098	96.25
312.328	95.25
312.557	102.25
312.787	98.25
313.017	97.25
313.246	101.25
313.476	90.25
313.706	89.25
313.935	102.25
314.165	100.25
314.394	105.25
314.624	111.25
314.853	111.25
315.083	98.25
315.312	99.25
315.542	100.25
315.771	96.25
316.001	88.25
316.23	97.25
316.46	91.25
316.689	97.25
316.919	108.25
317.148	103.25
317.377	94.25
317.607	95.25
317.836	89.25
318.065	76.25
318.295	98.25
318.524	92.25
318.753	89.25
318.983	97.25
319.212	104.25
319.441	103.25
319.67	110.25
319.9	104.25
320.129	104.25
320.358	111.25
320.587	86.25
320.816	91.25
321.046	98.25
321.275	89.25
321.504	101.25
321.733	96.25
321.962	99.25
322.191	103.25
322.42	112.25
322.649	105.25
322.878	118.25
323.108	114.25
323.337	134.25
323.566	147.25
323.795	168.25
324.024	224.25
324.253	485.25
324.482	961.25
324.71	1992.25
324.939	2621.25
325.168	948.25
325.397	265.25
325.626	173.25
325.855	132.25
326.084	144.25
326.313	159.25
326.542	171.25
326.77	252.25
326.999	512.25
327.228	1085.25
327.457	2013.25
327.686	1604.25
327.914	423.25
328.143	214.25
328.372	212.25
328.6	141.25
328.829	123.25
329.058	135.25
329.287	133.25
329.515	121.25
329.744	123.25
329.972	142.25
330.201	178.25
330.43	248.25
330.658	167.25
330.887	154.25
331.115	142.25
331.344	112.25
331.572	112.25
331.801	100.25
332.03	100.25
332.258	96.25
332.486	90.25
332.715	92.25
332.943	107.25
333.172	109.25
333.4	115.25
333.629	114.25
333.857	123.25
334.085	133.25
334.314	171.25
334.542	271.25
334.771	252.25
334.999	115.25
335.227	105.25
335.455	95.25
335.684	103.25
335.912	100.25
336.14	97.25
336.369	87.25
336.597	113.25
336.825	95.25
337.053	85.25
337.281	107.25
337.51	83.25
337.738	84.25
337.966	95.25
338.194	99.25
338.422	90.25
338.65	94.25
338.878	90.25
339.106	99.25
339.334	92.25
339.562	104.25
339.79	88.25
340.018	95.25
340.246	101.25
340.474	96.25
340.702	85.25
340.93	88.25
341.158	87.25
341.386	88.25
341.614	101.25
341.842	98.25
342.07	96.25
342.298	86.25
342.526	91.25
342.754	84.25
342.981	96.25
343.209	81.25
343.437	103.25
343.665	93.25
343.893	93.25
344.12	102.25
344.348	84.25
344.576	102.25
344.804	87.25
345.031	95.25
345.259	88.25
345.487	84.25
345.714	87.25
345.942	100.25
346.17	87.25
346.397	91.25
346.625	86.25
346.853	107.25
347.08	105.25
347.308	105.25
347.535	89.25
347.763	114.25
347.99	101.25
348.218	110.25
348.445	95.25
348.673	103.25
348.9	98.25
349.128	93.25
349.355	90.25
349.583	92.25
349.81	86.25
350.037	97.25
350.265	93.25
350.492	95.25
350.72	105.25
350.947	113.25
351.174	106.25
351.402	111.25
351.629	85.25
351.856	100.25
352.083	107.25
352.311	132.25
352.538	122.25
352.765	116.25
352.992	113.25
353.22	119.25
353.447	93.25
353.674	99.25
353.901	106.25
354.128	101.25
354.355	92.25
354.583	106.25
354.81	93.25
355.037	100.25
355.264	101.25
355.491	92.25
355.718	88.25
355.945	98.25
356.172	94.25
356.399	99.25
356.626	99.25
356.853	99.25
357.08	91.25
357.307	95.25
357.534	89.25
357.761	84.25
357.988	94.25
358.215	102.25
358.441	99.25
358.668	92.25
358.895	87.25
359.122	101.25
359.349	101.25
359.576	103.25
359.802	99.25
360.029	118.25
360.256	108.25
360.483	107.25
360.709	84.25
360.936	97.25
361.163	92.25
361.39	80.25
361.616	95.25
361.843	98.25
362.07	101.25
362.296	104.25
362.523	101.25
362.749	81.25
362.976	94.25
363.203	107.25
363.429	77.25
363.656	93.25
363.882	99.25
364.109	89.25
364.335	96.25
364.562	95.25
364.788	102.25
365.015	104.25
365.241	98.25
365.468	110.25
365.694	118.25
365.92	89.25
366.147	99.25
366.373	92.25
366.599	92.25
366.826	80.25
367.052	91.25
367.278	95.25
367.505	99.25
367.731	92.25
367.957	89.25
368.184	93.25
368.41	105.25
368.636	122.25
368.862	113.25
369.089	114.25
369.315	115.25
369.541	95.25
369.767	86.25
369.993	91.25
370.219	93.25
370.445	88.25
370.672	88.25
370.898	99.25
371.124	96.25
371.35	101.25
371.576	86.25
371.802	90.25
372.028	79.25
372.254	84.25
372.48	85.25
372.706	88.25
372.932	105.25
373.158	98.25
373.384	97.25
373.61	91.25
373.835	76.25
374.061	81.25
374.287	102.25
374.513	89.25
374.739	81.25
374.965	85.25
375.191	89.25
375.416	97.25
375.642	98.25
375.868	103.25
376.094	94.25
376.319	91.25
376.545	79.25
376.771	91.25
376.997	97.25
377.222	85.25
377.448	89.25
377.674	86.25
377.899	103.25
378.125	106.25
378.35	105.25
378.576	75.25
378.802	93.25
379.027	99.25
379.253	84.25
379.478	89.25
379.704	90.25
379.929	93.25
380.155	107.25
380.38	104.25
380.606	101.25
380.831	97.25
381.057	88.25
381.282	113.25
381.507	96.25
381.733	84.25
381.958	84.25
382.184	86.25
382.409	101.25
382.634	98.25
382.86	106.25
383.085	111.25
383.31	107.25
383.535	99.25
383.761	89.25
383.986	96.25
384.211	79.25
384.436	114.25
384.662	105.25
384.887	99.25
385.112	114.25
385.337	105.25
385.562	101.25
385.787	97.25
386.013	120.25
386.238	117.25
386.463	106.25
386.688	107.25
386.913	104.25
387.138	107.25
387.363	116.25
387.588	115.25
387.813	112.25
388.038	107.25
388.263	121.25
388.488	96.25
388.713	106.25
388.938	104.25
389.163	99.25
389.387	88.25
389.612	104.25
389.837	97.25
390.062	84.25
390.287	100.25
390.512	95.25
390.736	90.25
390.961	86.25
391.186	96.25
391.411	108.25
391.636	93.25
391.86	90.25
392.085	94.25
392.31	91.25
392.534	87.25
392.759	89.25
392.984	79.25
393.208	89.25
393.433	94.25
393.658	107.25
393.882	93.25
394.107	89.25
394.331	91.25
394.556	79.25
394.78	88.25
395.005	88.25
395.229	88.25
395.454	99.25
395.678	96.25
395.903	86.25
396.127	98.25
396.352	79.25
396.576	79.25
396.801	87.25
397.025	95.25
397.249	87.25
397.474	85.25
397.698	86.25
397.922	93.25
398.147	77.25
398.371	90.25
398.595	87.25
398.82	94.25
399.044	95.25
399.268	89.25
399.492	87.25
399.717	91.25
399.941	92.25
400.165	89.25
400.389	93.25
400.613	79.25
400.837	102.25
401.062	102.25
401.286	93.25
401.51	95.25
401.734	100.25
401.958	104.25
402.182	119.25
402.406	160.25
402.63	118.25
402.854	104.25
403.078	95.25
403.302	88.25
403.526	94.25
403.75	107.25
403.974	75.25
404.198	77.25
404.422	83.25
404.645	99.25
404.869	80.25
405.093	91.25
405.317	109.25
405.541	98.25
405.765	96.25
405.988	116.25
406.212	184.25
406.436	251.25
406.66	173.25
406.883	88.25
407.107	91.25
407.331	89.25
407.555	109.25
407.778	93.25
408.002	87.25
408.226	70.25
408.449	84.25
408.673	84.25
408.896	91.25
409.12	104.25
409.344	81.25
409.567	91.25
409.791	103.25
410.014	88.25
410.238	100.25
410.461	93.25
410.685	99.25
410.908	99.25
411.132	115.25
411.355	89.25
411.578	89.25
411.802	102.25
412.025	95.25
412.249	99.25
412.472	93.25
412.695	105.25
412.919	81.25
413.142	80.25
413.365	96.25
413.589	96.25
413.812	85.25
414.035	87.25
414.258	93.25
414.482	98.25
414.705	103.25
414.928	98.25
415.151	88.25
415.374	97.25
415.597	81.25
415.821	93.25
416.044	99.25
416.267	88.25
416.49	97.25
416.713	89.25
416.936	99.25
417.159	79.25
417.382	103.25
417.605	85.25
417.828	88.25
418.051	92.25
418.274	91.25
418.497	108.25
418.72	86.25
418.943	99.25
419.166	95.25
419.389	81.25
419.611	89.25
419.834	75.25
420.057	91.25
420.28	86.25
420.503	92.25
420.726	86.25
420.948	100.25
421.171	105.25
421.394	105.25
421.617	104.25
421.839	88.25
422.062	90.25
422.285	108.25
422.507	105.25
422.73	109.25
422.953	107.25
423.175	89.25
423.398	90.25
423.621	83.25
423.843	75.25
424.066	96.25
424.288	87.25
424.511	107.25
424.733	102.25
424.956	99.25
425.178	100.25
425.401	86.25
425.623	105.25
425.846	100.25
426.068	88.25
426.291	91.25
426.513	95.25
426.735	95.25
426.958	93.25
427.18	95.25
427.402	140.25
427.625	195.25
427.847	160.25
428.069	129.25
428.292	113.25
428.514	91.25
428.736	89.25
428.958	96.25
429.181	87.25
429.403	80.25
429.625	92.25
429.847	89.25
430.069	99.25
430.292	97.25
430.514	103.25
430.736	94.25
430.958	98.25
431.18	95.25
431.402	87.25
431.624	79.25
431.846	79.25
432.068	90.25
432.29	88.25
432.512	97.25
432.734	102.25
432.956	84.25
433.178	99.25
433.4	109.25
433.622	93.25
433.844	110.25
434.066	104.25
434.287	97.25
434.509	98.25
434.731	97.25
434.953	87.25
435.175	91.25
435.397	92.25
435.618	98.25
435.84	109.25
436.062	107.25
436.284	131.25
436.505	112.25
436.727	123.25
436.949	96.25
437.17	87.25
437.392	85.25
437.614	101.25
437.835	117.25
438.057	117.25
438.278	118.25
438.5	101.25
438.721	121.25
438.943	104.25
439.165	82.25
439.386	87.25
439.608	99.25
439.829	97.25
440.05	111.25
440.272	149.25
440.493	108.25
440.715	96.25
440.936	73.25
441.158	93.25
441.379	101.25
441.6	103.25
441.822	100.25
442.043	96.25
442.264	101.25
442.486	97.25
442.707	106.25
442.928	105.25
443.149	131.25
443.371	147.25
443.592	113.25
443.813	123.25
444.034	97.25
444.255	92.25
444.476	99.25
444.698	99.25
444.919	84.25
445.14	136.25
445.361	125.25
445.582	128.25
445.803	156.25
446.024	157.25
446.245	149.25
446.466	114.25
446.687	98.25
446.908	82.25
447.129	99.25
447.35	89.25
447.571	103.25
447.792	93.25
448.013	93.25
448.234	121.25
448.455	100.25
448.675	113.25
448.896	100.25
449.117	92.25
449.338	117.25
449.559	129.25
449.779	149.25
450	105.25
450.221	93.25
450.442	86.25
450.662	100.25
450.883	114.25
451.104	112.25
451.324	102.25
451.545	96.25
451.766	76.25
451.986	81.25
452.207	89.25
452.428	109.25
452.648	103.25
452.869	128.25
453.089	134.25
453.31	140.25
453.53	99.25
453.751	92.25
453.971	104.25
454.192	118.25
454.412	90.25
454.633	72.25
454.853	77.25
455.073	85.25
455.294	92.25
455.514	104.25
455.734	96.25
455.955	85.25
456.175	88.25
456.395	102.25
456.616	92.25
456.836	86.25
457.056	91.25
457.276	85.25
457.497	93.25
457.717	96.25
457.937	91.25
458.157	93.25
458.377	89.25
458.598	109.25
458.818	164.25
459.038	168.25
459.258	126.25
459.478	99.25
459.698	81.25
459.918	79.25
460.138	87.25
460.358	88.25
460.578	87.25
460.798	94.25
461.018	94.25
461.238	102.25
461.458	85.25
461.678	98.25
461.898	82.25
462.118	95.25
462.338	84.25
462.558	77.25
462.777	92.25
462.997	94.25
463.217	85.25
463.437	91.25
463.657	89.25
463.876	85.25
464.096	103.25
464.316	94.25
464.536	87.25
464.755	103.25
464.975	94.25
465.195	180.25
465.414	168.25
465.634	111.25
465.854	101.25
466.073	91.25
466.293	96.25
466.512	88.25
466.732	90.25
466.951	86.25
467.171	93.25
467.391	98.25
467.61	107.25
467.829	112.25
468.049	136.25
468.268	160.25
468.488	107.25
468.707	94.25
468.927	99.25
469.146	95.25
469.365	79.25
469.585	109.25
469.804	85.25
470.023	96.25
470.243	96.25
470.462	111.25
470.681	102.25
470.901	94.25
471.12	101.25
471.339	79.25
471.558	87.25
471.777	92.25
471.997	107.25
472.216	185.25
472.435	329.25
472.654	147.25
472.873	103.25
473.092	104.25
473.311	88.25
473.53	87.25
473.749	85.25
473.968	98.25
474.187	103.25
474.406	98.25
474.625	84.25
474.844	98.25
475.063	90.25
475.282	92.25
475.501	94.25
475.72	85.25
475.939	93.25
476.158	87.25
476.377	102.25
476.596	103.25
476.814	93.25
477.033	98.25
477.252	96.25
477.471	102.25
477.69	85.25
477.908	84.25
478.127	88.25
478.346	92.25
478.564	93.25
478.783	104.25
479.002	97.25
479.22	91.25
479.439	104.25
479.658	113.25
479.876	111.25
480.095	98.25
480.313	103.25
480.532	95.25
480.751	117.25
480.969	199.25
481.188	525.25
481.406	358.25
481.624	135.25
481.843	89.25
482.061	112.25
482.28	97.25
482.498	80.25
482.717	98.25
482.935	89.25
483.153	71.25
483.372	80.25
483.59	94.25
483.808	88.25
484.027	104.25
484.245	114.25
484.463	84.25
484.681	101.25
484.9	101.25
485.118	87.25
485.336	93.25
485.554	95.25
485.772	111.25
485.99	110.25
486.209	106.25
486.427	118.25
486.645	126.25
486.863	103.25
487.081	108.25
487.299	112.25
487.517	95.25
487.735	96.25
487.953	89.25
488.171	88.25
488.389	95.25
488.607	110.25
488.825	100.25
489.043	94.25
489.261	100.25
489.479	93.25
489.696	88.25
489.914	84.25
490.132	108.25
490.35	98.25
490.568	97.25
490.786	92.25
491.003	98.25
491.221	92.25
491.439	99.25
491.657	96.25
491.874	97.25
492.092	98.25
492.31	94.25
492.527	88.25
492.745	97.25
492.963	102.25
493.18	83.25
493.398	94.25
493.615	84.25
493.833	90.25
494.05	81.25
494.268	96.25
494.485	87.25
494.703	94.25
494.92	88.25
495.138	98.25
495.355	90.25
495.573	91.25
495.79	101.25
496.008	91.25
496.225	87.25
496.442	91.25
496.66	93.25
496.877	83.25
497.094	118.25
497.312	93.25
497.529	95.25
497.746	99.25
497.963	101.25
498.181	104.25
498.398	97.25
498.615	111.25
498.832	117.25
499.049	99.25
499.267	94.25
499.484	102.25
499.701	94.25
499.918	101.25
500.135	83.25
500.352	89.25
500.569	81.25
500.786	92.25
501.003	98.25
501.22	85.25
501.437	95.25
501.654	85.25
501.871	115.25
502.088	85.25
502.305	94.25
502.522	95.25
502.739	101.25
502.956	90.25
503.172	87.25
503.389	96.25
503.606	100.25
503.823	98.25
504.04	100.25
504.256	90.25
504.473	81.25
504.69	98.25
504.907	88.25
505.123	95.25
505.34	86.25
505.557	86.25
505.773	98.25
505.99	99.25
506.207	92.25
506.423	95.25
506.64	89.25
506.856	96.25
507.073	100.25
507.289	96.25
507.506	91.25
507.722	111.25
507.939	110.25
508.155	88.25
508.372	94.25
508.588	107.25
508.805	98.25
509.021	103.25
509.238	102.25
509.454	108.25
509.67	113.25
509.887	119.25
510.103	146.25
510.319	228.25
510.536	837.25
510.752	2845.25
510.968	788.25
511.184	169.25
511.401	119.25
511.617	105.25
511.833	89.25
512.049	89.25
512.265	103.25
512.481	110.25
512.698	106.25
512.914	106.25
513.13	100.25
513.346	96.25
513.562	101.25
513.778	103.25
513.994	100.25
514.21	111.25
