Data from Circ_2006_H10_HRD10591_00011.txt Node
Date: Wed Jan 03 10:26:06 EST 2024
User: Yrep
Spectrometer: HR+D1059
Trigger mode: 1
Integration Time (sec): 1.000000E-1
Scans to average: 1
Electric dark correction enabled: true
Nonlinearity correction enabled: false
Boxcar width: 0
XAxis mode: Wavelengths
Number of Pixels in Spectrum: 2048
>>>>>Begin Spectral Data<<<<<
223.165	-27
223.4	-27
223.635	-27
223.869	-21
224.104	-13
224.338	-10
224.573	-25
224.808	-12
225.042	-16
225.277	-9
225.511	17
225.746	4
225.98	9
226.215	4
226.449	19
226.683	11
226.918	28
227.152	41
227.387	32
227.621	26
227.856	44
228.09	53
228.324	59
228.559	61
228.793	63
229.027	70
229.262	69
229.496	73
229.73	90
229.964	91
230.199	76
230.433	76
230.667	79
230.901	82
231.136	80
231.37	77
231.604	73
231.838	70
232.072	88
232.306	76
232.541	75
232.775	80
233.009	84
233.243	78
233.477	88
233.711	70
233.945	82
234.179	81
234.413	79
234.647	81
234.881	86
235.115	79
235.349	76
235.583	89
235.817	72
236.051	77
236.285	81
236.519	62
236.753	73
236.987	78
237.221	72
237.455	83
237.689	79
237.922	77
238.156	72
238.39	97
238.624	78
238.858	69
239.091	80
239.325	83
239.559	74
239.793	77
240.027	72
240.26	68
240.494	80
240.728	80
240.961	73
241.195	88
241.429	78
241.662	74
241.896	80
242.13	81
242.363	61
242.597	78
242.83	88
243.064	71
243.298	86
243.531	80
243.765	73
243.998	76
244.232	70
244.465	87
244.699	73
244.932	92
245.166	66
245.399	98
245.633	65
245.866	78
246.099	86
246.333	85
246.566	82
246.8	81
247.033	79
247.266	75
247.5	85
247.733	88
247.966	69
248.2	62
248.433	72
248.666	77
248.899	83
249.133	92
249.366	98
249.599	92
249.832	85
250.066	78
250.299	86
250.532	83
250.765	72
250.998	81
251.231	79
251.465	79
251.698	87
251.931	74
252.164	82
252.397	71
252.63	99
252.863	82
253.096	85
253.329	79
253.562	92
253.795	80
254.028	74
254.261	85
254.494	77
254.727	88
254.96	85
255.193	81
255.426	82
255.659	87
255.892	78
256.124	84
256.357	74
256.59	72
256.823	80
257.056	73
257.289	80
257.521	92
257.754	101
257.987	82
258.22	87
258.452	81
258.685	83
258.918	89
259.151	85
259.383	85
259.616	79
259.849	76
260.081	74
260.314	91
260.547	71
260.779	84
261.012	79
261.244	96
261.477	82
261.71	91
261.942	104
262.175	113
262.407	93
262.64	85
262.872	89
263.105	72
263.337	83
263.57	74
263.802	84
264.035	83
264.267	89
264.499	97
264.732	78
264.964	87
265.197	69
265.429	80
265.661	87
265.894	87
266.126	80
266.358	85
266.591	95
266.823	71
267.055	81
267.287	84
267.52	81
267.752	90
267.984	91
268.216	86
268.448	78
268.681	75
268.913	80
269.145	80
269.377	77
269.609	73
269.841	82
270.073	76
270.306	87
270.538	79
270.77	80
271.002	74
271.234	84
271.466	89
271.698	69
271.93	87
272.162	85
272.394	83
272.626	87
272.858	84
273.09	87
273.322	91
273.553	81
273.785	75
274.017	81
274.249	81
274.481	97
274.713	84
274.945	91
275.176	78
275.408	69
275.64	76
275.872	83
276.104	90
276.335	83
276.567	81
276.799	111
277.031	101
277.262	91
277.494	82
277.726	97
277.957	89
278.189	91
278.421	79
278.652	89
278.884	96
279.115	91
279.347	95
279.579	89
279.81	79
280.042	101
280.273	97
280.505	92
280.736	95
280.968	94
281.199	103
281.431	89
281.662	85
281.894	105
282.125	96
282.356	118
282.588	143
282.819	111
283.051	82
283.282	82
283.513	93
283.745	83
283.976	108
284.207	94
284.439	96
284.67	96
284.901	94
285.132	107
285.364	88
285.595	79
285.826	85
286.057	93
286.288	89
286.52	92
286.751	77
286.982	88
287.213	82
287.444	87
287.675	96
287.906	93
288.138	96
288.369	95
288.6	96
288.831	88
289.062	89
289.293	77
289.524	79
289.755	89
289.986	84
290.217	98
290.448	94
290.679	86
290.91	101
291.141	83
291.371	78
291.602	89
291.833	97
292.064	67
292.295	87
292.526	92
292.757	88
292.987	83
293.218	101
293.449	83
293.68	109
293.91	96
294.141	102
294.372	90
294.603	85
294.833	102
295.064	80
295.295	86
295.525	91
295.756	93
295.987	117
296.217	148
296.448	145
296.679	94
296.909	100
297.14	98
297.37	112
297.601	95
297.831	90
298.062	101
298.292	86
298.523	101
298.753	93
298.984	78
299.214	80
299.445	83
299.675	88
299.905	93
300.136	86
300.366	87
300.597	102
300.827	87
301.057	99
301.288	84
301.518	107
301.748	93
301.979	94
302.209	86
302.439	87
302.669	103
302.9	99
303.13	96
303.36	98
303.59	95
303.82	107
304.051	99
304.281	85
304.511	99
304.741	92
304.971	83
305.201	105
305.431	100
305.661	96
305.891	103
306.121	96
306.352	98
306.582	95
306.812	101
307.042	83
307.272	96
307.502	100
307.731	104
307.961	110
308.191	94
308.421	87
308.651	86
308.881	73
309.111	97
309.341	108
309.571	102
309.8	88
310.03	105
310.26	100
310.49	83
310.72	84
310.949	97
311.179	100
311.409	97
311.639	93
311.868	105
312.098	106
312.328	94
312.557	106
312.787	107
313.017	101
313.246	81
313.476	97
313.706	100
313.935	96
314.165	103
314.394	108
314.624	111
314.853	89
315.083	85
315.312	94
315.542	87
315.771	88
316.001	85
316.23	103
316.46	85
316.689	96
316.919	102
317.148	99
317.377	95
317.607	102
317.836	99
318.065	99
318.295	82
318.524	112
318.753	98
318.983	96
319.212	92
319.441	108
319.67	107
319.9	115
320.129	95
320.358	95
320.587	103
320.816	110
321.046	96
321.275	100
321.504	100
321.733	97
321.962	100
322.191	109
322.42	105
322.649	114
322.878	108
323.108	111
323.337	140
323.566	140
323.795	139
324.024	236
324.253	440
324.482	943
324.71	1990
324.939	2619
325.168	923
325.397	253
325.626	164
325.855	128
326.084	140
326.313	159
326.542	168
326.77	251
326.999	519
327.228	1079
327.457	2065
327.686	1589
327.914	418
328.143	205
328.372	134
328.6	127
328.829	130
329.058	124
329.287	130
329.515	111
329.744	111
329.972	106
330.201	106
330.43	116
330.658	118
330.887	145
331.115	129
331.344	101
331.572	101
331.801	112
332.03	110
332.258	110
332.486	113
332.715	96
332.943	84
333.172	94
333.4	87
333.629	98
333.857	129
334.085	117
334.314	101
334.542	104
334.771	113
334.999	100
335.227	86
335.455	91
335.684	100
335.912	92
336.14	90
336.369	95
336.597	117
336.825	100
337.053	90
337.281	96
337.51	89
337.738	98
337.966	97
338.194	101
338.422	107
338.65	96
338.878	93
339.106	70
339.334	83
339.562	89
339.79	94
340.018	93
340.246	102
340.474	85
340.702	99
340.93	90
341.158	99
341.386	99
341.614	105
341.842	108
342.07	91
342.298	92
342.526	87
342.754	99
342.981	98
343.209	86
343.437	93
343.665	90
343.893	87
344.12	91
344.348	82
344.576	100
344.804	99
345.031	106
345.259	104
345.487	97
345.714	99
345.942	85
346.17	85
346.397	93
346.625	97
346.853	106
347.08	101
347.308	110
347.535	94
347.763	100
347.99	98
348.218	107
348.445	95
348.673	97
348.9	95
349.128	89
349.355	103
349.583	102
349.81	108
350.037	100
350.265	101
350.492	101
350.72	88
350.947	89
351.174	105
351.402	124
351.629	108
351.856	105
352.083	98
352.311	110
352.538	107
352.765	105
352.992	103
353.22	115
353.447	97
353.674	104
353.901	96
354.128	108
354.355	106
354.583	96
354.81	93
355.037	94
355.264	88
355.491	106
355.718	93
355.945	94
356.172	103
356.399	98
356.626	112
356.853	83
357.08	100
357.307	83
357.534	100
357.761	95
357.988	104
358.215	98
358.441	96
358.668	91
358.895	96
359.122	99
359.349	85
359.576	92
359.802	94
360.029	114
360.256	121
360.483	104
360.709	91
360.936	91
361.163	93
361.39	102
361.616	97
361.843	103
362.07	100
362.296	91
362.523	97
362.749	88
362.976	99
363.203	96
363.429	108
363.656	92
363.882	94
364.109	95
364.335	79
364.562	81
364.788	87
365.015	104
365.241	106
365.468	110
365.694	101
365.92	109
366.147	86
366.373	89
366.599	89
366.826	92
367.052	108
367.278	97
367.505	102
367.731	100
367.957	84
368.184	116
368.41	107
368.636	121
368.862	116
369.089	91
369.315	86
369.541	102
369.767	102
369.993	92
370.219	99
370.445	95
370.672	91
370.898	96
371.124	91
371.35	76
371.576	89
371.802	86
372.028	92
372.254	103
372.48	76
372.706	79
372.932	90
373.158	96
373.384	89
373.61	107
373.835	95
374.061	94
374.287	80
374.513	95
374.739	98
374.965	100
375.191	83
375.416	94
375.642	105
375.868	96
376.094	96
376.319	88
376.545	86
376.771	87
376.997	97
377.222	91
377.448	92
377.674	100
377.899	104
378.125	90
378.35	104
378.576	103
378.802	93
379.027	85
379.253	108
379.478	92
379.704	91
379.929	91
380.155	87
380.38	93
380.606	102
380.831	101
381.057	100
381.282	106
381.507	109
381.733	101
381.958	98
382.184	91
382.409	104
382.634	104
382.86	107
383.085	102
383.31	104
383.535	120
383.761	117
383.986	97
384.211	104
384.436	109
384.662	123
384.887	114
385.112	104
385.337	119
385.562	106
385.787	109
386.013	123
386.238	122
386.463	115
386.688	114
386.913	114
387.138	128
387.363	105
387.588	108
387.813	116
388.038	113
388.263	121
388.488	125
388.713	106
388.938	95
389.163	91
389.387	114
389.612	96
389.837	90
390.062	94
390.287	99
390.512	99
390.736	113
390.961	103
391.186	99
391.411	90
391.636	102
391.86	90
392.085	92
392.31	86
392.534	98
392.759	83
392.984	97
393.208	91
393.433	103
393.658	92
393.882	89
394.107	86
394.331	99
394.556	88
394.78	89
395.005	97
395.229	92
395.454	84
395.678	79
395.903	94
396.127	107
396.352	96
396.576	93
396.801	94
397.025	108
397.249	83
397.474	85
397.698	82
397.922	92
398.147	89
398.371	98
398.595	89
398.82	89
399.044	79
399.268	80
399.492	85
399.717	104
399.941	87
400.165	99
400.389	102
400.613	79
400.837	85
401.062	86
401.286	78
401.51	89
401.734	90
401.958	104
402.182	130
402.406	156
402.63	140
402.854	113
403.078	94
403.302	81
403.526	84
403.75	93
403.974	100
404.198	92
404.422	101
404.645	93
404.869	84
405.093	105
405.317	95
405.541	83
405.765	113
405.988	124
406.212	168
406.436	219
406.66	157
406.883	108
407.107	101
407.331	104
407.555	105
407.778	114
408.002	97
408.226	91
408.449	89
408.673	87
408.896	103
409.12	94
409.344	101
409.567	100
409.791	99
410.014	91
410.238	86
410.461	89
410.685	89
410.908	85
411.132	103
411.355	94
411.578	99
411.802	101
412.025	83
412.249	107
412.472	83
412.695	98
412.919	85
413.142	83
413.365	89
413.589	87
413.812	101
414.035	96
414.258	96
414.482	92
414.705	97
414.928	87
415.151	88
415.374	107
415.597	98
415.821	94
416.044	95
416.267	94
416.49	85
416.713	97
416.936	91
417.159	82
417.382	84
417.605	95
417.828	103
418.051	105
418.274	93
418.497	77
418.72	86
418.943	94
419.166	102
419.389	89
419.611	82
419.834	80
420.057	95
420.28	92
420.503	91
420.726	90
420.948	91
421.171	85
421.394	96
421.617	95
421.839	80
422.062	97
422.285	102
422.507	92
422.73	88
422.953	103
423.175	96
423.398	99
423.621	96
423.843	92
424.066	85
424.288	74
424.511	108
424.733	97
424.956	105
425.178	94
425.401	100
425.623	101
425.846	88
426.068	95
426.291	81
426.513	92
426.735	78
426.958	88
427.18	105
427.402	139
427.625	176
427.847	148
428.069	113
428.292	95
428.514	94
428.736	91
428.958	94
429.181	103
429.403	98
429.625	79
429.847	88
430.069	93
430.292	95
430.514	83
430.736	80
430.958	93
431.18	98
431.402	96
431.624	93
431.846	90
432.068	96
432.29	85
432.512	97
432.734	101
432.956	104
433.178	110
433.4	103
433.622	108
433.844	98
434.066	86
434.287	97
434.509	89
434.731	76
434.953	84
435.175	88
435.397	97
435.618	90
435.84	118
436.062	119
436.284	117
436.505	109
436.727	114
436.949	86
437.17	82
437.392	88
437.614	95
437.835	102
438.057	117
438.278	125
438.5	92
438.721	126
438.943	104
439.165	99
439.386	82
439.608	91
439.829	101
440.05	123
440.272	148
440.493	91
440.715	81
440.936	86
441.158	80
441.379	81
441.6	99
441.822	94
442.043	89
442.264	102
442.486	106
442.707	85
442.928	122
443.149	143
443.371	136
443.592	114
443.813	109
444.034	113
444.255	93
444.476	94
444.698	103
444.919	86
445.14	117
445.361	126
445.582	125
445.803	158
446.024	152
446.245	131
446.466	119
446.687	89
446.908	73
447.129	93
447.35	88
447.571	94
447.792	80
448.013	113
448.234	124
448.455	120
448.675	110
448.896	120
449.117	105
449.338	112
449.559	141
449.779	144
450	104
450.221	93
450.442	96
450.662	105
450.883	96
451.104	108
451.324	71
451.545	83
451.766	78
451.986	77
452.207	88
452.428	96
452.648	84
452.869	103
453.089	111
453.31	123
453.53	95
453.751	97
453.971	110
454.192	123
454.412	93
454.633	101
454.853	83
455.073	91
455.294	89
455.514	99
455.734	86
455.955	92
456.175	92
456.395	89
456.616	82
456.836	78
457.056	111
457.276	75
457.497	91
457.717	82
457.937	94
458.157	93
458.377	98
458.598	92
458.818	148
459.038	155
459.258	119
459.478	85
459.698	105
459.918	79
460.138	89
460.358	105
460.578	83
460.798	91
461.018	87
461.238	93
461.458	84
461.678	79
461.898	74
462.118	83
462.338	85
462.558	97
462.777	92
462.997	76
463.217	99
463.437	86
463.657	86
463.876	87
464.096	91
464.316	92
464.536	79
464.755	94
464.975	102
465.195	167
465.414	169
465.634	103
465.854	93
466.073	83
466.293	83
466.512	69
466.732	93
466.951	96
467.171	92
467.391	85
467.61	106
467.829	104
468.049	97
468.268	85
468.488	100
468.707	87
468.927	76
469.146	100
469.365	85
469.585	90
469.804	85
470.023	96
470.243	91
470.462	104
470.681	95
470.901	90
471.12	89
471.339	87
471.558	92
471.777	91
471.997	98
472.216	94
472.435	101
472.654	81
472.873	85
473.092	86
473.311	79
473.53	79
473.749	86
473.968	89
474.187	104
474.406	98
474.625	81
474.844	97
475.063	99
475.282	108
475.501	91
475.72	98
475.939	73
476.158	84
476.377	75
476.596	85
476.814	105
477.033	92
477.252	93
477.471	91
477.69	84
477.908	93
478.127	91
478.346	80
478.564	86
478.783	89
479.002	100
479.22	82
479.439	105
479.658	88
479.876	87
480.095	90
480.313	95
480.532	92
480.751	105
480.969	100
481.188	118
481.406	120
481.624	88
481.843	95
482.061	87
482.28	75
482.498	95
482.717	79
482.935	92
483.153	92
483.372	99
483.59	81
483.808	91
484.027	90
484.245	100
484.463	89
484.681	88
484.9	79
485.118	82
485.336	89
485.554	109
485.772	107
485.99	110
486.209	111
486.427	120
486.645	96
486.863	113
487.081	109
487.299	104
487.517	101
487.735	88
487.953	85
488.171	100
488.389	96
488.607	92
488.825	87
489.043	86
489.261	97
489.479	100
489.696	100
489.914	94
490.132	87
490.35	99
490.568	87
490.786	99
491.003	98
491.221	87
491.439	83
491.657	83
491.874	96
492.092	96
492.31	94
492.527	101
492.745	105
492.963	92
493.18	86
493.398	111
493.615	94
493.833	102
494.05	96
494.268	88
494.485	83
494.703	106
494.92	89
495.138	86
495.355	89
495.573	87
495.79	78
496.008	105
496.225	100
496.442	111
496.66	101
496.877	83
497.094	101
497.312	92
497.529	106
497.746	96
497.963	81
498.181	99
498.398	99
498.615	97
498.832	107
499.049	95
499.267	97
499.484	88
499.701	98
499.918	97
500.135	89
500.352	88
500.569	90
500.786	81
501.003	81
501.22	102
501.437	100
501.654	95
501.871	108
502.088	78
502.305	83
502.522	86
502.739	96
502.956	95
503.172	88
503.389	99
503.606	103
503.823	102
504.04	88
504.256	91
504.473	102
504.69	99
504.907	96
505.123	87
505.34	88
505.557	96
505.773	78
505.99	89
506.207	87
506.423	91
506.64	85
506.856	84
507.073	82
507.289	96
507.506	95
507.722	104
507.939	115
508.155	86
508.372	90
508.588	99
508.805	92
509.021	83
509.238	107
509.454	99
509.67	110
509.887	109
510.103	131
510.319	225
510.536	732
510.752	2375
510.968	661
511.184	171
511.401	108
511.617	97
511.833	115
512.049	103
512.265	95
512.481	84
512.698	102
512.914	82
513.13	92
513.346	97
513.562	104
513.778	92
513.994	92
514.21	118
514.426	122
514.642	129
514.858	123
515.074	181
515.29	425
515.506	1479
515.721	556
515.937	164
516.153	113
516.369	103
516.585	94
516.801	88
517.016	84
517.232	105
517.448	93
517.664	87
517.879	95
518.095	70
518.311	97
518.527	95
518.742	99
518.958	97
519.173	102
519.389	98
519.605	93
519.82	106
520.036	103
520.251	110
520.467	117
520.682	106
520.898	111
521.113	109
521.329	134
521.544	191
521.76	569
521.975	2413
522.19	1501
522.406	319
522.621	123
522.836	103
523.052	88
523.267	100
523.482	94
523.698	109
523.913	129
524.128	112
524.343	83
524.559	89
524.774	94
524.989	102
525.204	112
525.419	89
525.634	97
525.849	101
526.064	97
526.28	104
526.495	89
526.71	87
526.925	96
527.14	95
527.355	80
527.57	91
527.785	106
527.999	103
528.214	79
528.429	100
528.644	88
528.859	90
529.074	89
529.289	123
529.503	199
529.718	109
529.933	100
530.148	108
530.363	91
530.577	90
530.792	89
531.007	90
531.221	97
531.436	87
531.651	93
531.865	89
532.08	79
532.295	110
532.509	90
532.724	83
532.938	96
533.153	97
533.367	84
533.582	101
533.796	96
534.011	88
534.225	98
534.44	91
534.654	88
534.868	91
535.083	96
535.297	98
535.511	112
535.726	112
535.94	108
536.154	81
536.369	94
536.583	88
536.797	79
537.011	95
537.225	83
537.44	85
537.654	94
537.868	89
538.082	99
538.296	90
538.51	108
538.724	126
538.938	103
539.153	100
539.367	111
539.581	95
539.795	73
540.009	88
540.222	77
540.436	91
540.65	97
540.864	88
541.078	96
541.292	94
541.506	92
541.72	87
541.934	82
542.147	102
542.361	81
542.575	89
542.789	87
543.002	85
543.216	97
543.43	100
543.644	88
543.857	106
544.071	112
544.285	94
544.498	100
544.712	102
544.925	97
545.139	86
545.352	98
545.566	81
545.779	93
545.993	88
546.206	84
546.42	102
546.633	97
546.847	99
547.06	65
547.274	91
547.487	84
547.7	84
547.914	99
548.127	90
548.34	96
548.554	87
548.767	83
548.98	90
549.193	87
549.407	101
549.62	82
549.833	79
550.046	103
550.259	82
550.473	97
550.686	91
550.899	81
551.112	86
551.325	76
551.538	90
551.751	87
551.964	84
552.177	84
552.39	97
552.603	96
552.816	82
553.029	95
553.242	91
553.455	99
553.667	96
553.88	102
554.093	89
554.306	98
554.519	105
554.732	100
554.944	87
555.157	90
555.37	95
555.583	83
555.795	88
556.008	90
556.221	89
556.433	79
556.646	87
556.859	83
557.071	87
557.284	88
557.496	94
557.709	88
557.921	97
558.134	89
558.346	98
558.559	88
558.771	89
558.984	102
559.196	87
559.409	88
559.621	84
559.833	97
560.046	95
560.258	76
560.47	99
560.683	99
560.895	97
561.107	85
561.32	102
561.532	89
561.744	81
561.956	93
562.168	109
562.381	84
562.593	86
562.805	93
563.017	99
563.229	89
563.441	98
563.653	92
563.865	86
564.077	98
564.289	87
564.501	90
564.713	89
564.925	90
565.137	110
565.349	104
565.561	78
565.773	83
565.985	96
566.197	95
566.408	90
566.62	82
566.832	87
567.044	83
567.255	85
567.467	89
567.679	100
567.891	83
568.102	79
568.314	78
568.526	89
568.737	82
568.949	97
569.161	84
569.372	83
569.584	97
569.795	97
570.007	115
570.218	252
570.43	132
570.641	87
570.853	82
571.064	86
571.276	82
571.487	99
571.698	98
571.91	88
572.121	76
572.333	94
572.544	94
572.755	92
572.966	84
573.178	74
573.389	93
573.6	93
573.811	87
574.023	89
574.234	76
574.445	83
574.656	97
574.867	84
575.078	95
575.289	111
575.501	92
575.712	89
575.923	89
576.134	101
576.345	91
576.556	87
576.767	86
576.978	95
577.188	87
577.399	98
577.61	94
577.821	97
578.032	118
578.243	244
578.454	768
578.665	209
578.875	104
579.086	100
579.297	101
579.508	93
579.718	112
579.929	97
580.14	95
580.35	89
580.561	93
580.772	88
580.982	97
581.193	99
581.403	79
581.614	79
581.825	91
582.035	75
582.246	85
582.456	83
