Data from Circ_2006_H10_HRD10591_00023.txt Node
Date: Wed Jan 03 10:26:08 EST 2024
User: Yrep
Spectrometer: HR+D1059
Trigger mode: 1
Integration Time (sec): 1.000000E-1
Scans to average: 1
Electric dark correction enabled: true
Nonlinearity correction enabled: false
Boxcar width: 0
XAxis mode: Wavelengths
Number of Pixels in Spectrum: 2048
>>>>>Begin Spectral Data<<<<<
223.165	-4.44
223.4	-4.44
223.635	-4.44
223.869	-21.44
224.104	-17.44
224.338	-19.44
224.573	-18.44
224.808	-13.44
225.042	-12.44
225.277	-18.44
225.511	-6.44
225.746	4.56
225.98	7.56
226.215	12.56
226.449	17.56
226.683	32.56
226.918	22.56
227.152	34.56
227.387	23.56
227.621	35.56
227.856	48.56
228.09	47.56
228.324	45.56
228.559	47.56
228.793	52.56
229.027	72.56
229.262	75.56
229.496	84.56
229.73	95.56
229.964	100.56
230.199	91.56
230.433	62.56
230.667	87.56
230.901	72.56
231.136	75.56
231.37	79.56
231.604	78.56
231.838	78.56
232.072	71.56
232.306	79.56
232.541	61.56
232.775	72.56
233.009	77.56
233.243	63.56
233.477	73.56
233.711	88.56
233.945	74.56
234.179	84.56
234.413	79.56
234.647	77.56
234.881	78.56
235.115	70.56
235.349	79.56
235.583	70.56
235.817	84.56
236.051	80.56
236.285	70.56
236.519	75.56
236.753	58.56
236.987	93.56
237.221	83.56
237.455	82.56
237.689	72.56
237.922	90.56
238.156	75.56
238.39	85.56
238.624	77.56
238.858	79.56
239.091	87.56
239.325	71.56
239.559	67.56
239.793	60.56
240.027	76.56
240.26	78.56
240.494	81.56
240.728	73.56
240.961	82.56
241.195	81.56
241.429	81.56
241.662	79.56
241.896	76.56
242.13	72.56
242.363	78.56
242.597	66.56
242.83	81.56
243.064	79.56
243.298	79.56
243.531	79.56
243.765	79.56
243.998	86.56
244.232	69.56
244.465	82.56
244.699	78.56
244.932	70.56
245.166	85.56
245.399	77.56
245.633	81.56
245.866	69.56
246.099	80.56
246.333	81.56
246.566	67.56
246.8	68.56
247.033	74.56
247.266	78.56
247.5	75.56
247.733	72.56
247.966	80.56
248.2	84.56
248.433	81.56
248.666	81.56
248.899	91.56
249.133	93.56
249.366	102.56
249.599	115.56
249.832	71.56
250.066	72.56
250.299	59.56
250.532	82.56
250.765	75.56
250.998	77.56
251.231	88.56
251.465	84.56
251.698	73.56
251.931	73.56
252.164	64.56
252.397	77.56
252.63	79.56
252.863	80.56
253.096	63.56
253.329	72.56
253.562	62.56
253.795	77.56
254.028	85.56
254.261	95.56
254.494	80.56
254.727	65.56
254.96	73.56
255.193	90.56
255.426	81.56
255.659	77.56
255.892	65.56
256.124	67.56
256.357	75.56
256.59	71.56
256.823	59.56
257.056	76.56
257.289	83.56
257.521	74.56
257.754	77.56
257.987	85.56
258.22	93.56
258.452	87.56
258.685	85.56
258.918	75.56
259.151	76.56
259.383	77.56
259.616	66.56
259.849	79.56
260.081	87.56
260.314	81.56
260.547	82.56
260.779	75.56
261.012	78.56
261.244	77.56
261.477	89.56
261.71	85.56
261.942	122.56
262.175	140.56
262.407	95.56
262.64	85.56
262.872	97.56
263.105	76.56
263.337	95.56
263.57	84.56
263.802	71.56
264.035	71.56
264.267	76.56
264.499	91.56
264.732	66.56
264.964	78.56
265.197	68.56
265.429	79.56
265.661	89.56
265.894	77.56
266.126	81.56
266.358	95.56
266.591	83.56
266.823	64.56
267.055	73.56
267.287	83.56
267.52	86.56
267.752	85.56
267.984	79.56
268.216	82.56
268.448	86.56
268.681	84.56
268.913	90.56
269.145	81.56
269.377	89.56
269.609	78.56
269.841	89.56
270.073	83.56
270.306	81.56
270.538	88.56
270.77	71.56
271.002	71.56
271.234	85.56
271.466	67.56
271.698	97.56
271.93	81.56
272.162	87.56
272.394	81.56
272.626	84.56
272.858	84.56
273.09	70.56
273.322	77.56
273.553	79.56
273.785	88.56
274.017	81.56
274.249	82.56
274.481	76.56
274.713	87.56
274.945	80.56
275.176	90.56
275.408	73.56
275.64	80.56
275.872	76.56
276.104	82.56
276.335	114.56
276.567	109.56
276.799	112.56
277.031	107.56
277.262	90.56
277.494	96.56
277.726	82.56
277.957	85.56
278.189	85.56
278.421	77.56
278.652	83.56
278.884	68.56
279.115	83.56
279.347	97.56
279.579	95.56
279.81	81.56
280.042	90.56
280.273	78.56
280.505	92.56
280.736	79.56
280.968	73.56
281.199	77.56
281.431	94.56
281.662	77.56
281.894	86.56
282.125	135.56
282.356	140.56
282.588	169.56
282.819	122.56
283.051	90.56
283.282	99.56
283.513	90.56
283.745	88.56
283.976	90.56
284.207	76.56
284.439	92.56
284.67	91.56
284.901	85.56
285.132	94.56
285.364	92.56
285.595	93.56
285.826	82.56
286.057	77.56
286.288	91.56
286.52	75.56
286.751	91.56
286.982	92.56
287.213	77.56
287.444	96.56
287.675	85.56
287.906	77.56
288.138	97.56
288.369	100.56
288.6	85.56
288.831	92.56
289.062	79.56
289.293	90.56
289.524	79.56
289.755	81.56
289.986	91.56
290.217	89.56
290.448	101.56
290.679	89.56
290.91	83.56
291.141	98.56
291.371	81.56
291.602	90.56
291.833	91.56
292.064	92.56
292.295	91.56
292.526	83.56
292.757	83.56
292.987	81.56
293.218	91.56
293.449	90.56
293.68	90.56
293.91	82.56
294.141	85.56
294.372	95.56
294.603	87.56
294.833	87.56
295.064	85.56
295.295	97.56
295.525	103.56
295.756	111.56
295.987	130.56
296.217	175.56
296.448	158.56
296.679	98.56
296.909	105.56
297.14	93.56
297.37	93.56
297.601	81.56
297.831	79.56
298.062	92.56
298.292	91.56
298.523	97.56
298.753	81.56
298.984	91.56
299.214	81.56
299.445	91.56
299.675	103.56
299.905	102.56
300.136	98.56
300.366	83.56
300.597	88.56
300.827	80.56
301.057	110.56
301.288	119.56
301.518	101.56
301.748	92.56
301.979	106.56
302.209	98.56
302.439	97.56
302.669	79.56
302.9	88.56
303.13	96.56
303.36	85.56
303.59	99.56
303.82	109.56
304.051	97.56
304.281	90.56
304.511	96.56
304.741	96.56
304.971	82.56
305.201	79.56
305.431	89.56
305.661	107.56
305.891	100.56
306.121	98.56
306.352	112.56
306.582	125.56
306.812	99.56
307.042	97.56
307.272	99.56
307.502	93.56
307.731	100.56
307.961	97.56
308.191	90.56
308.421	77.56
308.651	72.56
308.881	86.56
309.111	99.56
309.341	101.56
309.571	104.56
309.8	123.56
310.03	121.56
310.26	104.56
310.49	97.56
310.72	114.56
310.949	124.56
311.179	90.56
311.409	85.56
311.639	109.56
311.868	106.56
312.098	99.56
312.328	96.56
312.557	100.56
312.787	133.56
313.017	112.56
313.246	102.56
313.476	79.56
313.706	85.56
313.935	100.56
314.165	121.56
314.394	115.56
314.624	116.56
314.853	97.56
315.083	102.56
315.312	79.56
315.542	91.56
315.771	99.56
316.001	78.56
316.23	94.56
316.46	99.56
316.689	84.56
316.919	94.56
317.148	86.56
317.377	91.56
317.607	104.56
317.836	92.56
318.065	100.56
318.295	106.56
318.524	93.56
318.753	91.56
318.983	87.56
319.212	109.56
319.441	145.56
319.67	124.56
319.9	97.56
320.129	96.56
320.358	91.56
320.587	101.56
320.816	100.56
321.046	111.56
321.275	95.56
321.504	85.56
321.733	112.56
321.962	105.56
322.191	100.56
322.42	125.56
322.649	138.56
322.878	127.56
323.108	143.56
323.337	151.56
323.566	185.56
323.795	212.56
324.024	307.56
324.253	650.56
324.482	1525.56
324.71	3201.56
324.939	4141.56
325.168	1444.56
325.397	393.56
325.626	207.56
325.855	159.56
326.084	147.56
326.313	158.56
326.542	201.56
326.77	330.56
326.999	753.56
327.228	1626.56
327.457	3113.56
327.686	2396.56
327.914	603.56
328.143	285.56
328.372	218.56
328.6	172.56
328.829	167.56
329.058	179.56
329.287	189.56
329.515	129.56
329.744	93.56
329.972	116.56
330.201	126.56
330.43	133.56
330.658	175.56
330.887	207.56
331.115	183.56
331.344	124.56
331.572	110.56
331.801	111.56
332.03	109.56
332.258	103.56
332.486	98.56
332.715	93.56
332.943	106.56
333.172	100.56
333.4	89.56
333.629	120.56
333.857	110.56
334.085	121.56
334.314	114.56
334.542	117.56
334.771	117.56
334.999	105.56
335.227	100.56
335.455	101.56
335.684	95.56
335.912	90.56
336.14	113.56
336.369	114.56
336.597	94.56
336.825	99.56
337.053	97.56
337.281	89.56
337.51	83.56
337.738	94.56
337.966	89.56
338.194	108.56
338.422	94.56
338.65	103.56
338.878	108.56
339.106	119.56
339.334	85.56
339.562	96.56
339.79	95.56
340.018	96.56
340.246	84.56
340.474	96.56
340.702	80.56
340.93	100.56
341.158	98.56
341.386	96.56
341.614	103.56
341.842	110.56
342.07	90.56
342.298	95.56
342.526	88.56
342.754	87.56
342.981	84.56
343.209	83.56
343.437	116.56
343.665	88.56
343.893	90.56
344.12	91.56
344.348	92.56
344.576	102.56
344.804	97.56
345.031	111.56
345.259	111.56
345.487	107.56
345.714	94.56
345.942	86.56
346.17	103.56
346.397	102.56
346.625	97.56
346.853	99.56
347.08	96.56
347.308	99.56
347.535	104.56
347.763	107.56
347.99	110.56
348.218	109.56
348.445	107.56
348.673	100.56
348.9	110.56
349.128	113.56
349.355	90.56
349.583	96.56
349.81	97.56
350.037	86.56
350.265	91.56
350.492	91.56
350.72	106.56
350.947	114.56
351.174	117.56
351.402	124.56
351.629	116.56
351.856	105.56
352.083	121.56
352.311	121.56
352.538	116.56
352.765	133.56
352.992	116.56
353.22	138.56
353.447	111.56
353.674	119.56
353.901	99.56
354.128	92.56
354.355	96.56
354.583	101.56
354.81	96.56
355.037	85.56
355.264	112.56
355.491	91.56
355.718	90.56
355.945	86.56
356.172	84.56
356.399	100.56
356.626	95.56
356.853	89.56
357.08	86.56
357.307	92.56
357.534	81.56
357.761	93.56
357.988	88.56
358.215	86.56
358.441	98.56
358.668	87.56
358.895	94.56
359.122	98.56
359.349	91.56
359.576	98.56
359.802	107.56
360.029	143.56
360.256	131.56
360.483	96.56
360.709	82.56
360.936	103.56
361.163	105.56
361.39	116.56
361.616	91.56
361.843	88.56
362.07	101.56
362.296	106.56
362.523	95.56
362.749	109.56
362.976	95.56
363.203	112.56
363.429	102.56
363.656	93.56
363.882	81.56
364.109	81.56
364.335	98.56
364.562	92.56
364.788	106.56
365.015	106.56
365.241	101.56
365.468	122.56
365.694	117.56
365.92	107.56
366.147	85.56
366.373	98.56
366.599	89.56
366.826	91.56
367.052	84.56
367.278	94.56
367.505	77.56
367.731	93.56
367.957	96.56
368.184	94.56
368.41	113.56
368.636	137.56
368.862	147.56
369.089	127.56
369.315	113.56
369.541	99.56
369.767	86.56
369.993	83.56
370.219	92.56
370.445	77.56
370.672	90.56
370.898	98.56
371.124	91.56
371.35	101.56
371.576	92.56
371.802	96.56
372.028	100.56
372.254	83.56
372.48	91.56
372.706	96.56
372.932	69.56
373.158	93.56
373.384	85.56
373.61	86.56
373.835	92.56
374.061	89.56
374.287	93.56
374.513	89.56
374.739	89.56
374.965	84.56
375.191	96.56
375.416	83.56
375.642	97.56
375.868	99.56
376.094	96.56
376.319	84.56
376.545	82.56
376.771	96.56
376.997	77.56
377.222	96.56
377.448	97.56
377.674	95.56
377.899	100.56
378.125	88.56
378.35	84.56
378.576	75.56
378.802	91.56
379.027	90.56
379.253	102.56
379.478	87.56
379.704	89.56
379.929	96.56
380.155	103.56
380.38	93.56
380.606	107.56
380.831	105.56
381.057	97.56
381.282	95.56
381.507	104.56
381.733	89.56
381.958	90.56
382.184	83.56
382.409	103.56
382.634	114.56
382.86	92.56
383.085	99.56
383.31	95.56
383.535	102.56
383.761	95.56
383.986	97.56
384.211	97.56
384.436	106.56
384.662	100.56
384.887	115.56
385.112	108.56
385.337	100.56
385.562	109.56
385.787	112.56
386.013	124.56
386.238	137.56
386.463	114.56
386.688	105.56
386.913	112.56
387.138	120.56
387.363	107.56
387.588	107.56
387.813	111.56
388.038	96.56
388.263	100.56
388.488	119.56
388.713	99.56
388.938	77.56
389.163	91.56
389.387	91.56
389.612	100.56
389.837	91.56
390.062	93.56
390.287	87.56
390.512	94.56
390.736	88.56
390.961	79.56
391.186	100.56
391.411	95.56
391.636	90.56
391.86	80.56
392.085	85.56
392.31	67.56
392.534	84.56
392.759	88.56
392.984	92.56
393.208	84.56
393.433	98.56
393.658	97.56
393.882	96.56
394.107	79.56
394.331	81.56
394.556	84.56
394.78	95.56
395.005	91.56
395.229	73.56
395.454	85.56
395.678	81.56
395.903	90.56
396.127	87.56
396.352	90.56
396.576	93.56
396.801	88.56
397.025	91.56
397.249	83.56
397.474	80.56
397.698	98.56
397.922	87.56
398.147	89.56
398.371	75.56
398.595	78.56
398.82	95.56
399.044	83.56
399.268	84.56
399.492	85.56
399.717	77.56
399.941	90.56
400.165	93.56
400.389	87.56
400.613	95.56
400.837	91.56
401.062	84.56
401.286	84.56
401.51	100.56
401.734	91.56
401.958	126.56
402.182	156.56
402.406	207.56
402.63	156.56
402.854	103.56
403.078	89.56
403.302	85.56
403.526	73.56
403.75	80.56
403.974	83.56
404.198	71.56
404.422	84.56
404.645	79.56
404.869	80.56
405.093	104.56
405.317	117.56
405.541	108.56
405.765	123.56
405.988	143.56
406.212	246.56
406.436	360.56
406.66	223.56
406.883	113.56
407.107	102.56
407.331	115.56
407.555	102.56
407.778	99.56
408.002	84.56
408.226	109.56
408.449	85.56
408.673	82.56
408.896	96.56
409.12	106.56
409.344	77.56
409.567	94.56
409.791	99.56
410.014	80.56
410.238	90.56
410.461	89.56
410.685	89.56
410.908	96.56
411.132	106.56
411.355	108.56
411.578	96.56
411.802	83.56
412.025	98.56
412.249	95.56
412.472	104.56
412.695	100.56
412.919	95.56
413.142	75.56
413.365	76.56
413.589	82.56
413.812	79.56
414.035	85.56
414.258	94.56
414.482	77.56
414.705	83.56
414.928	86.56
415.151	84.56
415.374	79.56
415.597	66.56
415.821	80.56
416.044	83.56
416.267	86.56
416.49	89.56
416.713	82.56
416.936	91.56
417.159	81.56
417.382	87.56
417.605	88.56
417.828	99.56
418.051	99.56
418.274	92.56
418.497	97.56
418.72	99.56
418.943	95.56
419.166	82.56
419.389	81.56
419.611	99.56
419.834	76.56
420.057	97.56
420.28	89.56
420.503	81.56
420.726	96.56
420.948	84.56
421.171	90.56
421.394	81.56
421.617	95.56
421.839	93.56
422.062	87.56
422.285	102.56
422.507	118.56
422.73	106.56
422.953	96.56
423.175	94.56
423.398	79.56
423.621	85.56
423.843	83.56
424.066	84.56
424.288	92.56
424.511	87.56
424.733	100.56
424.956	112.56
425.178	106.56
425.401	111.56
425.623	101.56
425.846	94.56
426.068	105.56
426.291	91.56
426.513	93.56
426.735	103.56
426.958	97.56
427.18	116.56
427.402	174.56
427.625	251.56
427.847	189.56
428.069	125.56
428.292	93.56
428.514	93.56
428.736	82.56
428.958	83.56
429.181	95.56
429.403	93.56
429.625	81.56
429.847	88.56
430.069	101.56
430.292	109.56
430.514	77.56
430.736	91.56
430.958	80.56
431.18	80.56
431.402	72.56
431.624	71.56
431.846	81.56
432.068	82.56
432.29	85.56
432.512	84.56
432.734	92.56
432.956	93.56
433.178	102.56
433.4	112.56
433.622	96.56
433.844	95.56
434.066	78.56
434.287	85.56
434.509	94.56
434.731	111.56
434.953	100.56
435.175	91.56
435.397	91.56
435.618	98.56
435.84	104.56
436.062	156.56
436.284	129.56
436.505	126.56
436.727	99.56
436.949	102.56
437.17	100.56
437.392	82.56
437.614	106.56
437.835	135.56
438.057	162.56
438.278	123.56
438.5	112.56
438.721	137.56
438.943	113.56
439.165	93.56
439.386	91.56
439.608	91.56
439.829	131.56
440.05	153.56
440.272	207.56
440.493	126.56
440.715	98.56
440.936	85.56
441.158	91.56
441.379	101.56
441.6	99.56
441.822	96.56
442.043	99.56
442.264	111.56
442.486	119.56
442.707	118.56
442.928	111.56
443.149	164.56
443.371	157.56
443.592	137.56
443.813	129.56
444.034	120.56
444.255	90.56
444.476	99.56
444.698	92.56
444.919	100.56
445.14	131.56
445.361	106.56
445.582	148.56
445.803	191.56
446.024	171.56
446.245	154.56
446.466	139.56
446.687	104.56
446.908	95.56
447.129	100.56
447.35	91.56
447.571	100.56
447.792	100.56
448.013	101.56
448.234	116.56
448.455	114.56
448.675	125.56
448.896	134.56
449.117	101.56
449.338	104.56
449.559	157.56
449.779	152.56
450	94.56
450.221	81.56
450.442	83.56
450.662	92.56
450.883	129.56
451.104	140.56
451.324	108.56
451.545	74.56
451.766	83.56
451.986	79.56
452.207	84.56
452.428	84.56
452.648	109.56
452.869	117.56
453.089	140.56
453.31	154.56
453.53	108.56
453.751	101.56
453.971	126.56
454.192	145.56
454.412	98.56
454.633	84.56
454.853	97.56
455.073	77.56
455.294	88.56
455.514	93.56
455.734	94.56
455.955	91.56
456.175	90.56
456.395	92.56
456.616	80.56
456.836	78.56
457.056	92.56
457.276	93.56
457.497	85.56
457.717	87.56
457.937	105.56
458.157	97.56
458.377	91.56
458.598	131.56
458.818	218.56
459.038	230.56
459.258	139.56
459.478	90.56
459.698	71.56
459.918	97.56
460.138	88.56
460.358	85.56
460.578	80.56
460.798	90.56
461.018	87.56
461.238	77.56
461.458	76.56
461.678	91.56
461.898	79.56
462.118	85.56
462.338	68.56
462.558	72.56
462.777	78.56
462.997	92.56
463.217	84.56
463.437	76.56
463.657	96.56
463.876	93.56
464.096	87.56
464.316	90.56
464.536	101.56
464.755	114.56
464.975	131.56
465.195	247.56
465.414	235.56
465.634	119.56
465.854	96.56
466.073	79.56
466.293	83.56
466.512	88.56
466.732	79.56
466.951	82.56
467.171	103.56
467.391	92.56
467.61	115.56
467.829	106.56
468.049	106.56
468.268	102.56
468.488	97.56
468.707	75.56
468.927	87.56
469.146	73.56
469.365	84.56
469.585	94.56
469.804	109.56
470.023	108.56
470.243	97.56
470.462	116.56
470.681	148.56
470.901	91.56
471.12	81.56
471.339	77.56
471.558	93.56
471.777	67.56
471.997	77.56
472.216	87.56
472.435	149.56
472.654	93.56
472.873	82.56
473.092	87.56
473.311	88.56
473.53	88.56
473.749	69.56
473.968	89.56
474.187	112.56
474.406	95.56
474.625	75.56
474.844	95.56
475.063	76.56
475.282	72.56
475.501	82.56
475.72	88.56
475.939	63.56
476.158	88.56
476.377	82.56
476.596	83.56
476.814	91.56
477.033	98.56
477.252	83.56
477.471	83.56
477.69	84.56
477.908	84.56
478.127	88.56
478.346	82.56
478.564	82.56
478.783	106.56
479.002	105.56
479.22	95.56
479.439	121.56
479.658	124.56
479.876	104.56
480.095	89.56
480.313	79.56
480.532	79.56
480.751	100.56
480.969	110.56
481.188	183.56
481.406	153.56
481.624	103.56
481.843	84.56
482.061	83.56
482.28	99.56
482.498	92.56
482.717	85.56
482.935	103.56
483.153	101.56
483.372	71.56
483.59	100.56
483.808	89.56
484.027	85.56
484.245	98.56
484.463	102.56
484.681	83.56
484.9	85.56
485.118	85.56
485.336	92.56
485.554	101.56
485.772	113.56
485.99	116.56
486.209	107.56
486.427	93.56
486.645	121.56
486.863	129.56
487.081	95.56
487.299	100.56
487.517	91.56
487.735	91.56
487.953	88.56
488.171	112.56
488.389	96.56
488.607	96.56
488.825	102.56
489.043	78.56
489.261	85.56
489.479	89.56
489.696	93.56
489.914	84.56
490.132	79.56
490.35	85.56
490.568	78.56
490.786	90.56
491.003	82.56
491.221	82.56
491.439	100.56
491.657	90.56
491.874	98.56
492.092	98.56
492.31	102.56
492.527	92.56
492.745	91.56
492.963	92.56
493.18	103.56
493.398	91.56
493.615	93.56
493.833	94.56
494.05	83.56
494.268	83.56
494.485	87.56
494.703	88.56
494.92	83.56
495.138	75.56
495.355	75.56
495.573	94.56
495.79	106.56
496.008	91.56
496.225	83.56
496.442	81.56
496.66	92.56
496.877	93.56
497.094	97.56
497.312	84.56
497.529	87.56
497.746	85.56
497.963	86.56
498.181	100.56
498.398	102.56
498.615	118.56
498.832	108.56
499.049	92.56
499.267	83.56
499.484	69.56
499.701	83.56
499.918	101.56
500.135	98.56
500.352	96.56
500.569	89.56
500.786	88.56
501.003	91.56
501.22	85.56
501.437	105.56
501.654	101.56
501.871	119.56
502.088	96.56
502.305	97.56
502.522	103.56
502.739	84.56
502.956	94.56
503.172	92.56
503.389	98.56
503.606	135.56
503.823	87.56
504.04	99.56
504.256	87.56
504.473	88.56
504.69	79.56
504.907	102.56
505.123	86.56
505.34	89.56
505.557	67.56
505.773	95.56
505.99	89.56
506.207	96.56
506.423	87.56
506.64	84.56
506.856	99.56
507.073	100.56
507.289	96.56
507.506	102.56
507.722	129.56
507.939	123.56
508.155	95.56
508.372	98.56
508.588	93.56
508.805	103.56
509.021	96.56
509.238	106.56
509.454	107.56
509.67	107.56
509.887	111.56
510.103	146.56
510.319	275.56
510.536	1100.56
510.752	3799.56
510.968	989.56
511.184	202.56
511.401	129.56
511.617	111.56
511.833	93.56
512.049	99.56
512.265	100.56
512.481	90.56
512.698	104.56
512.914	100.56
513.13	91.56
513.346	95.56
513.562	96.56
513.778	98.56
513.994	103.56
514.21	98.56
514.426	142.56
