Data from Circ_2006_H10_HRD10591_00083.txt Node
Date: Wed Jan 03 10:26:20 EST 2024
User: Yrep
Spectrometer: HR+D1059
Trigger mode: 1
Integration Time (sec): 1.000000E-1
Scans to average: 1
Electric dark correction enabled: true
Nonlinearity correction enabled: false
Boxcar width: 0
XAxis mode: Wavelengths
Number of Pixels in Spectrum: 2048
>>>>>Begin Spectral Data<<<<<
223.165	-15.56
223.4	-15.56
223.635	-15.56
223.869	-12.56
224.104	-20.56
224.338	-27.56
224.573	-18.56
224.808	-10.56
225.042	-14.56
225.277	-7.56
225.511	6.44
225.746	3.44
225.98	14.44
226.215	6.44
226.449	12.44
226.683	11.44
226.918	24.44
227.152	48.44
227.387	23.44
227.621	45.44
227.856	44.44
228.09	63.44
228.324	47.44
228.559	61.44
228.793	61.44
229.027	51.44
229.262	64.44
229.496	71.44
229.73	81.44
229.964	90.44
230.199	73.44
230.433	67.44
230.667	73.44
230.901	99.44
231.136	85.44
231.37	81.44
231.604	64.44
231.838	73.44
232.072	77.44
232.306	85.44
232.541	79.44
232.775	89.44
233.009	81.44
233.243	86.44
233.477	73.44
233.711	82.44
233.945	88.44
234.179	78.44
234.413	72.44
234.647	75.44
234.881	87.44
235.115	83.44
235.349	79.44
235.583	68.44
235.817	88.44
236.051	75.44
236.285	83.44
236.519	80.44
236.753	81.44
236.987	81.44
237.221	78.44
237.455	87.44
237.689	71.44
237.922	76.44
238.156	82.44
238.39	66.44
238.624	70.44
238.858	77.44
239.091	62.44
239.325	77.44
239.559	90.44
239.793	77.44
240.027	79.44
240.26	102.44
240.494	84.44
240.728	70.44
240.961	75.44
241.195	77.44
241.429	80.44
241.662	86.44
241.896	82.44
242.13	81.44
242.363	72.44
242.597	84.44
242.83	92.44
243.064	82.44
243.298	85.44
243.531	87.44
243.765	80.44
243.998	88.44
244.232	82.44
244.465	71.44
244.699	90.44
244.932	76.44
245.166	82.44
245.399	88.44
245.633	76.44
245.866	86.44
246.099	73.44
246.333	81.44
246.566	80.44
246.8	82.44
247.033	83.44
247.266	77.44
247.5	83.44
247.733	70.44
247.966	78.44
248.2	69.44
248.433	67.44
248.666	80.44
248.899	77.44
249.133	77.44
249.366	100.44
249.599	92.44
249.832	71.44
250.066	76.44
250.299	85.44
250.532	86.44
250.765	68.44
250.998	73.44
251.231	78.44
251.465	87.44
251.698	88.44
251.931	78.44
252.164	71.44
252.397	74.44
252.63	95.44
252.863	85.44
253.096	88.44
253.329	93.44
253.562	85.44
253.795	74.44
254.028	92.44
254.261	78.44
254.494	74.44
254.727	68.44
254.96	88.44
255.193	88.44
255.426	80.44
255.659	79.44
255.892	77.44
256.124	84.44
256.357	76.44
256.59	76.44
256.823	78.44
257.056	79.44
257.289	77.44
257.521	80.44
257.754	75.44
257.987	79.44
258.22	88.44
258.452	77.44
258.685	44.44
258.918	73.44
259.151	76.44
259.383	87.44
259.616	92.44
259.849	74.44
260.081	80.44
260.314	78.44
260.547	89.44
260.779	72.44
261.012	82.44
261.244	92.44
261.477	98.44
261.71	90.44
261.942	128.44
262.175	111.44
262.407	81.44
262.64	96.44
262.872	85.44
263.105	83.44
263.337	94.44
263.57	77.44
263.802	95.44
264.035	85.44
264.267	73.44
264.499	74.44
264.732	82.44
264.964	96.44
265.197	87.44
265.429	99.44
265.661	86.44
265.894	75.44
266.126	85.44
266.358	91.44
266.591	84.44
266.823	85.44
267.055	86.44
267.287	89.44
267.52	87.44
267.752	85.44
267.984	93.44
268.216	83.44
268.448	80.44
268.681	74.44
268.913	96.44
269.145	78.44
269.377	84.44
269.609	91.44
269.841	98.44
270.073	85.44
270.306	74.44
270.538	87.44
270.77	81.44
271.002	77.44
271.234	78.44
271.466	87.44
271.698	91.44
271.93	96.44
272.162	92.44
272.394	89.44
272.626	74.44
272.858	87.44
273.09	79.44
273.322	79.44
273.553	85.44
273.785	83.44
274.017	101.44
274.249	86.44
274.481	93.44
274.713	82.44
274.945	92.44
275.176	84.44
275.408	80.44
275.64	90.44
275.872	61.44
276.104	87.44
276.335	77.44
276.567	96.44
276.799	112.44
277.031	99.44
277.262	100.44
277.494	78.44
277.726	82.44
277.957	91.44
278.189	81.44
278.421	82.44
278.652	76.44
278.884	73.44
279.115	76.44
279.347	86.44
279.579	87.44
279.81	96.44
280.042	77.44
280.273	95.44
280.505	83.44
280.736	88.44
280.968	70.44
281.199	81.44
281.431	80.44
281.662	85.44
281.894	74.44
282.125	97.44
282.356	116.44
282.588	150.44
282.819	114.44
283.051	95.44
283.282	79.44
283.513	95.44
283.745	78.44
283.976	84.44
284.207	86.44
284.439	87.44
284.67	90.44
284.901	79.44
285.132	87.44
285.364	77.44
285.595	103.44
285.826	92.44
286.057	82.44
286.288	65.44
286.52	85.44
286.751	72.44
286.982	86.44
287.213	72.44
287.444	85.44
287.675	98.44
287.906	87.44
288.138	92.44
288.369	103.44
288.6	79.44
288.831	88.44
289.062	88.44
289.293	76.44
289.524	82.44
289.755	103.44
289.986	85.44
290.217	87.44
290.448	86.44
290.679	90.44
290.91	87.44
291.141	84.44
291.371	77.44
291.602	88.44
291.833	95.44
292.064	85.44
292.295	111.44
292.526	93.44
292.757	85.44
292.987	79.44
293.218	99.44
293.449	86.44
293.68	104.44
293.91	104.44
294.141	76.44
294.372	86.44
294.603	98.44
294.833	105.44
295.064	84.44
295.295	92.44
295.525	93.44
295.756	98.44
295.987	111.44
296.217	148.44
296.448	130.44
296.679	88.44
296.909	87.44
297.14	85.44
297.37	89.44
297.601	95.44
297.831	71.44
298.062	100.44
298.292	94.44
298.523	89.44
298.753	92.44
298.984	83.44
299.214	81.44
299.445	92.44
299.675	86.44
299.905	98.44
300.136	85.44
300.366	96.44
300.597	100.44
300.827	93.44
301.057	105.44
301.288	98.44
301.518	102.44
301.748	85.44
301.979	100.44
302.209	99.44
302.439	91.44
302.669	83.44
302.9	91.44
303.13	97.44
303.36	100.44
303.59	98.44
303.82	111.44
304.051	96.44
304.281	94.44
304.511	86.44
304.741	76.44
304.971	64.44
305.201	87.44
305.431	92.44
305.661	91.44
305.891	90.44
306.121	96.44
306.352	103.44
306.582	113.44
306.812	89.44
307.042	90.44
307.272	97.44
307.502	109.44
307.731	116.44
307.961	102.44
308.191	83.44
308.421	81.44
308.651	86.44
308.881	88.44
309.111	100.44
309.341	91.44
309.571	91.44
309.8	88.44
310.03	102.44
310.26	94.44
310.49	93.44
310.72	93.44
310.949	90.44
311.179	96.44
311.409	82.44
311.639	98.44
311.868	95.44
312.098	90.44
312.328	98.44
312.557	98.44
312.787	106.44
313.017	106.44
313.246	91.44
313.476	100.44
313.706	97.44
313.935	93.44
314.165	101.44
314.394	92.44
314.624	80.44
314.853	99.44
315.083	92.44
315.312	98.44
315.542	108.44
315.771	103.44
316.001	93.44
316.23	98.44
316.46	83.44
316.689	62.44
316.919	84.44
317.148	93.44
317.377	86.44
317.607	106.44
317.836	84.44
318.065	89.44
318.295	96.44
318.524	86.44
318.753	84.44
318.983	97.44
319.212	98.44
319.441	102.44
319.67	123.44
319.9	95.44
320.129	97.44
320.358	88.44
320.587	99.44
320.816	106.44
321.046	88.44
321.275	88.44
321.504	101.44
321.733	97.44
321.962	95.44
322.191	94.44
322.42	103.44
322.649	106.44
322.878	105.44
323.108	114.44
323.337	128.44
323.566	135.44
323.795	165.44
324.024	219.44
324.253	428.44
324.482	877.44
324.71	1894.44
324.939	2438.44
325.168	862.44
325.397	258.44
325.626	156.44
325.855	139.44
326.084	140.44
326.313	146.44
326.542	145.44
326.77	231.44
326.999	518.44
327.228	1036.44
327.457	1866.44
327.686	1494.44
327.914	392.44
328.143	222.44
328.372	170.44
328.6	137.44
328.829	123.44
329.058	133.44
329.287	119.44
329.515	109.44
329.744	114.44
329.972	126.44
330.201	139.44
330.43	171.44
330.658	148.44
330.887	142.44
331.115	133.44
331.344	99.44
331.572	93.44
331.801	109.44
332.03	108.44
332.258	89.44
332.486	103.44
332.715	86.44
332.943	88.44
333.172	91.44
333.4	97.44
333.629	108.44
333.857	105.44
334.085	117.44
334.314	147.44
334.542	190.44
334.771	173.44
334.999	109.44
335.227	102.44
335.455	99.44
335.684	110.44
335.912	94.44
336.14	97.44
336.369	89.44
336.597	99.44
336.825	108.44
337.053	89.44
337.281	92.44
337.51	97.44
337.738	98.44
337.966	95.44
338.194	99.44
338.422	88.44
338.65	87.44
338.878	94.44
339.106	73.44
339.334	95.44
339.562	89.44
339.79	93.44
340.018	83.44
340.246	94.44
340.474	95.44
340.702	75.44
340.93	91.44
341.158	109.44
341.386	94.44
341.614	96.44
341.842	88.44
342.07	87.44
342.298	96.44
342.526	92.44
342.754	100.44
342.981	106.44
343.209	95.44
343.437	86.44
343.665	83.44
343.893	86.44
344.12	101.44
344.348	107.44
344.576	95.44
344.804	96.44
345.031	107.44
345.259	86.44
345.487	95.44
345.714	89.44
345.942	83.44
346.17	83.44
346.397	93.44
346.625	95.44
346.853	93.44
347.08	91.44
347.308	99.44
347.535	108.44
347.763	100.44
347.99	100.44
348.218	103.44
348.445	99.44
348.673	102.44
348.9	108.44
349.128	84.44
349.355	92.44
349.583	97.44
349.81	88.44
350.037	87.44
350.265	104.44
350.492	78.44
350.72	98.44
350.947	93.44
351.174	111.44
351.402	119.44
351.629	103.44
351.856	94.44
352.083	101.44
352.311	107.44
352.538	111.44
352.765	123.44
352.992	94.44
353.22	87.44
353.447	110.44
353.674	104.44
353.901	102.44
354.128	94.44
354.355	87.44
354.583	109.44
354.81	84.44
355.037	97.44
355.264	85.44
355.491	103.44
355.718	87.44
355.945	79.44
356.172	89.44
356.399	95.44
356.626	87.44
356.853	104.44
357.08	97.44
357.307	81.44
357.534	103.44
357.761	92.44
357.988	98.44
358.215	96.44
358.441	90.44
358.668	72.44
358.895	80.44
359.122	96.44
359.349	98.44
359.576	76.44
359.802	106.44
360.029	102.44
360.256	115.44
360.483	84.44
360.709	89.44
360.936	98.44
361.163	94.44
361.39	92.44
361.616	88.44
361.843	84.44
362.07	94.44
362.296	102.44
362.523	88.44
362.749	94.44
362.976	80.44
363.203	104.44
363.429	100.44
363.656	82.44
363.882	96.44
364.109	82.44
364.335	92.44
364.562	80.44
364.788	86.44
365.015	95.44
365.241	100.44
365.468	111.44
365.694	98.44
365.92	102.44
366.147	98.44
366.373	93.44
366.599	86.44
366.826	86.44
367.052	82.44
367.278	103.44
367.505	85.44
367.731	80.44
367.957	89.44
368.184	111.44
368.41	102.44
368.636	114.44
368.862	116.44
369.089	98.44
369.315	96.44
369.541	85.44
369.767	71.44
369.993	100.44
370.219	96.44
370.445	86.44
370.672	74.44
370.898	87.44
371.124	93.44
371.35	93.44
371.576	77.44
371.802	78.44
372.028	79.44
372.254	83.44
372.48	92.44
372.706	88.44
372.932	80.44
373.158	88.44
373.384	98.44
373.61	104.44
373.835	104.44
374.061	84.44
374.287	88.44
374.513	82.44
374.739	102.44
374.965	93.44
375.191	83.44
375.416	76.44
375.642	93.44
375.868	86.44
376.094	79.44
376.319	83.44
376.545	86.44
376.771	85.44
376.997	87.44
377.222	85.44
377.448	100.44
377.674	85.44
377.899	100.44
378.125	81.44
378.35	100.44
378.576	91.44
378.802	98.44
379.027	93.44
379.253	97.44
379.478	84.44
379.704	85.44
379.929	109.44
380.155	101.44
380.38	96.44
380.606	101.44
380.831	85.44
381.057	98.44
381.282	94.44
381.507	101.44
381.733	94.44
381.958	88.44
382.184	91.44
382.409	90.44
382.634	97.44
382.86	98.44
383.085	94.44
383.31	108.44
383.535	102.44
383.761	98.44
383.986	99.44
384.211	95.44
384.436	109.44
384.662	94.44
384.887	103.44
385.112	109.44
385.337	111.44
385.562	86.44
385.787	88.44
386.013	115.44
386.238	124.44
386.463	109.44
386.688	114.44
386.913	94.44
387.138	119.44
387.363	116.44
387.588	109.44
387.813	95.44
388.038	106.44
388.263	134.44
388.488	117.44
388.713	94.44
388.938	95.44
389.163	87.44
389.387	98.44
389.612	95.44
389.837	87.44
390.062	97.44
390.287	94.44
390.512	94.44
390.736	100.44
390.961	110.44
391.186	104.44
391.411	99.44
391.636	93.44
391.86	83.44
392.085	78.44
392.31	100.44
392.534	95.44
392.759	89.44
392.984	78.44
393.208	103.44
393.433	95.44
393.658	90.44
393.882	79.44
394.107	78.44
394.331	100.44
394.556	95.44
394.78	98.44
395.005	82.44
395.229	78.44
395.454	100.44
395.678	78.44
395.903	88.44
396.127	98.44
396.352	82.44
396.576	100.44
396.801	95.44
397.025	90.44
397.249	89.44
397.474	85.44
397.698	88.44
397.922	86.44
398.147	98.44
398.371	84.44
398.595	88.44
398.82	96.44
399.044	74.44
399.268	81.44
399.492	109.44
399.717	90.44
399.941	78.44
400.165	86.44
400.389	98.44
400.613	85.44
400.837	97.44
401.062	105.44
401.286	99.44
401.51	86.44
401.734	84.44
401.958	107.44
402.182	127.44
402.406	147.44
402.63	124.44
402.854	94.44
403.078	81.44
403.302	81.44
403.526	92.44
403.75	91.44
403.974	99.44
404.198	92.44
404.422	88.44
404.645	88.44
404.869	84.44
405.093	95.44
405.317	96.44
405.541	95.44
405.765	100.44
405.988	108.44
406.212	178.44
406.436	240.44
406.66	163.44
406.883	99.44
407.107	78.44
407.331	84.44
407.555	102.44
407.778	98.44
408.002	86.44
408.226	84.44
408.449	92.44
408.673	81.44
408.896	87.44
409.12	92.44
409.344	96.44
409.567	99.44
409.791	96.44
410.014	98.44
410.238	92.44
410.461	86.44
410.685	103.44
410.908	96.44
411.132	94.44
411.355	106.44
411.578	94.44
411.802	89.44
412.025	87.44
412.249	79.44
412.472	84.44
412.695	90.44
412.919	77.44
413.142	87.44
413.365	82.44
413.589	82.44
413.812	84.44
414.035	86.44
414.258	101.44
414.482	95.44
414.705	104.44
414.928	83.44
415.151	92.44
415.374	94.44
415.597	77.44
415.821	95.44
416.044	92.44
416.267	86.44
416.49	98.44
416.713	91.44
416.936	85.44
417.159	104.44
417.382	97.44
417.605	96.44
417.828	97.44
418.051	84.44
418.274	102.44
418.497	91.44
418.72	94.44
418.943	95.44
419.166	88.44
419.389	105.44
419.611	92.44
419.834	69.44
420.057	86.44
420.28	96.44
420.503	90.44
420.726	81.44
420.948	110.44
421.171	91.44
421.394	83.44
421.617	83.44
421.839	84.44
422.062	88.44
422.285	95.44
422.507	101.44
422.73	100.44
422.953	99.44
423.175	91.44
423.398	80.44
423.621	91.44
423.843	84.44
424.066	83.44
424.288	100.44
424.511	87.44
424.733	105.44
424.956	102.44
425.178	93.44
425.401	97.44
425.623	98.44
425.846	91.44
426.068	75.44
426.291	98.44
426.513	103.44
426.735	98.44
426.958	97.44
427.18	99.44
427.402	135.44
427.625	168.44
427.847	147.44
428.069	127.44
428.292	100.44
428.514	80.44
428.736	85.44
428.958	85.44
429.181	95.44
429.403	87.44
429.625	98.44
429.847	83.44
430.069	88.44
430.292	88.44
430.514	91.44
430.736	93.44
430.958	76.44
431.18	78.44
431.402	91.44
431.624	88.44
431.846	96.44
432.068	91.44
432.29	85.44
432.512	89.44
432.734	95.44
432.956	87.44
433.178	107.44
433.4	102.44
433.622	105.44
433.844	95.44
434.066	94.44
434.287	94.44
434.509	85.44
434.731	82.44
434.953	86.44
435.175	71.44
435.397	95.44
435.618	99.44
435.84	100.44
436.062	130.44
436.284	114.44
436.505	103.44
436.727	119.44
436.949	102.44
437.17	92.44
437.392	75.44
437.614	92.44
437.835	107.44
438.057	107.44
438.278	104.44
438.5	118.44
438.721	102.44
438.943	116.44
439.165	93.44
439.386	98.44
439.608	78.44
439.829	90.44
440.05	112.44
440.272	105.44
440.493	98.44
440.715	93.44
440.936	97.44
441.158	88.44
441.379	79.44
441.6	87.44
441.822	94.44
442.043	94.44
442.264	105.44
442.486	108.44
442.707	96.44
442.928	118.44
443.149	125.44
443.371	138.44
443.592	115.44
443.813	113.44
444.034	96.44
444.255	107.44
444.476	90.44
444.698	94.44
444.919	99.44
445.14	115.44
445.361	125.44
445.582	112.44
445.803	131.44
446.024	141.44
446.245	142.44
446.466	89.44
446.687	78.44
446.908	95.44
447.129	84.44
447.35	98.44
447.571	86.44
447.792	90.44
448.013	92.44
448.234	115.44
448.455	109.44
448.675	105.44
448.896	120.44
449.117	93.44
449.338	97.44
449.559	116.44
449.779	120.44
450	97.44
450.221	89.44
450.442	84.44
450.662	83.44
450.883	104.44
451.104	111.44
451.324	87.44
451.545	97.44
451.766	91.44
451.986	72.44
452.207	96.44
452.428	85.44
452.648	101.44
452.869	112.44
453.089	122.44
453.31	119.44
453.53	102.44
453.751	84.44
453.971	106.44
454.192	112.44
454.412	104.44
454.633	100.44
454.853	91.44
455.073	107.44
455.294	93.44
455.514	87.44
455.734	99.44
455.955	88.44
456.175	98.44
456.395	83.44
456.616	76.44
456.836	80.44
457.056	86.44
457.276	72.44
457.497	76.44
457.717	74.44
457.937	92.44
458.157	106.44
458.377	96.44
458.598	106.44
458.818	148.44
459.038	146.44
459.258	118.44
459.478	100.44
459.698	99.44
459.918	92.44
460.138	87.44
460.358	84.44
460.578	87.44
460.798	103.44
461.018	88.44
461.238	83.44
461.458	95.44
461.678	82.44
461.898	98.44
462.118	86.44
462.338	94.44
462.558	73.44
462.777	84.44
462.997	90.44
463.217	97.44
463.437	101.44
463.657	92.44
463.876	90.44
464.096	96.44
464.316	85.44
464.536	88.44
464.755	97.44
464.975	116.44
465.195	162.44
465.414	161.44
465.634	105.44
465.854	78.44
466.073	93.44
466.293	82.44
466.512	95.44
466.732	91.44
466.951	82.44
467.171	92.44
467.391	106.44
467.61	123.44
467.829	97.44
468.049	106.44
468.268	117.44
468.488	76.44
468.707	77.44
468.927	92.44
469.146	83.44
469.365	76.44
469.585	87.44
469.804	103.44
470.023	93.44
470.243	90.44
470.462	104.44
470.681	101.44
470.901	87.44
471.12	87.44
471.339	107.44
471.558	87.44
471.777	96.44
471.997	94.44
472.216	150.44
472.435	229.44
472.654	110.44
472.873	93.44
473.092	91.44
473.311	86.44
473.53	90.44
473.749	101.44
473.968	97.44
474.187	110.44
474.406	101.44
474.625	93.44
474.844	78.44
475.063	91.44
475.282	80.44
475.501	83.44
475.72	88.44
475.939	88.44
476.158	87.44
476.377	87.44
476.596	93.44
476.814	95.44
477.033	110.44
477.252	95.44
477.471	77.44
477.69	83.44
477.908	82.44
478.127	83.44
478.346	83.44
478.564	88.44
478.783	87.44
479.002	86.44
479.22	91.44
479.439	94.44
479.658	107.44
479.876	105.44
480.095	115.44
480.313	98.44
480.532	108.44
480.751	114.44
480.969	157.44
481.188	343.44
481.406	241.44
481.624	123.44
481.843	97.44
482.061	78.44
482.28	104.44
482.498	91.44
482.717	76.44
482.935	87.44
483.153	83.44
483.372	88.44
483.59	84.44
483.808	100.44
484.027	88.44
484.245	79.44
484.463	94.44
484.681	112.44
484.9	102.44
485.118	100.44
485.336	91.44
485.554	92.44
485.772	96.44
485.99	99.44
486.209	105.44
486.427	94.44
486.645	92.44
486.863	136.44
487.081	109.44
487.299	110.44
487.517	95.44
487.735	89.44
487.953	103.44
488.171	96.44
488.389	91.44
488.607	119.44
488.825	85.44
489.043	95.44
489.261	85.44
489.479	98.44
489.696	108.44
489.914	91.44
490.132	101.44
490.35	77.44
490.568	87.44
490.786	78.44
491.003	97.44
491.221	76.44
491.439	85.44
491.657	104.44
491.874	96.44
492.092	108.44
492.31	88.44
492.527	78.44
492.745	89.44
492.963	95.44
493.18	87.44
493.398	94.44
493.615	95.44
493.833	89.44
494.05	87.44
494.268	88.44
494.485	84.44
494.703	94.44
494.92	94.44
495.138	87.44
495.355	89.44
495.573	105.44
495.79	93.44
496.008	87.44
496.225	95.44
496.442	95.44
496.66	88.44
496.877	101.44
497.094	86.44
497.312	81.44
497.529	95.44
497.746	85.44
497.963	95.44
498.181	88.44
498.398	100.44
498.615	87.44
498.832	96.44
499.049	91.44
499.267	96.44
499.484	95.44
499.701	99.44
499.918	91.44
500.135	93.44
500.352	91.44
500.569	91.44
500.786	91.44
501.003	85.44
501.22	90.44
501.437	94.44
501.654	101.44
501.871	99.44
502.088	91.44
502.305	98.44
502.522	86.44
502.739	90.44
502.956	99.44
503.172	93.44
503.389	101.44
503.606	103.44
503.823	89.44
504.04	96.44
504.256	79.44
504.473	84.44
504.69	83.44
504.907	99.44
505.123	108.44
505.34	84.44
505.557	91.44
505.773	88.44
505.99	80.44
506.207	98.44
506.423	79.44
506.64	96.44
506.856	94.44
507.073	86.44
507.289	104.44
507.506	104.44
507.722	103.44
507.939	113.44
508.155	90.44
508.372	100.44
508.588	97.44
508.805	91.44
509.021	112.44
509.238	107.44
509.454	85.44
509.67	106.44
509.887	103.44
510.103	122.44
510.319	223.44
510.536	798.44
510.752	2592.44
510.968	694.44
511.184	163.44
511.401	116.44
511.617	104.44
511.833	103.44
512.049	84.44
512.265	96.44
512.481	92.44
512.698	88.44
512.914	94.44
513.13	94.44
513.346	91.44
513.562	103.44
513.778	87.44
513.994	86.44
514.21	107.44
514.426	120.44
514.642	119.44
514.858	130.44
515.074	165.44
515.29	492.44
