Data from Circ_2006_H10_HRD10591_00034.txt Node
Date: Wed Jan 03 10:26:10 EST 2024
User: Yrep
Spectrometer: HR+D1059
Trigger mode: 1
Integration Time (sec): 1.000000E-1
Scans to average: 1
Electric dark correction enabled: true
Nonlinearity correction enabled: false
Boxcar width: 0
XAxis mode: Wavelengths
Number of Pixels in Spectrum: 2048
>>>>>Begin Spectral Data<<<<<
223.165	-14.81
223.4	-14.81
223.635	-14.81
223.869	-21.81
224.104	-19.81
224.338	-15.81
224.573	-33.81
224.808	-10.81
225.042	-0.81
225.277	-4.81
225.511	-1.81
225.746	9.19
225.98	11.19
226.215	17.19
226.449	27.19
226.683	12.19
226.918	14.19
227.152	33.19
227.387	19.19
227.621	48.19
227.856	47.19
228.09	49.19
228.324	45.19
228.559	43.19
228.793	70.19
229.027	67.19
229.262	62.19
229.496	70.19
229.73	108.19
229.964	84.19
230.199	89.19
230.433	77.19
230.667	85.19
230.901	86.19
231.136	79.19
231.37	69.19
231.604	88.19
231.838	82.19
232.072	72.19
232.306	82.19
232.541	87.19
232.775	83.19
233.009	82.19
233.243	84.19
233.477	96.19
233.711	84.19
233.945	76.19
234.179	77.19
234.413	86.19
234.647	82.19
234.881	78.19
235.115	79.19
235.349	75.19
235.583	78.19
235.817	92.19
236.051	87.19
236.285	73.19
236.519	82.19
236.753	77.19
236.987	86.19
237.221	78.19
237.455	93.19
237.689	70.19
237.922	84.19
238.156	73.19
238.39	74.19
238.624	90.19
238.858	78.19
239.091	75.19
239.325	69.19
239.559	74.19
239.793	81.19
240.027	66.19
240.26	81.19
240.494	79.19
240.728	84.19
240.961	75.19
241.195	78.19
241.429	80.19
241.662	76.19
241.896	92.19
242.13	78.19
242.363	68.19
242.597	74.19
242.83	74.19
243.064	82.19
243.298	80.19
243.531	82.19
243.765	91.19
243.998	73.19
244.232	73.19
244.465	87.19
244.699	71.19
244.932	74.19
245.166	92.19
245.399	89.19
245.633	91.19
245.866	81.19
246.099	91.19
246.333	77.19
246.566	74.19
246.8	82.19
247.033	81.19
247.266	73.19
247.5	77.19
247.733	78.19
247.966	88.19
248.2	89.19
248.433	76.19
248.666	72.19
248.899	83.19
249.133	81.19
249.366	101.19
249.599	97.19
249.832	83.19
250.066	89.19
250.299	80.19
250.532	91.19
250.765	78.19
250.998	80.19
251.231	61.19
251.465	81.19
251.698	90.19
251.931	78.19
252.164	85.19
252.397	76.19
252.63	81.19
252.863	86.19
253.096	84.19
253.329	93.19
253.562	83.19
253.795	90.19
254.028	93.19
254.261	74.19
254.494	78.19
254.727	86.19
254.96	80.19
255.193	71.19
255.426	81.19
255.659	81.19
255.892	82.19
256.124	80.19
256.357	77.19
256.59	93.19
256.823	94.19
257.056	82.19
257.289	86.19
257.521	81.19
257.754	82.19
257.987	75.19
258.22	85.19
258.452	76.19
258.685	81.19
258.918	79.19
259.151	108.19
259.383	97.19
259.616	77.19
259.849	87.19
260.081	70.19
260.314	73.19
260.547	81.19
260.779	89.19
261.012	99.19
261.244	95.19
261.477	100.19
261.71	108.19
261.942	123.19
262.175	133.19
262.407	106.19
262.64	86.19
262.872	75.19
263.105	95.19
263.337	98.19
263.57	86.19
263.802	95.19
264.035	88.19
264.267	76.19
264.499	84.19
264.732	78.19
264.964	80.19
265.197	85.19
265.429	86.19
265.661	87.19
265.894	90.19
266.126	77.19
266.358	77.19
266.591	82.19
266.823	100.19
267.055	87.19
267.287	75.19
267.52	92.19
267.752	79.19
267.984	87.19
268.216	70.19
268.448	79.19
268.681	90.19
268.913	86.19
269.145	85.19
269.377	78.19
269.609	79.19
269.841	80.19
270.073	96.19
270.306	78.19
270.538	79.19
270.77	90.19
271.002	96.19
271.234	87.19
271.466	98.19
271.698	87.19
271.93	92.19
272.162	105.19
272.394	70.19
272.626	90.19
272.858	85.19
273.09	98.19
273.322	95.19
273.553	66.19
273.785	77.19
274.017	86.19
274.249	81.19
274.481	83.19
274.713	75.19
274.945	90.19
275.176	100.19
275.408	85.19
275.64	80.19
275.872	87.19
276.104	85.19
276.335	90.19
276.567	109.19
276.799	130.19
277.031	107.19
277.262	102.19
277.494	99.19
277.726	88.19
277.957	91.19
278.189	86.19
278.421	71.19
278.652	82.19
278.884	87.19
279.115	83.19
279.347	104.19
279.579	102.19
279.81	90.19
280.042	100.19
280.273	87.19
280.505	84.19
280.736	99.19
280.968	101.19
281.199	91.19
281.431	87.19
281.662	80.19
281.894	86.19
282.125	106.19
282.356	126.19
282.588	169.19
282.819	126.19
283.051	91.19
283.282	91.19
283.513	96.19
283.745	73.19
283.976	71.19
284.207	98.19
284.439	80.19
284.67	88.19
284.901	98.19
285.132	83.19
285.364	85.19
285.595	87.19
285.826	87.19
286.057	87.19
286.288	84.19
286.52	89.19
286.751	92.19
286.982	77.19
287.213	91.19
287.444	95.19
287.675	96.19
287.906	100.19
288.138	86.19
288.369	115.19
288.6	88.19
288.831	94.19
289.062	93.19
289.293	81.19
289.524	93.19
289.755	95.19
289.986	85.19
290.217	82.19
290.448	95.19
290.679	92.19
290.91	93.19
291.141	91.19
291.371	86.19
291.602	97.19
291.833	95.19
292.064	89.19
292.295	82.19
292.526	91.19
292.757	103.19
292.987	93.19
293.218	77.19
293.449	99.19
293.68	96.19
293.91	91.19
294.141	112.19
294.372	89.19
294.603	89.19
294.833	89.19
295.064	91.19
295.295	91.19
295.525	101.19
295.756	115.19
295.987	116.19
296.217	165.19
296.448	142.19
296.679	96.19
296.909	97.19
297.14	88.19
297.37	92.19
297.601	103.19
297.831	99.19
298.062	92.19
298.292	82.19
298.523	92.19
298.753	82.19
298.984	87.19
299.214	100.19
299.445	95.19
299.675	106.19
299.905	107.19
300.136	100.19
300.366	87.19
300.597	92.19
300.827	102.19
301.057	115.19
301.288	109.19
301.518	98.19
301.748	99.19
301.979	106.19
302.209	103.19
302.439	87.19
302.669	73.19
302.9	90.19
303.13	99.19
303.36	90.19
303.59	109.19
303.82	116.19
304.051	110.19
304.281	104.19
304.511	80.19
304.741	78.19
304.971	96.19
305.201	89.19
305.431	98.19
305.661	102.19
305.891	115.19
306.121	102.19
306.352	109.19
306.582	109.19
306.812	96.19
307.042	101.19
307.272	87.19
307.502	104.19
307.731	96.19
307.961	81.19
308.191	106.19
308.421	90.19
308.651	91.19
308.881	98.19
309.111	90.19
309.341	113.19
309.571	98.19
309.8	109.19
310.03	94.19
310.26	108.19
310.49	100.19
310.72	93.19
310.949	115.19
311.179	106.19
311.409	101.19
311.639	99.19
311.868	98.19
312.098	96.19
312.328	100.19
312.557	108.19
312.787	97.19
313.017	103.19
313.246	98.19
313.476	96.19
313.706	94.19
313.935	110.19
314.165	109.19
314.394	109.19
314.624	97.19
314.853	100.19
315.083	100.19
315.312	90.19
315.542	103.19
315.771	98.19
316.001	114.19
316.23	111.19
316.46	92.19
316.689	96.19
316.919	100.19
317.148	91.19
317.377	99.19
317.607	91.19
317.836	103.19
318.065	114.19
318.295	102.19
318.524	105.19
318.753	113.19
318.983	71.19
319.212	97.19
319.441	118.19
319.67	115.19
319.9	105.19
320.129	97.19
320.358	91.19
320.587	112.19
320.816	115.19
321.046	118.19
321.275	110.19
321.504	91.19
321.733	92.19
321.962	82.19
322.191	103.19
322.42	106.19
322.649	118.19
322.878	121.19
323.108	126.19
323.337	133.19
323.566	159.19
323.795	191.19
324.024	288.19
324.253	619.19
324.482	1318.19
324.71	2830.19
324.939	3663.19
325.168	1275.19
325.397	339.19
325.626	177.19
325.855	154.19
326.084	143.19
326.313	148.19
326.542	190.19
326.77	311.19
326.999	698.19
327.228	1461.19
327.457	2759.19
327.686	2128.19
327.914	550.19
328.143	242.19
328.372	203.19
328.6	148.19
328.829	141.19
329.058	151.19
329.287	159.19
329.515	124.19
329.744	118.19
329.972	106.19
330.201	142.19
330.43	157.19
330.658	154.19
330.887	179.19
331.115	155.19
331.344	110.19
331.572	122.19
331.801	99.19
332.03	119.19
332.258	110.19
332.486	90.19
332.715	108.19
332.943	88.19
333.172	94.19
333.4	107.19
333.629	106.19
333.857	128.19
334.085	128.19
334.314	102.19
334.542	143.19
334.771	128.19
334.999	112.19
335.227	105.19
335.455	104.19
335.684	96.19
335.912	87.19
336.14	96.19
336.369	111.19
336.597	115.19
336.825	98.19
337.053	94.19
337.281	86.19
337.51	97.19
337.738	83.19
337.966	101.19
338.194	106.19
338.422	118.19
338.65	106.19
338.878	104.19
339.106	98.19
339.334	108.19
339.562	99.19
339.79	82.19
340.018	86.19
340.246	96.19
340.474	94.19
340.702	95.19
340.93	103.19
341.158	96.19
341.386	102.19
341.614	94.19
341.842	93.19
342.07	93.19
342.298	100.19
342.526	109.19
342.754	88.19
342.981	90.19
343.209	84.19
343.437	95.19
343.665	98.19
343.893	99.19
344.12	101.19
344.348	98.19
344.576	91.19
344.804	101.19
345.031	105.19
345.259	113.19
345.487	106.19
345.714	100.19
345.942	87.19
346.17	100.19
346.397	88.19
346.625	93.19
346.853	100.19
347.08	94.19
347.308	115.19
347.535	114.19
347.763	112.19
347.99	106.19
348.218	110.19
348.445	110.19
348.673	106.19
348.9	102.19
349.128	92.19
349.355	97.19
349.583	94.19
349.81	103.19
350.037	99.19
350.265	92.19
350.492	96.19
350.72	100.19
350.947	105.19
351.174	114.19
351.402	118.19
351.629	100.19
351.856	110.19
352.083	112.19
352.311	121.19
352.538	112.19
352.765	106.19
352.992	108.19
353.22	119.19
353.447	108.19
353.674	91.19
353.901	101.19
354.128	90.19
354.355	102.19
354.583	108.19
354.81	103.19
355.037	105.19
355.264	90.19
355.491	101.19
355.718	87.19
355.945	88.19
356.172	101.19
356.399	103.19
356.626	100.19
356.853	98.19
357.08	95.19
357.307	96.19
357.534	93.19
357.761	92.19
357.988	87.19
358.215	87.19
358.441	98.19
358.668	83.19
358.895	76.19
359.122	82.19
359.349	86.19
359.576	103.19
359.802	110.19
360.029	116.19
360.256	134.19
360.483	105.19
360.709	102.19
360.936	101.19
361.163	91.19
361.39	102.19
361.616	106.19
361.843	90.19
362.07	91.19
362.296	104.19
362.523	107.19
362.749	88.19
362.976	99.19
363.203	92.19
363.429	97.19
363.656	87.19
363.882	97.19
364.109	101.19
364.335	88.19
364.562	94.19
364.788	96.19
365.015	102.19
365.241	92.19
365.468	107.19
365.694	97.19
365.92	109.19
366.147	112.19
366.373	86.19
366.599	91.19
366.826	97.19
367.052	96.19
367.278	93.19
367.505	93.19
367.731	78.19
367.957	87.19
368.184	95.19
368.41	112.19
368.636	128.19
368.862	132.19
369.089	108.19
369.315	80.19
369.541	97.19
369.767	87.19
369.993	108.19
370.219	102.19
370.445	83.19
370.672	81.19
370.898	88.19
371.124	88.19
371.35	107.19
371.576	92.19
371.802	83.19
372.028	78.19
372.254	92.19
372.48	79.19
372.706	88.19
372.932	90.19
373.158	82.19
373.384	83.19
373.61	81.19
373.835	79.19
374.061	92.19
374.287	100.19
374.513	90.19
374.739	97.19
374.965	85.19
375.191	89.19
375.416	80.19
375.642	97.19
375.868	94.19
376.094	99.19
376.319	87.19
376.545	89.19
376.771	78.19
376.997	86.19
377.222	84.19
377.448	98.19
377.674	98.19
377.899	88.19
378.125	88.19
378.35	93.19
378.576	86.19
378.802	84.19
379.027	85.19
379.253	91.19
379.478	100.19
379.704	97.19
379.929	94.19
380.155	88.19
380.38	110.19
380.606	99.19
380.831	93.19
381.057	101.19
381.282	101.19
381.507	90.19
381.733	86.19
381.958	99.19
382.184	96.19
382.409	99.19
382.634	97.19
382.86	106.19
383.085	104.19
383.31	113.19
383.535	100.19
383.761	97.19
383.986	93.19
384.211	109.19
384.436	101.19
384.662	101.19
384.887	110.19
385.112	105.19
385.337	124.19
385.562	103.19
385.787	101.19
386.013	109.19
386.238	124.19
386.463	102.19
386.688	110.19
386.913	110.19
387.138	117.19
387.363	109.19
387.588	83.19
387.813	100.19
388.038	110.19
388.263	110.19
388.488	110.19
388.713	82.19
388.938	84.19
389.163	93.19
389.387	85.19
389.612	93.19
389.837	82.19
390.062	90.19
390.287	89.19
390.512	90.19
390.736	87.19
390.961	89.19
391.186	85.19
391.411	93.19
391.636	86.19
391.86	89.19
392.085	85.19
392.31	86.19
392.534	80.19
392.759	87.19
392.984	86.19
393.208	94.19
393.433	83.19
393.658	98.19
393.882	92.19
394.107	95.19
394.331	82.19
394.556	89.19
394.78	86.19
395.005	91.19
395.229	76.19
395.454	89.19
395.678	71.19
395.903	79.19
396.127	77.19
396.352	76.19
396.576	78.19
396.801	92.19
397.025	103.19
397.249	97.19
397.474	100.19
397.698	100.19
397.922	78.19
398.147	77.19
398.371	93.19
398.595	87.19
398.82	89.19
399.044	72.19
399.268	81.19
399.492	92.19
399.717	87.19
399.941	95.19
400.165	91.19
400.389	92.19
400.613	78.19
400.837	83.19
401.062	86.19
401.286	101.19
401.51	91.19
401.734	94.19
401.958	127.19
402.182	160.19
402.406	205.19
402.63	142.19
402.854	100.19
403.078	81.19
403.302	95.19
403.526	97.19
403.75	93.19
403.974	88.19
404.198	93.19
404.422	87.19
404.645	101.19
404.869	101.19
405.093	102.19
405.317	105.19
405.541	111.19
405.765	104.19
405.988	142.19
406.212	221.19
406.436	290.19
406.66	194.19
406.883	114.19
407.107	107.19
407.331	108.19
407.555	102.19
407.778	94.19
408.002	100.19
408.226	86.19
408.449	85.19
408.673	76.19
408.896	90.19
409.12	107.19
409.344	91.19
409.567	81.19
409.791	90.19
410.014	81.19
410.238	89.19
410.461	94.19
410.685	82.19
410.908	101.19
411.132	102.19
411.355	94.19
411.578	95.19
411.802	94.19
412.025	92.19
412.249	96.19
412.472	93.19
412.695	100.19
412.919	92.19
413.142	84.19
413.365	88.19
413.589	67.19
413.812	78.19
414.035	90.19
414.258	85.19
414.482	87.19
414.705	85.19
414.928	88.19
415.151	87.19
415.374	95.19
415.597	98.19
415.821	91.19
416.044	90.19
416.267	94.19
416.49	101.19
416.713	83.19
416.936	92.19
417.159	87.19
417.382	94.19
417.605	97.19
417.828	100.19
418.051	93.19
418.274	90.19
418.497	94.19
418.72	93.19
418.943	101.19
419.166	71.19
419.389	90.19
419.611	92.19
419.834	75.19
420.057	94.19
420.28	96.19
420.503	111.19
420.726	109.19
420.948	103.19
421.171	88.19
421.394	99.19
421.617	87.19
421.839	90.19
422.062	96.19
422.285	99.19
422.507	96.19
422.73	104.19
422.953	93.19
423.175	106.19
423.398	98.19
423.621	106.19
423.843	77.19
424.066	81.19
424.288	86.19
424.511	88.19
424.733	103.19
424.956	113.19
425.178	103.19
425.401	115.19
425.623	87.19
425.846	97.19
426.068	94.19
426.291	89.19
426.513	86.19
426.735	90.19
426.958	96.19
427.18	117.19
427.402	159.19
427.625	215.19
427.847	146.19
428.069	119.19
428.292	103.19
428.514	94.19
428.736	87.19
428.958	93.19
429.181	92.19
429.403	81.19
429.625	77.19
429.847	90.19
430.069	105.19
430.292	106.19
430.514	82.19
430.736	82.19
430.958	77.19
431.18	75.19
431.402	77.19
431.624	75.19
431.846	72.19
432.068	92.19
432.29	81.19
432.512	106.19
432.734	82.19
432.956	87.19
433.178	118.19
433.4	105.19
433.622	91.19
433.844	86.19
434.066	78.19
434.287	83.19
434.509	88.19
434.731	96.19
434.953	95.19
435.175	92.19
435.397	84.19
435.618	107.19
435.84	108.19
436.062	134.19
436.284	115.19
436.505	109.19
436.727	95.19
436.949	100.19
437.17	94.19
437.392	90.19
437.614	84.19
437.835	115.19
438.057	134.19
438.278	122.19
438.5	110.19
438.721	147.19
438.943	90.19
439.165	95.19
439.386	87.19
439.608	98.19
439.829	111.19
440.05	137.19
440.272	177.19
440.493	106.19
440.715	94.19
440.936	92.19
441.158	84.19
441.379	85.19
441.6	94.19
441.822	103.19
442.043	105.19
442.264	90.19
442.486	112.19
442.707	97.19
442.928	131.19
443.149	157.19
443.371	157.19
443.592	114.19
443.813	126.19
444.034	127.19
444.255	90.19
444.476	97.19
444.698	102.19
444.919	91.19
445.14	135.19
445.361	156.19
445.582	122.19
445.803	171.19
446.024	178.19
446.245	151.19
446.466	127.19
446.687	110.19
446.908	91.19
447.129	92.19
447.35	85.19
447.571	92.19
447.792	90.19
448.013	99.19
448.234	117.19
448.455	121.19
448.675	116.19
448.896	127.19
449.117	114.19
449.338	102.19
449.559	142.19
449.779	158.19
450	91.19
450.221	82.19
450.442	92.19
450.662	107.19
450.883	114.19
451.104	135.19
451.324	93.19
451.545	94.19
451.766	79.19
451.986	94.19
452.207	80.19
452.428	93.19
452.648	94.19
452.869	116.19
453.089	137.19
453.31	155.19
453.53	114.19
453.751	79.19
453.971	107.19
454.192	130.19
454.412	95.19
454.633	68.19
454.853	87.19
455.073	81.19
455.294	79.19
455.514	86.19
455.734	88.19
455.955	90.19
456.175	90.19
456.395	83.19
456.616	83.19
456.836	87.19
457.056	73.19
457.276	82.19
457.497	100.19
457.717	89.19
457.937	88.19
458.157	89.19
458.377	85.19
458.598	125.19
458.818	184.19
459.038	201.19
459.258	147.19
459.478	100.19
459.698	87.19
459.918	90.19
460.138	93.19
460.358	95.19
460.578	88.19
460.798	87.19
461.018	87.19
461.238	78.19
461.458	82.19
461.678	94.19
461.898	83.19
462.118	74.19
462.338	69.19
462.558	85.19
462.777	91.19
462.997	85.19
463.217	95.19
463.437	90.19
463.657	83.19
463.876	87.19
464.096	94.19
464.316	98.19
464.536	107.19
464.755	92.19
464.975	116.19
465.195	222.19
465.414	204.19
465.634	98.19
465.854	87.19
466.073	90.19
466.293	93.19
466.512	74.19
466.732	82.19
466.951	84.19
467.171	92.19
467.391	86.19
467.61	121.19
467.829	84.19
468.049	101.19
468.268	92.19
468.488	106.19
468.707	83.19
468.927	64.19
469.146	99.19
469.365	81.19
469.585	91.19
469.804	101.19
470.023	114.19
470.243	107.19
470.462	117.19
470.681	134.19
470.901	94.19
471.12	91.19
471.339	91.19
471.558	79.19
471.777	93.19
471.997	80.19
472.216	110.19
472.435	134.19
472.654	87.19
472.873	70.19
473.092	70.19
473.311	88.19
473.53	92.19
473.749	85.19
473.968	80.19
474.187	110.19
474.406	93.19
474.625	85.19
474.844	78.19
475.063	77.19
475.282	81.19
475.501	77.19
475.72	89.19
475.939	74.19
476.158	78.19
476.377	98.19
476.596	84.19
476.814	90.19
477.033	101.19
477.252	93.19
477.471	89.19
477.69	83.19
477.908	92.19
478.127	94.19
478.346	86.19
478.564	99.19
478.783	93.19
479.002	101.19
479.22	85.19
479.439	106.19
479.658	119.19
479.876	106.19
480.095	102.19
480.313	102.19
480.532	92.19
480.751	96.19
480.969	107.19
481.188	190.19
481.406	152.19
481.624	94.19
481.843	99.19
482.061	85.19
482.28	70.19
482.498	102.19
482.717	92.19
482.935	77.19
483.153	89.19
483.372	90.19
483.59	87.19
483.808	74.19
484.027	97.19
484.245	96.19
484.463	92.19
484.681	94.19
484.9	80.19
485.118	93.19
485.336	97.19
485.554	97.19
485.772	99.19
485.99	110.19
486.209	115.19
486.427	102.19
486.645	120.19
486.863	126.19
487.081	103.19
487.299	103.19
487.517	120.19
487.735	97.19
487.953	86.19
488.171	87.19
488.389	105.19
488.607	102.19
488.825	100.19
489.043	100.19
489.261	98.19
489.479	84.19
489.696	97.19
489.914	93.19
490.132	94.19
490.35	91.19
490.568	77.19
490.786	104.19
491.003	79.19
491.221	91.19
491.439	88.19
491.657	96.19
491.874	99.19
492.092	92.19
492.31	102.19
492.527	93.19
492.745	92.19
492.963	91.19
493.18	91.19
493.398	84.19
493.615	89.19
493.833	90.19
494.05	89.19
494.268	81.19
494.485	91.19
494.703	77.19
494.92	84.19
495.138	89.19
495.355	90.19
495.573	93.19
495.79	92.19
496.008	77.19
496.225	103.19
496.442	105.19
496.66	83.19
496.877	87.19
497.094	102.19
497.312	81.19
497.529	83.19
497.746	102.19
497.963	100.19
498.181	80.19
498.398	106.19
498.615	110.19
498.832	114.19
499.049	98.19
499.267	102.19
499.484	89.19
499.701	93.19
499.918	85.19
500.135	103.19
500.352	90.19
500.569	94.19
500.786	92.19
501.003	91.19
501.22	83.19
501.437	103.19
501.654	97.19
501.871	115.19
502.088	102.19
502.305	95.19
502.522	93.19
502.739	85.19
502.956	84.19
503.172	103.19
503.389	102.19
503.606	117.19
503.823	98.19
504.04	95.19
504.256	84.19
504.473	87.19
504.69	97.19
504.907	88.19
505.123	98.19
505.34	92.19
505.557	88.19
505.773	83.19
505.99	100.19
506.207	96.19
506.423	92.19
506.64	80.19
506.856	95.19
507.073	104.19
507.289	99.19
507.506	91.19
507.722	135.19
507.939	121.19
508.155	91.19
508.372	92.19
508.588	99.19
508.805	102.19
509.021	110.19
509.238	94.19
509.454	107.19
509.67	104.19
509.887	105.19
510.103	144.19
510.319	254.19
510.536	1045.19
510.752	3599.19
510.968	931.19
511.184	193.19
511.401	134.19
511.617	98.19
511.833	94.19
512.049	100.19
512.265	97.19
512.481	99.19
512.698	101.19
512.914	87.19
513.13	100.19
513.346	91.19
513.562	95.19
513.778	90.19
513.994	106.19
