Data from Circ_2006_H10_HRD10591_00014.txt Node
Date: Wed Jan 03 10:26:06 EST 2024
User: Yrep
Spectrometer: HR+D1059
Trigger mode: 1
Integration Time (sec): 1.000000E-1
Scans to average: 1
Electric dark correction enabled: true
Nonlinearity correction enabled: false
Boxcar width: 0
XAxis mode: Wavelengths
Number of Pixels in Spectrum: 2048
>>>>>Begin Spectral Data<<<<<
223.165	-7.69
223.4	-7.69
223.635	-7.69
223.869	0.31
224.104	-17.69
224.338	-16.69
224.573	-23.69
224.808	-15.69
225.042	-14.69
225.277	1.31
225.511	-3.69
225.746	8.31
225.98	12.31
226.215	1.31
226.449	4.31
226.683	8.31
226.918	24.31
227.152	39.31
227.387	36.31
227.621	39.31
227.856	54.31
228.09	36.31
228.324	55.31
228.559	61.31
228.793	70.31
229.027	81.31
229.262	88.31
229.496	70.31
229.73	83.31
229.964	74.31
230.199	83.31
230.433	76.31
230.667	84.31
230.901	81.31
231.136	74.31
231.37	82.31
231.604	74.31
231.838	90.31
232.072	79.31
232.306	78.31
232.541	85.31
232.775	91.31
233.009	93.31
233.243	73.31
233.477	96.31
233.711	84.31
233.945	87.31
234.179	82.31
234.413	88.31
234.647	62.31
234.881	79.31
235.115	98.31
235.349	80.31
235.583	85.31
235.817	89.31
236.051	79.31
236.285	79.31
236.519	85.31
236.753	73.31
236.987	80.31
237.221	90.31
237.455	91.31
237.689	80.31
237.922	83.31
238.156	82.31
238.39	80.31
238.624	77.31
238.858	76.31
239.091	80.31
239.325	81.31
239.559	88.31
239.793	87.31
240.027	76.31
240.26	77.31
240.494	70.31
240.728	89.31
240.961	71.31
241.195	90.31
241.429	89.31
241.662	72.31
241.896	72.31
242.13	88.31
242.363	76.31
242.597	76.31
242.83	66.31
243.064	81.31
243.298	83.31
243.531	73.31
243.765	78.31
243.998	82.31
244.232	83.31
244.465	84.31
244.699	87.31
244.932	69.31
245.166	84.31
245.399	82.31
245.633	71.31
245.866	65.31
246.099	82.31
246.333	75.31
246.566	84.31
246.8	81.31
247.033	88.31
247.266	85.31
247.5	90.31
247.733	83.31
247.966	87.31
248.2	77.31
248.433	81.31
248.666	96.31
248.899	88.31
249.133	94.31
249.366	115.31
249.599	100.31
249.832	83.31
250.066	88.31
250.299	100.31
250.532	90.31
250.765	64.31
250.998	77.31
251.231	85.31
251.465	78.31
251.698	72.31
251.931	85.31
252.164	80.31
252.397	71.31
252.63	79.31
252.863	63.31
253.096	89.31
253.329	82.31
253.562	77.31
253.795	77.31
254.028	95.31
254.261	83.31
254.494	78.31
254.727	89.31
254.96	76.31
255.193	80.31
255.426	80.31
255.659	85.31
255.892	88.31
256.124	86.31
256.357	92.31
256.59	85.31
256.823	74.31
257.056	81.31
257.289	94.31
257.521	83.31
257.754	76.31
257.987	73.31
258.22	87.31
258.452	101.31
258.685	81.31
258.918	92.31
259.151	79.31
259.383	87.31
259.616	92.31
259.849	86.31
260.081	86.31
260.314	88.31
260.547	84.31
260.779	93.31
261.012	88.31
261.244	98.31
261.477	90.31
261.71	116.31
261.942	137.31
262.175	124.31
262.407	96.31
262.64	76.31
262.872	75.31
263.105	77.31
263.337	78.31
263.57	77.31
263.802	86.31
264.035	80.31
264.267	84.31
264.499	98.31
264.732	86.31
264.964	92.31
265.197	102.31
265.429	73.31
265.661	81.31
265.894	88.31
266.126	92.31
266.358	73.31
266.591	88.31
266.823	82.31
267.055	90.31
267.287	90.31
267.52	76.31
267.752	90.31
267.984	88.31
268.216	84.31
268.448	86.31
268.681	83.31
268.913	89.31
269.145	80.31
269.377	85.31
269.609	94.31
269.841	84.31
270.073	82.31
270.306	79.31
270.538	78.31
270.77	79.31
271.002	94.31
271.234	90.31
271.466	99.31
271.698	93.31
271.93	91.31
272.162	92.31
272.394	71.31
272.626	104.31
272.858	95.31
273.09	89.31
273.322	96.31
273.553	106.31
273.785	90.31
274.017	85.31
274.249	99.31
274.481	85.31
274.713	84.31
274.945	81.31
275.176	93.31
275.408	108.31
275.64	95.31
275.872	93.31
276.104	94.31
276.335	83.31
276.567	110.31
276.799	117.31
277.031	104.31
277.262	95.31
277.494	104.31
277.726	90.31
277.957	116.31
278.189	84.31
278.421	100.31
278.652	87.31
278.884	101.31
279.115	80.31
279.347	94.31
279.579	89.31
279.81	87.31
280.042	84.31
280.273	98.31
280.505	84.31
280.736	89.31
280.968	80.31
281.199	86.31
281.431	89.31
281.662	85.31
281.894	87.31
282.125	110.31
282.356	116.31
282.588	163.31
282.819	126.31
283.051	99.31
283.282	83.31
283.513	87.31
283.745	79.31
283.976	95.31
284.207	75.31
284.439	95.31
284.67	101.31
284.901	92.31
285.132	94.31
285.364	106.31
285.595	79.31
285.826	89.31
286.057	90.31
286.288	71.31
286.52	84.31
286.751	88.31
286.982	100.31
287.213	89.31
287.444	87.31
287.675	86.31
287.906	84.31
288.138	93.31
288.369	87.31
288.6	95.31
288.831	85.31
289.062	93.31
289.293	93.31
289.524	88.31
289.755	85.31
289.986	92.31
290.217	94.31
290.448	86.31
290.679	93.31
290.91	88.31
291.141	93.31
291.371	80.31
291.602	88.31
291.833	85.31
292.064	92.31
292.295	74.31
292.526	93.31
292.757	83.31
292.987	86.31
293.218	90.31
293.449	77.31
293.68	96.31
293.91	83.31
294.141	76.31
294.372	84.31
294.603	94.31
294.833	93.31
295.064	75.31
295.295	88.31
295.525	95.31
295.756	100.31
295.987	120.31
296.217	163.31
296.448	148.31
296.679	91.31
296.909	88.31
297.14	99.31
297.37	95.31
297.601	84.31
297.831	83.31
298.062	96.31
298.292	113.31
298.523	95.31
298.753	101.31
298.984	88.31
299.214	101.31
299.445	88.31
299.675	91.31
299.905	95.31
300.136	95.31
300.366	86.31
300.597	91.31
300.827	84.31
301.057	100.31
301.288	103.31
301.518	96.31
301.748	91.31
301.979	96.31
302.209	90.31
302.439	92.31
302.669	93.31
302.9	89.31
303.13	80.31
303.36	93.31
303.59	95.31
303.82	124.31
304.051	96.31
304.281	90.31
304.511	101.31
304.741	92.31
304.971	100.31
305.201	93.31
305.431	97.31
305.661	109.31
305.891	92.31
306.121	95.31
306.352	108.31
306.582	118.31
306.812	100.31
307.042	89.31
307.272	91.31
307.502	95.31
307.731	101.31
307.961	82.31
308.191	89.31
308.421	98.31
308.651	92.31
308.881	100.31
309.111	93.31
309.341	108.31
309.571	105.31
309.8	96.31
310.03	97.31
310.26	98.31
310.49	105.31
310.72	92.31
310.949	103.31
311.179	112.31
311.409	105.31
311.639	94.31
311.868	101.31
312.098	115.31
312.328	105.31
312.557	113.31
312.787	112.31
313.017	94.31
313.246	106.31
313.476	93.31
313.706	99.31
313.935	95.31
314.165	97.31
314.394	111.31
314.624	108.31
314.853	104.31
315.083	86.31
315.312	89.31
315.542	98.31
315.771	93.31
316.001	99.31
316.23	75.31
316.46	87.31
316.689	92.31
316.919	88.31
317.148	89.31
317.377	100.31
317.607	93.31
317.836	106.31
318.065	109.31
318.295	99.31
318.524	84.31
318.753	97.31
318.983	84.31
319.212	108.31
319.441	133.31
319.67	118.31
319.9	103.31
320.129	93.31
320.358	100.31
320.587	114.31
320.816	119.31
321.046	113.31
321.275	104.31
321.504	105.31
321.733	104.31
321.962	109.31
322.191	111.31
322.42	112.31
322.649	114.31
322.878	110.31
323.108	128.31
323.337	135.31
323.566	158.31
323.795	173.31
324.024	247.31
324.253	520.31
324.482	1139.31
324.71	2429.31
324.939	3147.31
325.168	1137.31
325.397	295.31
325.626	182.31
325.855	151.31
326.084	148.31
326.313	168.31
326.542	195.31
326.77	288.31
326.999	623.31
327.228	1335.31
327.457	2403.31
327.686	1863.31
327.914	486.31
328.143	242.31
328.372	169.31
328.6	150.31
328.829	150.31
329.058	128.31
329.287	133.31
329.515	123.31
329.744	123.31
329.972	125.31
330.201	108.31
330.43	136.31
330.658	141.31
330.887	163.31
331.115	126.31
331.344	98.31
331.572	114.31
331.801	111.31
332.03	109.31
332.258	98.31
332.486	91.31
332.715	82.31
332.943	98.31
333.172	105.31
333.4	105.31
333.629	114.31
333.857	118.31
334.085	106.31
334.314	111.31
334.542	125.31
334.771	127.31
334.999	113.31
335.227	104.31
335.455	100.31
335.684	98.31
335.912	95.31
336.14	99.31
336.369	100.31
336.597	111.31
336.825	90.31
337.053	102.31
337.281	107.31
337.51	89.31
337.738	102.31
337.966	97.31
338.194	105.31
338.422	104.31
338.65	100.31
338.878	88.31
339.106	107.31
339.334	100.31
339.562	88.31
339.79	99.31
340.018	101.31
340.246	104.31
340.474	97.31
340.702	98.31
340.93	97.31
341.158	89.31
341.386	96.31
341.614	101.31
341.842	102.31
342.07	103.31
342.298	96.31
342.526	105.31
342.754	93.31
342.981	97.31
343.209	79.31
343.437	93.31
343.665	93.31
343.893	83.31
344.12	96.31
344.348	89.31
344.576	90.31
344.804	96.31
345.031	115.31
345.259	88.31
345.487	107.31
345.714	88.31
345.942	91.31
346.17	96.31
346.397	103.31
346.625	78.31
346.853	103.31
347.08	98.31
347.308	105.31
347.535	102.31
347.763	103.31
347.99	102.31
348.218	97.31
348.445	108.31
348.673	111.31
348.9	97.31
349.128	111.31
349.355	101.31
349.583	82.31
349.81	104.31
350.037	108.31
350.265	107.31
350.492	92.31
350.72	103.31
350.947	98.31
351.174	102.31
351.402	135.31
351.629	112.31
351.856	96.31
352.083	111.31
352.311	110.31
352.538	101.31
352.765	110.31
352.992	123.31
353.22	122.31
353.447	122.31
353.674	113.31
353.901	93.31
354.128	105.31
354.355	103.31
354.583	106.31
354.81	93.31
355.037	102.31
355.264	88.31
355.491	95.31
355.718	86.31
355.945	101.31
356.172	87.31
356.399	79.31
356.626	86.31
356.853	99.31
357.08	111.31
357.307	92.31
357.534	91.31
357.761	88.31
357.988	105.31
358.215	87.31
358.441	98.31
358.668	100.31
358.895	93.31
359.122	97.31
359.349	77.31
359.576	100.31
359.802	111.31
360.029	114.31
360.256	118.31
360.483	102.31
360.709	88.31
360.936	91.31
361.163	102.31
361.39	84.31
361.616	105.31
361.843	90.31
362.07	86.31
362.296	101.31
362.523	109.31
362.749	86.31
362.976	105.31
363.203	104.31
363.429	90.31
363.656	104.31
363.882	94.31
364.109	99.31
364.335	98.31
364.562	96.31
364.788	93.31
365.015	100.31
365.241	107.31
365.468	127.31
365.694	119.31
365.92	106.31
366.147	94.31
366.373	87.31
366.599	83.31
366.826	93.31
367.052	96.31
367.278	103.31
367.505	88.31
367.731	100.31
367.957	101.31
368.184	95.31
368.41	102.31
368.636	116.31
368.862	120.31
369.089	120.31
369.315	104.31
369.541	104.31
369.767	92.31
369.993	96.31
370.219	86.31
370.445	88.31
370.672	87.31
370.898	101.31
371.124	88.31
371.35	83.31
371.576	84.31
371.802	87.31
372.028	101.31
372.254	92.31
372.48	101.31
372.706	96.31
372.932	96.31
373.158	76.31
373.384	92.31
373.61	103.31
373.835	101.31
374.061	88.31
374.287	93.31
374.513	91.31
374.739	89.31
374.965	95.31
375.191	95.31
375.416	99.31
375.642	106.31
375.868	85.31
376.094	96.31
376.319	108.31
376.545	90.31
376.771	81.31
376.997	83.31
377.222	89.31
377.448	101.31
377.674	100.31
377.899	92.31
378.125	100.31
378.35	101.31
378.576	94.31
378.802	94.31
379.027	104.31
379.253	97.31
379.478	95.31
379.704	99.31
379.929	88.31
380.155	85.31
380.38	91.31
380.606	105.31
380.831	111.31
381.057	98.31
381.282	103.31
381.507	106.31
381.733	103.31
381.958	86.31
382.184	113.31
382.409	112.31
382.634	118.31
382.86	103.31
383.085	110.31
383.31	121.31
383.535	110.31
383.761	106.31
383.986	95.31
384.211	100.31
384.436	90.31
384.662	106.31
384.887	114.31
385.112	122.31
385.337	108.31
385.562	131.31
385.787	126.31
386.013	119.31
386.238	128.31
386.463	113.31
386.688	124.31
386.913	125.31
387.138	122.31
387.363	92.31
387.588	101.31
387.813	109.31
388.038	118.31
388.263	132.31
388.488	127.31
388.713	108.31
388.938	104.31
389.163	113.31
389.387	91.31
389.612	92.31
389.837	98.31
390.062	85.31
390.287	92.31
390.512	104.31
390.736	87.31
390.961	96.31
391.186	99.31
391.411	92.31
391.636	88.31
391.86	91.31
392.085	96.31
392.31	96.31
392.534	96.31
392.759	94.31
392.984	93.31
393.208	90.31
393.433	97.31
393.658	105.31
393.882	83.31
394.107	91.31
394.331	91.31
394.556	108.31
394.78	92.31
395.005	71.31
395.229	86.31
395.454	88.31
395.678	92.31
395.903	91.31
396.127	95.31
396.352	91.31
396.576	86.31
396.801	92.31
397.025	104.31
397.249	101.31
397.474	106.31
397.698	100.31
397.922	88.31
398.147	93.31
398.371	91.31
398.595	98.31
398.82	101.31
399.044	88.31
399.268	86.31
399.492	88.31
399.717	100.31
399.941	96.31
400.165	84.31
400.389	91.31
400.613	89.31
400.837	87.31
401.062	93.31
401.286	84.31
401.51	87.31
401.734	105.31
401.958	99.31
402.182	147.31
402.406	198.31
402.63	151.31
402.854	93.31
403.078	86.31
403.302	97.31
403.526	86.31
403.75	97.31
403.974	92.31
404.198	95.31
404.422	101.31
404.645	89.31
404.869	93.31
405.093	87.31
405.317	96.31
405.541	108.31
405.765	100.31
405.988	138.31
406.212	207.31
406.436	296.31
406.66	166.31
406.883	125.31
407.107	98.31
407.331	110.31
407.555	108.31
407.778	107.31
408.002	94.31
408.226	88.31
408.449	96.31
408.673	99.31
408.896	90.31
409.12	109.31
409.344	87.31
409.567	92.31
409.791	95.31
410.014	98.31
410.238	98.31
410.461	99.31
410.685	106.31
410.908	103.31
411.132	110.31
411.355	105.31
411.578	97.31
411.802	85.31
412.025	100.31
412.249	95.31
412.472	95.31
412.695	103.31
412.919	103.31
413.142	93.31
413.365	75.31
413.589	91.31
413.812	93.31
414.035	92.31
414.258	91.31
414.482	94.31
414.705	91.31
414.928	108.31
415.151	94.31
415.374	95.31
415.597	80.31
415.821	85.31
416.044	81.31
416.267	95.31
416.49	85.31
416.713	89.31
416.936	88.31
417.159	77.31
417.382	92.31
417.605	99.31
417.828	103.31
418.051	91.31
418.274	80.31
418.497	80.31
418.72	94.31
418.943	89.31
419.166	99.31
419.389	101.31
419.611	89.31
419.834	79.31
420.057	91.31
420.28	86.31
420.503	87.31
420.726	105.31
420.948	97.31
421.171	86.31
421.394	92.31
421.617	100.31
421.839	100.31
422.062	83.31
422.285	94.31
422.507	106.31
422.73	120.31
422.953	98.31
423.175	98.31
423.398	80.31
423.621	89.31
423.843	81.31
424.066	85.31
424.288	82.31
424.511	93.31
424.733	116.31
424.956	119.31
425.178	104.31
425.401	97.31
425.623	105.31
425.846	93.31
426.068	88.31
426.291	99.31
426.513	91.31
426.735	93.31
426.958	107.31
427.18	119.31
427.402	153.31
427.625	194.31
427.847	145.31
428.069	140.31
428.292	104.31
428.514	73.31
428.736	88.31
428.958	77.31
429.181	84.31
429.403	84.31
429.625	86.31
429.847	104.31
430.069	104.31
430.292	100.31
430.514	100.31
430.736	90.31
430.958	102.31
431.18	84.31
431.402	88.31
431.624	94.31
431.846	94.31
432.068	85.31
432.29	84.31
432.512	82.31
432.734	89.31
432.956	85.31
433.178	116.31
433.4	97.31
433.622	104.31
433.844	94.31
434.066	88.31
434.287	88.31
434.509	89.31
434.731	89.31
434.953	93.31
435.175	88.31
435.397	95.31
435.618	101.31
435.84	104.31
436.062	132.31
436.284	125.31
436.505	118.31
436.727	87.31
436.949	87.31
437.17	89.31
437.392	97.31
437.614	88.31
437.835	112.31
438.057	124.31
438.278	112.31
438.5	109.31
438.721	115.31
438.943	102.31
439.165	103.31
439.386	85.31
439.608	92.31
439.829	104.31
440.05	122.31
440.272	160.31
440.493	112.31
440.715	110.31
440.936	92.31
441.158	94.31
441.379	97.31
441.6	93.31
441.822	89.31
442.043	111.31
442.264	106.31
442.486	102.31
442.707	107.31
442.928	101.31
443.149	155.31
443.371	144.31
443.592	115.31
443.813	123.31
444.034	114.31
444.255	99.31
444.476	98.31
444.698	86.31
444.919	101.31
445.14	132.31
445.361	134.31
445.582	116.31
445.803	159.31
446.024	152.31
446.245	152.31
446.466	109.31
446.687	105.31
446.908	85.31
447.129	84.31
447.35	110.31
447.571	103.31
447.792	97.31
448.013	111.31
448.234	113.31
448.455	112.31
448.675	125.31
448.896	129.31
449.117	98.31
449.338	115.31
449.559	142.31
449.779	137.31
450	107.31
450.221	88.31
450.442	95.31
450.662	108.31
450.883	117.31
451.104	113.31
451.324	98.31
451.545	107.31
451.766	99.31
451.986	92.31
452.207	94.31
452.428	92.31
452.648	101.31
452.869	112.31
453.089	117.31
453.31	128.31
453.53	102.31
453.751	103.31
453.971	107.31
454.192	118.31
454.412	90.31
454.633	89.31
454.853	94.31
455.073	85.31
455.294	78.31
455.514	88.31
455.734	101.31
455.955	105.31
456.175	95.31
456.395	88.31
456.616	102.31
456.836	87.31
457.056	88.31
457.276	84.31
457.497	84.31
457.717	91.31
457.937	95.31
458.157	81.31
458.377	90.31
458.598	111.31
458.818	181.31
459.038	185.31
459.258	120.31
459.478	97.31
459.698	87.31
459.918	83.31
460.138	88.31
460.358	96.31
460.578	84.31
460.798	89.31
461.018	92.31
461.238	80.31
461.458	80.31
461.678	92.31
461.898	97.31
462.118	87.31
462.338	79.31
462.558	84.31
462.777	95.31
462.997	81.31
463.217	96.31
463.437	87.31
463.657	92.31
463.876	80.31
464.096	97.31
464.316	91.31
464.536	82.31
464.755	111.31
464.975	125.31
465.195	207.31
465.414	193.31
465.634	102.31
465.854	109.31
466.073	87.31
466.293	95.31
466.512	82.31
466.732	92.31
466.951	78.31
467.171	87.31
467.391	109.31
467.61	124.31
467.829	101.31
468.049	96.31
468.268	101.31
468.488	93.31
468.707	85.31
468.927	88.31
469.146	73.31
469.365	87.31
469.585	96.31
469.804	101.31
470.023	100.31
470.243	89.31
470.462	88.31
470.681	118.31
470.901	97.31
471.12	103.31
471.339	88.31
471.558	95.31
471.777	90.31
471.997	80.31
472.216	89.31
472.435	133.31
472.654	96.31
472.873	85.31
473.092	83.31
473.311	91.31
473.53	104.31
473.749	84.31
473.968	85.31
474.187	93.31
474.406	110.31
474.625	92.31
474.844	89.31
475.063	80.31
475.282	87.31
475.501	90.31
475.72	85.31
475.939	88.31
476.158	85.31
476.377	89.31
476.596	80.31
476.814	107.31
477.033	105.31
477.252	101.31
477.471	84.31
477.69	87.31
477.908	79.31
478.127	87.31
478.346	93.31
478.564	94.31
478.783	103.31
479.002	89.31
479.22	99.31
479.439	105.31
479.658	121.31
479.876	101.31
480.095	100.31
480.313	89.31
480.532	89.31
480.751	95.31
480.969	120.31
481.188	171.31
481.406	152.31
481.624	101.31
481.843	88.31
482.061	97.31
482.28	99.31
482.498	89.31
482.717	98.31
482.935	93.31
483.153	92.31
483.372	70.31
483.59	81.31
483.808	91.31
484.027	99.31
484.245	103.31
484.463	93.31
484.681	110.31
484.9	108.31
485.118	108.31
485.336	110.31
485.554	101.31
485.772	116.31
485.99	115.31
486.209	110.31
486.427	110.31
486.645	124.31
486.863	106.31
487.081	109.31
487.299	103.31
487.517	110.31
487.735	88.31
487.953	90.31
488.171	117.31
488.389	99.31
488.607	104.31
488.825	78.31
489.043	88.31
489.261	88.31
489.479	95.31
489.696	93.31
489.914	86.31
490.132	97.31
490.35	102.31
490.568	111.31
490.786	85.31
491.003	92.31
491.221	88.31
491.439	93.31
491.657	100.31
491.874	94.31
492.092	84.31
492.31	100.31
492.527	106.31
492.745	85.31
492.963	101.31
493.18	93.31
493.398	100.31
493.615	103.31
493.833	106.31
494.05	89.31
494.268	104.31
494.485	101.31
494.703	100.31
494.92	106.31
495.138	88.31
495.355	95.31
495.573	90.31
495.79	89.31
496.008	119.31
496.225	111.31
496.442	105.31
496.66	105.31
496.877	100.31
497.094	105.31
497.312	93.31
497.529	102.31
497.746	97.31
497.963	82.31
498.181	103.31
498.398	87.31
498.615	126.31
498.832	113.31
499.049	100.31
499.267	84.31
499.484	93.31
499.701	81.31
499.918	103.31
500.135	96.31
500.352	89.31
500.569	86.31
500.786	87.31
501.003	95.31
501.22	87.31
501.437	93.31
501.654	109.31
501.871	128.31
502.088	102.31
502.305	95.31
502.522	98.31
502.739	102.31
502.956	83.31
503.172	96.31
503.389	94.31
503.606	103.31
503.823	96.31
504.04	93.31
504.256	95.31
504.473	93.31
504.69	92.31
504.907	101.31
505.123	97.31
505.34	88.31
505.557	86.31
505.773	79.31
505.99	102.31
506.207	85.31
506.423	88.31
506.64	94.31
506.856	100.31
507.073	112.31
507.289	102.31
507.506	102.31
507.722	123.31
507.939	129.31
508.155	101.31
508.372	85.31
508.588	83.31
508.805	97.31
509.021	95.31
509.238	100.31
509.454	119.31
509.67	112.31
509.887	109.31
510.103	167.31
510.319	261.31
510.536	945.31
510.752	3244.31
510.968	879.31
511.184	185.31
511.401	133.31
511.617	112.31
511.833	91.31
512.049	102.31
512.265	88.31
512.481	95.31
512.698	103.31
512.914	94.31
513.13	109.31
513.346	88.31
