Data from Circ_2006_H10_HRD10591_00018.txt Node
Date: Wed Jan 03 10:26:07 EST 2024
User: Yrep
Spectrometer: HR+D1059
Trigger mode: 1
Integration Time (sec): 1.000000E-1
Scans to average: 1
Electric dark correction enabled: true
Nonlinearity correction enabled: false
Boxcar width: 0
XAxis mode: Wavelengths
Number of Pixels in Spectrum: 2048
>>>>>Begin Spectral Data<<<<<
223.165	-19.06
223.4	-19.06
223.635	-19.06
223.869	-26.06
224.104	-6.06
224.338	-18.06
224.573	-21.06
224.808	-18.06
225.042	-20.06
225.277	-0.06
225.511	-17.06
225.746	10.94
225.98	23.94
226.215	9.94
226.449	8.94
226.683	28.94
226.918	22.94
227.152	39.94
227.387	36.94
227.621	36.94
227.856	45.94
228.09	48.94
228.324	57.94
228.559	54.94
228.793	59.94
229.027	54.94
229.262	53.94
229.496	62.94
229.73	84.94
229.964	70.94
230.199	82.94
230.433	61.94
230.667	77.94
230.901	69.94
231.136	78.94
231.37	84.94
231.604	92.94
231.838	80.94
232.072	87.94
232.306	76.94
232.541	73.94
232.775	81.94
233.009	79.94
233.243	67.94
233.477	71.94
233.711	71.94
233.945	89.94
234.179	67.94
234.413	72.94
234.647	64.94
234.881	74.94
235.115	89.94
235.349	79.94
235.583	81.94
235.817	71.94
236.051	76.94
236.285	78.94
236.519	72.94
236.753	70.94
236.987	84.94
237.221	86.94
237.455	78.94
237.689	79.94
237.922	72.94
238.156	86.94
238.39	83.94
238.624	73.94
238.858	76.94
239.091	67.94
239.325	79.94
239.559	75.94
239.793	83.94
240.027	86.94
240.26	70.94
240.494	71.94
240.728	68.94
240.961	79.94
241.195	81.94
241.429	75.94
241.662	77.94
241.896	77.94
242.13	83.94
242.363	81.94
242.597	76.94
242.83	80.94
243.064	84.94
243.298	68.94
243.531	77.94
243.765	72.94
243.998	80.94
244.232	73.94
244.465	90.94
244.699	81.94
244.932	66.94
245.166	81.94
245.399	74.94
245.633	78.94
245.866	87.94
246.099	67.94
246.333	80.94
246.566	79.94
246.8	67.94
247.033	74.94
247.266	72.94
247.5	81.94
247.733	78.94
247.966	82.94
248.2	79.94
248.433	63.94
248.666	90.94
248.899	86.94
249.133	86.94
249.366	87.94
249.599	97.94
249.832	79.94
250.066	80.94
250.299	80.94
250.532	83.94
250.765	81.94
250.998	79.94
251.231	70.94
251.465	97.94
251.698	75.94
251.931	69.94
252.164	74.94
252.397	69.94
252.63	84.94
252.863	78.94
253.096	85.94
253.329	84.94
253.562	86.94
253.795	83.94
254.028	75.94
254.261	90.94
254.494	77.94
254.727	68.94
254.96	73.94
255.193	88.94
255.426	84.94
255.659	74.94
255.892	97.94
256.124	79.94
256.357	69.94
256.59	95.94
256.823	80.94
257.056	76.94
257.289	80.94
257.521	80.94
257.754	67.94
257.987	73.94
258.22	86.94
258.452	87.94
258.685	81.94
258.918	78.94
259.151	73.94
259.383	70.94
259.616	88.94
259.849	77.94
260.081	74.94
260.314	76.94
260.547	83.94
260.779	81.94
261.012	82.94
261.244	81.94
261.477	86.94
261.71	95.94
261.942	113.94
262.175	132.94
262.407	75.94
262.64	81.94
262.872	77.94
263.105	77.94
263.337	81.94
263.57	72.94
263.802	78.94
264.035	91.94
264.267	87.94
264.499	73.94
264.732	79.94
264.964	85.94
265.197	73.94
265.429	97.94
265.661	84.94
265.894	81.94
266.126	81.94
266.358	81.94
266.591	89.94
266.823	86.94
267.055	81.94
267.287	83.94
267.52	79.94
267.752	83.94
267.984	83.94
268.216	85.94
268.448	73.94
268.681	83.94
268.913	86.94
269.145	82.94
269.377	93.94
269.609	85.94
269.841	94.94
270.073	92.94
270.306	82.94
270.538	95.94
270.77	84.94
271.002	76.94
271.234	79.94
271.466	89.94
271.698	68.94
271.93	77.94
272.162	93.94
272.394	97.94
272.626	90.94
272.858	91.94
273.09	79.94
273.322	92.94
273.553	83.94
273.785	90.94
274.017	75.94
274.249	89.94
274.481	69.94
274.713	82.94
274.945	81.94
275.176	85.94
275.408	85.94
275.64	92.94
275.872	86.94
276.104	90.94
276.335	92.94
276.567	91.94
276.799	104.94
277.031	82.94
277.262	94.94
277.494	86.94
277.726	90.94
277.957	82.94
278.189	84.94
278.421	72.94
278.652	84.94
278.884	71.94
279.115	73.94
279.347	74.94
279.579	93.94
279.81	89.94
280.042	82.94
280.273	105.94
280.505	88.94
280.736	76.94
280.968	82.94
281.199	74.94
281.431	87.94
281.662	96.94
281.894	83.94
282.125	97.94
282.356	134.94
282.588	140.94
282.819	125.94
283.051	88.94
283.282	78.94
283.513	74.94
283.745	76.94
283.976	86.94
284.207	90.94
284.439	75.94
284.67	78.94
284.901	94.94
285.132	82.94
285.364	81.94
285.595	98.94
285.826	70.94
286.057	80.94
286.288	75.94
286.52	85.94
286.751	74.94
286.982	76.94
287.213	91.94
287.444	97.94
287.675	93.94
287.906	86.94
288.138	98.94
288.369	97.94
288.6	88.94
288.831	75.94
289.062	83.94
289.293	82.94
289.524	89.94
289.755	92.94
289.986	102.94
290.217	78.94
290.448	81.94
290.679	86.94
290.91	93.94
291.141	89.94
291.371	87.94
291.602	86.94
291.833	79.94
292.064	78.94
292.295	77.94
292.526	86.94
292.757	92.94
292.987	80.94
293.218	77.94
293.449	62.94
293.68	83.94
293.91	77.94
294.141	86.94
294.372	86.94
294.603	92.94
294.833	83.94
295.064	82.94
295.295	85.94
295.525	93.94
295.756	98.94
295.987	116.94
296.217	159.94
296.448	133.94
296.679	81.94
296.909	96.94
297.14	101.94
297.37	97.94
297.601	93.94
297.831	94.94
298.062	93.94
298.292	94.94
298.523	92.94
298.753	89.94
298.984	86.94
299.214	92.94
299.445	94.94
299.675	82.94
299.905	91.94
300.136	82.94
300.366	83.94
300.597	89.94
300.827	85.94
301.057	99.94
301.288	102.94
301.518	104.94
301.748	90.94
301.979	95.94
302.209	89.94
302.439	92.94
302.669	82.94
302.9	68.94
303.13	90.94
303.36	92.94
303.59	108.94
303.82	105.94
304.051	95.94
304.281	94.94
304.511	89.94
304.741	85.94
304.971	78.94
305.201	106.94
305.431	89.94
305.661	74.94
305.891	95.94
306.121	78.94
306.352	94.94
306.582	97.94
306.812	94.94
307.042	95.94
307.272	90.94
307.502	106.94
307.731	98.94
307.961	85.94
308.191	84.94
308.421	89.94
308.651	75.94
308.881	86.94
309.111	80.94
309.341	100.94
309.571	88.94
309.8	86.94
310.03	82.94
310.26	84.94
310.49	91.94
310.72	92.94
310.949	105.94
311.179	109.94
311.409	92.94
311.639	97.94
311.868	104.94
312.098	82.94
312.328	103.94
312.557	106.94
312.787	118.94
313.017	100.94
313.246	104.94
313.476	100.94
313.706	90.94
313.935	106.94
314.165	100.94
314.394	97.94
314.624	94.94
314.853	107.94
315.083	100.94
315.312	73.94
315.542	84.94
315.771	89.94
316.001	95.94
316.23	94.94
316.46	95.94
316.689	92.94
316.919	85.94
317.148	81.94
317.377	92.94
317.607	101.94
317.836	98.94
318.065	95.94
318.295	94.94
318.524	94.94
318.753	92.94
318.983	89.94
319.212	107.94
319.441	112.94
319.67	112.94
319.9	82.94
320.129	90.94
320.358	103.94
320.587	101.94
320.816	98.94
321.046	104.94
321.275	93.94
321.504	106.94
321.733	97.94
321.962	102.94
322.191	97.94
322.42	105.94
322.649	86.94
322.878	112.94
323.108	136.94
323.337	142.94
323.566	150.94
323.795	191.94
324.024	225.94
324.253	467.94
324.482	1026.94
324.71	2251.94
324.939	2860.94
325.168	1028.94
325.397	280.94
325.626	167.94
325.855	152.94
326.084	136.94
326.313	141.94
326.542	163.94
326.77	276.94
326.999	556.94
327.228	1173.94
327.457	2173.94
327.686	1744.94
327.914	454.94
328.143	221.94
328.372	160.94
328.6	136.94
328.829	120.94
329.058	131.94
329.287	136.94
329.515	104.94
329.744	109.94
329.972	92.94
330.201	116.94
330.43	119.94
330.658	141.94
330.887	155.94
331.115	138.94
331.344	107.94
331.572	93.94
331.801	112.94
332.03	110.94
332.258	86.94
332.486	94.94
332.715	100.94
332.943	92.94
333.172	85.94
333.4	114.94
333.629	107.94
333.857	111.94
334.085	104.94
334.314	94.94
334.542	97.94
334.771	109.94
334.999	105.94
335.227	104.94
335.455	94.94
335.684	95.94
335.912	93.94
336.14	88.94
336.369	100.94
336.597	90.94
336.825	90.94
337.053	89.94
337.281	98.94
337.51	90.94
337.738	94.94
337.966	82.94
338.194	106.94
338.422	95.94
338.65	89.94
338.878	102.94
339.106	85.94
339.334	88.94
339.562	88.94
339.79	100.94
340.018	90.94
340.246	85.94
340.474	103.94
340.702	80.94
340.93	92.94
341.158	103.94
341.386	98.94
341.614	102.94
341.842	107.94
342.07	94.94
342.298	86.94
342.526	94.94
342.754	85.94
342.981	100.94
343.209	80.94
343.437	95.94
343.665	81.94
343.893	73.94
344.12	84.94
344.348	99.94
344.576	97.94
344.804	89.94
345.031	95.94
345.259	98.94
345.487	92.94
345.714	97.94
345.942	93.94
346.17	100.94
346.397	96.94
346.625	84.94
346.853	91.94
347.08	84.94
347.308	90.94
347.535	101.94
347.763	90.94
347.99	98.94
348.218	107.94
348.445	104.94
348.673	94.94
348.9	101.94
349.128	88.94
349.355	88.94
349.583	95.94
349.81	100.94
350.037	88.94
350.265	105.94
350.492	94.94
350.72	95.94
350.947	106.94
351.174	116.94
351.402	100.94
351.629	105.94
351.856	104.94
352.083	102.94
352.311	105.94
352.538	103.94
352.765	112.94
352.992	123.94
353.22	104.94
353.447	113.94
353.674	111.94
353.901	92.94
354.128	92.94
354.355	73.94
354.583	112.94
354.81	90.94
355.037	105.94
355.264	90.94
355.491	91.94
355.718	101.94
355.945	106.94
356.172	91.94
356.399	98.94
356.626	98.94
356.853	93.94
357.08	113.94
357.307	100.94
357.534	102.94
357.761	99.94
357.988	77.94
358.215	110.94
358.441	89.94
358.668	80.94
358.895	94.94
359.122	85.94
359.349	91.94
359.576	100.94
359.802	102.94
360.029	115.94
360.256	119.94
360.483	108.94
360.709	85.94
360.936	82.94
361.163	87.94
361.39	103.94
361.616	99.94
361.843	91.94
362.07	84.94
362.296	94.94
362.523	96.94
362.749	84.94
362.976	92.94
363.203	98.94
363.429	95.94
363.656	94.94
363.882	79.94
364.109	95.94
364.335	88.94
364.562	90.94
364.788	100.94
365.015	91.94
365.241	90.94
365.468	101.94
365.694	103.94
365.92	90.94
366.147	90.94
366.373	94.94
366.599	89.94
366.826	94.94
367.052	101.94
367.278	87.94
367.505	106.94
367.731	100.94
367.957	87.94
368.184	102.94
368.41	91.94
368.636	120.94
368.862	111.94
369.089	124.94
369.315	104.94
369.541	97.94
369.767	84.94
369.993	83.94
370.219	96.94
370.445	81.94
370.672	101.94
370.898	83.94
371.124	86.94
371.35	93.94
371.576	87.94
371.802	75.94
372.028	93.94
372.254	80.94
372.48	96.94
372.706	73.94
372.932	78.94
373.158	79.94
373.384	95.94
373.61	87.94
373.835	90.94
374.061	89.94
374.287	79.94
374.513	101.94
374.739	89.94
374.965	84.94
375.191	95.94
375.416	94.94
375.642	86.94
375.868	99.94
376.094	88.94
376.319	86.94
376.545	94.94
376.771	88.94
376.997	93.94
377.222	89.94
377.448	109.94
377.674	106.94
377.899	91.94
378.125	90.94
378.35	97.94
378.576	86.94
378.802	83.94
379.027	84.94
379.253	95.94
379.478	97.94
379.704	85.94
379.929	89.94
380.155	89.94
380.38	90.94
380.606	108.94
380.831	104.94
381.057	91.94
381.282	92.94
381.507	89.94
381.733	94.94
381.958	93.94
382.184	91.94
382.409	117.94
382.634	98.94
382.86	106.94
383.085	99.94
383.31	104.94
383.535	109.94
383.761	108.94
383.986	94.94
384.211	98.94
384.436	108.94
384.662	111.94
384.887	99.94
385.112	109.94
385.337	105.94
385.562	107.94
385.787	115.94
386.013	126.94
386.238	130.94
386.463	101.94
386.688	94.94
386.913	98.94
387.138	105.94
387.363	108.94
387.588	115.94
387.813	125.94
388.038	122.94
388.263	117.94
388.488	117.94
388.713	104.94
388.938	82.94
389.163	100.94
389.387	97.94
389.612	85.94
389.837	92.94
390.062	100.94
390.287	87.94
390.512	94.94
390.736	90.94
390.961	98.94
391.186	95.94
391.411	79.94
391.636	82.94
391.86	85.94
392.085	82.94
392.31	90.94
392.534	86.94
392.759	85.94
392.984	100.94
393.208	82.94
393.433	93.94
393.658	113.94
393.882	92.94
394.107	83.94
394.331	80.94
394.556	87.94
394.78	91.94
395.005	77.94
395.229	83.94
395.454	81.94
395.678	84.94
395.903	90.94
396.127	91.94
396.352	83.94
396.576	85.94
396.801	89.94
397.025	90.94
397.249	91.94
397.474	84.94
397.698	73.94
397.922	72.94
398.147	93.94
398.371	97.94
398.595	78.94
398.82	71.94
399.044	72.94
399.268	87.94
399.492	87.94
399.717	94.94
399.941	84.94
400.165	89.94
400.389	86.94
400.613	84.94
400.837	87.94
401.062	96.94
401.286	78.94
401.51	95.94
401.734	88.94
401.958	90.94
402.182	130.94
402.406	170.94
402.63	139.94
402.854	93.94
403.078	88.94
403.302	89.94
403.526	93.94
403.75	77.94
403.974	92.94
404.198	78.94
404.422	81.94
404.645	84.94
404.869	86.94
405.093	94.94
405.317	111.94
405.541	104.94
405.765	97.94
405.988	113.94
406.212	180.94
406.436	250.94
406.66	175.94
406.883	112.94
407.107	91.94
407.331	101.94
407.555	105.94
407.778	89.94
408.002	64.94
408.226	86.94
408.449	83.94
408.673	85.94
408.896	101.94
409.12	98.94
409.344	94.94
409.567	86.94
409.791	91.94
410.014	90.94
410.238	101.94
410.461	93.94
410.685	90.94
410.908	106.94
411.132	97.94
411.355	104.94
411.578	85.94
411.802	94.94
412.025	85.94
412.249	83.94
412.472	91.94
412.695	93.94
412.919	78.94
413.142	83.94
413.365	86.94
413.589	75.94
413.812	98.94
414.035	84.94
414.258	84.94
414.482	106.94
414.705	87.94
414.928	96.94
415.151	108.94
415.374	110.94
415.597	77.94
415.821	84.94
416.044	83.94
416.267	92.94
416.49	86.94
416.713	84.94
416.936	91.94
417.159	91.94
417.382	74.94
417.605	89.94
417.828	97.94
418.051	101.94
418.274	83.94
418.497	88.94
418.72	79.94
418.943	94.94
419.166	94.94
419.389	84.94
419.611	91.94
419.834	88.94
420.057	103.94
420.28	78.94
420.503	78.94
420.726	84.94
420.948	93.94
421.171	93.94
421.394	108.94
421.617	82.94
421.839	90.94
422.062	80.94
422.285	83.94
422.507	106.94
422.73	96.94
422.953	99.94
423.175	90.94
423.398	81.94
423.621	96.94
423.843	84.94
424.066	86.94
424.288	91.94
424.511	89.94
424.733	94.94
424.956	111.94
425.178	108.94
425.401	100.94
425.623	94.94
425.846	98.94
426.068	80.94
426.291	88.94
426.513	93.94
426.735	93.94
426.958	100.94
427.18	105.94
427.402	155.94
427.625	178.94
427.847	120.94
428.069	113.94
428.292	93.94
428.514	82.94
428.736	88.94
428.958	96.94
429.181	91.94
429.403	97.94
429.625	85.94
429.847	98.94
430.069	94.94
430.292	93.94
430.514	88.94
430.736	85.94
430.958	104.94
431.18	78.94
431.402	84.94
431.624	98.94
431.846	75.94
432.068	72.94
432.29	81.94
432.512	96.94
432.734	93.94
432.956	85.94
433.178	101.94
433.4	99.94
433.622	101.94
433.844	92.94
434.066	93.94
434.287	102.94
434.509	86.94
434.731	83.94
434.953	104.94
435.175	84.94
435.397	78.94
435.618	86.94
435.84	115.94
436.062	138.94
436.284	129.94
436.505	99.94
436.727	116.94
436.949	96.94
437.17	86.94
437.392	86.94
437.614	86.94
437.835	109.94
438.057	117.94
438.278	110.94
438.5	101.94
438.721	120.94
438.943	105.94
439.165	86.94
439.386	73.94
439.608	98.94
439.829	108.94
440.05	135.94
440.272	148.94
440.493	113.94
440.715	89.94
440.936	96.94
441.158	102.94
441.379	78.94
441.6	92.94
441.822	91.94
442.043	100.94
442.264	96.94
442.486	99.94
442.707	96.94
442.928	111.94
443.149	116.94
443.371	141.94
443.592	124.94
443.813	117.94
444.034	111.94
444.255	83.94
444.476	93.94
444.698	84.94
444.919	82.94
445.14	118.94
445.361	114.94
445.582	123.94
445.803	132.94
446.024	149.94
446.245	156.94
446.466	126.94
446.687	91.94
446.908	84.94
447.129	83.94
447.35	85.94
447.571	91.94
447.792	77.94
448.013	96.94
448.234	94.94
448.455	94.94
448.675	122.94
448.896	120.94
449.117	105.94
449.338	122.94
449.559	134.94
449.779	147.94
450	113.94
450.221	91.94
450.442	94.94
450.662	95.94
450.883	96.94
451.104	90.94
451.324	98.94
451.545	95.94
451.766	85.94
451.986	101.94
452.207	83.94
452.428	93.94
452.648	81.94
452.869	112.94
453.089	113.94
453.31	122.94
453.53	93.94
453.751	87.94
453.971	119.94
454.192	108.94
454.412	92.94
454.633	76.94
454.853	96.94
455.073	85.94
455.294	82.94
455.514	113.94
455.734	85.94
455.955	97.94
456.175	89.94
456.395	71.94
456.616	86.94
456.836	73.94
457.056	77.94
457.276	90.94
457.497	97.94
457.717	95.94
457.937	96.94
458.157	78.94
458.377	87.94
458.598	122.94
458.818	143.94
459.038	167.94
459.258	120.94
459.478	93.94
459.698	90.94
459.918	77.94
460.138	84.94
460.358	76.94
460.578	84.94
460.798	83.94
461.018	102.94
461.238	86.94
461.458	88.94
461.678	77.94
461.898	80.94
462.118	73.94
462.338	90.94
462.558	86.94
462.777	83.94
462.997	87.94
463.217	81.94
463.437	105.94
463.657	73.94
463.876	76.94
464.096	84.94
464.316	104.94
464.536	97.94
464.755	96.94
464.975	111.94
465.195	198.94
465.414	172.94
465.634	105.94
465.854	93.94
466.073	82.94
466.293	82.94
466.512	68.94
466.732	93.94
466.951	87.94
467.171	92.94
467.391	93.94
467.61	105.94
467.829	99.94
468.049	102.94
468.268	84.94
468.488	92.94
468.707	95.94
468.927	89.94
469.146	94.94
469.365	80.94
469.585	87.94
469.804	98.94
470.023	97.94
470.243	103.94
470.462	96.94
470.681	121.94
470.901	94.94
471.12	96.94
471.339	78.94
471.558	70.94
471.777	85.94
471.997	81.94
472.216	104.94
472.435	99.94
472.654	91.94
472.873	95.94
473.092	83.94
473.311	68.94
473.53	91.94
473.749	80.94
473.968	89.94
474.187	100.94
474.406	108.94
474.625	82.94
474.844	92.94
475.063	91.94
475.282	92.94
475.501	75.94
475.72	93.94
475.939	86.94
476.158	75.94
476.377	70.94
476.596	85.94
476.814	94.94
477.033	95.94
477.252	71.94
477.471	90.94
477.69	89.94
477.908	89.94
478.127	90.94
478.346	85.94
478.564	88.94
478.783	99.94
479.002	115.94
479.22	91.94
479.439	101.94
479.658	101.94
479.876	82.94
480.095	86.94
480.313	95.94
480.532	76.94
480.751	100.94
480.969	93.94
481.188	131.94
481.406	116.94
481.624	98.94
481.843	87.94
482.061	94.94
482.28	98.94
482.498	92.94
482.717	87.94
482.935	92.94
483.153	94.94
483.372	98.94
483.59	80.94
483.808	83.94
484.027	90.94
484.245	97.94
484.463	82.94
484.681	88.94
484.9	100.94
485.118	92.94
485.336	105.94
485.554	98.94
485.772	107.94
485.99	111.94
486.209	117.94
486.427	115.94
486.645	117.94
486.863	120.94
487.081	100.94
487.299	101.94
487.517	87.94
487.735	98.94
487.953	77.94
488.171	92.94
488.389	82.94
488.607	88.94
488.825	94.94
489.043	76.94
489.261	92.94
489.479	93.94
489.696	97.94
489.914	89.94
490.132	96.94
490.35	80.94
490.568	78.94
490.786	83.94
491.003	77.94
491.221	92.94
491.439	91.94
491.657	75.94
491.874	88.94
492.092	90.94
492.31	99.94
492.527	91.94
492.745	84.94
492.963	88.94
493.18	98.94
493.398	106.94
493.615	98.94
493.833	107.94
494.05	93.94
494.268	81.94
494.485	76.94
494.703	89.94
494.92	82.94
495.138	85.94
495.355	98.94
495.573	93.94
495.79	90.94
496.008	85.94
496.225	92.94
496.442	105.94
496.66	95.94
496.877	75.94
497.094	89.94
497.312	88.94
497.529	108.94
497.746	96.94
497.963	96.94
498.181	89.94
498.398	90.94
498.615	115.94
498.832	96.94
499.049	83.94
499.267	86.94
499.484	96.94
499.701	84.94
499.918	78.94
500.135	77.94
500.352	78.94
500.569	86.94
500.786	93.94
501.003	83.94
501.22	89.94
501.437	105.94
501.654	102.94
501.871	97.94
502.088	92.94
502.305	96.94
502.522	79.94
502.739	73.94
502.956	83.94
503.172	87.94
503.389	101.94
503.606	110.94
503.823	79.94
504.04	85.94
504.256	86.94
504.473	86.94
504.69	89.94
504.907	92.94
505.123	98.94
505.34	94.94
505.557	84.94
505.773	91.94
505.99	87.94
506.207	88.94
506.423	95.94
506.64	95.94
506.856	82.94
507.073	80.94
507.289	94.94
507.506	96.94
507.722	117.94
507.939	117.94
508.155	103.94
508.372	90.94
508.588	92.94
508.805	99.94
509.021	97.94
509.238	101.94
509.454	106.94
509.67	104.94
509.887	110.94
510.103	151.94
510.319	241.94
510.536	880.94
510.752	2887.94
510.968	786.94
511.184	164.94
511.401	122.94
511.617	105.94
511.833	97.94
512.049	106.94
512.265	89.94
512.481	93.94
512.698	101.94
512.914	94.94
513.13	100.94
513.346	89.94
513.562	101.94
513.778	96.94
513.994	98.94
514.21	104.94
514.426	121.94
514.642	143.94
514.858	154.94
515.074	177.94
515.29	538.94
515.506	1890.94
