Data from Circ_2006_H10_HRD10591_00063.txt Node
Date: Wed Jan 03 10:26:16 EST 2024
User: Yrep
Spectrometer: HR+D1059
Trigger mode: 1
Integration Time (sec): 1.000000E-1
Scans to average: 1
Electric dark correction enabled: true
Nonlinearity correction enabled: false
Boxcar width: 0
XAxis mode: Wavelengths
Number of Pixels in Spectrum: 2048
>>>>>Begin Spectral Data<<<<<
223.165	-20.44
223.4	-20.44
223.635	-20.44
223.869	-19.44
224.104	-19.44
224.338	-12.44
224.573	-19.44
224.808	7.56
225.042	-13.44
225.277	-9.44
225.511	5.56
225.746	2.56
225.98	3.56
226.215	13.56
226.449	9.56
226.683	14.56
226.918	14.56
227.152	42.56
227.387	32.56
227.621	36.56
227.856	41.56
228.09	44.56
228.324	51.56
228.559	57.56
228.793	74.56
229.027	68.56
229.262	59.56
229.496	59.56
229.73	80.56
229.964	87.56
230.199	64.56
230.433	64.56
230.667	79.56
230.901	79.56
231.136	79.56
231.37	75.56
231.604	91.56
231.838	72.56
232.072	86.56
232.306	87.56
232.541	79.56
232.775	79.56
233.009	77.56
233.243	82.56
233.477	81.56
233.711	73.56
233.945	76.56
234.179	85.56
234.413	83.56
234.647	72.56
234.881	77.56
235.115	70.56
235.349	87.56
235.583	85.56
235.817	74.56
236.051	73.56
236.285	75.56
236.519	69.56
236.753	72.56
236.987	81.56
237.221	88.56
237.455	89.56
237.689	78.56
237.922	82.56
238.156	71.56
238.39	75.56
238.624	74.56
238.858	81.56
239.091	83.56
239.325	84.56
239.559	62.56
239.793	71.56
240.027	83.56
240.26	98.56
240.494	81.56
240.728	86.56
240.961	81.56
241.195	70.56
241.429	76.56
241.662	66.56
241.896	89.56
242.13	81.56
242.363	79.56
242.597	70.56
242.83	81.56
243.064	86.56
243.298	81.56
243.531	77.56
243.765	64.56
243.998	74.56
244.232	83.56
244.465	74.56
244.699	86.56
244.932	98.56
245.166	80.56
245.399	83.56
245.633	82.56
245.866	82.56
246.099	82.56
246.333	79.56
246.566	70.56
246.8	84.56
247.033	74.56
247.266	75.56
247.5	91.56
247.733	94.56
247.966	79.56
248.2	99.56
248.433	90.56
248.666	100.56
248.899	87.56
249.133	85.56
249.366	107.56
249.599	80.56
249.832	86.56
250.066	77.56
250.299	72.56
250.532	89.56
250.765	76.56
250.998	82.56
251.231	67.56
251.465	83.56
251.698	91.56
251.931	83.56
252.164	91.56
252.397	71.56
252.63	93.56
252.863	79.56
253.096	84.56
253.329	71.56
253.562	80.56
253.795	79.56
254.028	83.56
254.261	83.56
254.494	80.56
254.727	82.56
254.96	81.56
255.193	76.56
255.426	69.56
255.659	76.56
255.892	90.56
256.124	82.56
256.357	84.56
256.59	78.56
256.823	73.56
257.056	92.56
257.289	80.56
257.521	75.56
257.754	80.56
257.987	84.56
258.22	98.56
258.452	87.56
258.685	82.56
258.918	77.56
259.151	80.56
259.383	74.56
259.616	65.56
259.849	81.56
260.081	73.56
260.314	101.56
260.547	84.56
260.779	84.56
261.012	79.56
261.244	77.56
261.477	78.56
261.71	88.56
261.942	101.56
262.175	123.56
262.407	90.56
262.64	85.56
262.872	81.56
263.105	78.56
263.337	78.56
263.57	84.56
263.802	80.56
264.035	74.56
264.267	70.56
264.499	83.56
264.732	92.56
264.964	79.56
265.197	91.56
265.429	86.56
265.661	90.56
265.894	81.56
266.126	87.56
266.358	84.56
266.591	70.56
266.823	76.56
267.055	74.56
267.287	84.56
267.52	83.56
267.752	84.56
267.984	86.56
268.216	97.56
268.448	93.56
268.681	93.56
268.913	77.56
269.145	77.56
269.377	93.56
269.609	59.56
269.841	76.56
270.073	82.56
270.306	98.56
270.538	88.56
270.77	83.56
271.002	78.56
271.234	85.56
271.466	80.56
271.698	80.56
271.93	84.56
272.162	90.56
272.394	95.56
272.626	87.56
272.858	94.56
273.09	89.56
273.322	82.56
273.553	80.56
273.785	71.56
274.017	94.56
274.249	82.56
274.481	81.56
274.713	82.56
274.945	92.56
275.176	78.56
275.408	91.56
275.64	99.56
275.872	89.56
276.104	79.56
276.335	93.56
276.567	97.56
276.799	101.56
277.031	110.56
277.262	106.56
277.494	86.56
277.726	85.56
277.957	84.56
278.189	91.56
278.421	82.56
278.652	101.56
278.884	79.56
279.115	81.56
279.347	95.56
279.579	89.56
279.81	86.56
280.042	90.56
280.273	88.56
280.505	97.56
280.736	85.56
280.968	85.56
281.199	93.56
281.431	88.56
281.662	104.56
281.894	102.56
282.125	88.56
282.356	104.56
282.588	146.56
282.819	122.56
283.051	80.56
283.282	76.56
283.513	81.56
283.745	90.56
283.976	89.56
284.207	80.56
284.439	102.56
284.67	88.56
284.901	81.56
285.132	83.56
285.364	69.56
285.595	71.56
285.826	88.56
286.057	87.56
286.288	93.56
286.52	76.56
286.751	93.56
286.982	79.56
287.213	81.56
287.444	90.56
287.675	88.56
287.906	84.56
288.138	83.56
288.369	106.56
288.6	100.56
288.831	94.56
289.062	83.56
289.293	74.56
289.524	75.56
289.755	85.56
289.986	75.56
290.217	96.56
290.448	85.56
290.679	93.56
290.91	84.56
291.141	90.56
291.371	84.56
291.602	81.56
291.833	83.56
292.064	84.56
292.295	87.56
292.526	94.56
292.757	84.56
292.987	86.56
293.218	90.56
293.449	102.56
293.68	98.56
293.91	88.56
294.141	99.56
294.372	77.56
294.603	81.56
294.833	91.56
295.064	83.56
295.295	92.56
295.525	88.56
295.756	103.56
295.987	112.56
296.217	145.56
296.448	118.56
296.679	88.56
296.909	95.56
297.14	85.56
297.37	90.56
297.601	98.56
297.831	62.56
298.062	101.56
298.292	86.56
298.523	92.56
298.753	85.56
298.984	85.56
299.214	70.56
299.445	90.56
299.675	99.56
299.905	104.56
300.136	93.56
300.366	98.56
300.597	92.56
300.827	79.56
301.057	112.56
301.288	112.56
301.518	89.56
301.748	93.56
301.979	111.56
302.209	98.56
302.439	88.56
302.669	100.56
302.9	88.56
303.13	106.56
303.36	103.56
303.59	100.56
303.82	112.56
304.051	101.56
304.281	93.56
304.511	78.56
304.741	92.56
304.971	90.56
305.201	99.56
305.431	91.56
305.661	80.56
305.891	99.56
306.121	105.56
306.352	104.56
306.582	100.56
306.812	97.56
307.042	100.56
307.272	79.56
307.502	94.56
307.731	100.56
307.961	102.56
308.191	91.56
308.421	84.56
308.651	94.56
308.881	103.56
309.111	106.56
309.341	108.56
309.571	107.56
309.8	93.56
310.03	88.56
310.26	89.56
310.49	84.56
310.72	104.56
310.949	111.56
311.179	96.56
311.409	92.56
311.639	111.56
311.868	91.56
312.098	97.56
312.328	98.56
312.557	111.56
312.787	116.56
313.017	103.56
313.246	83.56
313.476	87.56
313.706	90.56
313.935	94.56
314.165	84.56
314.394	90.56
314.624	104.56
314.853	94.56
315.083	100.56
315.312	100.56
315.542	93.56
315.771	88.56
316.001	96.56
316.23	79.56
316.46	94.56
316.689	95.56
316.919	88.56
317.148	87.56
317.377	84.56
317.607	81.56
317.836	103.56
318.065	90.56
318.295	112.56
318.524	92.56
318.753	109.56
318.983	93.56
319.212	107.56
319.441	106.56
319.67	98.56
319.9	87.56
320.129	85.56
320.358	94.56
320.587	86.56
320.816	107.56
321.046	99.56
321.275	110.56
321.504	93.56
321.733	99.56
321.962	98.56
322.191	110.56
322.42	105.56
322.649	120.56
322.878	130.56
323.108	122.56
323.337	144.56
323.566	136.56
323.795	161.56
324.024	224.56
324.253	459.56
324.482	1000.56
324.71	2036.56
324.939	2674.56
325.168	961.56
325.397	277.56
325.626	166.56
325.855	136.56
326.084	126.56
326.313	138.56
326.542	158.56
326.77	267.56
326.999	560.56
327.228	1139.56
327.457	2068.56
327.686	1635.56
327.914	428.56
328.143	225.56
328.372	167.56
328.6	124.56
328.829	116.56
329.058	143.56
329.287	136.56
329.515	107.56
329.744	103.56
329.972	100.56
330.201	141.56
330.43	140.56
330.658	136.56
330.887	158.56
331.115	117.56
331.344	109.56
331.572	102.56
331.801	111.56
332.03	96.56
332.258	96.56
332.486	103.56
332.715	90.56
332.943	100.56
333.172	97.56
333.4	98.56
333.629	113.56
333.857	122.56
334.085	127.56
334.314	136.56
334.542	162.56
334.771	166.56
334.999	107.56
335.227	93.56
335.455	105.56
335.684	104.56
335.912	90.56
336.14	89.56
336.369	111.56
336.597	117.56
336.825	101.56
337.053	86.56
337.281	96.56
337.51	94.56
337.738	107.56
337.966	100.56
338.194	99.56
338.422	88.56
338.65	70.56
338.878	79.56
339.106	87.56
339.334	104.56
339.562	99.56
339.79	95.56
340.018	98.56
340.246	87.56
340.474	88.56
340.702	88.56
340.93	91.56
341.158	88.56
341.386	99.56
341.614	103.56
341.842	109.56
342.07	103.56
342.298	97.56
342.526	93.56
342.754	101.56
342.981	89.56
343.209	95.56
343.437	95.56
343.665	78.56
343.893	98.56
344.12	98.56
344.348	99.56
344.576	89.56
344.804	88.56
345.031	98.56
345.259	109.56
345.487	99.56
345.714	91.56
345.942	88.56
346.17	90.56
346.397	85.56
346.625	86.56
346.853	99.56
347.08	82.56
347.308	88.56
347.535	98.56
347.763	102.56
347.99	97.56
348.218	113.56
348.445	100.56
348.673	109.56
348.9	93.56
349.128	100.56
349.355	90.56
349.583	85.56
349.81	88.56
350.037	94.56
350.265	99.56
350.492	103.56
350.72	105.56
350.947	98.56
351.174	102.56
351.402	132.56
351.629	107.56
351.856	116.56
352.083	107.56
352.311	111.56
352.538	102.56
352.765	106.56
352.992	115.56
353.22	123.56
353.447	95.56
353.674	99.56
353.901	98.56
354.128	103.56
354.355	93.56
354.583	99.56
354.81	102.56
355.037	101.56
355.264	90.56
355.491	93.56
355.718	85.56
355.945	82.56
356.172	96.56
356.399	98.56
356.626	87.56
356.853	91.56
357.08	98.56
357.307	91.56
357.534	82.56
357.761	83.56
357.988	88.56
358.215	89.56
358.441	96.56
358.668	96.56
358.895	95.56
359.122	95.56
359.349	101.56
359.576	81.56
359.802	99.56
360.029	124.56
360.256	134.56
360.483	106.56
360.709	84.56
360.936	88.56
361.163	94.56
361.39	93.56
361.616	101.56
361.843	85.56
362.07	106.56
362.296	101.56
362.523	99.56
362.749	82.56
362.976	101.56
363.203	93.56
363.429	94.56
363.656	96.56
363.882	91.56
364.109	95.56
364.335	89.56
364.562	102.56
364.788	91.56
365.015	80.56
365.241	102.56
365.468	98.56
365.694	104.56
365.92	105.56
366.147	98.56
366.373	83.56
366.599	92.56
366.826	78.56
367.052	90.56
367.278	96.56
367.505	91.56
367.731	92.56
367.957	105.56
368.184	82.56
368.41	106.56
368.636	112.56
368.862	129.56
369.089	87.56
369.315	98.56
369.541	89.56
369.767	97.56
369.993	84.56
370.219	95.56
370.445	86.56
370.672	88.56
370.898	98.56
371.124	79.56
371.35	86.56
371.576	90.56
371.802	95.56
372.028	76.56
372.254	94.56
372.48	101.56
372.706	78.56
372.932	103.56
373.158	86.56
373.384	87.56
373.61	97.56
373.835	82.56
374.061	101.56
374.287	95.56
374.513	84.56
374.739	91.56
374.965	101.56
375.191	81.56
375.416	80.56
375.642	109.56
375.868	104.56
376.094	76.56
376.319	81.56
376.545	94.56
376.771	100.56
376.997	88.56
377.222	94.56
377.448	79.56
377.674	98.56
377.899	78.56
378.125	96.56
378.35	94.56
378.576	96.56
378.802	87.56
379.027	92.56
379.253	82.56
379.478	96.56
379.704	98.56
379.929	93.56
380.155	100.56
380.38	100.56
380.606	110.56
380.831	110.56
381.057	90.56
381.282	99.56
381.507	95.56
381.733	103.56
381.958	94.56
382.184	103.56
382.409	110.56
382.634	103.56
382.86	107.56
383.085	108.56
383.31	110.56
383.535	79.56
383.761	111.56
383.986	101.56
384.211	95.56
384.436	91.56
384.662	119.56
384.887	82.56
385.112	110.56
385.337	105.56
385.562	106.56
385.787	121.56
386.013	114.56
386.238	109.56
386.463	114.56
386.688	106.56
386.913	113.56
387.138	108.56
387.363	86.56
387.588	115.56
387.813	114.56
388.038	104.56
388.263	99.56
388.488	112.56
388.713	97.56
388.938	98.56
389.163	98.56
389.387	107.56
389.612	106.56
389.837	94.56
390.062	87.56
390.287	94.56
390.512	92.56
390.736	94.56
390.961	96.56
391.186	94.56
391.411	103.56
391.636	104.56
391.86	86.56
392.085	89.56
392.31	89.56
392.534	85.56
392.759	93.56
392.984	88.56
393.208	86.56
393.433	92.56
393.658	87.56
393.882	92.56
394.107	84.56
394.331	78.56
394.556	88.56
394.78	99.56
395.005	92.56
395.229	89.56
395.454	94.56
395.678	86.56
395.903	91.56
396.127	96.56
396.352	88.56
396.576	89.56
396.801	72.56
397.025	81.56
397.249	98.56
397.474	100.56
397.698	89.56
397.922	82.56
398.147	93.56
398.371	93.56
398.595	83.56
398.82	75.56
399.044	107.56
399.268	83.56
399.492	85.56
399.717	83.56
399.941	98.56
400.165	92.56
400.389	94.56
400.613	83.56
400.837	79.56
401.062	85.56
401.286	86.56
401.51	94.56
401.734	108.56
401.958	100.56
402.182	128.56
402.406	185.56
402.63	115.56
402.854	104.56
403.078	91.56
403.302	94.56
403.526	92.56
403.75	94.56
403.974	92.56
404.198	92.56
404.422	82.56
404.645	83.56
404.869	97.56
405.093	91.56
405.317	99.56
405.541	96.56
405.765	107.56
405.988	116.56
406.212	177.56
406.436	230.56
406.66	152.56
406.883	102.56
407.107	97.56
407.331	100.56
407.555	107.56
407.778	97.56
408.002	90.56
408.226	82.56
408.449	98.56
408.673	86.56
408.896	97.56
409.12	98.56
409.344	87.56
409.567	92.56
409.791	81.56
410.014	101.56
410.238	88.56
410.461	101.56
410.685	116.56
410.908	94.56
411.132	100.56
411.355	90.56
411.578	99.56
411.802	86.56
412.025	92.56
412.249	102.56
412.472	93.56
412.695	91.56
412.919	103.56
413.142	80.56
413.365	84.56
413.589	86.56
413.812	72.56
414.035	82.56
414.258	86.56
414.482	99.56
414.705	86.56
414.928	110.56
415.151	94.56
415.374	96.56
415.597	81.56
415.821	84.56
416.044	88.56
416.267	69.56
416.49	85.56
416.713	100.56
416.936	96.56
417.159	95.56
417.382	87.56
417.605	76.56
417.828	100.56
418.051	93.56
418.274	92.56
418.497	95.56
418.72	85.56
418.943	90.56
419.166	91.56
419.389	92.56
419.611	96.56
419.834	95.56
420.057	96.56
420.28	87.56
420.503	103.56
420.726	91.56
420.948	88.56
421.171	89.56
421.394	88.56
421.617	93.56
421.839	86.56
422.062	79.56
422.285	95.56
422.507	109.56
422.73	99.56
422.953	76.56
423.175	83.56
423.398	93.56
423.621	84.56
423.843	74.56
424.066	81.56
424.288	87.56
424.511	91.56
424.733	88.56
424.956	113.56
425.178	91.56
425.401	87.56
425.623	101.56
425.846	83.56
426.068	94.56
426.291	89.56
426.513	87.56
426.735	90.56
426.958	88.56
427.18	101.56
427.402	127.56
427.625	185.56
427.847	128.56
428.069	111.56
428.292	86.56
428.514	94.56
428.736	81.56
428.958	81.56
429.181	102.56
429.403	77.56
429.625	91.56
429.847	91.56
430.069	86.56
430.292	108.56
430.514	78.56
430.736	83.56
430.958	76.56
431.18	81.56
431.402	86.56
431.624	98.56
431.846	79.56
432.068	78.56
432.29	80.56
432.512	94.56
432.734	92.56
432.956	101.56
433.178	88.56
433.4	94.56
433.622	71.56
433.844	84.56
434.066	101.56
434.287	107.56
434.509	92.56
434.731	96.56
434.953	93.56
435.175	102.56
435.397	93.56
435.618	93.56
435.84	98.56
436.062	134.56
436.284	132.56
436.505	106.56
436.727	107.56
436.949	99.56
437.17	106.56
437.392	94.56
437.614	96.56
437.835	95.56
438.057	130.56
438.278	103.56
438.5	98.56
438.721	118.56
438.943	116.56
439.165	103.56
439.386	81.56
439.608	98.56
439.829	115.56
440.05	137.56
440.272	138.56
440.493	116.56
440.715	82.56
440.936	82.56
441.158	106.56
441.379	88.56
441.6	101.56
441.822	95.56
442.043	87.56
442.264	101.56
442.486	85.56
442.707	81.56
442.928	127.56
443.149	139.56
443.371	126.56
443.592	108.56
443.813	128.56
444.034	99.56
444.255	98.56
444.476	93.56
444.698	88.56
444.919	93.56
445.14	124.56
445.361	116.56
445.582	130.56
445.803	144.56
446.024	149.56
446.245	141.56
446.466	114.56
446.687	85.56
446.908	82.56
447.129	85.56
447.35	77.56
447.571	95.56
447.792	100.56
448.013	102.56
448.234	118.56
448.455	99.56
448.675	106.56
448.896	128.56
449.117	101.56
449.338	96.56
449.559	128.56
449.779	143.56
450	92.56
450.221	73.56
450.442	95.56
450.662	85.56
450.883	118.56
451.104	114.56
451.324	106.56
451.545	84.56
451.766	84.56
451.986	88.56
452.207	81.56
452.428	88.56
452.648	88.56
452.869	104.56
453.089	114.56
453.31	136.56
453.53	93.56
453.751	101.56
453.971	93.56
454.192	106.56
454.412	96.56
454.633	79.56
454.853	95.56
455.073	84.56
455.294	86.56
455.514	87.56
455.734	96.56
455.955	91.56
456.175	83.56
456.395	91.56
456.616	92.56
456.836	93.56
457.056	94.56
457.276	80.56
457.497	92.56
457.717	96.56
457.937	80.56
458.157	86.56
458.377	80.56
458.598	104.56
458.818	158.56
459.038	156.56
459.258	107.56
459.478	96.56
459.698	79.56
459.918	86.56
460.138	83.56
460.358	92.56
460.578	94.56
460.798	93.56
461.018	85.56
461.238	87.56
461.458	87.56
461.678	81.56
461.898	84.56
462.118	87.56
462.338	78.56
462.558	95.56
462.777	88.56
462.997	88.56
463.217	76.56
463.437	83.56
463.657	84.56
463.876	88.56
464.096	102.56
464.316	87.56
464.536	95.56
464.755	84.56
464.975	103.56
465.195	190.56
465.414	174.56
465.634	93.56
465.854	107.56
466.073	92.56
466.293	89.56
466.512	84.56
466.732	85.56
466.951	95.56
467.171	103.56
467.391	107.56
467.61	110.56
467.829	107.56
468.049	107.56
468.268	105.56
468.488	102.56
468.707	101.56
468.927	83.56
469.146	79.56
469.365	88.56
469.585	96.56
469.804	110.56
470.023	99.56
470.243	95.56
470.462	98.56
470.681	108.56
470.901	87.56
471.12	84.56
471.339	92.56
471.558	95.56
471.777	93.56
471.997	98.56
472.216	135.56
472.435	189.56
472.654	112.56
472.873	94.56
473.092	78.56
473.311	87.56
473.53	90.56
473.749	95.56
473.968	96.56
474.187	103.56
474.406	102.56
474.625	87.56
474.844	83.56
475.063	99.56
475.282	79.56
475.501	88.56
475.72	98.56
475.939	88.56
476.158	79.56
476.377	82.56
476.596	94.56
476.814	92.56
477.033	97.56
477.252	74.56
477.471	94.56
477.69	95.56
477.908	98.56
478.127	86.56
478.346	78.56
478.564	79.56
478.783	90.56
479.002	101.56
479.22	80.56
479.439	103.56
479.658	90.56
479.876	92.56
480.095	95.56
480.313	86.56
480.532	94.56
480.751	95.56
480.969	133.56
481.188	264.56
481.406	196.56
481.624	107.56
481.843	94.56
482.061	90.56
482.28	83.56
482.498	85.56
482.717	96.56
482.935	86.56
483.153	90.56
483.372	95.56
483.59	78.56
483.808	88.56
484.027	83.56
484.245	106.56
484.463	106.56
484.681	96.56
484.9	89.56
485.118	100.56
485.336	94.56
485.554	94.56
485.772	107.56
485.99	111.56
486.209	96.56
486.427	103.56
486.645	110.56
486.863	118.56
487.081	106.56
487.299	102.56
487.517	84.56
487.735	101.56
487.953	91.56
488.171	87.56
488.389	96.56
488.607	95.56
488.825	93.56
489.043	92.56
489.261	88.56
489.479	76.56
489.696	87.56
489.914	81.56
490.132	82.56
490.35	92.56
490.568	87.56
490.786	83.56
491.003	92.56
491.221	92.56
491.439	88.56
491.657	97.56
491.874	98.56
492.092	80.56
492.31	93.56
492.527	87.56
492.745	85.56
492.963	88.56
493.18	88.56
493.398	92.56
493.615	90.56
493.833	94.56
494.05	88.56
494.268	74.56
494.485	88.56
494.703	97.56
494.92	96.56
495.138	94.56
495.355	79.56
495.573	82.56
495.79	95.56
496.008	96.56
496.225	95.56
496.442	84.56
496.66	93.56
496.877	88.56
497.094	89.56
497.312	83.56
497.529	87.56
497.746	95.56
497.963	78.56
498.181	84.56
498.398	92.56
498.615	118.56
498.832	95.56
499.049	87.56
499.267	99.56
499.484	97.56
499.701	96.56
499.918	91.56
500.135	88.56
500.352	94.56
500.569	78.56
500.786	82.56
501.003	94.56
501.22	99.56
501.437	81.56
501.654	108.56
501.871	122.56
502.088	93.56
502.305	96.56
502.522	89.56
502.739	81.56
502.956	87.56
503.172	98.56
503.389	106.56
503.606	103.56
503.823	94.56
504.04	95.56
504.256	85.56
504.473	95.56
504.69	89.56
504.907	77.56
505.123	88.56
505.34	88.56
505.557	92.56
505.773	92.56
505.99	80.56
506.207	79.56
506.423	111.56
506.64	76.56
506.856	94.56
507.073	92.56
507.289	73.56
507.506	109.56
507.722	122.56
507.939	116.56
508.155	106.56
508.372	83.56
508.588	92.56
508.805	99.56
509.021	99.56
509.238	101.56
509.454	87.56
509.67	100.56
509.887	105.56
510.103	130.56
510.319	232.56
510.536	839.56
510.752	2740.56
510.968	760.56
511.184	177.56
511.401	109.56
511.617	103.56
511.833	105.56
512.049	95.56
512.265	64.56
512.481	88.56
512.698	94.56
512.914	95.56
513.13	101.56
513.346	107.56
513.562	99.56
513.778	96.56
513.994	95.56
514.21	96.56
514.426	123.56
514.642	146.56
514.858	132.56
515.074	166.56
