Data from Circ_2006_H10_HRD10591_00093.txt Node
Date: Wed Jan 03 10:26:22 EST 2024
User: Yrep
Spectrometer: HR+D1059
Trigger mode: 1
Integration Time (sec): 1.000000E-1
Scans to average: 1
Electric dark correction enabled: true
Nonlinearity correction enabled: false
Boxcar width: 0
XAxis mode: Wavelengths
Number of Pixels in Spectrum: 2048
>>>>>Begin Spectral Data<<<<<
223.165	-16.12
223.4	-16.12
223.635	-16.12
223.869	-22.12
224.104	-35.12
224.338	-12.12
224.573	-7.12
224.808	-16.12
225.042	-7.12
225.277	4.88
225.511	-13.12
225.746	3.88
225.98	14.88
226.215	19.88
226.449	10.88
226.683	23.88
226.918	26.88
227.152	23.88
227.387	32.88
227.621	29.88
227.856	44.88
228.09	49.88
228.324	43.88
228.559	59.88
228.793	64.88
229.027	70.88
229.262	77.88
229.496	72.88
229.73	99.88
229.964	87.88
230.199	60.88
230.433	74.88
230.667	76.88
230.901	100.88
231.136	61.88
231.37	86.88
231.604	75.88
231.838	70.88
232.072	76.88
232.306	85.88
232.541	74.88
232.775	76.88
233.009	77.88
233.243	86.88
233.477	72.88
233.711	88.88
233.945	81.88
234.179	80.88
234.413	83.88
234.647	67.88
234.881	77.88
235.115	82.88
235.349	66.88
235.583	75.88
235.817	80.88
236.051	72.88
236.285	65.88
236.519	68.88
236.753	74.88
236.987	85.88
237.221	83.88
237.455	76.88
237.689	76.88
237.922	80.88
238.156	70.88
238.39	61.88
238.624	68.88
238.858	84.88
239.091	86.88
239.325	82.88
239.559	62.88
239.793	90.88
240.027	85.88
240.26	72.88
240.494	75.88
240.728	77.88
240.961	92.88
241.195	62.88
241.429	77.88
241.662	78.88
241.896	78.88
242.13	66.88
242.363	73.88
242.597	72.88
242.83	80.88
243.064	69.88
243.298	78.88
243.531	84.88
243.765	75.88
243.998	89.88
244.232	70.88
244.465	68.88
244.699	83.88
244.932	75.88
245.166	83.88
245.399	76.88
245.633	75.88
245.866	77.88
246.099	74.88
246.333	77.88
246.566	85.88
246.8	77.88
247.033	72.88
247.266	76.88
247.5	82.88
247.733	72.88
247.966	73.88
248.2	84.88
248.433	73.88
248.666	82.88
248.899	81.88
249.133	94.88
249.366	94.88
249.599	90.88
249.832	73.88
250.066	75.88
250.299	66.88
250.532	83.88
250.765	88.88
250.998	83.88
251.231	71.88
251.465	86.88
251.698	74.88
251.931	72.88
252.164	84.88
252.397	71.88
252.63	89.88
252.863	85.88
253.096	81.88
253.329	83.88
253.562	79.88
253.795	81.88
254.028	81.88
254.261	85.88
254.494	74.88
254.727	86.88
254.96	91.88
255.193	82.88
255.426	81.88
255.659	86.88
255.892	81.88
256.124	85.88
256.357	74.88
256.59	83.88
256.823	76.88
257.056	77.88
257.289	75.88
257.521	85.88
257.754	72.88
257.987	66.88
258.22	64.88
258.452	83.88
258.685	83.88
258.918	81.88
259.151	69.88
259.383	66.88
259.616	64.88
259.849	77.88
260.081	73.88
260.314	78.88
260.547	77.88
260.779	84.88
261.012	93.88
261.244	80.88
261.477	90.88
261.71	83.88
261.942	110.88
262.175	112.88
262.407	92.88
262.64	92.88
262.872	71.88
263.105	86.88
263.337	78.88
263.57	80.88
263.802	72.88
264.035	78.88
264.267	86.88
264.499	81.88
264.732	83.88
264.964	73.88
265.197	81.88
265.429	84.88
265.661	89.88
265.894	54.88
266.126	82.88
266.358	77.88
266.591	76.88
266.823	81.88
267.055	82.88
267.287	90.88
267.52	78.88
267.752	69.88
267.984	81.88
268.216	81.88
268.448	86.88
268.681	84.88
268.913	98.88
269.145	77.88
269.377	72.88
269.609	86.88
269.841	75.88
270.073	72.88
270.306	90.88
270.538	70.88
270.77	79.88
271.002	91.88
271.234	90.88
271.466	94.88
271.698	93.88
271.93	75.88
272.162	90.88
272.394	78.88
272.626	84.88
272.858	88.88
273.09	82.88
273.322	82.88
273.553	86.88
273.785	82.88
274.017	83.88
274.249	82.88
274.481	89.88
274.713	87.88
274.945	90.88
275.176	83.88
275.408	95.88
275.64	92.88
275.872	92.88
276.104	95.88
276.335	109.88
276.567	95.88
276.799	100.88
277.031	99.88
277.262	102.88
277.494	100.88
277.726	74.88
277.957	92.88
278.189	89.88
278.421	84.88
278.652	76.88
278.884	78.88
279.115	84.88
279.347	90.88
279.579	94.88
279.81	80.88
280.042	94.88
280.273	95.88
280.505	104.88
280.736	83.88
280.968	94.88
281.199	84.88
281.431	68.88
281.662	85.88
281.894	83.88
282.125	98.88
282.356	120.88
282.588	129.88
282.819	104.88
283.051	73.88
283.282	76.88
283.513	74.88
283.745	90.88
283.976	81.88
284.207	93.88
284.439	84.88
284.67	87.88
284.901	100.88
285.132	89.88
285.364	95.88
285.595	78.88
285.826	93.88
286.057	69.88
286.288	84.88
286.52	84.88
286.751	85.88
286.982	93.88
287.213	86.88
287.444	91.88
287.675	70.88
287.906	82.88
288.138	84.88
288.369	93.88
288.6	92.88
288.831	84.88
289.062	81.88
289.293	77.88
289.524	92.88
289.755	77.88
289.986	86.88
290.217	95.88
290.448	74.88
290.679	81.88
290.91	88.88
291.141	91.88
291.371	94.88
291.602	97.88
291.833	84.88
292.064	76.88
292.295	89.88
292.526	89.88
292.757	86.88
292.987	77.88
293.218	78.88
293.449	83.88
293.68	91.88
293.91	87.88
294.141	93.88
294.372	94.88
294.603	84.88
294.833	78.88
295.064	88.88
295.295	85.88
295.525	81.88
295.756	106.88
295.987	113.88
296.217	128.88
296.448	108.88
296.679	82.88
296.909	89.88
297.14	93.88
297.37	94.88
297.601	92.88
297.831	101.88
298.062	89.88
298.292	87.88
298.523	97.88
298.753	81.88
298.984	81.88
299.214	96.88
299.445	76.88
299.675	84.88
299.905	96.88
300.136	80.88
300.366	76.88
300.597	93.88
300.827	102.88
301.057	115.88
301.288	95.88
301.518	83.88
301.748	74.88
301.979	95.88
302.209	100.88
302.439	84.88
302.669	88.88
302.9	89.88
303.13	81.88
303.36	90.88
303.59	98.88
303.82	110.88
304.051	90.88
304.281	94.88
304.511	95.88
304.741	89.88
304.971	82.88
305.201	84.88
305.431	101.88
305.661	83.88
305.891	75.88
306.121	90.88
306.352	92.88
306.582	96.88
306.812	82.88
307.042	90.88
307.272	95.88
307.502	77.88
307.731	96.88
307.961	81.88
308.191	86.88
308.421	90.88
308.651	97.88
308.881	81.88
309.111	97.88
309.341	100.88
309.571	99.88
309.8	95.88
310.03	84.88
310.26	100.88
310.49	98.88
310.72	95.88
310.949	103.88
311.179	98.88
311.409	89.88
311.639	89.88
311.868	104.88
312.098	77.88
312.328	101.88
312.557	102.88
312.787	95.88
313.017	101.88
313.246	100.88
313.476	83.88
313.706	83.88
313.935	90.88
314.165	89.88
314.394	109.88
314.624	97.88
314.853	89.88
315.083	85.88
315.312	85.88
315.542	93.88
315.771	80.88
316.001	99.88
316.23	85.88
316.46	95.88
316.689	81.88
316.919	99.88
317.148	92.88
317.377	84.88
317.607	84.88
317.836	92.88
318.065	89.88
318.295	87.88
318.524	89.88
318.753	94.88
318.983	88.88
319.212	81.88
319.441	99.88
319.67	105.88
319.9	81.88
320.129	97.88
320.358	73.88
320.587	96.88
320.816	111.88
321.046	89.88
321.275	89.88
321.504	81.88
321.733	103.88
321.962	84.88
322.191	88.88
322.42	98.88
322.649	108.88
322.878	106.88
323.108	97.88
323.337	111.88
323.566	127.88
323.795	145.88
324.024	214.88
324.253	402.88
324.482	844.88
324.71	1796.88
324.939	2344.88
325.168	858.88
325.397	246.88
325.626	152.88
325.855	125.88
326.084	118.88
326.313	121.88
326.542	150.88
326.77	233.88
326.999	501.88
327.228	996.88
327.457	1773.88
327.686	1442.88
327.914	386.88
328.143	210.88
328.372	184.88
328.6	137.88
328.829	124.88
329.058	123.88
329.287	132.88
329.515	120.88
329.744	115.88
329.972	113.88
330.201	164.88
330.43	188.88
330.658	148.88
330.887	141.88
331.115	128.88
331.344	99.88
331.572	90.88
331.801	99.88
332.03	109.88
332.258	103.88
332.486	89.88
332.715	108.88
332.943	105.88
333.172	92.88
333.4	104.88
333.629	106.88
333.857	114.88
334.085	123.88
334.314	156.88
334.542	227.88
334.771	203.88
334.999	126.88
335.227	114.88
335.455	91.88
335.684	93.88
335.912	98.88
336.14	107.88
336.369	99.88
336.597	97.88
336.825	94.88
337.053	97.88
337.281	82.88
337.51	88.88
337.738	94.88
337.966	88.88
338.194	88.88
338.422	93.88
338.65	89.88
338.878	95.88
339.106	88.88
339.334	81.88
339.562	88.88
339.79	97.88
340.018	95.88
340.246	85.88
340.474	94.88
340.702	93.88
340.93	89.88
341.158	76.88
341.386	100.88
341.614	87.88
341.842	93.88
342.07	102.88
342.298	96.88
342.526	92.88
342.754	92.88
342.981	94.88
343.209	93.88
343.437	100.88
343.665	89.88
343.893	85.88
344.12	93.88
344.348	95.88
344.576	89.88
344.804	96.88
345.031	96.88
345.259	84.88
345.487	81.88
345.714	93.88
345.942	105.88
346.17	98.88
346.397	85.88
346.625	85.88
346.853	93.88
347.08	90.88
347.308	94.88
347.535	90.88
347.763	110.88
347.99	95.88
348.218	80.88
348.445	96.88
348.673	96.88
348.9	99.88
349.128	80.88
349.355	86.88
349.583	85.88
349.81	89.88
350.037	87.88
350.265	103.88
350.492	94.88
350.72	93.88
350.947	93.88
351.174	110.88
351.402	96.88
351.629	104.88
351.856	100.88
352.083	97.88
352.311	97.88
352.538	102.88
352.765	106.88
352.992	103.88
353.22	119.88
353.447	106.88
353.674	99.88
353.901	104.88
354.128	105.88
354.355	106.88
354.583	102.88
354.81	88.88
355.037	86.88
355.264	98.88
355.491	89.88
355.718	80.88
355.945	101.88
356.172	116.88
356.399	101.88
356.626	85.88
356.853	109.88
357.08	97.88
357.307	92.88
357.534	90.88
357.761	98.88
357.988	100.88
358.215	89.88
358.441	104.88
358.668	93.88
358.895	99.88
359.122	80.88
359.349	95.88
359.576	86.88
359.802	105.88
360.029	122.88
360.256	100.88
360.483	98.88
360.709	97.88
360.936	101.88
361.163	110.88
361.39	93.88
361.616	98.88
361.843	83.88
362.07	100.88
362.296	90.88
362.523	93.88
362.749	85.88
362.976	90.88
363.203	105.88
363.429	90.88
363.656	90.88
363.882	89.88
364.109	102.88
364.335	91.88
364.562	99.88
364.788	83.88
365.015	86.88
365.241	86.88
365.468	117.88
365.694	101.88
365.92	84.88
366.147	82.88
366.373	83.88
366.599	82.88
366.826	83.88
367.052	83.88
367.278	102.88
367.505	94.88
367.731	90.88
367.957	85.88
368.184	106.88
368.41	77.88
368.636	106.88
368.862	102.88
369.089	115.88
369.315	93.88
369.541	83.88
369.767	87.88
369.993	77.88
370.219	85.88
370.445	80.88
370.672	74.88
370.898	90.88
371.124	94.88
371.35	92.88
371.576	91.88
371.802	91.88
372.028	81.88
372.254	96.88
372.48	92.88
372.706	85.88
372.932	84.88
373.158	77.88
373.384	83.88
373.61	84.88
373.835	100.88
374.061	91.88
374.287	97.88
374.513	96.88
374.739	68.88
374.965	89.88
375.191	96.88
375.416	99.88
375.642	86.88
375.868	100.88
376.094	94.88
376.319	81.88
376.545	91.88
376.771	93.88
376.997	102.88
377.222	91.88
377.448	87.88
377.674	95.88
377.899	93.88
378.125	90.88
378.35	93.88
378.576	81.88
378.802	86.88
379.027	95.88
379.253	98.88
379.478	98.88
379.704	97.88
379.929	93.88
380.155	94.88
380.38	91.88
380.606	100.88
380.831	107.88
381.057	100.88
381.282	94.88
381.507	86.88
381.733	94.88
381.958	105.88
382.184	102.88
382.409	91.88
382.634	113.88
382.86	98.88
383.085	95.88
383.31	88.88
383.535	96.88
383.761	94.88
383.986	98.88
384.211	86.88
384.436	103.88
384.662	109.88
384.887	95.88
385.112	85.88
385.337	109.88
385.562	88.88
385.787	105.88
386.013	108.88
386.238	104.88
386.463	95.88
386.688	108.88
386.913	116.88
387.138	114.88
387.363	94.88
387.588	96.88
387.813	92.88
388.038	106.88
388.263	102.88
388.488	109.88
388.713	95.88
388.938	90.88
389.163	91.88
389.387	97.88
389.612	88.88
389.837	86.88
390.062	101.88
390.287	95.88
390.512	80.88
390.736	89.88
390.961	91.88
391.186	82.88
391.411	104.88
391.636	96.88
391.86	92.88
392.085	97.88
392.31	86.88
392.534	96.88
392.759	99.88
392.984	92.88
393.208	88.88
393.433	96.88
393.658	77.88
393.882	89.88
394.107	72.88
394.331	98.88
394.556	86.88
394.78	88.88
395.005	78.88
395.229	88.88
395.454	82.88
395.678	87.88
395.903	90.88
396.127	84.88
396.352	83.88
396.576	90.88
396.801	89.88
397.025	98.88
397.249	80.88
397.474	89.88
397.698	96.88
397.922	100.88
398.147	76.88
398.371	74.88
398.595	93.88
398.82	80.88
399.044	86.88
399.268	79.88
399.492	83.88
399.717	77.88
399.941	88.88
400.165	91.88
400.389	94.88
400.613	93.88
400.837	91.88
401.062	85.88
401.286	85.88
401.51	102.88
401.734	97.88
401.958	87.88
402.182	117.88
402.406	159.88
402.63	112.88
402.854	90.88
403.078	83.88
403.302	88.88
403.526	86.88
403.75	84.88
403.974	91.88
404.198	91.88
404.422	91.88
404.645	82.88
404.869	86.88
405.093	93.88
405.317	108.88
405.541	97.88
405.765	96.88
405.988	117.88
406.212	180.88
406.436	217.88
406.66	140.88
406.883	107.88
407.107	98.88
407.331	92.88
407.555	96.88
407.778	87.88
408.002	100.88
408.226	83.88
408.449	94.88
408.673	83.88
408.896	96.88
409.12	92.88
409.344	85.88
409.567	81.88
409.791	105.88
410.014	95.88
410.238	93.88
410.461	91.88
410.685	86.88
410.908	103.88
411.132	101.88
411.355	85.88
411.578	99.88
411.802	77.88
412.025	93.88
412.249	101.88
412.472	97.88
412.695	98.88
412.919	94.88
413.142	96.88
413.365	83.88
413.589	90.88
413.812	84.88
414.035	81.88
414.258	96.88
414.482	73.88
414.705	92.88
414.928	112.88
415.151	92.88
415.374	98.88
415.597	85.88
415.821	90.88
416.044	89.88
416.267	97.88
416.49	96.88
416.713	87.88
416.936	86.88
417.159	83.88
417.382	82.88
417.605	87.88
417.828	98.88
418.051	96.88
418.274	90.88
418.497	89.88
418.72	78.88
418.943	90.88
419.166	82.88
419.389	90.88
419.611	101.88
419.834	98.88
420.057	99.88
420.28	93.88
420.503	87.88
420.726	89.88
420.948	73.88
421.171	77.88
421.394	96.88
421.617	96.88
421.839	82.88
422.062	91.88
422.285	77.88
422.507	75.88
422.73	85.88
422.953	89.88
423.175	79.88
423.398	100.88
423.621	109.88
423.843	88.88
424.066	76.88
424.288	80.88
424.511	105.88
424.733	95.88
424.956	99.88
425.178	103.88
425.401	97.88
425.623	91.88
425.846	91.88
426.068	88.88
426.291	88.88
426.513	93.88
426.735	102.88
426.958	92.88
427.18	103.88
427.402	126.88
427.625	166.88
427.847	146.88
428.069	116.88
428.292	88.88
428.514	79.88
428.736	90.88
428.958	88.88
429.181	85.88
429.403	82.88
429.625	105.88
429.847	92.88
430.069	98.88
430.292	90.88
430.514	92.88
430.736	69.88
430.958	90.88
431.18	83.88
431.402	90.88
431.624	81.88
431.846	91.88
432.068	82.88
432.29	81.88
432.512	91.88
432.734	79.88
432.956	83.88
433.178	90.88
433.4	99.88
433.622	91.88
433.844	94.88
434.066	99.88
434.287	85.88
434.509	99.88
434.731	98.88
434.953	85.88
435.175	82.88
435.397	93.88
435.618	85.88
435.84	104.88
436.062	111.88
436.284	137.88
436.505	90.88
436.727	107.88
436.949	82.88
437.17	96.88
437.392	76.88
437.614	73.88
437.835	102.88
438.057	113.88
438.278	98.88
438.5	107.88
438.721	120.88
438.943	99.88
439.165	84.88
439.386	87.88
439.608	101.88
439.829	96.88
440.05	126.88
440.272	136.88
440.493	95.88
440.715	80.88
440.936	88.88
441.158	87.88
441.379	94.88
441.6	76.88
441.822	99.88
442.043	90.88
442.264	108.88
442.486	101.88
442.707	100.88
442.928	100.88
443.149	113.88
443.371	117.88
443.592	111.88
443.813	103.88
444.034	108.88
444.255	77.88
444.476	87.88
444.698	83.88
444.919	94.88
445.14	118.88
445.361	123.88
445.582	123.88
445.803	148.88
446.024	136.88
446.245	153.88
446.466	128.88
446.687	84.88
446.908	89.88
447.129	85.88
447.35	90.88
447.571	83.88
447.792	83.88
448.013	100.88
448.234	89.88
448.455	98.88
448.675	96.88
448.896	111.88
449.117	99.88
449.338	114.88
449.559	124.88
449.779	122.88
450	90.88
450.221	78.88
450.442	74.88
450.662	90.88
450.883	113.88
451.104	104.88
451.324	93.88
451.545	88.88
451.766	81.88
451.986	78.88
452.207	92.88
452.428	86.88
452.648	97.88
452.869	101.88
453.089	128.88
453.31	102.88
453.53	93.88
453.751	78.88
453.971	101.88
454.192	104.88
454.412	91.88
454.633	94.88
454.853	84.88
455.073	79.88
455.294	79.88
455.514	88.88
455.734	87.88
455.955	83.88
456.175	105.88
456.395	85.88
456.616	78.88
456.836	91.88
457.056	91.88
457.276	84.88
457.497	73.88
457.717	85.88
457.937	95.88
458.157	94.88
458.377	90.88
458.598	98.88
458.818	133.88
459.038	161.88
459.258	110.88
459.478	83.88
459.698	91.88
459.918	92.88
460.138	77.88
460.358	73.88
460.578	96.88
460.798	96.88
461.018	83.88
461.238	96.88
461.458	93.88
461.678	75.88
461.898	99.88
462.118	84.88
462.338	72.88
462.558	74.88
462.777	86.88
462.997	97.88
463.217	78.88
463.437	79.88
463.657	86.88
463.876	81.88
464.096	93.88
464.316	85.88
464.536	93.88
464.755	97.88
464.975	101.88
465.195	166.88
465.414	150.88
465.634	90.88
465.854	83.88
466.073	85.88
466.293	93.88
466.512	80.88
466.732	86.88
466.951	87.88
467.171	104.88
467.391	84.88
467.61	100.88
467.829	92.88
468.049	117.88
468.268	142.88
468.488	90.88
468.707	84.88
468.927	77.88
469.146	66.88
469.365	80.88
469.585	74.88
469.804	101.88
470.023	89.88
470.243	83.88
470.462	94.88
470.681	97.88
470.901	102.88
471.12	85.88
471.339	89.88
471.558	90.88
471.777	82.88
471.997	110.88
472.216	163.88
472.435	248.88
472.654	124.88
472.873	83.88
473.092	96.88
473.311	82.88
473.53	81.88
473.749	90.88
473.968	74.88
474.187	93.88
474.406	86.88
474.625	84.88
474.844	80.88
475.063	90.88
475.282	78.88
475.501	85.88
475.72	82.88
475.939	91.88
476.158	86.88
476.377	84.88
476.596	85.88
476.814	72.88
477.033	86.88
477.252	80.88
477.471	82.88
477.69	104.88
477.908	93.88
478.127	81.88
478.346	93.88
478.564	77.88
478.783	84.88
479.002	100.88
479.22	94.88
479.439	90.88
479.658	112.88
479.876	94.88
480.095	92.88
480.313	98.88
480.532	88.88
480.751	85.88
480.969	160.88
481.188	396.88
481.406	274.88
481.624	129.88
481.843	100.88
482.061	91.88
482.28	85.88
482.498	85.88
482.717	90.88
482.935	74.88
483.153	92.88
483.372	78.88
483.59	91.88
483.808	86.88
484.027	95.88
484.245	92.88
484.463	86.88
484.681	83.88
484.9	80.88
485.118	98.88
485.336	96.88
485.554	108.88
485.772	94.88
485.99	104.88
486.209	99.88
486.427	108.88
486.645	104.88
486.863	112.88
487.081	105.88
487.299	93.88
487.517	83.88
487.735	86.88
487.953	104.88
488.171	93.88
488.389	102.88
488.607	101.88
488.825	97.88
489.043	103.88
489.261	98.88
489.479	68.88
489.696	92.88
489.914	93.88
490.132	83.88
490.35	87.88
490.568	92.88
490.786	85.88
491.003	85.88
491.221	91.88
491.439	79.88
491.657	79.88
491.874	91.88
492.092	83.88
492.31	91.88
492.527	77.88
492.745	90.88
492.963	96.88
493.18	90.88
493.398	92.88
493.615	91.88
493.833	91.88
494.05	98.88
494.268	93.88
494.485	86.88
494.703	77.88
494.92	87.88
495.138	98.88
495.355	85.88
495.573	92.88
495.79	86.88
496.008	76.88
496.225	86.88
496.442	87.88
496.66	95.88
496.877	93.88
497.094	85.88
497.312	94.88
497.529	98.88
497.746	76.88
497.963	85.88
498.181	91.88
498.398	90.88
498.615	105.88
498.832	112.88
499.049	93.88
499.267	87.88
499.484	85.88
499.701	93.88
499.918	87.88
500.135	86.88
500.352	96.88
500.569	91.88
500.786	102.88
501.003	104.88
501.22	89.88
501.437	90.88
501.654	94.88
501.871	98.88
502.088	102.88
502.305	93.88
502.522	96.88
502.739	86.88
502.956	89.88
503.172	83.88
503.389	92.88
503.606	102.88
503.823	86.88
504.04	82.88
504.256	101.88
504.473	92.88
504.69	84.88
504.907	82.88
505.123	78.88
505.34	98.88
505.557	89.88
505.773	85.88
505.99	84.88
506.207	92.88
506.423	88.88
506.64	85.88
506.856	94.88
507.073	97.88
507.289	85.88
507.506	88.88
507.722	102.88
507.939	94.88
508.155	97.88
508.372	99.88
508.588	81.88
508.805	91.88
509.021	90.88
509.238	95.88
509.454	91.88
509.67	99.88
509.887	104.88
510.103	146.88
510.319	218.88
510.536	775.88
510.752	2385.88
510.968	673.88
511.184	166.88
511.401	112.88
511.617	105.88
511.833	94.88
512.049	91.88
512.265	89.88
512.481	80.88
512.698	92.88
512.914	98.88
513.13	84.88
513.346	96.88
513.562	107.88
513.778	94.88
513.994	84.88
514.21	105.88
514.426	102.88
514.642	126.88
514.858	123.88
515.074	175.88
515.29	451.88
515.506	1514.88
515.721	560.88
515.937	159.88
516.153	113.88
