Data from Circ_2006_H10_HRD10591_00025.txt Node
Date: Wed Jan 03 10:26:08 EST 2024
User: Yrep
Spectrometer: HR+D1059
Trigger mode: 1
Integration Time (sec): 1.000000E-1
Scans to average: 1
Electric dark correction enabled: true
Nonlinearity correction enabled: false
Boxcar width: 0
XAxis mode: Wavelengths
Number of Pixels in Spectrum: 2048
>>>>>Begin Spectral Data<<<<<
223.165	-22.81
223.4	-22.81
223.635	-22.81
223.869	-3.81
224.104	-19.81
224.338	-20.81
224.573	-14.81
224.808	-11.81
225.042	5.19
225.277	-5.81
225.511	-19.81
225.746	3.19
225.98	14.19
226.215	4.19
226.449	9.19
226.683	28.19
226.918	32.19
227.152	23.19
227.387	45.19
227.621	45.19
227.856	38.19
228.09	40.19
228.324	40.19
228.559	68.19
228.793	56.19
229.027	58.19
229.262	65.19
229.496	82.19
229.73	76.19
229.964	71.19
230.199	64.19
230.433	78.19
230.667	76.19
230.901	80.19
231.136	75.19
231.37	72.19
231.604	86.19
231.838	85.19
232.072	81.19
232.306	81.19
232.541	85.19
232.775	76.19
233.009	78.19
233.243	66.19
233.477	70.19
233.711	75.19
233.945	76.19
234.179	77.19
234.413	87.19
234.647	63.19
234.881	79.19
235.115	80.19
235.349	83.19
235.583	70.19
235.817	80.19
236.051	73.19
236.285	85.19
236.519	67.19
236.753	86.19
236.987	78.19
237.221	77.19
237.455	90.19
237.689	68.19
237.922	57.19
238.156	62.19
238.39	74.19
238.624	80.19
238.858	97.19
239.091	69.19
239.325	76.19
239.559	83.19
239.793	68.19
240.027	77.19
240.26	82.19
240.494	83.19
240.728	65.19
240.961	86.19
241.195	72.19
241.429	59.19
241.662	69.19
241.896	71.19
242.13	69.19
242.363	67.19
242.597	74.19
242.83	69.19
243.064	76.19
243.298	80.19
243.531	60.19
243.765	86.19
243.998	73.19
244.232	72.19
244.465	76.19
244.699	91.19
244.932	85.19
245.166	77.19
245.399	80.19
245.633	66.19
245.866	70.19
246.099	66.19
246.333	90.19
246.566	89.19
246.8	76.19
247.033	78.19
247.266	73.19
247.5	81.19
247.733	66.19
247.966	74.19
248.2	78.19
248.433	79.19
248.666	86.19
248.899	82.19
249.133	100.19
249.366	84.19
249.599	92.19
249.832	76.19
250.066	89.19
250.299	90.19
250.532	72.19
250.765	84.19
250.998	79.19
251.231	84.19
251.465	65.19
251.698	76.19
251.931	74.19
252.164	89.19
252.397	95.19
252.63	95.19
252.863	69.19
253.096	81.19
253.329	88.19
253.562	81.19
253.795	81.19
254.028	70.19
254.261	78.19
254.494	83.19
254.727	84.19
254.96	94.19
255.193	76.19
255.426	81.19
255.659	72.19
255.892	85.19
256.124	82.19
256.357	85.19
256.59	74.19
256.823	89.19
257.056	71.19
257.289	80.19
257.521	86.19
257.754	85.19
257.987	76.19
258.22	87.19
258.452	87.19
258.685	77.19
258.918	86.19
259.151	66.19
259.383	72.19
259.616	85.19
259.849	69.19
260.081	80.19
260.314	88.19
260.547	101.19
260.779	77.19
261.012	88.19
261.244	92.19
261.477	79.19
261.71	90.19
261.942	110.19
262.175	126.19
262.407	84.19
262.64	83.19
262.872	67.19
263.105	84.19
263.337	91.19
263.57	86.19
263.802	74.19
264.035	91.19
264.267	83.19
264.499	80.19
264.732	91.19
264.964	90.19
265.197	89.19
265.429	83.19
265.661	86.19
265.894	67.19
266.126	80.19
266.358	86.19
266.591	83.19
266.823	84.19
267.055	76.19
267.287	82.19
267.52	76.19
267.752	87.19
267.984	93.19
268.216	77.19
268.448	76.19
268.681	90.19
268.913	87.19
269.145	85.19
269.377	82.19
269.609	80.19
269.841	88.19
270.073	78.19
270.306	106.19
270.538	68.19
270.77	74.19
271.002	98.19
271.234	93.19
271.466	72.19
271.698	82.19
271.93	75.19
272.162	95.19
272.394	82.19
272.626	80.19
272.858	75.19
273.09	100.19
273.322	67.19
273.553	81.19
273.785	72.19
274.017	87.19
274.249	77.19
274.481	76.19
274.713	85.19
274.945	91.19
275.176	81.19
275.408	86.19
275.64	66.19
275.872	96.19
276.104	91.19
276.335	95.19
276.567	110.19
276.799	115.19
277.031	87.19
277.262	86.19
277.494	88.19
277.726	85.19
277.957	77.19
278.189	72.19
278.421	90.19
278.652	96.19
278.884	77.19
279.115	89.19
279.347	86.19
279.579	93.19
279.81	79.19
280.042	85.19
280.273	101.19
280.505	94.19
280.736	76.19
280.968	99.19
281.199	92.19
281.431	80.19
281.662	90.19
281.894	75.19
282.125	104.19
282.356	122.19
282.588	160.19
282.819	114.19
283.051	95.19
283.282	84.19
283.513	85.19
283.745	92.19
283.976	84.19
284.207	95.19
284.439	92.19
284.67	81.19
284.901	90.19
285.132	83.19
285.364	79.19
285.595	70.19
285.826	84.19
286.057	91.19
286.288	82.19
286.52	92.19
286.751	86.19
286.982	89.19
287.213	92.19
287.444	77.19
287.675	88.19
287.906	94.19
288.138	84.19
288.369	85.19
288.6	86.19
288.831	86.19
289.062	99.19
289.293	78.19
289.524	90.19
289.755	85.19
289.986	87.19
290.217	84.19
290.448	85.19
290.679	93.19
290.91	89.19
291.141	84.19
291.371	78.19
291.602	83.19
291.833	92.19
292.064	81.19
292.295	73.19
292.526	83.19
292.757	87.19
292.987	83.19
293.218	82.19
293.449	90.19
293.68	84.19
293.91	80.19
294.141	86.19
294.372	99.19
294.603	86.19
294.833	77.19
295.064	80.19
295.295	91.19
295.525	80.19
295.756	104.19
295.987	140.19
296.217	155.19
296.448	128.19
296.679	97.19
296.909	72.19
297.14	78.19
297.37	96.19
297.601	88.19
297.831	90.19
298.062	93.19
298.292	76.19
298.523	89.19
298.753	94.19
298.984	86.19
299.214	91.19
299.445	85.19
299.675	88.19
299.905	98.19
300.136	86.19
300.366	101.19
300.597	85.19
300.827	111.19
301.057	90.19
301.288	98.19
301.518	92.19
301.748	80.19
301.979	93.19
302.209	84.19
302.439	90.19
302.669	82.19
302.9	78.19
303.13	86.19
303.36	80.19
303.59	108.19
303.82	111.19
304.051	98.19
304.281	83.19
304.511	91.19
304.741	93.19
304.971	88.19
305.201	96.19
305.431	79.19
305.661	90.19
305.891	103.19
306.121	94.19
306.352	99.19
306.582	120.19
306.812	95.19
307.042	76.19
307.272	96.19
307.502	97.19
307.731	90.19
307.961	89.19
308.191	85.19
308.421	99.19
308.651	93.19
308.881	100.19
309.111	95.19
309.341	86.19
309.571	107.19
309.8	84.19
310.03	109.19
310.26	102.19
310.49	84.19
310.72	97.19
310.949	103.19
311.179	106.19
311.409	85.19
311.639	85.19
311.868	99.19
312.098	100.19
312.328	86.19
312.557	98.19
312.787	116.19
313.017	86.19
313.246	105.19
313.476	83.19
313.706	90.19
313.935	93.19
314.165	115.19
314.394	97.19
314.624	95.19
314.853	98.19
315.083	104.19
315.312	99.19
315.542	93.19
315.771	94.19
316.001	83.19
316.23	89.19
316.46	109.19
316.689	102.19
316.919	96.19
317.148	102.19
317.377	97.19
317.607	86.19
317.836	82.19
318.065	80.19
318.295	85.19
318.524	92.19
318.753	93.19
318.983	89.19
319.212	99.19
319.441	108.19
319.67	106.19
319.9	78.19
320.129	112.19
320.358	102.19
320.587	102.19
320.816	93.19
321.046	102.19
321.275	113.19
321.504	92.19
321.733	102.19
321.962	104.19
322.191	93.19
322.42	95.19
322.649	116.19
322.878	114.19
323.108	111.19
323.337	144.19
323.566	144.19
323.795	189.19
324.024	262.19
324.253	541.19
324.482	1210.19
324.71	2577.19
324.939	3385.19
325.168	1158.19
325.397	304.19
325.626	179.19
325.855	146.19
326.084	144.19
326.313	149.19
326.542	189.19
326.77	308.19
326.999	648.19
327.228	1395.19
327.457	2545.19
327.686	2015.19
327.914	496.19
328.143	217.19
328.372	180.19
328.6	142.19
328.829	134.19
329.058	148.19
329.287	120.19
329.515	130.19
329.744	117.19
329.972	108.19
330.201	113.19
330.43	134.19
330.658	137.19
330.887	158.19
331.115	133.19
331.344	111.19
331.572	111.19
331.801	112.19
332.03	106.19
332.258	89.19
332.486	92.19
332.715	103.19
332.943	100.19
333.172	109.19
333.4	108.19
333.629	101.19
333.857	107.19
334.085	113.19
334.314	125.19
334.542	133.19
334.771	116.19
334.999	108.19
335.227	99.19
335.455	102.19
335.684	98.19
335.912	98.19
336.14	92.19
336.369	100.19
336.597	90.19
336.825	103.19
337.053	102.19
337.281	98.19
337.51	103.19
337.738	82.19
337.966	111.19
338.194	96.19
338.422	100.19
338.65	102.19
338.878	75.19
339.106	86.19
339.334	92.19
339.562	90.19
339.79	86.19
340.018	96.19
340.246	105.19
340.474	100.19
340.702	109.19
340.93	97.19
341.158	84.19
341.386	97.19
341.614	91.19
341.842	92.19
342.07	85.19
342.298	97.19
342.526	102.19
342.754	94.19
342.981	78.19
343.209	85.19
343.437	98.19
343.665	93.19
343.893	95.19
344.12	76.19
344.348	86.19
344.576	96.19
344.804	90.19
345.031	97.19
345.259	93.19
345.487	103.19
345.714	95.19
345.942	92.19
346.17	99.19
346.397	85.19
346.625	94.19
346.853	96.19
347.08	90.19
347.308	94.19
347.535	87.19
347.763	92.19
347.99	96.19
348.218	99.19
348.445	112.19
348.673	97.19
348.9	116.19
349.128	101.19
349.355	84.19
349.583	84.19
349.81	98.19
350.037	101.19
350.265	91.19
350.492	100.19
350.72	93.19
350.947	111.19
351.174	104.19
351.402	107.19
351.629	93.19
351.856	115.19
352.083	110.19
352.311	98.19
352.538	116.19
352.765	103.19
352.992	132.19
353.22	113.19
353.447	102.19
353.674	100.19
353.901	114.19
354.128	104.19
354.355	97.19
354.583	94.19
354.81	117.19
355.037	89.19
355.264	96.19
355.491	95.19
355.718	89.19
355.945	87.19
356.172	93.19
356.399	95.19
356.626	108.19
356.853	86.19
357.08	88.19
357.307	81.19
357.534	85.19
357.761	91.19
357.988	98.19
358.215	100.19
358.441	108.19
358.668	94.19
358.895	81.19
359.122	99.19
359.349	82.19
359.576	91.19
359.802	109.19
360.029	111.19
360.256	138.19
360.483	96.19
360.709	81.19
360.936	98.19
361.163	89.19
361.39	107.19
361.616	100.19
361.843	83.19
362.07	89.19
362.296	101.19
362.523	98.19
362.749	71.19
362.976	94.19
363.203	83.19
363.429	85.19
363.656	80.19
363.882	91.19
364.109	99.19
364.335	82.19
364.562	86.19
364.788	96.19
365.015	96.19
365.241	110.19
365.468	109.19
365.694	114.19
365.92	115.19
366.147	76.19
366.373	82.19
366.599	80.19
366.826	86.19
367.052	91.19
367.278	84.19
367.505	84.19
367.731	102.19
367.957	91.19
368.184	99.19
368.41	106.19
368.636	128.19
368.862	120.19
369.089	113.19
369.315	84.19
369.541	97.19
369.767	85.19
369.993	89.19
370.219	100.19
370.445	72.19
370.672	110.19
370.898	92.19
371.124	86.19
371.35	78.19
371.576	89.19
371.802	94.19
372.028	96.19
372.254	94.19
372.48	70.19
372.706	80.19
372.932	79.19
373.158	85.19
373.384	84.19
373.61	90.19
373.835	86.19
374.061	86.19
374.287	86.19
374.513	101.19
374.739	95.19
374.965	90.19
375.191	90.19
375.416	77.19
375.642	83.19
375.868	88.19
376.094	76.19
376.319	85.19
376.545	71.19
376.771	89.19
376.997	96.19
377.222	85.19
377.448	97.19
377.674	94.19
377.899	83.19
378.125	88.19
378.35	85.19
378.576	78.19
378.802	85.19
379.027	95.19
379.253	111.19
379.478	84.19
379.704	97.19
379.929	88.19
380.155	81.19
380.38	80.19
380.606	102.19
380.831	104.19
381.057	109.19
381.282	95.19
381.507	97.19
381.733	87.19
381.958	91.19
382.184	89.19
382.409	100.19
382.634	104.19
382.86	97.19
383.085	104.19
383.31	108.19
383.535	92.19
383.761	106.19
383.986	100.19
384.211	98.19
384.436	106.19
384.662	103.19
384.887	118.19
385.112	123.19
385.337	99.19
385.562	100.19
385.787	121.19
386.013	115.19
386.238	126.19
386.463	100.19
386.688	113.19
386.913	106.19
387.138	117.19
387.363	102.19
387.588	112.19
387.813	112.19
388.038	91.19
388.263	118.19
388.488	111.19
388.713	89.19
388.938	82.19
389.163	84.19
389.387	80.19
389.612	79.19
389.837	101.19
390.062	96.19
390.287	98.19
390.512	97.19
390.736	89.19
390.961	103.19
391.186	87.19
391.411	101.19
391.636	79.19
391.86	74.19
392.085	75.19
392.31	106.19
392.534	86.19
392.759	97.19
392.984	89.19
393.208	78.19
393.433	109.19
393.658	101.19
393.882	77.19
394.107	88.19
394.331	81.19
394.556	96.19
394.78	91.19
395.005	83.19
395.229	90.19
395.454	70.19
395.678	88.19
395.903	84.19
396.127	86.19
396.352	78.19
396.576	90.19
396.801	80.19
397.025	91.19
397.249	82.19
397.474	92.19
397.698	84.19
397.922	86.19
398.147	97.19
398.371	86.19
398.595	78.19
398.82	91.19
399.044	84.19
399.268	82.19
399.492	91.19
399.717	92.19
399.941	89.19
400.165	92.19
400.389	85.19
400.613	87.19
400.837	75.19
401.062	92.19
401.286	80.19
401.51	73.19
401.734	93.19
401.958	92.19
402.182	123.19
402.406	172.19
402.63	120.19
402.854	85.19
403.078	90.19
403.302	79.19
403.526	87.19
403.75	96.19
403.974	92.19
404.198	91.19
404.422	86.19
404.645	92.19
404.869	93.19
405.093	85.19
405.317	100.19
405.541	99.19
405.765	99.19
405.988	141.19
406.212	200.19
406.436	267.19
406.66	163.19
406.883	110.19
407.107	96.19
407.331	102.19
407.555	83.19
407.778	92.19
408.002	92.19
408.226	92.19
408.449	85.19
408.673	76.19
408.896	104.19
409.12	93.19
409.344	88.19
409.567	82.19
409.791	89.19
410.014	89.19
410.238	87.19
410.461	97.19
410.685	94.19
410.908	95.19
411.132	100.19
411.355	106.19
411.578	100.19
411.802	84.19
412.025	94.19
412.249	96.19
412.472	84.19
412.695	82.19
412.919	106.19
413.142	105.19
413.365	89.19
413.589	79.19
413.812	92.19
414.035	108.19
414.258	73.19
414.482	82.19
414.705	88.19
414.928	95.19
415.151	87.19
415.374	94.19
415.597	98.19
415.821	100.19
416.044	93.19
416.267	97.19
416.49	90.19
416.713	88.19
416.936	78.19
417.159	95.19
417.382	94.19
417.605	90.19
417.828	90.19
418.051	84.19
418.274	92.19
418.497	89.19
418.72	74.19
418.943	87.19
419.166	84.19
419.389	94.19
419.611	89.19
419.834	106.19
420.057	93.19
420.28	86.19
420.503	92.19
420.726	79.19
420.948	99.19
421.171	94.19
421.394	91.19
421.617	98.19
421.839	96.19
422.062	87.19
422.285	89.19
422.507	101.19
422.73	101.19
422.953	93.19
423.175	76.19
423.398	88.19
423.621	84.19
423.843	86.19
424.066	88.19
424.288	90.19
424.511	81.19
424.733	96.19
424.956	103.19
425.178	90.19
425.401	102.19
425.623	97.19
425.846	102.19
426.068	97.19
426.291	99.19
426.513	96.19
426.735	76.19
426.958	92.19
427.18	109.19
427.402	143.19
427.625	191.19
427.847	150.19
428.069	115.19
428.292	90.19
428.514	81.19
428.736	74.19
428.958	96.19
429.181	82.19
429.403	78.19
429.625	101.19
429.847	90.19
430.069	93.19
430.292	94.19
430.514	93.19
430.736	89.19
430.958	82.19
431.18	93.19
431.402	91.19
431.624	83.19
431.846	106.19
432.068	93.19
432.29	85.19
432.512	87.19
432.734	79.19
432.956	85.19
433.178	104.19
433.4	106.19
433.622	94.19
433.844	85.19
434.066	81.19
434.287	101.19
434.509	94.19
434.731	100.19
434.953	94.19
435.175	86.19
435.397	86.19
435.618	70.19
435.84	101.19
436.062	133.19
436.284	131.19
436.505	112.19
436.727	127.19
436.949	101.19
437.17	89.19
437.392	89.19
437.614	91.19
437.835	99.19
438.057	120.19
438.278	111.19
438.5	106.19
438.721	124.19
438.943	103.19
439.165	80.19
439.386	90.19
439.608	104.19
439.829	110.19
440.05	133.19
440.272	163.19
440.493	103.19
440.715	81.19
440.936	91.19
441.158	79.19
441.379	96.19
441.6	104.19
441.822	99.19
442.043	89.19
442.264	92.19
442.486	95.19
442.707	97.19
442.928	110.19
443.149	138.19
443.371	149.19
443.592	112.19
443.813	110.19
444.034	105.19
444.255	99.19
444.476	83.19
444.698	80.19
444.919	94.19
445.14	126.19
445.361	138.19
445.582	123.19
445.803	146.19
446.024	154.19
446.245	140.19
446.466	129.19
446.687	100.19
446.908	85.19
447.129	100.19
447.35	89.19
447.571	94.19
447.792	88.19
448.013	97.19
448.234	106.19
448.455	107.19
448.675	124.19
448.896	121.19
449.117	102.19
449.338	115.19
449.559	135.19
449.779	144.19
450	110.19
450.221	92.19
450.442	81.19
450.662	96.19
450.883	120.19
451.104	125.19
451.324	91.19
451.545	90.19
451.766	80.19
451.986	93.19
452.207	97.19
452.428	85.19
452.648	101.19
452.869	109.19
453.089	107.19
453.31	129.19
453.53	96.19
453.751	101.19
453.971	106.19
454.192	118.19
454.412	99.19
454.633	101.19
454.853	91.19
455.073	88.19
455.294	94.19
455.514	97.19
455.734	86.19
455.955	92.19
456.175	104.19
456.395	76.19
456.616	97.19
456.836	96.19
457.056	91.19
457.276	93.19
457.497	87.19
457.717	88.19
457.937	82.19
458.157	87.19
458.377	94.19
458.598	112.19
458.818	161.19
459.038	176.19
459.258	126.19
459.478	99.19
459.698	82.19
459.918	84.19
460.138	81.19
460.358	81.19
460.578	92.19
460.798	88.19
461.018	89.19
461.238	90.19
461.458	86.19
461.678	82.19
461.898	90.19
462.118	94.19
462.338	93.19
462.558	91.19
462.777	77.19
462.997	81.19
463.217	67.19
463.437	87.19
463.657	80.19
463.876	74.19
464.096	74.19
464.316	91.19
464.536	100.19
464.755	107.19
464.975	119.19
465.195	194.19
465.414	193.19
465.634	111.19
465.854	89.19
466.073	93.19
466.293	83.19
466.512	93.19
466.732	86.19
466.951	77.19
467.171	92.19
467.391	93.19
467.61	95.19
467.829	98.19
468.049	91.19
468.268	97.19
468.488	62.19
468.707	93.19
468.927	90.19
469.146	93.19
469.365	77.19
469.585	91.19
469.804	97.19
470.023	88.19
470.243	91.19
470.462	99.19
470.681	100.19
470.901	95.19
471.12	83.19
471.339	105.19
471.558	90.19
471.777	90.19
471.997	79.19
472.216	92.19
472.435	143.19
472.654	82.19
472.873	76.19
473.092	85.19
473.311	78.19
473.53	65.19
473.749	93.19
473.968	106.19
474.187	106.19
474.406	93.19
474.625	84.19
474.844	80.19
475.063	78.19
475.282	75.19
475.501	85.19
475.72	81.19
475.939	86.19
476.158	80.19
476.377	97.19
476.596	98.19
476.814	81.19
477.033	106.19
477.252	94.19
477.471	95.19
477.69	84.19
477.908	77.19
478.127	89.19
478.346	89.19
478.564	88.19
478.783	93.19
479.002	105.19
479.22	86.19
479.439	108.19
479.658	117.19
479.876	89.19
480.095	99.19
480.313	81.19
480.532	95.19
480.751	85.19
480.969	94.19
481.188	153.19
481.406	121.19
481.624	98.19
481.843	96.19
482.061	96.19
482.28	92.19
482.498	99.19
482.717	94.19
482.935	76.19
483.153	76.19
483.372	90.19
483.59	77.19
483.808	98.19
484.027	93.19
484.245	90.19
484.463	94.19
484.681	87.19
484.9	89.19
485.118	96.19
485.336	89.19
485.554	92.19
485.772	112.19
485.99	107.19
486.209	94.19
486.427	96.19
486.645	113.19
486.863	110.19
487.081	106.19
487.299	93.19
487.517	92.19
487.735	97.19
487.953	81.19
488.171	92.19
488.389	110.19
488.607	105.19
488.825	96.19
489.043	111.19
489.261	104.19
489.479	93.19
489.696	91.19
489.914	97.19
490.132	89.19
490.35	91.19
490.568	92.19
490.786	87.19
491.003	92.19
491.221	92.19
491.439	87.19
491.657	100.19
491.874	91.19
492.092	91.19
492.31	93.19
492.527	92.19
492.745	84.19
492.963	85.19
493.18	99.19
493.398	96.19
493.615	105.19
493.833	87.19
494.05	99.19
494.268	96.19
494.485	90.19
494.703	85.19
494.92	92.19
495.138	80.19
495.355	84.19
495.573	96.19
495.79	98.19
496.008	92.19
496.225	97.19
496.442	94.19
496.66	102.19
496.877	96.19
497.094	92.19
497.312	88.19
497.529	86.19
497.746	95.19
497.963	91.19
498.181	91.19
498.398	95.19
498.615	113.19
498.832	89.19
499.049	92.19
499.267	82.19
499.484	94.19
499.701	92.19
499.918	97.19
500.135	86.19
500.352	87.19
500.569	90.19
500.786	100.19
501.003	79.19
501.22	91.19
501.437	92.19
501.654	97.19
501.871	116.19
502.088	102.19
502.305	86.19
502.522	87.19
502.739	80.19
502.956	92.19
503.172	79.19
503.389	90.19
503.606	113.19
503.823	109.19
504.04	87.19
504.256	83.19
504.473	84.19
504.69	89.19
504.907	94.19
505.123	77.19
505.34	93.19
505.557	86.19
505.773	79.19
505.99	98.19
506.207	95.19
506.423	106.19
506.64	89.19
506.856	91.19
507.073	96.19
507.289	99.19
507.506	109.19
507.722	115.19
507.939	115.19
508.155	81.19
508.372	81.19
508.588	87.19
508.805	96.19
509.021	99.19
509.238	106.19
509.454	104.19
509.67	105.19
509.887	117.19
510.103	137.19
510.319	233.19
510.536	875.19
510.752	2997.19
510.968	799.19
511.184	171.19
511.401	130.19
511.617	116.19
511.833	95.19
512.049	80.19
512.265	93.19
512.481	93.19
512.698	86.19
512.914	98.19
513.13	108.19
513.346	92.19
513.562	97.19
513.778	98.19
513.994	105.19
514.21	109.19
514.426	123.19
514.642	155.19
514.858	139.19
515.074	200.19
515.29	584.19
