Data from Circ_2006_H10_HRD10591_00065.txt Node
Date: Wed Jan 03 10:26:16 EST 2024
User: Yrep
Spectrometer: HR+D1059
Trigger mode: 1
Integration Time (sec): 1.000000E-1
Scans to average: 1
Electric dark correction enabled: true
Nonlinearity correction enabled: false
Boxcar width: 0
XAxis mode: Wavelengths
Number of Pixels in Spectrum: 2048
>>>>>Begin Spectral Data<<<<<
223.165	-5.69
223.4	-5.69
223.635	-5.69
223.869	-13.69
224.104	-28.69
224.338	-24.69
224.573	-14.69
224.808	-24.69
225.042	-2.69
225.277	-6.69
225.511	4.31
225.746	9.31
225.98	4.31
226.215	2.31
226.449	20.31
226.683	35.31
226.918	20.31
227.152	25.31
227.387	27.31
227.621	45.31
227.856	39.31
228.09	52.31
228.324	52.31
228.559	57.31
228.793	49.31
229.027	53.31
229.262	70.31
229.496	82.31
229.73	87.31
229.964	81.31
230.199	93.31
230.433	82.31
230.667	83.31
230.901	81.31
231.136	86.31
231.37	87.31
231.604	92.31
231.838	82.31
232.072	74.31
232.306	86.31
232.541	73.31
232.775	87.31
233.009	83.31
233.243	77.31
233.477	73.31
233.711	71.31
233.945	86.31
234.179	82.31
234.413	72.31
234.647	77.31
234.881	82.31
235.115	70.31
235.349	78.31
235.583	77.31
235.817	72.31
236.051	85.31
236.285	74.31
236.519	86.31
236.753	80.31
236.987	70.31
237.221	99.31
237.455	80.31
237.689	65.31
237.922	71.31
238.156	84.31
238.39	64.31
238.624	69.31
238.858	64.31
239.091	80.31
239.325	73.31
239.559	69.31
239.793	79.31
240.027	89.31
240.26	76.31
240.494	83.31
240.728	64.31
240.961	84.31
241.195	84.31
241.429	64.31
241.662	76.31
241.896	76.31
242.13	75.31
242.363	68.31
242.597	69.31
242.83	75.31
243.064	85.31
243.298	53.31
243.531	79.31
243.765	57.31
243.998	81.31
244.232	93.31
244.465	86.31
244.699	91.31
244.932	80.31
245.166	85.31
245.399	85.31
245.633	97.31
245.866	73.31
246.099	83.31
246.333	74.31
246.566	78.31
246.8	86.31
247.033	70.31
247.266	67.31
247.5	65.31
247.733	87.31
247.966	83.31
248.2	78.31
248.433	83.31
248.666	85.31
248.899	89.31
249.133	89.31
249.366	89.31
249.599	87.31
249.832	76.31
250.066	83.31
250.299	77.31
250.532	73.31
250.765	84.31
250.998	82.31
251.231	70.31
251.465	84.31
251.698	65.31
251.931	84.31
252.164	78.31
252.397	68.31
252.63	73.31
252.863	78.31
253.096	77.31
253.329	88.31
253.562	89.31
253.795	75.31
254.028	82.31
254.261	72.31
254.494	71.31
254.727	95.31
254.96	70.31
255.193	75.31
255.426	79.31
255.659	81.31
255.892	95.31
256.124	80.31
256.357	86.31
256.59	81.31
256.823	80.31
257.056	80.31
257.289	77.31
257.521	59.31
257.754	83.31
257.987	69.31
258.22	86.31
258.452	68.31
258.685	74.31
258.918	80.31
259.151	84.31
259.383	90.31
259.616	80.31
259.849	94.31
260.081	83.31
260.314	73.31
260.547	96.31
260.779	78.31
261.012	69.31
261.244	70.31
261.477	83.31
261.71	108.31
261.942	123.31
262.175	129.31
262.407	100.31
262.64	87.31
262.872	82.31
263.105	81.31
263.337	83.31
263.57	75.31
263.802	89.31
264.035	89.31
264.267	86.31
264.499	86.31
264.732	81.31
264.964	78.31
265.197	82.31
265.429	85.31
265.661	81.31
265.894	83.31
266.126	93.31
266.358	85.31
266.591	89.31
266.823	83.31
267.055	83.31
267.287	83.31
267.52	82.31
267.752	84.31
267.984	67.31
268.216	84.31
268.448	77.31
268.681	77.31
268.913	81.31
269.145	97.31
269.377	74.31
269.609	83.31
269.841	72.31
270.073	87.31
270.306	97.31
270.538	83.31
270.77	77.31
271.002	69.31
271.234	85.31
271.466	101.31
271.698	91.31
271.93	87.31
272.162	86.31
272.394	90.31
272.626	101.31
272.858	108.31
273.09	68.31
273.322	88.31
273.553	72.31
273.785	75.31
274.017	85.31
274.249	90.31
274.481	95.31
274.713	75.31
274.945	83.31
275.176	94.31
275.408	86.31
275.64	91.31
275.872	85.31
276.104	97.31
276.335	100.31
276.567	98.31
276.799	126.31
277.031	110.31
277.262	93.31
277.494	79.31
277.726	97.31
277.957	85.31
278.189	95.31
278.421	84.31
278.652	84.31
278.884	92.31
279.115	90.31
279.347	86.31
279.579	83.31
279.81	90.31
280.042	94.31
280.273	86.31
280.505	73.31
280.736	88.31
280.968	88.31
281.199	81.31
281.431	87.31
281.662	81.31
281.894	89.31
282.125	113.31
282.356	146.31
282.588	177.31
282.819	126.31
283.051	101.31
283.282	104.31
283.513	85.31
283.745	88.31
283.976	88.31
284.207	90.31
284.439	87.31
284.67	106.31
284.901	102.31
285.132	88.31
285.364	81.31
285.595	91.31
285.826	77.31
286.057	91.31
286.288	85.31
286.52	85.31
286.751	90.31
286.982	91.31
287.213	93.31
287.444	95.31
287.675	86.31
287.906	89.31
288.138	89.31
288.369	107.31
288.6	96.31
288.831	76.31
289.062	89.31
289.293	90.31
289.524	98.31
289.755	93.31
289.986	96.31
290.217	97.31
290.448	92.31
290.679	88.31
290.91	84.31
291.141	78.31
291.371	95.31
291.602	69.31
291.833	89.31
292.064	95.31
292.295	86.31
292.526	88.31
292.757	85.31
292.987	94.31
293.218	95.31
293.449	81.31
293.68	93.31
293.91	85.31
294.141	86.31
294.372	91.31
294.603	81.31
294.833	96.31
295.064	86.31
295.295	90.31
295.525	103.31
295.756	107.31
295.987	135.31
296.217	153.31
296.448	135.31
296.679	97.31
296.909	91.31
297.14	85.31
297.37	85.31
297.601	93.31
297.831	91.31
298.062	92.31
298.292	101.31
298.523	94.31
298.753	84.31
298.984	99.31
299.214	96.31
299.445	98.31
299.675	106.31
299.905	108.31
300.136	103.31
300.366	99.31
300.597	90.31
300.827	98.31
301.057	102.31
301.288	116.31
301.518	80.31
301.748	87.31
301.979	92.31
302.209	90.31
302.439	98.31
302.669	87.31
302.9	83.31
303.13	98.31
303.36	100.31
303.59	110.31
303.82	122.31
304.051	100.31
304.281	82.31
304.511	90.31
304.741	94.31
304.971	110.31
305.201	85.31
305.431	96.31
305.661	75.31
305.891	97.31
306.121	102.31
306.352	98.31
306.582	117.31
306.812	113.31
307.042	82.31
307.272	80.31
307.502	101.31
307.731	90.31
307.961	99.31
308.191	95.31
308.421	90.31
308.651	87.31
308.881	90.31
309.111	90.31
309.341	94.31
309.571	112.31
309.8	86.31
310.03	101.31
310.26	93.31
310.49	103.31
310.72	102.31
310.949	110.31
311.179	109.31
311.409	105.31
311.639	85.31
311.868	97.31
312.098	102.31
312.328	112.31
312.557	116.31
312.787	113.31
313.017	107.31
313.246	97.31
313.476	78.31
313.706	87.31
313.935	92.31
314.165	104.31
314.394	111.31
314.624	107.31
314.853	110.31
315.083	94.31
315.312	82.31
315.542	86.31
315.771	93.31
316.001	91.31
316.23	102.31
316.46	97.31
316.689	91.31
316.919	99.31
317.148	100.31
317.377	96.31
317.607	84.31
317.836	104.31
318.065	83.31
318.295	79.31
318.524	94.31
318.753	100.31
318.983	91.31
319.212	111.31
319.441	120.31
319.67	121.31
319.9	95.31
320.129	103.31
320.358	108.31
320.587	99.31
320.816	113.31
321.046	111.31
321.275	100.31
321.504	99.31
321.733	107.31
321.962	108.31
322.191	98.31
322.42	108.31
322.649	119.31
322.878	122.31
323.108	131.31
323.337	136.31
323.566	154.31
323.795	201.31
324.024	267.31
324.253	563.31
324.482	1244.31
324.71	2566.31
324.939	3321.31
325.168	1186.31
325.397	320.31
325.626	188.31
325.855	156.31
326.084	141.31
326.313	173.31
326.542	191.31
326.77	308.31
326.999	640.31
327.228	1372.31
327.457	2579.31
327.686	1967.31
327.914	514.31
328.143	248.31
328.372	200.31
328.6	139.31
328.829	143.31
329.058	139.31
329.287	155.31
329.515	110.31
329.744	96.31
329.972	100.31
330.201	117.31
330.43	154.31
330.658	165.31
330.887	177.31
331.115	144.31
331.344	104.31
331.572	109.31
331.801	123.31
332.03	123.31
332.258	116.31
332.486	85.31
332.715	105.31
332.943	103.31
333.172	109.31
333.4	93.31
333.629	109.31
333.857	112.31
334.085	119.31
334.314	118.31
334.542	152.31
334.771	157.31
334.999	98.31
335.227	81.31
335.455	107.31
335.684	101.31
335.912	98.31
336.14	94.31
336.369	101.31
336.597	90.31
336.825	102.31
337.053	97.31
337.281	99.31
337.51	93.31
337.738	113.31
337.966	90.31
338.194	106.31
338.422	104.31
338.65	95.31
338.878	85.31
339.106	93.31
339.334	77.31
339.562	87.31
339.79	98.31
340.018	95.31
340.246	90.31
340.474	100.31
340.702	97.31
340.93	90.31
341.158	97.31
341.386	101.31
341.614	97.31
341.842	90.31
342.07	94.31
342.298	89.31
342.526	103.31
342.754	102.31
342.981	79.31
343.209	92.31
343.437	111.31
343.665	105.31
343.893	105.31
344.12	96.31
344.348	70.31
344.576	105.31
344.804	95.31
345.031	91.31
345.259	110.31
345.487	91.31
345.714	85.31
345.942	94.31
346.17	96.31
346.397	84.31
346.625	103.31
346.853	91.31
347.08	92.31
347.308	99.31
347.535	107.31
347.763	113.31
347.99	90.31
348.218	104.31
348.445	124.31
348.673	96.31
348.9	102.31
349.128	94.31
349.355	87.31
349.583	104.31
349.81	99.31
350.037	97.31
350.265	105.31
350.492	93.31
350.72	94.31
350.947	112.31
351.174	123.31
351.402	113.31
351.629	117.31
351.856	90.31
352.083	97.31
352.311	113.31
352.538	118.31
352.765	117.31
352.992	109.31
353.22	125.31
353.447	107.31
353.674	99.31
353.901	107.31
354.128	99.31
354.355	98.31
354.583	104.31
354.81	101.31
355.037	100.31
355.264	98.31
355.491	91.31
355.718	97.31
355.945	91.31
356.172	81.31
356.399	85.31
356.626	96.31
356.853	101.31
357.08	100.31
357.307	98.31
357.534	98.31
357.761	96.31
357.988	96.31
358.215	94.31
358.441	96.31
358.668	85.31
358.895	97.31
359.122	85.31
359.349	87.31
359.576	98.31
359.802	100.31
360.029	118.31
360.256	122.31
360.483	113.31
360.709	79.31
360.936	105.31
361.163	94.31
361.39	103.31
361.616	91.31
361.843	101.31
362.07	92.31
362.296	105.31
362.523	96.31
362.749	95.31
362.976	91.31
363.203	89.31
363.429	91.31
363.656	70.31
363.882	86.31
364.109	99.31
364.335	87.31
364.562	95.31
364.788	92.31
365.015	97.31
365.241	112.31
365.468	123.31
365.694	137.31
365.92	93.31
366.147	105.31
366.373	84.31
366.599	84.31
366.826	94.31
367.052	97.31
367.278	85.31
367.505	112.31
367.731	87.31
367.957	102.31
368.184	117.31
368.41	108.31
368.636	115.31
368.862	152.31
369.089	110.31
369.315	102.31
369.541	87.31
369.767	94.31
369.993	83.31
370.219	93.31
370.445	91.31
370.672	95.31
370.898	86.31
371.124	79.31
371.35	93.31
371.576	90.31
371.802	97.31
372.028	90.31
372.254	76.31
372.48	93.31
372.706	97.31
372.932	95.31
373.158	88.31
373.384	92.31
373.61	95.31
373.835	80.31
374.061	84.31
374.287	89.31
374.513	94.31
374.739	101.31
374.965	83.31
375.191	90.31
375.416	91.31
375.642	87.31
375.868	79.31
376.094	99.31
376.319	97.31
376.545	83.31
376.771	95.31
376.997	87.31
377.222	86.31
377.448	102.31
377.674	95.31
377.899	95.31
378.125	95.31
378.35	90.31
378.576	88.31
378.802	90.31
379.027	87.31
379.253	107.31
379.478	96.31
379.704	90.31
379.929	86.31
380.155	91.31
380.38	97.31
380.606	92.31
380.831	93.31
381.057	80.31
381.282	91.31
381.507	105.31
381.733	92.31
381.958	86.31
382.184	94.31
382.409	92.31
382.634	107.31
382.86	89.31
383.085	101.31
383.31	98.31
383.535	97.31
383.761	102.31
383.986	100.31
384.211	102.31
384.436	98.31
384.662	86.31
384.887	97.31
385.112	106.31
385.337	107.31
385.562	107.31
385.787	98.31
386.013	115.31
386.238	108.31
386.463	113.31
386.688	110.31
386.913	102.31
387.138	110.31
387.363	104.31
387.588	97.31
387.813	119.31
388.038	112.31
388.263	104.31
388.488	92.31
388.713	94.31
388.938	87.31
389.163	92.31
389.387	95.31
389.612	95.31
389.837	94.31
390.062	98.31
390.287	100.31
390.512	96.31
390.736	90.31
390.961	93.31
391.186	83.31
391.411	95.31
391.636	82.31
391.86	82.31
392.085	94.31
392.31	85.31
392.534	66.31
392.759	87.31
392.984	83.31
393.208	95.31
393.433	88.31
393.658	100.31
393.882	101.31
394.107	80.31
394.331	85.31
394.556	95.31
394.78	104.31
395.005	87.31
395.229	85.31
395.454	92.31
395.678	92.31
395.903	84.31
396.127	98.31
396.352	85.31
396.576	85.31
396.801	80.31
397.025	86.31
397.249	84.31
397.474	81.31
397.698	96.31
397.922	81.31
398.147	102.31
398.371	85.31
398.595	87.31
398.82	100.31
399.044	85.31
399.268	78.31
399.492	96.31
399.717	102.31
399.941	96.31
400.165	102.31
400.389	93.31
400.613	94.31
400.837	96.31
401.062	90.31
401.286	81.31
401.51	83.31
401.734	97.31
401.958	106.31
402.182	163.31
402.406	198.31
402.63	154.31
402.854	105.31
403.078	88.31
403.302	65.31
403.526	92.31
403.75	87.31
403.974	79.31
404.198	101.31
404.422	83.31
404.645	78.31
404.869	84.31
405.093	102.31
405.317	110.31
405.541	104.31
405.765	103.31
405.988	139.31
406.212	211.31
406.436	290.31
406.66	194.31
406.883	102.31
407.107	116.31
407.331	88.31
407.555	100.31
407.778	84.31
408.002	99.31
408.226	94.31
408.449	83.31
408.673	91.31
408.896	95.31
409.12	101.31
409.344	106.31
409.567	91.31
409.791	94.31
410.014	92.31
410.238	103.31
410.461	92.31
410.685	97.31
410.908	91.31
411.132	102.31
411.355	85.31
411.578	100.31
411.802	92.31
412.025	93.31
412.249	93.31
412.472	102.31
412.695	97.31
412.919	84.31
413.142	83.31
413.365	78.31
413.589	79.31
413.812	77.31
414.035	100.31
414.258	82.31
414.482	92.31
414.705	91.31
414.928	94.31
415.151	99.31
415.374	82.31
415.597	97.31
415.821	84.31
416.044	85.31
416.267	90.31
416.49	95.31
416.713	103.31
416.936	93.31
417.159	87.31
417.382	70.31
417.605	87.31
417.828	99.31
418.051	92.31
418.274	82.31
418.497	88.31
418.72	93.31
418.943	85.31
419.166	107.31
419.389	92.31
419.611	90.31
419.834	99.31
420.057	91.31
420.28	89.31
420.503	104.31
420.726	80.31
420.948	80.31
421.171	92.31
421.394	104.31
421.617	96.31
421.839	95.31
422.062	92.31
422.285	96.31
422.507	104.31
422.73	101.31
422.953	98.31
423.175	90.31
423.398	85.31
423.621	89.31
423.843	85.31
424.066	91.31
424.288	106.31
424.511	93.31
424.733	92.31
424.956	114.31
425.178	109.31
425.401	100.31
425.623	87.31
425.846	103.31
426.068	98.31
426.291	106.31
426.513	93.31
426.735	77.31
426.958	110.31
427.18	118.31
427.402	158.31
427.625	208.31
427.847	151.31
428.069	138.31
428.292	90.31
428.514	86.31
428.736	91.31
428.958	76.31
429.181	82.31
429.403	91.31
429.625	98.31
429.847	94.31
430.069	97.31
430.292	96.31
430.514	79.31
430.736	86.31
430.958	84.31
431.18	82.31
431.402	84.31
431.624	75.31
431.846	93.31
432.068	94.31
432.29	82.31
432.512	99.31
432.734	92.31
432.956	83.31
433.178	108.31
433.4	117.31
433.622	93.31
433.844	83.31
434.066	85.31
434.287	82.31
434.509	91.31
434.731	93.31
434.953	102.31
435.175	99.31
435.397	97.31
435.618	83.31
435.84	113.31
436.062	117.31
436.284	141.31
436.505	95.31
436.727	100.31
436.949	107.31
437.17	83.31
437.392	90.31
437.614	105.31
437.835	117.31
438.057	139.31
438.278	122.31
438.5	99.31
438.721	137.31
438.943	95.31
439.165	87.31
439.386	87.31
439.608	100.31
439.829	92.31
440.05	143.31
440.272	169.31
440.493	94.31
440.715	81.31
440.936	91.31
441.158	98.31
441.379	91.31
441.6	111.31
441.822	94.31
442.043	98.31
442.264	113.31
442.486	104.31
442.707	109.31
442.928	117.31
443.149	165.31
443.371	168.31
443.592	128.31
443.813	120.31
444.034	97.31
444.255	95.31
444.476	92.31
444.698	98.31
444.919	96.31
445.14	128.31
445.361	131.31
445.582	134.31
445.803	173.31
446.024	170.31
446.245	157.31
446.466	119.31
446.687	92.31
446.908	81.31
447.129	87.31
447.35	103.31
447.571	85.31
447.792	99.31
448.013	99.31
448.234	122.31
448.455	114.31
448.675	116.31
448.896	125.31
449.117	115.31
449.338	109.31
449.559	142.31
449.779	144.31
450	95.31
450.221	83.31
450.442	88.31
450.662	91.31
450.883	123.31
451.104	140.31
451.324	103.31
451.545	85.31
451.766	82.31
451.986	81.31
452.207	101.31
452.428	105.31
452.648	102.31
452.869	134.31
453.089	151.31
453.31	141.31
453.53	84.31
453.751	86.31
453.971	115.31
454.192	117.31
454.412	101.31
454.633	87.31
454.853	83.31
455.073	88.31
455.294	89.31
455.514	108.31
455.734	94.31
455.955	96.31
456.175	94.31
456.395	84.31
456.616	83.31
456.836	81.31
457.056	87.31
457.276	85.31
457.497	84.31
457.717	89.31
457.937	82.31
458.157	80.31
458.377	103.31
458.598	115.31
458.818	182.31
459.038	205.31
459.258	123.31
459.478	81.31
459.698	79.31
459.918	91.31
460.138	89.31
460.358	76.31
460.578	93.31
460.798	97.31
461.018	72.31
461.238	77.31
461.458	89.31
461.678	74.31
461.898	84.31
462.118	90.31
462.338	85.31
462.558	77.31
462.777	91.31
462.997	76.31
463.217	100.31
463.437	83.31
463.657	85.31
463.876	86.31
464.096	83.31
464.316	96.31
464.536	93.31
464.755	101.31
464.975	135.31
465.195	224.31
465.414	203.31
465.634	105.31
465.854	86.31
466.073	84.31
466.293	93.31
466.512	94.31
466.732	92.31
466.951	89.31
467.171	92.31
467.391	96.31
467.61	107.31
467.829	96.31
468.049	105.31
468.268	119.31
468.488	100.31
468.707	91.31
468.927	82.31
469.146	85.31
469.365	84.31
469.585	95.31
469.804	84.31
470.023	109.31
470.243	87.31
470.462	119.31
470.681	125.31
470.901	95.31
471.12	71.31
471.339	87.31
471.558	92.31
471.777	100.31
471.997	99.31
472.216	111.31
472.435	169.31
472.654	105.31
472.873	94.31
473.092	98.31
473.311	90.31
473.53	93.31
473.749	87.31
473.968	86.31
474.187	101.31
474.406	105.31
474.625	87.31
474.844	99.31
475.063	86.31
475.282	90.31
475.501	87.31
475.72	92.31
475.939	92.31
476.158	98.31
476.377	80.31
476.596	91.31
476.814	93.31
477.033	85.31
477.252	100.31
477.471	79.31
477.69	95.31
477.908	84.31
478.127	84.31
478.346	74.31
478.564	92.31
478.783	106.31
479.002	92.31
479.22	86.31
479.439	120.31
479.658	118.31
479.876	104.31
480.095	97.31
480.313	93.31
480.532	82.31
480.751	88.31
480.969	120.31
481.188	256.31
481.406	212.31
481.624	96.31
481.843	96.31
482.061	90.31
482.28	90.31
482.498	85.31
482.717	86.31
482.935	89.31
483.153	82.31
483.372	81.31
483.59	91.31
483.808	86.31
484.027	94.31
484.245	85.31
484.463	93.31
484.681	97.31
484.9	90.31
485.118	95.31
485.336	92.31
485.554	95.31
485.772	80.31
485.99	101.31
486.209	113.31
486.427	105.31
486.645	118.31
486.863	127.31
487.081	101.31
487.299	112.31
487.517	105.31
487.735	96.31
487.953	86.31
488.171	101.31
488.389	89.31
488.607	104.31
488.825	85.31
489.043	98.31
489.261	84.31
489.479	87.31
489.696	92.31
489.914	93.31
490.132	92.31
490.35	73.31
490.568	91.31
490.786	102.31
491.003	95.31
491.221	79.31
491.439	90.31
491.657	103.31
491.874	87.31
492.092	93.31
492.31	94.31
492.527	101.31
492.745	88.31
492.963	81.31
493.18	91.31
493.398	91.31
493.615	104.31
493.833	100.31
494.05	96.31
494.268	93.31
494.485	97.31
494.703	86.31
494.92	86.31
495.138	84.31
495.355	82.31
495.573	90.31
495.79	87.31
496.008	88.31
496.225	89.31
496.442	76.31
496.66	85.31
496.877	87.31
497.094	91.31
497.312	97.31
497.529	82.31
497.746	79.31
497.963	95.31
498.181	101.31
498.398	99.31
498.615	119.31
498.832	118.31
499.049	96.31
499.267	89.31
499.484	97.31
499.701	85.31
499.918	87.31
500.135	89.31
500.352	100.31
500.569	85.31
500.786	96.31
501.003	73.31
501.22	93.31
501.437	89.31
501.654	98.31
501.871	122.31
502.088	93.31
502.305	87.31
502.522	77.31
502.739	91.31
502.956	86.31
503.172	98.31
503.389	99.31
503.606	110.31
503.823	107.31
504.04	87.31
504.256	82.31
504.473	79.31
504.69	79.31
504.907	101.31
505.123	86.31
505.34	99.31
505.557	78.31
505.773	81.31
505.99	94.31
506.207	85.31
506.423	79.31
506.64	85.31
506.856	92.31
507.073	82.31
507.289	86.31
507.506	104.31
507.722	121.31
507.939	127.31
508.155	96.31
508.372	85.31
508.588	97.31
508.805	96.31
509.021	104.31
509.238	106.31
509.454	115.31
509.67	113.31
509.887	116.31
510.103	153.31
510.319	269.31
510.536	1043.31
510.752	3436.31
510.968	949.31
511.184	175.31
511.401	117.31
511.617	94.31
511.833	90.31
512.049	83.31
512.265	98.31
512.481	96.31
512.698	93.31
512.914	110.31
513.13	76.31
513.346	106.31
513.562	89.31
513.778	111.31
513.994	110.31
514.21	116.31
514.426	127.31
514.642	175.31
