Data from Circ_2006_H10_HRD10591_00072.txt Node
Date: Wed Jan 03 10:26:18 EST 2024
User: Yrep
Spectrometer: HR+D1059
Trigger mode: 1
Integration Time (sec): 1.000000E-1
Scans to average: 1
Electric dark correction enabled: true
Nonlinearity correction enabled: false
Boxcar width: 0
XAxis mode: Wavelengths
Number of Pixels in Spectrum: 2048
>>>>>Begin Spectral Data<<<<<
223.165	-8.56
223.4	-8.56
223.635	-8.56
223.869	-22.56
224.104	-17.56
224.338	-22.56
224.573	-17.56
224.808	-20.56
225.042	2.44
225.277	-2.56
225.511	-6.56
225.746	10.44
225.98	7.44
226.215	11.44
226.449	18.44
226.683	17.44
226.918	15.44
227.152	35.44
227.387	32.44
227.621	53.44
227.856	33.44
228.09	50.44
228.324	58.44
228.559	49.44
228.793	63.44
229.027	65.44
229.262	76.44
229.496	61.44
229.73	73.44
229.964	82.44
230.199	81.44
230.433	82.44
230.667	76.44
230.901	82.44
231.136	71.44
231.37	83.44
231.604	78.44
231.838	74.44
232.072	80.44
232.306	68.44
232.541	75.44
232.775	84.44
233.009	80.44
233.243	73.44
233.477	91.44
233.711	101.44
233.945	83.44
234.179	81.44
234.413	86.44
234.647	85.44
234.881	85.44
235.115	81.44
235.349	82.44
235.583	76.44
235.817	72.44
236.051	69.44
236.285	79.44
236.519	77.44
236.753	82.44
236.987	82.44
237.221	84.44
237.455	96.44
237.689	86.44
237.922	84.44
238.156	74.44
238.39	78.44
238.624	79.44
238.858	68.44
239.091	69.44
239.325	78.44
239.559	62.44
239.793	71.44
240.027	75.44
240.26	77.44
240.494	93.44
240.728	81.44
240.961	76.44
241.195	66.44
241.429	68.44
241.662	77.44
241.896	70.44
242.13	69.44
242.363	81.44
242.597	81.44
242.83	72.44
243.064	65.44
243.298	73.44
243.531	68.44
243.765	81.44
243.998	71.44
244.232	71.44
244.465	83.44
244.699	82.44
244.932	91.44
245.166	81.44
245.399	74.44
245.633	78.44
245.866	77.44
246.099	77.44
246.333	78.44
246.566	86.44
246.8	73.44
247.033	72.44
247.266	69.44
247.5	66.44
247.733	91.44
247.966	88.44
248.2	84.44
248.433	91.44
248.666	90.44
248.899	81.44
249.133	83.44
249.366	96.44
249.599	112.44
249.832	76.44
250.066	87.44
250.299	84.44
250.532	71.44
250.765	81.44
250.998	77.44
251.231	79.44
251.465	75.44
251.698	88.44
251.931	84.44
252.164	76.44
252.397	80.44
252.63	77.44
252.863	89.44
253.096	81.44
253.329	81.44
253.562	82.44
253.795	77.44
254.028	90.44
254.261	85.44
254.494	79.44
254.727	73.44
254.96	93.44
255.193	88.44
255.426	91.44
255.659	78.44
255.892	92.44
256.124	79.44
256.357	91.44
256.59	82.44
256.823	81.44
257.056	80.44
257.289	70.44
257.521	98.44
257.754	78.44
257.987	90.44
258.22	88.44
258.452	76.44
258.685	86.44
258.918	83.44
259.151	84.44
259.383	73.44
259.616	92.44
259.849	73.44
260.081	78.44
260.314	95.44
260.547	86.44
260.779	86.44
261.012	84.44
261.244	78.44
261.477	98.44
261.71	86.44
261.942	114.44
262.175	106.44
262.407	86.44
262.64	75.44
262.872	73.44
263.105	74.44
263.337	88.44
263.57	84.44
263.802	83.44
264.035	83.44
264.267	86.44
264.499	75.44
264.732	75.44
264.964	74.44
265.197	73.44
265.429	83.44
265.661	75.44
265.894	81.44
266.126	70.44
266.358	88.44
266.591	77.44
266.823	91.44
267.055	75.44
267.287	78.44
267.52	77.44
267.752	81.44
267.984	86.44
268.216	81.44
268.448	91.44
268.681	85.44
268.913	80.44
269.145	88.44
269.377	88.44
269.609	98.44
269.841	81.44
270.073	94.44
270.306	83.44
270.538	72.44
270.77	73.44
271.002	82.44
271.234	87.44
271.466	83.44
271.698	87.44
271.93	86.44
272.162	80.44
272.394	93.44
272.626	82.44
272.858	89.44
273.09	69.44
273.322	81.44
273.553	82.44
273.785	84.44
274.017	86.44
274.249	91.44
274.481	77.44
274.713	71.44
274.945	78.44
275.176	88.44
275.408	81.44
275.64	99.44
275.872	83.44
276.104	82.44
276.335	79.44
276.567	94.44
276.799	90.44
277.031	102.44
277.262	89.44
277.494	75.44
277.726	98.44
277.957	90.44
278.189	92.44
278.421	80.44
278.652	83.44
278.884	86.44
279.115	90.44
279.347	71.44
279.579	75.44
279.81	83.44
280.042	85.44
280.273	94.44
280.505	84.44
280.736	66.44
280.968	102.44
281.199	91.44
281.431	82.44
281.662	88.44
281.894	92.44
282.125	95.44
282.356	111.44
282.588	134.44
282.819	117.44
283.051	97.44
283.282	93.44
283.513	75.44
283.745	92.44
283.976	82.44
284.207	93.44
284.439	91.44
284.67	102.44
284.901	84.44
285.132	84.44
285.364	81.44
285.595	98.44
285.826	90.44
286.057	84.44
286.288	81.44
286.52	91.44
286.751	82.44
286.982	93.44
287.213	85.44
287.444	102.44
287.675	100.44
287.906	86.44
288.138	94.44
288.369	90.44
288.6	89.44
288.831	68.44
289.062	84.44
289.293	86.44
289.524	90.44
289.755	82.44
289.986	85.44
290.217	87.44
290.448	82.44
290.679	80.44
290.91	81.44
291.141	98.44
291.371	86.44
291.602	96.44
291.833	91.44
292.064	85.44
292.295	88.44
292.526	94.44
292.757	75.44
292.987	95.44
293.218	88.44
293.449	88.44
293.68	91.44
293.91	95.44
294.141	81.44
294.372	85.44
294.603	91.44
294.833	93.44
295.064	78.44
295.295	86.44
295.525	91.44
295.756	97.44
295.987	122.44
296.217	141.44
296.448	113.44
296.679	103.44
296.909	89.44
297.14	87.44
297.37	98.44
297.601	98.44
297.831	85.44
298.062	79.44
298.292	86.44
298.523	105.44
298.753	91.44
298.984	90.44
299.214	74.44
299.445	84.44
299.675	99.44
299.905	71.44
300.136	97.44
300.366	101.44
300.597	86.44
300.827	89.44
301.057	93.44
301.288	96.44
301.518	91.44
301.748	85.44
301.979	100.44
302.209	85.44
302.439	87.44
302.669	104.44
302.9	87.44
303.13	84.44
303.36	95.44
303.59	98.44
303.82	97.44
304.051	84.44
304.281	97.44
304.511	99.44
304.741	82.44
304.971	75.44
305.201	90.44
305.431	86.44
305.661	90.44
305.891	92.44
306.121	91.44
306.352	100.44
306.582	100.44
306.812	87.44
307.042	94.44
307.272	86.44
307.502	96.44
307.731	90.44
307.961	88.44
308.191	111.44
308.421	100.44
308.651	89.44
308.881	87.44
309.111	83.44
309.341	104.44
309.571	106.44
309.8	94.44
310.03	98.44
310.26	99.44
310.49	101.44
310.72	95.44
310.949	100.44
311.179	95.44
311.409	85.44
311.639	93.44
311.868	86.44
312.098	81.44
312.328	91.44
312.557	94.44
312.787	103.44
313.017	108.44
313.246	89.44
313.476	92.44
313.706	98.44
313.935	90.44
314.165	104.44
314.394	101.44
314.624	106.44
314.853	102.44
315.083	98.44
315.312	97.44
315.542	91.44
315.771	101.44
316.001	99.44
316.23	86.44
316.46	84.44
316.689	116.44
316.919	91.44
317.148	100.44
317.377	100.44
317.607	90.44
317.836	78.44
318.065	87.44
318.295	91.44
318.524	104.44
318.753	100.44
318.983	101.44
319.212	106.44
319.441	109.44
319.67	114.44
319.9	95.44
320.129	91.44
320.358	86.44
320.587	100.44
320.816	95.44
321.046	94.44
321.275	94.44
321.504	96.44
321.733	95.44
321.962	77.44
322.191	94.44
322.42	105.44
322.649	115.44
322.878	105.44
323.108	125.44
323.337	125.44
323.566	135.44
323.795	150.44
324.024	208.44
324.253	410.44
324.482	854.44
324.71	1775.44
324.939	2311.44
325.168	825.44
325.397	243.44
325.626	155.44
325.855	141.44
326.084	114.44
326.313	143.44
326.542	143.44
326.77	246.44
326.999	479.44
327.228	1025.44
327.457	1837.44
327.686	1419.44
327.914	382.44
328.143	206.44
328.372	156.44
328.6	139.44
328.829	116.44
329.058	117.44
329.287	122.44
329.515	97.44
329.744	105.44
329.972	119.44
330.201	133.44
330.43	147.44
330.658	146.44
330.887	144.44
331.115	120.44
331.344	104.44
331.572	105.44
331.801	90.44
332.03	84.44
332.258	99.44
332.486	94.44
332.715	95.44
332.943	93.44
333.172	96.44
333.4	96.44
333.629	106.44
333.857	125.44
334.085	111.44
334.314	135.44
334.542	153.44
334.771	172.44
334.999	110.44
335.227	105.44
335.455	96.44
335.684	108.44
335.912	92.44
336.14	110.44
336.369	95.44
336.597	94.44
336.825	108.44
337.053	94.44
337.281	96.44
337.51	97.44
337.738	87.44
337.966	98.44
338.194	93.44
338.422	112.44
338.65	98.44
338.878	91.44
339.106	86.44
339.334	90.44
339.562	84.44
339.79	88.44
340.018	87.44
340.246	98.44
340.474	86.44
340.702	92.44
340.93	81.44
341.158	85.44
341.386	83.44
341.614	86.44
341.842	88.44
342.07	91.44
342.298	98.44
342.526	87.44
342.754	94.44
342.981	85.44
343.209	91.44
343.437	94.44
343.665	91.44
343.893	90.44
344.12	97.44
344.348	95.44
344.576	91.44
344.804	80.44
345.031	109.44
345.259	86.44
345.487	92.44
345.714	94.44
345.942	99.44
346.17	108.44
346.397	90.44
346.625	88.44
346.853	96.44
347.08	82.44
347.308	93.44
347.535	87.44
347.763	114.44
347.99	89.44
348.218	87.44
348.445	110.44
348.673	109.44
348.9	99.44
349.128	94.44
349.355	85.44
349.583	91.44
349.81	97.44
350.037	90.44
350.265	103.44
350.492	96.44
350.72	96.44
350.947	91.44
351.174	115.44
351.402	99.44
351.629	99.44
351.856	84.44
352.083	93.44
352.311	102.44
352.538	110.44
352.765	106.44
352.992	118.44
353.22	111.44
353.447	108.44
353.674	107.44
353.901	100.44
354.128	107.44
354.355	92.44
354.583	95.44
354.81	100.44
355.037	97.44
355.264	90.44
355.491	91.44
355.718	96.44
355.945	87.44
356.172	96.44
356.399	94.44
356.626	101.44
356.853	98.44
357.08	96.44
357.307	103.44
357.534	97.44
357.761	98.44
357.988	99.44
358.215	98.44
358.441	85.44
358.668	103.44
358.895	100.44
359.122	95.44
359.349	87.44
359.576	99.44
359.802	93.44
360.029	114.44
360.256	113.44
360.483	109.44
360.709	81.44
360.936	98.44
361.163	93.44
361.39	95.44
361.616	102.44
361.843	85.44
362.07	98.44
362.296	86.44
362.523	78.44
362.749	99.44
362.976	102.44
363.203	100.44
363.429	86.44
363.656	85.44
363.882	87.44
364.109	85.44
364.335	95.44
364.562	87.44
364.788	95.44
365.015	93.44
365.241	88.44
365.468	88.44
365.694	92.44
365.92	91.44
366.147	82.44
366.373	81.44
366.599	80.44
366.826	91.44
367.052	88.44
367.278	80.44
367.505	79.44
367.731	91.44
367.957	83.44
368.184	91.44
368.41	105.44
368.636	108.44
368.862	111.44
369.089	98.44
369.315	104.44
369.541	78.44
369.767	92.44
369.993	89.44
370.219	89.44
370.445	78.44
370.672	86.44
370.898	86.44
371.124	100.44
371.35	100.44
371.576	80.44
371.802	79.44
372.028	76.44
372.254	76.44
372.48	93.44
372.706	86.44
372.932	82.44
373.158	87.44
373.384	92.44
373.61	84.44
373.835	92.44
374.061	81.44
374.287	96.44
374.513	98.44
374.739	98.44
374.965	98.44
375.191	101.44
375.416	94.44
375.642	83.44
375.868	93.44
376.094	85.44
376.319	87.44
376.545	94.44
376.771	102.44
376.997	97.44
377.222	91.44
377.448	87.44
377.674	79.44
377.899	83.44
378.125	90.44
378.35	83.44
378.576	78.44
378.802	82.44
379.027	76.44
379.253	89.44
379.478	85.44
379.704	101.44
379.929	109.44
380.155	104.44
380.38	106.44
380.606	94.44
380.831	104.44
381.057	97.44
381.282	92.44
381.507	97.44
381.733	102.44
381.958	89.44
382.184	92.44
382.409	93.44
382.634	95.44
382.86	97.44
383.085	96.44
383.31	92.44
383.535	94.44
383.761	98.44
383.986	88.44
384.211	99.44
384.436	106.44
384.662	93.44
384.887	95.44
385.112	100.44
385.337	100.44
385.562	104.44
385.787	103.44
386.013	84.44
386.238	114.44
386.463	88.44
386.688	108.44
386.913	121.44
387.138	114.44
387.363	112.44
387.588	108.44
387.813	85.44
388.038	107.44
388.263	111.44
388.488	101.44
388.713	100.44
388.938	98.44
389.163	101.44
389.387	96.44
389.612	89.44
389.837	84.44
390.062	91.44
390.287	97.44
390.512	88.44
390.736	88.44
390.961	98.44
391.186	93.44
391.411	86.44
391.636	92.44
391.86	77.44
392.085	87.44
392.31	94.44
392.534	78.44
392.759	92.44
392.984	85.44
393.208	82.44
393.433	81.44
393.658	95.44
393.882	91.44
394.107	92.44
394.331	86.44
394.556	93.44
394.78	94.44
395.005	103.44
395.229	95.44
395.454	95.44
395.678	96.44
395.903	115.44
396.127	91.44
396.352	80.44
396.576	73.44
396.801	92.44
397.025	94.44
397.249	83.44
397.474	78.44
397.698	78.44
397.922	90.44
398.147	87.44
398.371	83.44
398.595	79.44
398.82	90.44
399.044	84.44
399.268	90.44
399.492	93.44
399.717	90.44
399.941	79.44
400.165	87.44
400.389	79.44
400.613	81.44
400.837	76.44
401.062	68.44
401.286	96.44
401.51	86.44
401.734	81.44
401.958	101.44
402.182	117.44
402.406	151.44
402.63	118.44
402.854	86.44
403.078	87.44
403.302	83.44
403.526	96.44
403.75	97.44
403.974	99.44
404.198	101.44
404.422	97.44
404.645	103.44
404.869	97.44
405.093	96.44
405.317	90.44
405.541	95.44
405.765	104.44
405.988	108.44
406.212	171.44
406.436	226.44
406.66	149.44
406.883	102.44
407.107	84.44
407.331	89.44
407.555	102.44
407.778	110.44
408.002	94.44
408.226	91.44
408.449	83.44
408.673	93.44
408.896	80.44
409.12	95.44
409.344	97.44
409.567	88.44
409.791	118.44
410.014	95.44
410.238	89.44
410.461	95.44
410.685	84.44
410.908	88.44
411.132	105.44
411.355	95.44
411.578	92.44
411.802	86.44
412.025	94.44
412.249	96.44
412.472	98.44
412.695	111.44
412.919	117.44
413.142	86.44
413.365	93.44
413.589	89.44
413.812	90.44
414.035	104.44
414.258	95.44
414.482	102.44
414.705	97.44
414.928	92.44
415.151	91.44
415.374	86.44
415.597	91.44
415.821	96.44
416.044	85.44
416.267	91.44
416.49	80.44
416.713	91.44
416.936	75.44
417.159	105.44
417.382	98.44
417.605	86.44
417.828	85.44
418.051	92.44
418.274	83.44
418.497	88.44
418.72	89.44
418.943	82.44
419.166	95.44
419.389	97.44
419.611	88.44
419.834	106.44
420.057	80.44
420.28	74.44
420.503	87.44
420.726	94.44
420.948	104.44
421.171	90.44
421.394	96.44
421.617	82.44
421.839	81.44
422.062	98.44
422.285	93.44
422.507	108.44
422.73	101.44
422.953	91.44
423.175	77.44
423.398	82.44
423.621	86.44
423.843	80.44
424.066	95.44
424.288	67.44
424.511	96.44
424.733	97.44
424.956	105.44
425.178	102.44
425.401	120.44
425.623	86.44
425.846	91.44
426.068	84.44
426.291	89.44
426.513	111.44
426.735	91.44
426.958	94.44
427.18	108.44
427.402	131.44
427.625	153.44
427.847	137.44
428.069	121.44
428.292	102.44
428.514	94.44
428.736	85.44
428.958	81.44
429.181	82.44
429.403	87.44
429.625	96.44
429.847	90.44
430.069	107.44
430.292	95.44
430.514	87.44
430.736	72.44
430.958	91.44
431.18	82.44
431.402	80.44
431.624	80.44
431.846	89.44
432.068	72.44
432.29	93.44
432.512	71.44
432.734	86.44
432.956	99.44
433.178	88.44
433.4	102.44
433.622	82.44
433.844	86.44
434.066	88.44
434.287	99.44
434.509	97.44
434.731	88.44
434.953	87.44
435.175	68.44
435.397	86.44
435.618	91.44
435.84	99.44
436.062	129.44
436.284	113.44
436.505	97.44
436.727	95.44
436.949	100.44
437.17	79.44
437.392	83.44
437.614	88.44
437.835	98.44
438.057	107.44
438.278	108.44
438.5	118.44
438.721	117.44
438.943	113.44
439.165	90.44
439.386	84.44
439.608	110.44
439.829	95.44
440.05	115.44
440.272	142.44
440.493	97.44
440.715	84.44
440.936	83.44
441.158	100.44
441.379	89.44
441.6	87.44
441.822	81.44
442.043	93.44
442.264	94.44
442.486	103.44
442.707	96.44
442.928	96.44
443.149	116.44
443.371	136.44
443.592	99.44
443.813	100.44
444.034	111.44
444.255	90.44
444.476	85.44
444.698	92.44
444.919	87.44
445.14	133.44
445.361	110.44
445.582	120.44
445.803	133.44
446.024	122.44
446.245	126.44
446.466	109.44
446.687	87.44
446.908	90.44
447.129	86.44
447.35	91.44
447.571	86.44
447.792	87.44
448.013	92.44
448.234	85.44
448.455	94.44
448.675	102.44
448.896	111.44
449.117	99.44
449.338	95.44
449.559	117.44
449.779	124.44
450	93.44
450.221	86.44
450.442	89.44
450.662	101.44
450.883	107.44
451.104	106.44
451.324	100.44
451.545	81.44
451.766	98.44
451.986	89.44
452.207	84.44
452.428	85.44
452.648	87.44
452.869	93.44
453.089	114.44
453.31	123.44
453.53	86.44
453.751	99.44
453.971	108.44
454.192	97.44
454.412	98.44
454.633	85.44
454.853	87.44
455.073	86.44
455.294	88.44
455.514	97.44
455.734	82.44
455.955	86.44
456.175	79.44
456.395	93.44
456.616	89.44
456.836	90.44
457.056	89.44
457.276	87.44
457.497	73.44
457.717	74.44
457.937	76.44
458.157	92.44
458.377	90.44
458.598	90.44
458.818	150.44
459.038	143.44
459.258	107.44
459.478	92.44
459.698	86.44
459.918	91.44
460.138	87.44
460.358	90.44
460.578	91.44
460.798	91.44
461.018	96.44
461.238	85.44
461.458	83.44
461.678	95.44
461.898	77.44
462.118	90.44
462.338	91.44
462.558	88.44
462.777	77.44
462.997	79.44
463.217	92.44
463.437	85.44
463.657	73.44
463.876	74.44
464.096	86.44
464.316	92.44
464.536	96.44
464.755	98.44
464.975	94.44
465.195	154.44
465.414	157.44
465.634	107.44
465.854	86.44
466.073	82.44
466.293	76.44
466.512	85.44
466.732	80.44
466.951	85.44
467.171	83.44
467.391	96.44
467.61	90.44
467.829	87.44
468.049	108.44
468.268	117.44
468.488	89.44
468.707	75.44
468.927	69.44
469.146	84.44
469.365	106.44
469.585	83.44
469.804	82.44
470.023	102.44
470.243	82.44
470.462	94.44
470.681	104.44
470.901	89.44
471.12	77.44
471.339	95.44
471.558	84.44
471.777	73.44
471.997	92.44
472.216	124.44
472.435	209.44
472.654	110.44
472.873	104.44
473.092	84.44
473.311	82.44
473.53	87.44
473.749	96.44
473.968	89.44
474.187	98.44
474.406	93.44
474.625	77.44
474.844	92.44
475.063	84.44
475.282	69.44
475.501	77.44
475.72	81.44
475.939	76.44
476.158	90.44
476.377	97.44
476.596	101.44
476.814	100.44
477.033	93.44
477.252	85.44
477.471	77.44
477.69	94.44
477.908	73.44
478.127	75.44
478.346	84.44
478.564	91.44
478.783	107.44
479.002	83.44
479.22	103.44
479.439	96.44
479.658	101.44
479.876	99.44
480.095	92.44
480.313	97.44
480.532	92.44
480.751	102.44
480.969	139.44
481.188	292.44
481.406	189.44
481.624	91.44
481.843	94.44
482.061	99.44
482.28	92.44
482.498	82.44
482.717	82.44
482.935	83.44
483.153	74.44
483.372	98.44
483.59	81.44
483.808	85.44
484.027	90.44
484.245	89.44
484.463	89.44
484.681	93.44
484.9	96.44
485.118	96.44
485.336	94.44
485.554	98.44
485.772	100.44
485.99	101.44
486.209	102.44
486.427	97.44
486.645	105.44
486.863	94.44
487.081	83.44
487.299	85.44
487.517	95.44
487.735	86.44
487.953	76.44
488.171	95.44
488.389	87.44
488.607	96.44
488.825	92.44
489.043	86.44
489.261	81.44
489.479	91.44
489.696	91.44
489.914	82.44
490.132	90.44
490.35	95.44
490.568	88.44
490.786	93.44
491.003	85.44
491.221	94.44
491.439	83.44
491.657	91.44
491.874	82.44
492.092	98.44
492.31	99.44
492.527	92.44
492.745	81.44
492.963	94.44
493.18	87.44
493.398	115.44
493.615	105.44
493.833	87.44
494.05	95.44
494.268	82.44
494.485	93.44
494.703	86.44
494.92	92.44
495.138	90.44
495.355	96.44
495.573	93.44
495.79	89.44
496.008	87.44
496.225	81.44
496.442	84.44
496.66	88.44
496.877	101.44
497.094	95.44
497.312	87.44
497.529	97.44
497.746	102.44
497.963	88.44
498.181	68.44
498.398	96.44
498.615	109.44
498.832	101.44
499.049	93.44
499.267	81.44
499.484	95.44
499.701	93.44
499.918	91.44
500.135	88.44
500.352	102.44
500.569	94.44
500.786	103.44
501.003	86.44
501.22	86.44
501.437	100.44
501.654	96.44
501.871	105.44
502.088	94.44
502.305	90.44
502.522	87.44
502.739	93.44
502.956	87.44
503.172	90.44
503.389	114.44
503.606	110.44
503.823	97.44
504.04	93.44
504.256	93.44
504.473	95.44
504.69	97.44
504.907	84.44
505.123	87.44
505.34	99.44
505.557	78.44
505.773	90.44
505.99	87.44
506.207	84.44
506.423	93.44
506.64	77.44
506.856	70.44
507.073	91.44
507.289	87.44
507.506	100.44
507.722	112.44
507.939	108.44
508.155	99.44
508.372	89.44
508.588	87.44
508.805	98.44
509.021	86.44
509.238	107.44
509.454	94.44
509.67	90.44
509.887	107.44
510.103	144.44
510.319	220.44
510.536	767.44
510.752	2419.44
510.968	668.44
511.184	160.44
511.401	115.44
511.617	96.44
511.833	105.44
512.049	95.44
512.265	88.44
512.481	91.44
512.698	100.44
512.914	69.44
513.13	99.44
513.346	99.44
513.562	99.44
513.778	102.44
513.994	113.44
514.21	97.44
514.426	115.44
514.642	125.44
514.858	129.44
515.074	154.44
515.29	489.44
515.506	1473.44
515.721	567.44
515.937	156.44
