Data from Circ_2006_H10_HRD10591_00017.txt Node
Date: Wed Jan 03 10:26:07 EST 2024
User: Yrep
Spectrometer: HR+D1059
Trigger mode: 1
Integration Time (sec): 1.000000E-1
Scans to average: 1
Electric dark correction enabled: true
Nonlinearity correction enabled: false
Boxcar width: 0
XAxis mode: Wavelengths
Number of Pixels in Spectrum: 2048
>>>>>Begin Spectral Data<<<<<
223.165	-34.06
223.4	-34.06
223.635	-34.06
223.869	-17.06
224.104	-5.06
224.338	-19.06
224.573	-8.06
224.808	-14.06
225.042	-18.06
225.277	0.94
225.511	-6.06
225.746	5.94
225.98	8.94
226.215	10.94
226.449	18.94
226.683	17.94
226.918	30.94
227.152	26.94
227.387	31.94
227.621	19.94
227.856	42.94
228.09	40.94
228.324	43.94
228.559	47.94
228.793	55.94
229.027	60.94
229.262	66.94
229.496	73.94
229.73	87.94
229.964	67.94
230.199	71.94
230.433	73.94
230.667	84.94
230.901	70.94
231.136	63.94
231.37	80.94
231.604	80.94
231.838	61.94
232.072	76.94
232.306	82.94
232.541	64.94
232.775	73.94
233.009	78.94
233.243	74.94
233.477	71.94
233.711	80.94
233.945	78.94
234.179	79.94
234.413	72.94
234.647	79.94
234.881	80.94
235.115	81.94
235.349	75.94
235.583	75.94
235.817	62.94
236.051	67.94
236.285	69.94
236.519	71.94
236.753	69.94
236.987	85.94
237.221	94.94
237.455	72.94
237.689	67.94
237.922	77.94
238.156	79.94
238.39	66.94
238.624	81.94
238.858	67.94
239.091	75.94
239.325	77.94
239.559	81.94
239.793	72.94
240.027	75.94
240.26	86.94
240.494	67.94
240.728	81.94
240.961	72.94
241.195	77.94
241.429	73.94
241.662	66.94
241.896	52.94
242.13	74.94
242.363	65.94
242.597	74.94
242.83	77.94
243.064	64.94
243.298	66.94
243.531	65.94
243.765	88.94
243.998	72.94
244.232	79.94
244.465	84.94
244.699	75.94
244.932	84.94
245.166	75.94
245.399	83.94
245.633	73.94
245.866	76.94
246.099	71.94
246.333	79.94
246.566	76.94
246.8	68.94
247.033	81.94
247.266	78.94
247.5	91.94
247.733	67.94
247.966	82.94
248.2	76.94
248.433	75.94
248.666	70.94
248.899	66.94
249.133	81.94
249.366	92.94
249.599	89.94
249.832	83.94
250.066	71.94
250.299	86.94
250.532	72.94
250.765	83.94
250.998	73.94
251.231	72.94
251.465	76.94
251.698	67.94
251.931	70.94
252.164	84.94
252.397	67.94
252.63	68.94
252.863	71.94
253.096	71.94
253.329	75.94
253.562	75.94
253.795	79.94
254.028	81.94
254.261	91.94
254.494	71.94
254.727	85.94
254.96	80.94
255.193	79.94
255.426	71.94
255.659	82.94
255.892	79.94
256.124	86.94
256.357	77.94
256.59	76.94
256.823	84.94
257.056	76.94
257.289	81.94
257.521	80.94
257.754	71.94
257.987	84.94
258.22	93.94
258.452	80.94
258.685	77.94
258.918	77.94
259.151	90.94
259.383	86.94
259.616	75.94
259.849	89.94
260.081	74.94
260.314	81.94
260.547	78.94
260.779	69.94
261.012	69.94
261.244	94.94
261.477	88.94
261.71	104.94
261.942	107.94
262.175	124.94
262.407	87.94
262.64	80.94
262.872	76.94
263.105	76.94
263.337	77.94
263.57	97.94
263.802	85.94
264.035	75.94
264.267	74.94
264.499	79.94
264.732	80.94
264.964	80.94
265.197	87.94
265.429	81.94
265.661	76.94
265.894	84.94
266.126	67.94
266.358	69.94
266.591	89.94
266.823	75.94
267.055	85.94
267.287	71.94
267.52	85.94
267.752	76.94
267.984	77.94
268.216	78.94
268.448	84.94
268.681	84.94
268.913	76.94
269.145	80.94
269.377	68.94
269.609	77.94
269.841	77.94
270.073	101.94
270.306	84.94
270.538	84.94
270.77	77.94
271.002	76.94
271.234	77.94
271.466	87.94
271.698	75.94
271.93	85.94
272.162	87.94
272.394	86.94
272.626	84.94
272.858	85.94
273.09	82.94
273.322	88.94
273.553	73.94
273.785	76.94
274.017	84.94
274.249	83.94
274.481	90.94
274.713	72.94
274.945	88.94
275.176	90.94
275.408	80.94
275.64	85.94
275.872	89.94
276.104	85.94
276.335	87.94
276.567	94.94
276.799	112.94
277.031	94.94
277.262	103.94
277.494	72.94
277.726	88.94
277.957	84.94
278.189	96.94
278.421	75.94
278.652	91.94
278.884	85.94
279.115	76.94
279.347	85.94
279.579	87.94
279.81	87.94
280.042	96.94
280.273	92.94
280.505	82.94
280.736	66.94
280.968	83.94
281.199	92.94
281.431	81.94
281.662	87.94
281.894	85.94
282.125	100.94
282.356	109.94
282.588	144.94
282.819	120.94
283.051	79.94
283.282	92.94
283.513	79.94
283.745	79.94
283.976	73.94
284.207	84.94
284.439	84.94
284.67	81.94
284.901	86.94
285.132	84.94
285.364	93.94
285.595	89.94
285.826	76.94
286.057	87.94
286.288	96.94
286.52	72.94
286.751	80.94
286.982	102.94
287.213	76.94
287.444	83.94
287.675	88.94
287.906	97.94
288.138	89.94
288.369	85.94
288.6	83.94
288.831	88.94
289.062	87.94
289.293	97.94
289.524	86.94
289.755	93.94
289.986	90.94
290.217	86.94
290.448	85.94
290.679	77.94
290.91	77.94
291.141	87.94
291.371	83.94
291.602	69.94
291.833	85.94
292.064	92.94
292.295	88.94
292.526	89.94
292.757	84.94
292.987	68.94
293.218	86.94
293.449	79.94
293.68	82.94
293.91	94.94
294.141	87.94
294.372	94.94
294.603	90.94
294.833	79.94
295.064	88.94
295.295	95.94
295.525	108.94
295.756	104.94
295.987	115.94
296.217	157.94
296.448	137.94
296.679	96.94
296.909	97.94
297.14	99.94
297.37	87.94
297.601	80.94
297.831	91.94
298.062	71.94
298.292	77.94
298.523	93.94
298.753	80.94
298.984	91.94
299.214	96.94
299.445	91.94
299.675	92.94
299.905	102.94
300.136	64.94
300.366	82.94
300.597	90.94
300.827	94.94
301.057	101.94
301.288	107.94
301.518	90.94
301.748	92.94
301.979	98.94
302.209	85.94
302.439	85.94
302.669	87.94
302.9	95.94
303.13	79.94
303.36	88.94
303.59	96.94
303.82	118.94
304.051	97.94
304.281	83.94
304.511	89.94
304.741	96.94
304.971	75.94
305.201	90.94
305.431	89.94
305.661	90.94
305.891	97.94
306.121	101.94
306.352	100.94
306.582	98.94
306.812	97.94
307.042	86.94
307.272	82.94
307.502	90.94
307.731	83.94
307.961	92.94
308.191	99.94
308.421	87.94
308.651	82.94
308.881	93.94
309.111	93.94
309.341	91.94
309.571	98.94
309.8	89.94
310.03	86.94
310.26	107.94
310.49	100.94
310.72	98.94
310.949	94.94
311.179	104.94
311.409	91.94
311.639	92.94
311.868	92.94
312.098	97.94
312.328	99.94
312.557	97.94
312.787	124.94
313.017	106.94
313.246	105.94
313.476	104.94
313.706	95.94
313.935	97.94
314.165	79.94
314.394	96.94
314.624	100.94
314.853	90.94
315.083	95.94
315.312	93.94
315.542	84.94
315.771	97.94
316.001	94.94
316.23	79.94
316.46	70.94
316.689	89.94
316.919	96.94
317.148	93.94
317.377	108.94
317.607	91.94
317.836	73.94
318.065	85.94
318.295	92.94
318.524	78.94
318.753	99.94
318.983	102.94
319.212	89.94
319.441	120.94
319.67	100.94
319.9	79.94
320.129	80.94
320.358	99.94
320.587	103.94
320.816	116.94
321.046	108.94
321.275	96.94
321.504	93.94
321.733	102.94
321.962	91.94
322.191	105.94
322.42	119.94
322.649	101.94
322.878	113.94
323.108	112.94
323.337	130.94
323.566	132.94
323.795	169.94
324.024	227.94
324.253	488.94
324.482	1019.94
324.71	2073.94
324.939	2805.94
325.168	1008.94
325.397	268.94
325.626	172.94
325.855	137.94
326.084	135.94
326.313	147.94
326.542	167.94
326.77	267.94
326.999	544.94
327.228	1144.94
327.457	2145.94
327.686	1610.94
327.914	427.94
328.143	220.94
328.372	153.94
328.6	110.94
328.829	128.94
329.058	140.94
329.287	143.94
329.515	95.94
329.744	112.94
329.972	97.94
330.201	102.94
330.43	128.94
330.658	154.94
330.887	159.94
331.115	140.94
331.344	105.94
331.572	107.94
331.801	107.94
332.03	108.94
332.258	108.94
332.486	79.94
332.715	79.94
332.943	98.94
333.172	106.94
333.4	114.94
333.629	105.94
333.857	112.94
334.085	106.94
334.314	112.94
334.542	112.94
334.771	115.94
334.999	110.94
335.227	79.94
335.455	106.94
335.684	104.94
335.912	94.94
336.14	96.94
336.369	85.94
336.597	96.94
336.825	98.94
337.053	100.94
337.281	88.94
337.51	88.94
337.738	84.94
337.966	88.94
338.194	91.94
338.422	80.94
338.65	81.94
338.878	104.94
339.106	85.94
339.334	96.94
339.562	85.94
339.79	71.94
340.018	91.94
340.246	92.94
340.474	97.94
340.702	89.94
340.93	91.94
341.158	99.94
341.386	98.94
341.614	103.94
341.842	80.94
342.07	101.94
342.298	105.94
342.526	80.94
342.754	80.94
342.981	90.94
343.209	79.94
343.437	88.94
343.665	82.94
343.893	102.94
344.12	97.94
344.348	85.94
344.576	91.94
344.804	104.94
345.031	101.94
345.259	95.94
345.487	110.94
345.714	101.94
345.942	98.94
346.17	88.94
346.397	95.94
346.625	93.94
346.853	100.94
347.08	85.94
347.308	102.94
347.535	106.94
347.763	109.94
347.99	101.94
348.218	100.94
348.445	103.94
348.673	93.94
348.9	100.94
349.128	90.94
349.355	86.94
349.583	77.94
349.81	99.94
350.037	100.94
350.265	95.94
350.492	93.94
350.72	90.94
350.947	102.94
351.174	108.94
351.402	106.94
351.629	108.94
351.856	97.94
352.083	107.94
352.311	118.94
352.538	97.94
352.765	121.94
352.992	110.94
353.22	109.94
353.447	115.94
353.674	99.94
353.901	101.94
354.128	96.94
354.355	112.94
354.583	107.94
354.81	107.94
355.037	96.94
355.264	92.94
355.491	95.94
355.718	96.94
355.945	84.94
356.172	90.94
356.399	99.94
356.626	96.94
356.853	88.94
357.08	74.94
357.307	85.94
357.534	87.94
357.761	98.94
357.988	75.94
358.215	89.94
358.441	81.94
358.668	90.94
358.895	96.94
359.122	81.94
359.349	86.94
359.576	91.94
359.802	105.94
360.029	122.94
360.256	110.94
360.483	94.94
360.709	79.94
360.936	103.94
361.163	99.94
361.39	102.94
361.616	92.94
361.843	85.94
362.07	101.94
362.296	100.94
362.523	92.94
362.749	107.94
362.976	96.94
363.203	88.94
363.429	90.94
363.656	100.94
363.882	91.94
364.109	98.94
364.335	97.94
364.562	79.94
364.788	82.94
365.015	91.94
365.241	114.94
365.468	111.94
365.694	102.94
365.92	105.94
366.147	89.94
366.373	107.94
366.599	88.94
366.826	91.94
367.052	77.94
367.278	84.94
367.505	91.94
367.731	87.94
367.957	100.94
368.184	90.94
368.41	109.94
368.636	117.94
368.862	123.94
369.089	110.94
369.315	91.94
369.541	84.94
369.767	89.94
369.993	87.94
370.219	91.94
370.445	87.94
370.672	72.94
370.898	104.94
371.124	85.94
371.35	87.94
371.576	91.94
371.802	85.94
372.028	91.94
372.254	104.94
372.48	90.94
372.706	92.94
372.932	74.94
373.158	85.94
373.384	98.94
373.61	92.94
373.835	85.94
374.061	88.94
374.287	94.94
374.513	86.94
374.739	73.94
374.965	81.94
375.191	89.94
375.416	92.94
375.642	88.94
375.868	98.94
376.094	104.94
376.319	95.94
376.545	92.94
376.771	86.94
376.997	75.94
377.222	95.94
377.448	97.94
377.674	90.94
377.899	91.94
378.125	83.94
378.35	97.94
378.576	96.94
378.802	94.94
379.027	93.94
379.253	101.94
379.478	95.94
379.704	116.94
379.929	83.94
380.155	82.94
380.38	98.94
380.606	82.94
380.831	100.94
381.057	102.94
381.282	103.94
381.507	99.94
381.733	98.94
381.958	104.94
382.184	106.94
382.409	111.94
382.634	102.94
382.86	97.94
383.085	113.94
383.31	94.94
383.535	102.94
383.761	108.94
383.986	108.94
384.211	94.94
384.436	108.94
384.662	109.94
384.887	107.94
385.112	123.94
385.337	104.94
385.562	125.94
385.787	114.94
386.013	110.94
386.238	119.94
386.463	116.94
386.688	108.94
386.913	97.94
387.138	106.94
387.363	119.94
387.588	111.94
387.813	119.94
388.038	98.94
388.263	121.94
388.488	116.94
388.713	88.94
388.938	105.94
389.163	96.94
389.387	111.94
389.612	83.94
389.837	108.94
390.062	88.94
390.287	90.94
390.512	89.94
390.736	85.94
390.961	102.94
391.186	87.94
391.411	103.94
391.636	102.94
391.86	88.94
392.085	87.94
392.31	88.94
392.534	103.94
392.759	84.94
392.984	90.94
393.208	84.94
393.433	97.94
393.658	102.94
393.882	85.94
394.107	92.94
394.331	85.94
394.556	94.94
394.78	87.94
395.005	72.94
395.229	82.94
395.454	74.94
395.678	94.94
395.903	88.94
396.127	74.94
396.352	88.94
396.576	91.94
396.801	85.94
397.025	93.94
397.249	90.94
397.474	96.94
397.698	79.94
397.922	97.94
398.147	85.94
398.371	92.94
398.595	95.94
398.82	76.94
399.044	89.94
399.268	82.94
399.492	76.94
399.717	79.94
399.941	93.94
400.165	99.94
400.389	76.94
400.613	99.94
400.837	94.94
401.062	82.94
401.286	84.94
401.51	102.94
401.734	84.94
401.958	104.94
402.182	137.94
402.406	159.94
402.63	125.94
402.854	100.94
403.078	86.94
403.302	88.94
403.526	90.94
403.75	91.94
403.974	93.94
404.198	91.94
404.422	98.94
404.645	85.94
404.869	78.94
405.093	100.94
405.317	95.94
405.541	101.94
405.765	90.94
405.988	108.94
406.212	171.94
406.436	261.94
406.66	160.94
406.883	108.94
407.107	98.94
407.331	97.94
407.555	110.94
407.778	87.94
408.002	97.94
408.226	105.94
408.449	85.94
408.673	90.94
408.896	85.94
409.12	86.94
409.344	95.94
409.567	90.94
409.791	101.94
410.014	93.94
410.238	107.94
410.461	98.94
410.685	80.94
410.908	90.94
411.132	93.94
411.355	99.94
411.578	98.94
411.802	84.94
412.025	74.94
412.249	95.94
412.472	101.94
412.695	90.94
412.919	89.94
413.142	103.94
413.365	69.94
413.589	92.94
413.812	82.94
414.035	95.94
414.258	89.94
414.482	95.94
414.705	92.94
414.928	99.94
415.151	90.94
415.374	91.94
415.597	83.94
415.821	85.94
416.044	78.94
416.267	85.94
416.49	83.94
416.713	88.94
416.936	82.94
417.159	80.94
417.382	89.94
417.605	80.94
417.828	98.94
418.051	99.94
418.274	76.94
418.497	82.94
418.72	103.94
418.943	92.94
419.166	84.94
419.389	80.94
419.611	76.94
419.834	98.94
420.057	82.94
420.28	79.94
420.503	90.94
420.726	85.94
420.948	99.94
421.171	80.94
421.394	94.94
421.617	91.94
421.839	101.94
422.062	77.94
422.285	97.94
422.507	92.94
422.73	89.94
422.953	80.94
423.175	81.94
423.398	83.94
423.621	76.94
423.843	88.94
424.066	75.94
424.288	80.94
424.511	92.94
424.733	94.94
424.956	104.94
425.178	117.94
425.401	87.94
425.623	99.94
425.846	95.94
426.068	102.94
426.291	84.94
426.513	93.94
426.735	85.94
426.958	79.94
427.18	115.94
427.402	150.94
427.625	187.94
427.847	151.94
428.069	107.94
428.292	98.94
428.514	94.94
428.736	89.94
428.958	94.94
429.181	89.94
429.403	84.94
429.625	96.94
429.847	88.94
430.069	97.94
430.292	96.94
430.514	76.94
430.736	86.94
430.958	86.94
431.18	92.94
431.402	82.94
431.624	78.94
431.846	84.94
432.068	73.94
432.29	86.94
432.512	82.94
432.734	83.94
432.956	92.94
433.178	91.94
433.4	95.94
433.622	86.94
433.844	91.94
434.066	91.94
434.287	105.94
434.509	78.94
434.731	91.94
434.953	82.94
435.175	92.94
435.397	84.94
435.618	78.94
435.84	100.94
436.062	113.94
436.284	105.94
436.505	104.94
436.727	107.94
436.949	100.94
437.17	91.94
437.392	88.94
437.614	84.94
437.835	120.94
438.057	119.94
438.278	103.94
438.5	101.94
438.721	124.94
438.943	104.94
439.165	85.94
439.386	85.94
439.608	91.94
439.829	108.94
440.05	124.94
440.272	145.94
440.493	103.94
440.715	81.94
440.936	96.94
441.158	92.94
441.379	84.94
441.6	103.94
441.822	90.94
442.043	83.94
442.264	105.94
442.486	96.94
442.707	75.94
442.928	105.94
443.149	151.94
443.371	135.94
443.592	107.94
443.813	111.94
444.034	98.94
444.255	93.94
444.476	83.94
444.698	89.94
444.919	93.94
445.14	128.94
445.361	133.94
445.582	116.94
445.803	137.94
446.024	132.94
446.245	140.94
446.466	113.94
446.687	79.94
446.908	89.94
447.129	87.94
447.35	84.94
447.571	95.94
447.792	104.94
448.013	101.94
448.234	111.94
448.455	103.94
448.675	124.94
448.896	116.94
449.117	91.94
449.338	96.94
449.559	135.94
449.779	125.94
450	89.94
450.221	111.94
450.442	99.94
450.662	86.94
450.883	95.94
451.104	113.94
451.324	100.94
451.545	82.94
451.766	88.94
451.986	82.94
452.207	82.94
452.428	98.94
452.648	94.94
452.869	115.94
453.089	121.94
453.31	106.94
453.53	79.94
453.751	92.94
453.971	94.94
454.192	113.94
454.412	92.94
454.633	69.94
454.853	73.94
455.073	78.94
455.294	104.94
455.514	97.94
455.734	95.94
455.955	95.94
456.175	85.94
456.395	84.94
456.616	85.94
456.836	84.94
457.056	82.94
457.276	76.94
457.497	86.94
457.717	91.94
457.937	88.94
458.157	79.94
458.377	82.94
458.598	119.94
458.818	154.94
459.038	161.94
459.258	121.94
459.478	92.94
459.698	90.94
459.918	83.94
460.138	78.94
460.358	80.94
460.578	93.94
460.798	79.94
461.018	82.94
461.238	82.94
461.458	74.94
461.678	81.94
461.898	85.94
462.118	81.94
462.338	90.94
462.558	84.94
462.777	75.94
462.997	91.94
463.217	79.94
463.437	84.94
463.657	92.94
463.876	80.94
464.096	77.94
464.316	83.94
464.536	83.94
464.755	92.94
464.975	117.94
465.195	185.94
465.414	177.94
465.634	97.94
465.854	82.94
466.073	91.94
466.293	92.94
466.512	89.94
466.732	93.94
466.951	79.94
467.171	98.94
467.391	98.94
467.61	108.94
467.829	90.94
468.049	99.94
468.268	91.94
468.488	97.94
468.707	75.94
468.927	91.94
469.146	53.94
469.365	96.94
469.585	87.94
469.804	104.94
470.023	99.94
470.243	91.94
470.462	98.94
470.681	103.94
470.901	85.94
471.12	90.94
471.339	85.94
471.558	80.94
471.777	77.94
471.997	88.94
472.216	96.94
472.435	113.94
472.654	80.94
472.873	91.94
473.092	85.94
473.311	85.94
473.53	88.94
473.749	92.94
473.968	97.94
474.187	125.94
474.406	88.94
474.625	84.94
474.844	85.94
475.063	70.94
475.282	92.94
475.501	89.94
475.72	98.94
475.939	86.94
476.158	83.94
476.377	71.94
476.596	79.94
476.814	104.94
477.033	96.94
477.252	88.94
477.471	91.94
477.69	80.94
477.908	98.94
478.127	88.94
478.346	103.94
478.564	98.94
478.783	98.94
479.002	87.94
479.22	86.94
479.439	93.94
479.658	95.94
479.876	97.94
480.095	84.94
480.313	96.94
480.532	82.94
480.751	85.94
480.969	91.94
481.188	155.94
481.406	129.94
481.624	80.94
481.843	92.94
482.061	88.94
482.28	84.94
482.498	76.94
482.717	74.94
482.935	96.94
483.153	107.94
483.372	92.94
483.59	79.94
483.808	89.94
484.027	92.94
484.245	98.94
484.463	86.94
484.681	86.94
484.9	79.94
485.118	93.94
485.336	92.94
485.554	94.94
485.772	100.94
485.99	102.94
486.209	112.94
486.427	120.94
486.645	115.94
486.863	111.94
487.081	96.94
487.299	85.94
487.517	112.94
487.735	102.94
487.953	80.94
488.171	75.94
488.389	88.94
488.607	99.94
488.825	101.94
489.043	92.94
489.261	83.94
489.479	100.94
489.696	88.94
489.914	102.94
490.132	87.94
490.35	89.94
490.568	96.94
490.786	99.94
491.003	74.94
491.221	82.94
491.439	86.94
491.657	84.94
491.874	82.94
492.092	84.94
492.31	84.94
492.527	81.94
492.745	93.94
492.963	92.94
493.18	105.94
493.398	75.94
493.615	93.94
493.833	91.94
494.05	80.94
494.268	71.94
494.485	96.94
494.703	85.94
494.92	95.94
495.138	84.94
495.355	92.94
495.573	93.94
495.79	74.94
496.008	87.94
496.225	91.94
496.442	80.94
496.66	89.94
496.877	92.94
497.094	107.94
497.312	86.94
497.529	95.94
497.746	90.94
497.963	90.94
498.181	90.94
498.398	83.94
498.615	116.94
498.832	119.94
499.049	87.94
499.267	86.94
499.484	85.94
499.701	82.94
499.918	106.94
500.135	73.94
500.352	94.94
500.569	97.94
500.786	82.94
501.003	83.94
501.22	84.94
501.437	101.94
501.654	94.94
501.871	93.94
502.088	99.94
502.305	88.94
502.522	89.94
502.739	73.94
502.956	87.94
503.172	81.94
503.389	102.94
503.606	104.94
503.823	93.94
504.04	88.94
504.256	90.94
504.473	84.94
504.69	105.94
504.907	111.94
505.123	89.94
505.34	85.94
505.557	80.94
505.773	87.94
505.99	83.94
506.207	93.94
506.423	92.94
506.64	90.94
506.856	93.94
507.073	76.94
507.289	90.94
507.506	93.94
507.722	96.94
507.939	97.94
508.155	90.94
508.372	81.94
508.588	88.94
508.805	98.94
509.021	90.94
509.238	87.94
509.454	97.94
509.67	88.94
509.887	100.94
510.103	140.94
510.319	233.94
510.536	871.94
510.752	2879.94
510.968	798.94
511.184	179.94
511.401	102.94
511.617	102.94
511.833	99.94
512.049	102.94
512.265	93.94
512.481	88.94
512.698	92.94
512.914	94.94
513.13	77.94
513.346	84.94
513.562	91.94
513.778	84.94
513.994	109.94
514.21	101.94
514.426	130.94
514.642	135.94
514.858	127.94
515.074	184.94
515.29	551.94
515.506	1877.94
