Data from Circ_2006_H10_HRD10591_00038.txt Node
Date: Wed Jan 03 10:26:11 EST 2024
User: Yrep
Spectrometer: HR+D1059
Trigger mode: 1
Integration Time (sec): 1.000000E-1
Scans to average: 1
Electric dark correction enabled: true
Nonlinearity correction enabled: false
Boxcar width: 0
XAxis mode: Wavelengths
Number of Pixels in Spectrum: 2048
>>>>>Begin Spectral Data<<<<<
223.165	-6.06
223.4	-6.06
223.635	-6.06
223.869	-13.06
224.104	-25.06
224.338	-24.06
224.573	-21.06
224.808	-15.06
225.042	-19.06
225.277	11.94
225.511	3.94
225.746	3.94
225.98	14.94
226.215	15.94
226.449	3.94
226.683	11.94
226.918	16.94
227.152	39.94
227.387	37.94
227.621	42.94
227.856	41.94
228.09	48.94
228.324	54.94
228.559	51.94
228.793	60.94
229.027	80.94
229.262	69.94
229.496	73.94
229.73	81.94
229.964	97.94
230.199	73.94
230.433	77.94
230.667	82.94
230.901	84.94
231.136	78.94
231.37	58.94
231.604	80.94
231.838	82.94
232.072	81.94
232.306	70.94
232.541	78.94
232.775	60.94
233.009	88.94
233.243	68.94
233.477	83.94
233.711	87.94
233.945	72.94
234.179	75.94
234.413	78.94
234.647	68.94
234.881	85.94
235.115	80.94
235.349	69.94
235.583	93.94
235.817	94.94
236.051	78.94
236.285	81.94
236.519	73.94
236.753	72.94
236.987	93.94
237.221	88.94
237.455	81.94
237.689	79.94
237.922	77.94
238.156	77.94
238.39	85.94
238.624	77.94
238.858	75.94
239.091	69.94
239.325	83.94
239.559	89.94
239.793	91.94
240.027	73.94
240.26	81.94
240.494	81.94
240.728	79.94
240.961	80.94
241.195	79.94
241.429	83.94
241.662	75.94
241.896	75.94
242.13	73.94
242.363	75.94
242.597	81.94
242.83	74.94
243.064	78.94
243.298	87.94
243.531	84.94
243.765	65.94
243.998	85.94
244.232	75.94
244.465	83.94
244.699	72.94
244.932	77.94
245.166	69.94
245.399	77.94
245.633	79.94
245.866	89.94
246.099	78.94
246.333	96.94
246.566	92.94
246.8	69.94
247.033	75.94
247.266	86.94
247.5	78.94
247.733	78.94
247.966	81.94
248.2	83.94
248.433	82.94
248.666	68.94
248.899	70.94
249.133	87.94
249.366	109.94
249.599	93.94
249.832	70.94
250.066	74.94
250.299	71.94
250.532	89.94
250.765	89.94
250.998	91.94
251.231	93.94
251.465	81.94
251.698	90.94
251.931	84.94
252.164	78.94
252.397	71.94
252.63	81.94
252.863	79.94
253.096	61.94
253.329	72.94
253.562	76.94
253.795	86.94
254.028	82.94
254.261	78.94
254.494	73.94
254.727	91.94
254.96	77.94
255.193	85.94
255.426	78.94
255.659	75.94
255.892	74.94
256.124	69.94
256.357	89.94
256.59	68.94
256.823	72.94
257.056	76.94
257.289	78.94
257.521	82.94
257.754	90.94
257.987	78.94
258.22	71.94
258.452	68.94
258.685	74.94
258.918	83.94
259.151	81.94
259.383	65.94
259.616	86.94
259.849	70.94
260.081	83.94
260.314	84.94
260.547	79.94
260.779	79.94
261.012	89.94
261.244	86.94
261.477	96.94
261.71	86.94
261.942	108.94
262.175	127.94
262.407	84.94
262.64	86.94
262.872	87.94
263.105	81.94
263.337	67.94
263.57	92.94
263.802	85.94
264.035	78.94
264.267	80.94
264.499	82.94
264.732	86.94
264.964	83.94
265.197	86.94
265.429	76.94
265.661	92.94
265.894	90.94
266.126	78.94
266.358	89.94
266.591	67.94
266.823	86.94
267.055	82.94
267.287	87.94
267.52	84.94
267.752	88.94
267.984	91.94
268.216	73.94
268.448	92.94
268.681	75.94
268.913	98.94
269.145	83.94
269.377	85.94
269.609	92.94
269.841	80.94
270.073	78.94
270.306	92.94
270.538	93.94
270.77	84.94
271.002	85.94
271.234	86.94
271.466	74.94
271.698	81.94
271.93	94.94
272.162	86.94
272.394	78.94
272.626	67.94
272.858	70.94
273.09	75.94
273.322	91.94
273.553	85.94
273.785	97.94
274.017	98.94
274.249	77.94
274.481	77.94
274.713	87.94
274.945	89.94
275.176	79.94
275.408	102.94
275.64	78.94
275.872	75.94
276.104	74.94
276.335	104.94
276.567	97.94
276.799	103.94
277.031	101.94
277.262	95.94
277.494	80.94
277.726	87.94
277.957	87.94
278.189	100.94
278.421	74.94
278.652	88.94
278.884	74.94
279.115	80.94
279.347	85.94
279.579	79.94
279.81	99.94
280.042	86.94
280.273	81.94
280.505	91.94
280.736	89.94
280.968	81.94
281.199	88.94
281.431	89.94
281.662	85.94
281.894	86.94
282.125	102.94
282.356	119.94
282.588	135.94
282.819	118.94
283.051	94.94
283.282	94.94
283.513	96.94
283.745	85.94
283.976	81.94
284.207	80.94
284.439	81.94
284.67	92.94
284.901	85.94
285.132	95.94
285.364	90.94
285.595	81.94
285.826	69.94
286.057	89.94
286.288	81.94
286.52	92.94
286.751	87.94
286.982	87.94
287.213	108.94
287.444	79.94
287.675	83.94
287.906	86.94
288.138	82.94
288.369	90.94
288.6	105.94
288.831	84.94
289.062	95.94
289.293	101.94
289.524	87.94
289.755	95.94
289.986	89.94
290.217	83.94
290.448	93.94
290.679	57.94
290.91	85.94
291.141	93.94
291.371	84.94
291.602	82.94
291.833	85.94
292.064	77.94
292.295	81.94
292.526	84.94
292.757	94.94
292.987	94.94
293.218	85.94
293.449	88.94
293.68	85.94
293.91	95.94
294.141	92.94
294.372	84.94
294.603	107.94
294.833	92.94
295.064	89.94
295.295	80.94
295.525	94.94
295.756	102.94
295.987	124.94
296.217	139.94
296.448	121.94
296.679	105.94
296.909	79.94
297.14	90.94
297.37	80.94
297.601	83.94
297.831	73.94
298.062	84.94
298.292	82.94
298.523	99.94
298.753	98.94
298.984	89.94
299.214	84.94
299.445	91.94
299.675	100.94
299.905	91.94
300.136	102.94
300.366	86.94
300.597	82.94
300.827	89.94
301.057	86.94
301.288	98.94
301.518	95.94
301.748	104.94
301.979	104.94
302.209	84.94
302.439	83.94
302.669	85.94
302.9	89.94
303.13	87.94
303.36	97.94
303.59	93.94
303.82	100.94
304.051	95.94
304.281	92.94
304.511	98.94
304.741	85.94
304.971	69.94
305.201	85.94
305.431	86.94
305.661	72.94
305.891	100.94
306.121	100.94
306.352	95.94
306.582	114.94
306.812	86.94
307.042	84.94
307.272	94.94
307.502	84.94
307.731	92.94
307.961	93.94
308.191	106.94
308.421	95.94
308.651	93.94
308.881	101.94
309.111	85.94
309.341	97.94
309.571	94.94
309.8	96.94
310.03	99.94
310.26	95.94
310.49	95.94
310.72	103.94
310.949	123.94
311.179	94.94
311.409	98.94
311.639	99.94
311.868	95.94
312.098	90.94
312.328	108.94
312.557	116.94
312.787	111.94
313.017	88.94
313.246	94.94
313.476	81.94
313.706	88.94
313.935	95.94
314.165	97.94
314.394	103.94
314.624	91.94
314.853	102.94
315.083	91.94
315.312	104.94
315.542	98.94
315.771	116.94
316.001	91.94
316.23	101.94
316.46	89.94
316.689	96.94
316.919	101.94
317.148	113.94
317.377	87.94
317.607	100.94
317.836	90.94
318.065	90.94
318.295	86.94
318.524	88.94
318.753	105.94
318.983	84.94
319.212	93.94
319.441	104.94
319.67	110.94
319.9	102.94
320.129	88.94
320.358	105.94
320.587	105.94
320.816	90.94
321.046	89.94
321.275	93.94
321.504	106.94
321.733	91.94
321.962	104.94
322.191	104.94
322.42	101.94
322.649	106.94
322.878	107.94
323.108	123.94
323.337	117.94
323.566	131.94
323.795	149.94
324.024	224.94
324.253	432.94
324.482	943.94
324.71	1908.94
324.939	2507.94
325.168	903.94
325.397	275.94
325.626	161.94
325.855	118.94
326.084	125.94
326.313	135.94
326.542	157.94
326.77	259.94
326.999	516.94
327.228	1065.94
327.457	1941.94
327.686	1522.94
327.914	415.94
328.143	209.94
328.372	157.94
328.6	123.94
328.829	123.94
329.058	142.94
329.287	117.94
329.515	109.94
329.744	103.94
329.972	102.94
330.201	97.94
330.43	118.94
330.658	114.94
330.887	138.94
331.115	140.94
331.344	96.94
331.572	86.94
331.801	109.94
332.03	99.94
332.258	102.94
332.486	89.94
332.715	97.94
332.943	97.94
333.172	98.94
333.4	100.94
333.629	111.94
333.857	110.94
334.085	109.94
334.314	100.94
334.542	107.94
334.771	127.94
334.999	96.94
335.227	96.94
335.455	94.94
335.684	94.94
335.912	85.94
336.14	102.94
336.369	101.94
336.597	107.94
336.825	90.94
337.053	104.94
337.281	94.94
337.51	85.94
337.738	112.94
337.966	104.94
338.194	105.94
338.422	101.94
338.65	101.94
338.878	80.94
339.106	88.94
339.334	92.94
339.562	99.94
339.79	98.94
340.018	101.94
340.246	105.94
340.474	84.94
340.702	94.94
340.93	96.94
341.158	91.94
341.386	106.94
341.614	94.94
341.842	92.94
342.07	91.94
342.298	112.94
342.526	87.94
342.754	84.94
342.981	89.94
343.209	100.94
343.437	99.94
343.665	87.94
343.893	79.94
344.12	97.94
344.348	93.94
344.576	84.94
344.804	87.94
345.031	90.94
345.259	101.94
345.487	89.94
345.714	92.94
345.942	102.94
346.17	94.94
346.397	94.94
346.625	89.94
346.853	101.94
347.08	96.94
347.308	109.94
347.535	95.94
347.763	97.94
347.99	110.94
348.218	108.94
348.445	100.94
348.673	98.94
348.9	83.94
349.128	95.94
349.355	96.94
349.583	95.94
349.81	91.94
350.037	98.94
350.265	95.94
350.492	105.94
350.72	103.94
350.947	88.94
351.174	105.94
351.402	98.94
351.629	95.94
351.856	100.94
352.083	81.94
352.311	87.94
352.538	101.94
352.765	108.94
352.992	133.94
353.22	113.94
353.447	111.94
353.674	96.94
353.901	97.94
354.128	108.94
354.355	94.94
354.583	108.94
354.81	91.94
355.037	100.94
355.264	93.94
355.491	87.94
355.718	106.94
355.945	93.94
356.172	87.94
356.399	103.94
356.626	73.94
356.853	97.94
357.08	100.94
357.307	94.94
357.534	95.94
357.761	93.94
357.988	100.94
358.215	89.94
358.441	95.94
358.668	93.94
358.895	86.94
359.122	101.94
359.349	84.94
359.576	92.94
359.802	105.94
360.029	124.94
360.256	112.94
360.483	103.94
360.709	86.94
360.936	82.94
361.163	93.94
361.39	91.94
361.616	84.94
361.843	95.94
362.07	87.94
362.296	97.94
362.523	102.94
362.749	88.94
362.976	86.94
363.203	94.94
363.429	88.94
363.656	90.94
363.882	85.94
364.109	85.94
364.335	97.94
364.562	83.94
364.788	83.94
365.015	87.94
365.241	109.94
365.468	106.94
365.694	112.94
365.92	97.94
366.147	95.94
366.373	86.94
366.599	91.94
366.826	72.94
367.052	87.94
367.278	107.94
367.505	98.94
367.731	83.94
367.957	99.94
368.184	92.94
368.41	104.94
368.636	107.94
368.862	126.94
369.089	112.94
369.315	94.94
369.541	95.94
369.767	86.94
369.993	97.94
370.219	77.94
370.445	75.94
370.672	94.94
370.898	76.94
371.124	93.94
371.35	81.94
371.576	87.94
371.802	85.94
372.028	85.94
372.254	90.94
372.48	94.94
372.706	93.94
372.932	98.94
373.158	92.94
373.384	87.94
373.61	87.94
373.835	92.94
374.061	84.94
374.287	101.94
374.513	108.94
374.739	90.94
374.965	84.94
375.191	93.94
375.416	85.94
375.642	91.94
375.868	90.94
376.094	94.94
376.319	100.94
376.545	74.94
376.771	93.94
376.997	90.94
377.222	81.94
377.448	91.94
377.674	86.94
377.899	101.94
378.125	86.94
378.35	93.94
378.576	108.94
378.802	91.94
379.027	81.94
379.253	97.94
379.478	94.94
379.704	74.94
379.929	89.94
380.155	89.94
380.38	111.94
380.606	87.94
380.831	94.94
381.057	94.94
381.282	90.94
381.507	87.94
381.733	89.94
381.958	87.94
382.184	87.94
382.409	101.94
382.634	106.94
382.86	106.94
383.085	99.94
383.31	98.94
383.535	82.94
383.761	97.94
383.986	103.94
384.211	102.94
384.436	100.94
384.662	102.94
384.887	103.94
385.112	87.94
385.337	108.94
385.562	110.94
385.787	104.94
386.013	103.94
386.238	132.94
386.463	114.94
386.688	100.94
386.913	121.94
387.138	105.94
387.363	126.94
387.588	93.94
387.813	107.94
388.038	114.94
388.263	124.94
388.488	95.94
388.713	89.94
388.938	91.94
389.163	93.94
389.387	78.94
389.612	88.94
389.837	90.94
390.062	96.94
390.287	100.94
390.512	95.94
390.736	107.94
390.961	99.94
391.186	87.94
391.411	85.94
391.636	91.94
391.86	97.94
392.085	106.94
392.31	85.94
392.534	85.94
392.759	85.94
392.984	87.94
393.208	95.94
393.433	83.94
393.658	96.94
393.882	75.94
394.107	85.94
394.331	97.94
394.556	84.94
394.78	95.94
395.005	98.94
395.229	101.94
395.454	88.94
395.678	78.94
395.903	74.94
396.127	101.94
396.352	82.94
396.576	84.94
396.801	82.94
397.025	85.94
397.249	90.94
397.474	93.94
397.698	106.94
397.922	83.94
398.147	82.94
398.371	91.94
398.595	85.94
398.82	75.94
399.044	85.94
399.268	86.94
399.492	85.94
399.717	79.94
399.941	84.94
400.165	93.94
400.389	75.94
400.613	91.94
400.837	87.94
401.062	97.94
401.286	94.94
401.51	91.94
401.734	94.94
401.958	107.94
402.182	141.94
402.406	152.94
402.63	103.94
402.854	81.94
403.078	83.94
403.302	90.94
403.526	84.94
403.75	81.94
403.974	90.94
404.198	87.94
404.422	97.94
404.645	88.94
404.869	90.94
405.093	105.94
405.317	91.94
405.541	106.94
405.765	106.94
405.988	124.94
406.212	172.94
406.436	229.94
406.66	147.94
406.883	95.94
407.107	99.94
407.331	99.94
407.555	87.94
407.778	95.94
408.002	86.94
408.226	95.94
408.449	94.94
408.673	94.94
408.896	96.94
409.12	106.94
409.344	93.94
409.567	91.94
409.791	96.94
410.014	93.94
410.238	86.94
410.461	94.94
410.685	93.94
410.908	80.94
411.132	116.94
411.355	91.94
411.578	84.94
411.802	84.94
412.025	89.94
412.249	79.94
412.472	92.94
412.695	105.94
412.919	100.94
413.142	77.94
413.365	81.94
413.589	86.94
413.812	99.94
414.035	93.94
414.258	93.94
414.482	84.94
414.705	72.94
414.928	80.94
415.151	100.94
415.374	98.94
415.597	86.94
415.821	86.94
416.044	77.94
416.267	87.94
416.49	98.94
416.713	99.94
416.936	103.94
417.159	93.94
417.382	91.94
417.605	90.94
417.828	88.94
418.051	101.94
418.274	84.94
418.497	102.94
418.72	86.94
418.943	70.94
419.166	92.94
419.389	104.94
419.611	91.94
419.834	93.94
420.057	79.94
420.28	100.94
420.503	87.94
420.726	84.94
420.948	90.94
421.171	91.94
421.394	85.94
421.617	85.94
421.839	92.94
422.062	97.94
422.285	93.94
422.507	109.94
422.73	91.94
422.953	98.94
423.175	103.94
423.398	101.94
423.621	81.94
423.843	87.94
424.066	77.94
424.288	80.94
424.511	86.94
424.733	97.94
424.956	96.94
425.178	101.94
425.401	90.94
425.623	81.94
425.846	89.94
426.068	91.94
426.291	98.94
426.513	88.94
426.735	91.94
426.958	105.94
427.18	116.94
427.402	155.94
427.625	160.94
427.847	133.94
428.069	107.94
428.292	98.94
428.514	84.94
428.736	112.94
428.958	78.94
429.181	101.94
429.403	79.94
429.625	90.94
429.847	89.94
430.069	106.94
430.292	95.94
430.514	89.94
430.736	93.94
430.958	95.94
431.18	96.94
431.402	101.94
431.624	93.94
431.846	98.94
432.068	86.94
432.29	80.94
432.512	90.94
432.734	91.94
432.956	81.94
433.178	102.94
433.4	97.94
433.622	93.94
433.844	76.94
434.066	95.94
434.287	100.94
434.509	97.94
434.731	97.94
434.953	93.94
435.175	86.94
435.397	73.94
435.618	87.94
435.84	103.94
436.062	124.94
436.284	99.94
436.505	101.94
436.727	91.94
436.949	105.94
437.17	92.94
437.392	86.94
437.614	110.94
437.835	112.94
438.057	126.94
438.278	101.94
438.5	101.94
438.721	122.94
438.943	106.94
439.165	81.94
439.386	92.94
439.608	93.94
439.829	100.94
440.05	125.94
440.272	137.94
440.493	93.94
440.715	89.94
440.936	82.94
441.158	87.94
441.379	88.94
441.6	93.94
441.822	102.94
442.043	98.94
442.264	108.94
442.486	106.94
442.707	97.94
442.928	94.94
443.149	123.94
443.371	117.94
443.592	92.94
443.813	99.94
444.034	100.94
444.255	99.94
444.476	89.94
444.698	88.94
444.919	87.94
445.14	138.94
445.361	133.94
445.582	117.94
445.803	161.94
446.024	128.94
446.245	130.94
446.466	100.94
446.687	80.94
446.908	99.94
447.129	94.94
447.35	75.94
447.571	84.94
447.792	95.94
448.013	113.94
448.234	109.94
448.455	105.94
448.675	113.94
448.896	114.94
449.117	97.94
449.338	106.94
449.559	143.94
449.779	137.94
450	92.94
450.221	109.94
450.442	84.94
450.662	97.94
450.883	106.94
451.104	114.94
451.324	100.94
451.545	89.94
451.766	98.94
451.986	82.94
452.207	101.94
452.428	97.94
452.648	96.94
452.869	114.94
453.089	101.94
453.31	114.94
453.53	96.94
453.751	102.94
453.971	105.94
454.192	102.94
454.412	91.94
454.633	92.94
454.853	89.94
455.073	93.94
455.294	87.94
455.514	96.94
455.734	89.94
455.955	81.94
456.175	103.94
456.395	86.94
456.616	84.94
456.836	84.94
457.056	78.94
457.276	75.94
457.497	77.94
457.717	88.94
457.937	93.94
458.157	87.94
458.377	90.94
458.598	108.94
458.818	142.94
459.038	159.94
459.258	112.94
459.478	94.94
459.698	69.94
459.918	85.94
460.138	95.94
460.358	83.94
460.578	99.94
460.798	86.94
461.018	96.94
461.238	94.94
461.458	98.94
461.678	86.94
461.898	90.94
462.118	82.94
462.338	89.94
462.558	90.94
462.777	98.94
462.997	94.94
463.217	95.94
463.437	91.94
463.657	92.94
463.876	88.94
464.096	91.94
464.316	88.94
464.536	101.94
464.755	98.94
464.975	117.94
465.195	163.94
465.414	169.94
465.634	95.94
465.854	84.94
466.073	72.94
466.293	70.94
466.512	84.94
466.732	82.94
466.951	91.94
467.171	88.94
467.391	91.94
467.61	121.94
467.829	89.94
468.049	89.94
468.268	93.94
468.488	86.94
468.707	97.94
468.927	78.94
469.146	95.94
469.365	90.94
469.585	95.94
469.804	102.94
470.023	101.94
470.243	93.94
470.462	106.94
470.681	102.94
470.901	85.94
471.12	88.94
471.339	86.94
471.558	97.94
471.777	86.94
471.997	86.94
472.216	110.94
472.435	113.94
472.654	95.94
472.873	86.94
473.092	89.94
473.311	83.94
473.53	87.94
473.749	106.94
473.968	92.94
474.187	102.94
474.406	101.94
474.625	91.94
474.844	84.94
475.063	91.94
475.282	87.94
475.501	61.94
475.72	96.94
475.939	73.94
476.158	77.94
476.377	88.94
476.596	103.94
476.814	103.94
477.033	111.94
477.252	98.94
477.471	69.94
477.69	91.94
477.908	97.94
478.127	91.94
478.346	86.94
478.564	94.94
478.783	106.94
479.002	100.94
479.22	96.94
479.439	106.94
479.658	93.94
479.876	91.94
480.095	96.94
480.313	94.94
480.532	95.94
480.751	95.94
480.969	96.94
481.188	165.94
481.406	129.94
481.624	89.94
481.843	92.94
482.061	93.94
482.28	91.94
482.498	100.94
482.717	81.94
482.935	86.94
483.153	88.94
483.372	95.94
483.59	98.94
483.808	95.94
484.027	92.94
484.245	97.94
484.463	97.94
484.681	94.94
484.9	86.94
485.118	94.94
485.336	83.94
485.554	97.94
485.772	97.94
485.99	104.94
486.209	96.94
486.427	110.94
486.645	107.94
486.863	114.94
487.081	97.94
487.299	98.94
487.517	99.94
487.735	87.94
487.953	97.94
488.171	99.94
488.389	98.94
488.607	102.94
488.825	90.94
489.043	87.94
489.261	97.94
489.479	88.94
489.696	97.94
489.914	92.94
490.132	94.94
490.35	85.94
490.568	85.94
490.786	70.94
491.003	96.94
491.221	107.94
491.439	81.94
491.657	97.94
491.874	91.94
492.092	91.94
492.31	83.94
492.527	81.94
492.745	91.94
492.963	99.94
493.18	98.94
493.398	87.94
493.615	102.94
493.833	83.94
494.05	93.94
494.268	95.94
494.485	82.94
494.703	81.94
494.92	86.94
495.138	77.94
495.355	85.94
495.573	95.94
495.79	92.94
496.008	100.94
496.225	97.94
496.442	101.94
496.66	89.94
496.877	88.94
497.094	102.94
497.312	85.94
497.529	92.94
497.746	100.94
497.963	96.94
498.181	79.94
498.398	97.94
498.615	93.94
498.832	99.94
499.049	93.94
499.267	97.94
499.484	97.94
499.701	94.94
499.918	87.94
500.135	99.94
500.352	98.94
500.569	98.94
500.786	96.94
501.003	76.94
501.22	85.94
501.437	86.94
501.654	94.94
501.871	106.94
502.088	93.94
502.305	100.94
502.522	82.94
502.739	98.94
502.956	96.94
503.172	87.94
503.389	97.94
503.606	100.94
503.823	91.94
504.04	86.94
504.256	83.94
504.473	85.94
504.69	92.94
504.907	95.94
505.123	82.94
505.34	91.94
505.557	93.94
505.773	89.94
505.99	86.94
506.207	88.94
506.423	101.94
506.64	87.94
506.856	86.94
507.073	97.94
507.289	78.94
507.506	95.94
507.722	111.94
507.939	100.94
508.155	99.94
508.372	81.94
508.588	103.94
508.805	89.94
509.021	92.94
509.238	88.94
509.454	88.94
509.67	97.94
509.887	96.94
510.103	132.94
510.319	217.94
510.536	782.94
510.752	2683.94
510.968	750.94
511.184	183.94
511.401	121.94
511.617	105.94
511.833	90.94
512.049	95.94
512.265	109.94
512.481	109.94
512.698	91.94
512.914	74.94
513.13	95.94
513.346	94.94
513.562	100.94
513.778	102.94
513.994	98.94
514.21	96.94
514.426	129.94
514.642	134.94
514.858	118.94
515.074	181.94
515.29	498.94
