Data from Circ_2006_H10_HRD10591_00100.txt Node
Date: Wed Jan 03 10:26:23 EST 2024
User: Yrep
Spectrometer: HR+D1059
Trigger mode: 1
Integration Time (sec): 1.000000E-1
Scans to average: 1
Electric dark correction enabled: true
Nonlinearity correction enabled: false
Boxcar width: 0
XAxis mode: Wavelengths
Number of Pixels in Spectrum: 2048
>>>>>Begin Spectral Data<<<<<
223.165	-9.88
223.4	-9.88
223.635	-9.88
223.869	-14.88
224.104	-25.88
224.338	-9.88
224.573	-16.88
224.808	-6.88
225.042	-2.88
225.277	-10.88
225.511	-8.88
225.746	4.12
225.98	3.12
226.215	22.12
226.449	17.12
226.683	10.12
226.918	24.12
227.152	26.12
227.387	27.12
227.621	31.12
227.856	51.12
228.09	38.12
228.324	47.12
228.559	63.12
228.793	52.12
229.027	69.12
229.262	52.12
229.496	65.12
229.73	77.12
229.964	76.12
230.199	81.12
230.433	59.12
230.667	67.12
230.901	77.12
231.136	84.12
231.37	69.12
231.604	78.12
231.838	82.12
232.072	66.12
232.306	87.12
232.541	67.12
232.775	78.12
233.009	77.12
233.243	87.12
233.477	90.12
233.711	68.12
233.945	72.12
234.179	80.12
234.413	84.12
234.647	82.12
234.881	76.12
235.115	76.12
235.349	99.12
235.583	93.12
235.817	81.12
236.051	81.12
236.285	87.12
236.519	76.12
236.753	80.12
236.987	80.12
237.221	86.12
237.455	80.12
237.689	65.12
237.922	65.12
238.156	89.12
238.39	81.12
238.624	75.12
238.858	61.12
239.091	47.12
239.325	58.12
239.559	77.12
239.793	79.12
240.027	71.12
240.26	73.12
240.494	82.12
240.728	78.12
240.961	75.12
241.195	68.12
241.429	79.12
241.662	85.12
241.896	70.12
242.13	74.12
242.363	94.12
242.597	97.12
242.83	72.12
243.064	83.12
243.298	77.12
243.531	80.12
243.765	75.12
243.998	73.12
244.232	71.12
244.465	85.12
244.699	75.12
244.932	84.12
245.166	69.12
245.399	83.12
245.633	85.12
245.866	85.12
246.099	75.12
246.333	84.12
246.566	82.12
246.8	79.12
247.033	80.12
247.266	88.12
247.5	76.12
247.733	86.12
247.966	77.12
248.2	73.12
248.433	80.12
248.666	67.12
248.899	78.12
249.133	99.12
249.366	86.12
249.599	99.12
249.832	69.12
250.066	81.12
250.299	63.12
250.532	88.12
250.765	69.12
250.998	89.12
251.231	81.12
251.465	80.12
251.698	86.12
251.931	73.12
252.164	86.12
252.397	77.12
252.63	65.12
252.863	80.12
253.096	81.12
253.329	92.12
253.562	82.12
253.795	73.12
254.028	81.12
254.261	81.12
254.494	85.12
254.727	86.12
254.96	78.12
255.193	79.12
255.426	101.12
255.659	62.12
255.892	78.12
256.124	77.12
256.357	91.12
256.59	83.12
256.823	77.12
257.056	78.12
257.289	83.12
257.521	94.12
257.754	77.12
257.987	91.12
258.22	89.12
258.452	90.12
258.685	69.12
258.918	94.12
259.151	80.12
259.383	83.12
259.616	76.12
259.849	75.12
260.081	78.12
260.314	81.12
260.547	75.12
260.779	86.12
261.012	101.12
261.244	91.12
261.477	101.12
261.71	96.12
261.942	112.12
262.175	134.12
262.407	93.12
262.64	72.12
262.872	95.12
263.105	83.12
263.337	74.12
263.57	67.12
263.802	77.12
264.035	79.12
264.267	89.12
264.499	88.12
264.732	78.12
264.964	85.12
265.197	72.12
265.429	83.12
265.661	72.12
265.894	85.12
266.126	85.12
266.358	76.12
266.591	77.12
266.823	77.12
267.055	75.12
267.287	89.12
267.52	76.12
267.752	87.12
267.984	87.12
268.216	79.12
268.448	90.12
268.681	92.12
268.913	70.12
269.145	79.12
269.377	83.12
269.609	85.12
269.841	84.12
270.073	81.12
270.306	71.12
270.538	88.12
270.77	85.12
271.002	97.12
271.234	86.12
271.466	84.12
271.698	92.12
271.93	86.12
272.162	92.12
272.394	82.12
272.626	81.12
272.858	88.12
273.09	67.12
273.322	76.12
273.553	87.12
273.785	77.12
274.017	90.12
274.249	74.12
274.481	64.12
274.713	85.12
274.945	81.12
275.176	96.12
275.408	82.12
275.64	85.12
275.872	87.12
276.104	83.12
276.335	105.12
276.567	104.12
276.799	103.12
277.031	99.12
277.262	92.12
277.494	83.12
277.726	84.12
277.957	87.12
278.189	75.12
278.421	85.12
278.652	91.12
278.884	94.12
279.115	86.12
279.347	89.12
279.579	81.12
279.81	84.12
280.042	98.12
280.273	119.12
280.505	109.12
280.736	87.12
280.968	91.12
281.199	91.12
281.431	102.12
281.662	83.12
281.894	76.12
282.125	98.12
282.356	113.12
282.588	133.12
282.819	111.12
283.051	73.12
283.282	82.12
283.513	84.12
283.745	75.12
283.976	86.12
284.207	96.12
284.439	83.12
284.67	93.12
284.901	84.12
285.132	93.12
285.364	93.12
285.595	85.12
285.826	81.12
286.057	91.12
286.288	73.12
286.52	91.12
286.751	84.12
286.982	77.12
287.213	81.12
287.444	82.12
287.675	94.12
287.906	79.12
288.138	86.12
288.369	103.12
288.6	92.12
288.831	93.12
289.062	84.12
289.293	105.12
289.524	88.12
289.755	75.12
289.986	79.12
290.217	97.12
290.448	89.12
290.679	112.12
290.91	80.12
291.141	81.12
291.371	80.12
291.602	83.12
291.833	70.12
292.064	81.12
292.295	74.12
292.526	71.12
292.757	100.12
292.987	85.12
293.218	95.12
293.449	94.12
293.68	85.12
293.91	78.12
294.141	97.12
294.372	71.12
294.603	81.12
294.833	76.12
295.064	95.12
295.295	89.12
295.525	92.12
295.756	99.12
295.987	119.12
296.217	138.12
296.448	123.12
296.679	96.12
296.909	89.12
297.14	100.12
297.37	69.12
297.601	93.12
297.831	94.12
298.062	101.12
298.292	89.12
298.523	105.12
298.753	99.12
298.984	93.12
299.214	102.12
299.445	86.12
299.675	93.12
299.905	88.12
300.136	89.12
300.366	81.12
300.597	93.12
300.827	86.12
301.057	89.12
301.288	101.12
301.518	94.12
301.748	93.12
301.979	91.12
302.209	84.12
302.439	84.12
302.669	86.12
302.9	94.12
303.13	86.12
303.36	87.12
303.59	108.12
303.82	113.12
304.051	94.12
304.281	83.12
304.511	86.12
304.741	85.12
304.971	93.12
305.201	80.12
305.431	79.12
305.661	93.12
305.891	91.12
306.121	83.12
306.352	105.12
306.582	110.12
306.812	94.12
307.042	82.12
307.272	95.12
307.502	104.12
307.731	100.12
307.961	95.12
308.191	93.12
308.421	103.12
308.651	104.12
308.881	91.12
309.111	87.12
309.341	87.12
309.571	107.12
309.8	93.12
310.03	108.12
310.26	86.12
310.49	109.12
310.72	93.12
310.949	112.12
311.179	105.12
311.409	83.12
311.639	92.12
311.868	98.12
312.098	86.12
312.328	84.12
312.557	98.12
312.787	107.12
313.017	111.12
313.246	84.12
313.476	97.12
313.706	93.12
313.935	90.12
314.165	109.12
314.394	87.12
314.624	101.12
314.853	110.12
315.083	88.12
315.312	99.12
315.542	84.12
315.771	84.12
316.001	94.12
316.23	100.12
316.46	97.12
316.689	101.12
316.919	91.12
317.148	87.12
317.377	88.12
317.607	89.12
317.836	86.12
318.065	90.12
318.295	89.12
318.524	90.12
318.753	80.12
318.983	92.12
319.212	94.12
319.441	116.12
319.67	95.12
319.9	87.12
320.129	78.12
320.358	97.12
320.587	98.12
320.816	93.12
321.046	106.12
321.275	93.12
321.504	78.12
321.733	101.12
321.962	93.12
322.191	102.12
322.42	90.12
322.649	107.12
322.878	121.12
323.108	115.12
323.337	126.12
323.566	149.12
323.795	160.12
324.024	216.12
324.253	437.12
324.482	938.12
324.71	1985.12
324.939	2621.12
325.168	975.12
325.397	277.12
325.626	148.12
325.855	149.12
326.084	125.12
326.313	143.12
326.542	174.12
326.77	253.12
326.999	515.12
327.228	1057.12
327.457	2001.12
327.686	1568.12
327.914	434.12
328.143	230.12
328.372	220.12
328.6	143.12
328.829	133.12
329.058	143.12
329.287	138.12
329.515	116.12
329.744	127.12
329.972	155.12
330.201	216.12
330.43	279.12
330.658	177.12
330.887	147.12
331.115	153.12
331.344	97.12
331.572	94.12
331.801	111.12
332.03	101.12
332.258	97.12
332.486	90.12
332.715	95.12
332.943	107.12
333.172	105.12
333.4	94.12
333.629	116.12
333.857	131.12
334.085	155.12
334.314	203.12
334.542	321.12
334.771	341.12
334.999	158.12
335.227	103.12
335.455	102.12
335.684	102.12
335.912	85.12
336.14	99.12
336.369	93.12
336.597	107.12
336.825	92.12
337.053	93.12
337.281	92.12
337.51	81.12
337.738	84.12
337.966	95.12
338.194	98.12
338.422	99.12
338.65	97.12
338.878	95.12
339.106	89.12
339.334	90.12
339.562	85.12
339.79	79.12
340.018	82.12
340.246	91.12
340.474	100.12
340.702	86.12
340.93	103.12
341.158	83.12
341.386	93.12
341.614	87.12
341.842	101.12
342.07	89.12
342.298	85.12
342.526	80.12
342.754	86.12
342.981	97.12
343.209	87.12
343.437	98.12
343.665	89.12
343.893	84.12
344.12	94.12
344.348	101.12
344.576	94.12
344.804	99.12
345.031	96.12
345.259	109.12
345.487	115.12
345.714	104.12
345.942	94.12
346.17	110.12
346.397	95.12
346.625	102.12
346.853	96.12
347.08	96.12
347.308	98.12
347.535	98.12
347.763	99.12
347.99	101.12
348.218	87.12
348.445	115.12
348.673	96.12
348.9	107.12
349.128	88.12
349.355	76.12
349.583	97.12
349.81	99.12
350.037	82.12
350.265	89.12
350.492	107.12
350.72	102.12
350.947	98.12
351.174	97.12
351.402	106.12
351.629	90.12
351.856	100.12
352.083	110.12
352.311	95.12
352.538	123.12
352.765	117.12
352.992	107.12
353.22	103.12
353.447	95.12
353.674	98.12
353.901	103.12
354.128	90.12
354.355	89.12
354.583	107.12
354.81	101.12
355.037	103.12
355.264	94.12
355.491	105.12
355.718	94.12
355.945	100.12
356.172	106.12
356.399	88.12
356.626	99.12
356.853	82.12
357.08	100.12
357.307	82.12
357.534	95.12
357.761	91.12
357.988	82.12
358.215	95.12
358.441	94.12
358.668	86.12
358.895	98.12
359.122	76.12
359.349	84.12
359.576	95.12
359.802	107.12
360.029	123.12
360.256	121.12
360.483	85.12
360.709	94.12
360.936	87.12
361.163	84.12
361.39	93.12
361.616	99.12
361.843	89.12
362.07	91.12
362.296	99.12
362.523	80.12
362.749	85.12
362.976	86.12
363.203	78.12
363.429	98.12
363.656	99.12
363.882	81.12
364.109	95.12
364.335	89.12
364.562	92.12
364.788	86.12
365.015	110.12
365.241	102.12
365.468	105.12
365.694	113.12
365.92	92.12
366.147	90.12
366.373	92.12
366.599	94.12
366.826	83.12
367.052	92.12
367.278	91.12
367.505	93.12
367.731	101.12
367.957	80.12
368.184	99.12
368.41	102.12
368.636	105.12
368.862	108.12
369.089	93.12
369.315	89.12
369.541	89.12
369.767	111.12
369.993	92.12
370.219	97.12
370.445	90.12
370.672	101.12
370.898	82.12
371.124	89.12
371.35	90.12
371.576	80.12
371.802	87.12
372.028	90.12
372.254	98.12
372.48	87.12
372.706	78.12
372.932	75.12
373.158	95.12
373.384	86.12
373.61	96.12
373.835	97.12
374.061	87.12
374.287	88.12
374.513	85.12
374.739	101.12
374.965	84.12
375.191	86.12
375.416	93.12
375.642	94.12
375.868	91.12
376.094	83.12
376.319	84.12
376.545	81.12
376.771	95.12
376.997	79.12
377.222	76.12
377.448	93.12
377.674	90.12
377.899	75.12
378.125	97.12
378.35	83.12
378.576	87.12
378.802	85.12
379.027	82.12
379.253	89.12
379.478	91.12
379.704	94.12
379.929	93.12
380.155	99.12
380.38	108.12
380.606	93.12
380.831	88.12
381.057	94.12
381.282	98.12
381.507	82.12
381.733	84.12
381.958	98.12
382.184	75.12
382.409	111.12
382.634	110.12
382.86	116.12
383.085	102.12
383.31	101.12
383.535	99.12
383.761	93.12
383.986	97.12
384.211	90.12
384.436	90.12
384.662	96.12
384.887	85.12
385.112	94.12
385.337	82.12
385.562	94.12
385.787	100.12
386.013	97.12
386.238	117.12
386.463	100.12
386.688	109.12
386.913	110.12
387.138	103.12
387.363	97.12
387.588	100.12
387.813	100.12
388.038	101.12
388.263	103.12
388.488	112.12
388.713	108.12
388.938	91.12
389.163	86.12
389.387	89.12
389.612	75.12
389.837	91.12
390.062	88.12
390.287	80.12
390.512	99.12
390.736	89.12
390.961	90.12
391.186	99.12
391.411	89.12
391.636	82.12
391.86	85.12
392.085	89.12
392.31	85.12
392.534	69.12
392.759	74.12
392.984	87.12
393.208	86.12
393.433	85.12
393.658	98.12
393.882	62.12
394.107	85.12
394.331	87.12
394.556	82.12
394.78	98.12
395.005	92.12
395.229	95.12
395.454	101.12
395.678	81.12
395.903	76.12
396.127	90.12
396.352	86.12
396.576	81.12
396.801	74.12
397.025	74.12
397.249	75.12
397.474	93.12
397.698	95.12
397.922	90.12
398.147	72.12
398.371	90.12
398.595	93.12
398.82	80.12
399.044	91.12
399.268	82.12
399.492	79.12
399.717	85.12
399.941	91.12
400.165	104.12
400.389	109.12
400.613	97.12
400.837	92.12
401.062	82.12
401.286	86.12
401.51	85.12
401.734	98.12
401.958	100.12
402.182	132.12
402.406	174.12
402.63	127.12
402.854	96.12
403.078	87.12
403.302	98.12
403.526	83.12
403.75	96.12
403.974	88.12
404.198	86.12
404.422	93.12
404.645	95.12
404.869	86.12
405.093	105.12
405.317	121.12
405.541	100.12
405.765	114.12
405.988	121.12
406.212	175.12
406.436	254.12
406.66	165.12
406.883	108.12
407.107	99.12
407.331	97.12
407.555	91.12
407.778	99.12
408.002	84.12
408.226	86.12
408.449	85.12
408.673	87.12
408.896	86.12
409.12	91.12
409.344	86.12
409.567	90.12
409.791	98.12
410.014	92.12
410.238	100.12
410.461	93.12
410.685	108.12
410.908	89.12
411.132	111.12
411.355	96.12
411.578	96.12
411.802	100.12
412.025	104.12
412.249	76.12
412.472	99.12
412.695	114.12
412.919	101.12
413.142	87.12
413.365	86.12
413.589	84.12
413.812	92.12
414.035	84.12
414.258	96.12
414.482	85.12
414.705	85.12
414.928	99.12
415.151	82.12
415.374	80.12
415.597	78.12
415.821	78.12
416.044	92.12
416.267	90.12
416.49	95.12
416.713	89.12
416.936	92.12
417.159	79.12
417.382	74.12
417.605	85.12
417.828	107.12
418.051	98.12
418.274	97.12
418.497	84.12
418.72	88.12
418.943	105.12
419.166	87.12
419.389	97.12
419.611	85.12
419.834	79.12
420.057	84.12
420.28	82.12
420.503	84.12
420.726	86.12
420.948	85.12
421.171	90.12
421.394	96.12
421.617	85.12
421.839	81.12
422.062	94.12
422.285	94.12
422.507	100.12
422.73	92.12
422.953	97.12
423.175	101.12
423.398	88.12
423.621	85.12
423.843	83.12
424.066	94.12
424.288	67.12
424.511	96.12
424.733	95.12
424.956	120.12
425.178	105.12
425.401	93.12
425.623	106.12
425.846	99.12
426.068	99.12
426.291	93.12
426.513	87.12
426.735	105.12
426.958	95.12
427.18	93.12
427.402	156.12
427.625	186.12
427.847	160.12
428.069	140.12
428.292	101.12
428.514	78.12
428.736	82.12
428.958	84.12
429.181	83.12
429.403	84.12
429.625	86.12
429.847	87.12
430.069	79.12
430.292	99.12
430.514	87.12
430.736	91.12
430.958	93.12
431.18	89.12
431.402	95.12
431.624	87.12
431.846	92.12
432.068	84.12
432.29	94.12
432.512	102.12
432.734	82.12
432.956	94.12
433.178	106.12
433.4	108.12
433.622	101.12
433.844	83.12
434.066	101.12
434.287	95.12
434.509	84.12
434.731	77.12
434.953	85.12
435.175	81.12
435.397	88.12
435.618	93.12
435.84	93.12
436.062	114.12
436.284	123.12
436.505	99.12
436.727	93.12
436.949	83.12
437.17	80.12
437.392	90.12
437.614	97.12
437.835	95.12
438.057	129.12
438.278	102.12
438.5	113.12
438.721	115.12
438.943	85.12
439.165	92.12
439.386	86.12
439.608	71.12
439.829	99.12
440.05	118.12
440.272	142.12
440.493	107.12
440.715	87.12
440.936	87.12
441.158	89.12
441.379	92.12
441.6	82.12
441.822	90.12
442.043	94.12
442.264	98.12
442.486	116.12
442.707	85.12
442.928	93.12
443.149	151.12
443.371	144.12
443.592	125.12
443.813	117.12
444.034	109.12
444.255	87.12
444.476	93.12
444.698	87.12
444.919	87.12
445.14	135.12
445.361	123.12
445.582	113.12
445.803	145.12
446.024	128.12
446.245	126.12
446.466	121.12
446.687	87.12
446.908	83.12
447.129	75.12
447.35	96.12
447.571	103.12
447.792	100.12
448.013	102.12
448.234	112.12
448.455	92.12
448.675	109.12
448.896	117.12
449.117	115.12
449.338	92.12
449.559	131.12
449.779	141.12
450	92.12
450.221	98.12
450.442	95.12
450.662	98.12
450.883	105.12
451.104	115.12
451.324	107.12
451.545	97.12
451.766	83.12
451.986	87.12
452.207	87.12
452.428	90.12
452.648	92.12
452.869	106.12
453.089	128.12
453.31	120.12
453.53	101.12
453.751	90.12
453.971	102.12
454.192	112.12
454.412	95.12
454.633	85.12
454.853	84.12
455.073	100.12
455.294	82.12
455.514	93.12
455.734	88.12
455.955	81.12
456.175	63.12
456.395	79.12
456.616	106.12
456.836	94.12
457.056	97.12
457.276	89.12
457.497	86.12
457.717	91.12
457.937	77.12
458.157	79.12
458.377	78.12
458.598	111.12
458.818	162.12
459.038	172.12
459.258	119.12
459.478	82.12
459.698	87.12
459.918	75.12
460.138	84.12
460.358	91.12
460.578	93.12
460.798	99.12
461.018	90.12
461.238	84.12
461.458	87.12
461.678	73.12
461.898	80.12
462.118	81.12
462.338	95.12
462.558	100.12
462.777	85.12
462.997	92.12
463.217	96.12
463.437	101.12
463.657	73.12
463.876	81.12
464.096	82.12
464.316	83.12
464.536	87.12
464.755	94.12
464.975	124.12
465.195	185.12
465.414	176.12
465.634	108.12
465.854	89.12
466.073	96.12
466.293	95.12
466.512	105.12
466.732	90.12
466.951	101.12
467.171	70.12
467.391	109.12
467.61	103.12
467.829	102.12
468.049	141.12
468.268	181.12
468.488	97.12
468.707	82.12
468.927	91.12
469.146	81.12
469.365	93.12
469.585	99.12
469.804	102.12
470.023	104.12
470.243	98.12
470.462	105.12
470.681	99.12
470.901	99.12
471.12	89.12
471.339	87.12
471.558	95.12
471.777	77.12
471.997	135.12
472.216	226.12
472.435	430.12
472.654	159.12
472.873	108.12
473.092	95.12
473.311	99.12
473.53	95.12
473.749	94.12
473.968	110.12
474.187	123.12
474.406	87.12
474.625	81.12
474.844	79.12
475.063	79.12
475.282	81.12
475.501	91.12
475.72	89.12
475.939	101.12
476.158	82.12
476.377	91.12
476.596	97.12
476.814	95.12
477.033	87.12
477.252	93.12
477.471	92.12
477.69	79.12
477.908	86.12
478.127	85.12
478.346	92.12
478.564	89.12
478.783	100.12
479.002	91.12
479.22	89.12
479.439	103.12
479.658	123.12
479.876	92.12
480.095	93.12
480.313	107.12
480.532	91.12
480.751	127.12
480.969	241.12
481.188	691.12
481.406	484.12
481.624	135.12
481.843	103.12
482.061	108.12
482.28	93.12
482.498	91.12
482.717	84.12
482.935	85.12
483.153	104.12
483.372	99.12
483.59	93.12
483.808	73.12
484.027	81.12
484.245	89.12
484.463	87.12
484.681	84.12
484.9	103.12
485.118	93.12
485.336	83.12
485.554	107.12
485.772	96.12
485.99	94.12
486.209	109.12
486.427	106.12
486.645	117.12
486.863	111.12
487.081	107.12
487.299	100.12
487.517	110.12
487.735	93.12
487.953	89.12
488.171	96.12
488.389	92.12
488.607	94.12
488.825	90.12
489.043	108.12
489.261	93.12
489.479	85.12
489.696	91.12
489.914	74.12
490.132	106.12
490.35	86.12
490.568	103.12
490.786	81.12
491.003	99.12
491.221	97.12
491.439	102.12
491.657	99.12
491.874	95.12
492.092	85.12
492.31	94.12
492.527	82.12
492.745	94.12
492.963	104.12
493.18	93.12
493.398	93.12
493.615	86.12
493.833	102.12
494.05	88.12
494.268	87.12
494.485	83.12
494.703	88.12
494.92	80.12
495.138	97.12
495.355	102.12
495.573	85.12
495.79	99.12
496.008	91.12
496.225	90.12
496.442	89.12
496.66	93.12
496.877	97.12
497.094	89.12
497.312	93.12
497.529	101.12
497.746	97.12
497.963	95.12
498.181	98.12
498.398	91.12
498.615	98.12
498.832	118.12
499.049	99.12
499.267	70.12
499.484	89.12
499.701	97.12
499.918	87.12
500.135	88.12
500.352	87.12
500.569	79.12
500.786	100.12
501.003	91.12
501.22	97.12
501.437	81.12
501.654	106.12
501.871	106.12
502.088	96.12
502.305	94.12
502.522	94.12
502.739	83.12
502.956	86.12
503.172	90.12
503.389	102.12
503.606	93.12
503.823	103.12
504.04	97.12
504.256	92.12
504.473	107.12
504.69	93.12
504.907	92.12
505.123	89.12
505.34	97.12
505.557	87.12
505.773	90.12
505.99	80.12
506.207	88.12
506.423	93.12
506.64	91.12
506.856	97.12
507.073	78.12
507.289	86.12
507.506	101.12
507.722	113.12
507.939	121.12
508.155	84.12
508.372	98.12
508.588	91.12
508.805	104.12
509.021	101.12
509.238	101.12
509.454	98.12
509.67	103.12
509.887	117.12
510.103	124.12
510.319	228.12
510.536	866.12
510.752	2850.12
510.968	809.12
511.184	176.12
511.401	126.12
511.617	97.12
511.833	103.12
512.049	90.12
512.265	89.12
512.481	85.12
512.698	95.12
512.914	96.12
513.13	82.12
513.346	89.12
513.562	94.12
513.778	93.12
513.994	95.12
514.21	113.12
514.426	114.12
514.642	148.12
514.858	115.12
515.074	198.12
515.29	537.12
