Data from 1600_4_HRD10591_00041.txt Node
Date: Mon Jan 19 13:56:31 EST 2026
User: Yrep
Spectrometer: HR+D1059
Trigger mode: 1
Integration Time (sec): 1.000000E-1
Scans to average: 1
Electric dark correction enabled: true
Nonlinearity correction enabled: false
Boxcar width: 0
XAxis mode: Wavelengths
Number of Pixels in Spectrum: 2048
>>>>>Begin Spectral Data<<<<<
223.165	-8.56
223.4	-8.56
223.635	-8.56
223.869	-19.56
224.104	-39.56
224.338	-18.56
224.573	-6.56
224.808	-14.56
225.042	-9.56
225.277	-21.56
225.511	0.44
225.746	11.44
225.98	9.44
226.215	9.44
226.449	18.44
226.683	23.44
226.918	34.44
227.152	31.44
227.387	38.44
227.621	36.44
227.856	42.44
228.09	47.44
228.324	50.44
228.559	59.44
228.793	70.44
229.027	64.44
229.262	59.44
229.496	54.44
229.73	63.44
229.964	70.44
230.199	81.44
230.433	81.44
230.667	80.44
230.901	76.44
231.136	72.44
231.37	82.44
231.604	90.44
231.838	76.44
232.072	70.44
232.306	79.44
232.541	85.44
232.775	81.44
233.009	95.44
233.243	65.44
233.477	94.44
233.711	67.44
233.945	78.44
234.179	79.44
234.413	84.44
234.647	78.44
234.881	90.44
235.115	75.44
235.349	73.44
235.583	71.44
235.817	73.44
236.051	78.44
236.285	69.44
236.519	79.44
236.753	76.44
236.987	82.44
237.221	74.44
237.455	84.44
237.689	88.44
237.922	86.44
238.156	81.44
238.39	74.44
238.624	63.44
238.858	85.44
239.091	89.44
239.325	81.44
239.559	78.44
239.793	65.44
240.027	76.44
240.26	82.44
240.494	68.44
240.728	77.44
240.961	98.44
241.195	77.44
241.429	84.44
241.662	78.44
241.896	76.44
242.13	68.44
242.363	71.44
242.597	65.44
242.83	66.44
243.064	68.44
243.298	89.44
243.531	75.44
243.765	90.44
243.998	63.44
244.232	70.44
244.465	69.44
244.699	72.44
244.932	79.44
245.166	83.44
245.399	89.44
245.633	78.44
245.866	85.44
246.099	81.44
246.333	76.44
246.566	72.44
246.8	68.44
247.033	87.44
247.266	81.44
247.5	81.44
247.733	84.44
247.966	83.44
248.2	73.44
248.433	94.44
248.666	80.44
248.899	78.44
249.133	95.44
249.366	85.44
249.599	74.44
249.832	79.44
250.066	78.44
250.299	89.44
250.532	91.44
250.765	80.44
250.998	71.44
251.231	78.44
251.465	82.44
251.698	79.44
251.931	86.44
252.164	72.44
252.397	91.44
252.63	76.44
252.863	78.44
253.096	77.44
253.329	72.44
253.562	83.44
253.795	82.44
254.028	79.44
254.261	87.44
254.494	80.44
254.727	77.44
254.96	83.44
255.193	74.44
255.426	86.44
255.659	63.44
255.892	82.44
256.124	88.44
256.357	77.44
256.59	86.44
256.823	76.44
257.056	65.44
257.289	83.44
257.521	81.44
257.754	91.44
257.987	69.44
258.22	75.44
258.452	78.44
258.685	93.44
258.918	91.44
259.151	76.44
259.383	89.44
259.616	66.44
259.849	85.44
260.081	67.44
260.314	86.44
260.547	85.44
260.779	87.44
261.012	75.44
261.244	78.44
261.477	75.44
261.71	78.44
261.942	80.44
262.175	73.44
262.407	83.44
262.64	79.44
262.872	89.44
263.105	88.44
263.337	87.44
263.57	76.44
263.802	79.44
264.035	74.44
264.267	96.44
264.499	70.44
264.732	84.44
264.964	86.44
265.197	74.44
265.429	75.44
265.661	70.44
265.894	76.44
266.126	75.44
266.358	75.44
266.591	92.44
266.823	85.44
267.055	71.44
267.287	76.44
267.52	90.44
267.752	84.44
267.984	82.44
268.216	80.44
268.448	78.44
268.681	80.44
268.913	86.44
269.145	90.44
269.377	74.44
269.609	71.44
269.841	81.44
270.073	84.44
270.306	77.44
270.538	93.44
270.77	89.44
271.002	90.44
271.234	78.44
271.466	83.44
271.698	81.44
271.93	80.44
272.162	78.44
272.394	82.44
272.626	84.44
272.858	80.44
273.09	89.44
273.322	89.44
273.553	81.44
273.785	85.44
274.017	78.44
274.249	88.44
274.481	88.44
274.713	82.44
274.945	74.44
275.176	82.44
275.408	82.44
275.64	89.44
275.872	79.44
276.104	89.44
276.335	82.44
276.567	75.44
276.799	83.44
277.031	80.44
277.262	90.44
277.494	75.44
277.726	77.44
277.957	87.44
278.189	75.44
278.421	87.44
278.652	85.44
278.884	81.44
279.115	96.44
279.347	77.44
279.579	88.44
279.81	71.44
280.042	89.44
280.273	83.44
280.505	90.44
280.736	81.44
280.968	69.44
281.199	74.44
281.431	108.44
281.662	81.44
281.894	85.44
282.125	97.44
282.356	82.44
282.588	74.44
282.819	85.44
283.051	66.44
283.282	102.44
283.513	102.44
283.745	68.44
283.976	87.44
284.207	88.44
284.439	83.44
284.67	74.44
284.901	102.44
285.132	79.44
285.364	79.44
285.595	88.44
285.826	71.44
286.057	86.44
286.288	85.44
286.52	88.44
286.751	73.44
286.982	90.44
287.213	89.44
287.444	87.44
287.675	89.44
287.906	79.44
288.138	94.44
288.369	87.44
288.6	84.44
288.831	81.44
289.062	87.44
289.293	72.44
289.524	85.44
289.755	75.44
289.986	78.44
290.217	79.44
290.448	73.44
290.679	80.44
290.91	91.44
291.141	93.44
291.371	84.44
291.602	80.44
291.833	74.44
292.064	83.44
292.295	89.44
292.526	79.44
292.757	75.44
292.987	82.44
293.218	69.44
293.449	89.44
293.68	87.44
293.91	95.44
294.141	80.44
294.372	70.44
294.603	87.44
294.833	86.44
295.064	84.44
295.295	99.44
295.525	78.44
295.756	89.44
295.987	83.44
296.217	73.44
296.448	87.44
296.679	88.44
296.909	83.44
297.14	100.44
297.37	89.44
297.601	78.44
297.831	86.44
298.062	84.44
298.292	82.44
298.523	101.44
298.753	74.44
298.984	81.44
299.214	73.44
299.445	75.44
299.675	74.44
299.905	73.44
300.136	90.44
300.366	89.44
300.597	96.44
300.827	89.44
301.057	81.44
301.288	78.44
301.518	78.44
301.748	89.44
301.979	95.44
302.209	92.44
302.439	83.44
302.669	95.44
302.9	79.44
303.13	77.44
303.36	75.44
303.59	73.44
303.82	81.44
304.051	73.44
304.281	89.44
304.511	89.44
304.741	76.44
304.971	82.44
305.201	85.44
305.431	74.44
305.661	87.44
305.891	77.44
306.121	86.44
306.352	80.44
306.582	89.44
306.812	72.44
307.042	77.44
307.272	94.44
307.502	81.44
307.731	82.44
307.961	78.44
308.191	80.44
308.421	88.44
308.651	69.44
308.881	83.44
309.111	71.44
309.341	74.44
309.571	84.44
309.8	76.44
310.03	82.44
310.26	89.44
310.49	93.44
310.72	87.44
310.949	91.44
311.179	82.44
311.409	80.44
311.639	89.44
311.868	82.44
312.098	64.44
312.328	93.44
312.557	68.44
312.787	69.44
313.017	85.44
313.246	88.44
313.476	83.44
313.706	82.44
313.935	101.44
314.165	90.44
314.394	85.44
314.624	81.44
314.853	83.44
315.083	66.44
315.312	91.44
315.542	79.44
315.771	82.44
316.001	69.44
316.23	74.44
316.46	88.44
316.689	82.44
316.919	93.44
317.148	93.44
317.377	90.44
317.607	81.44
317.836	93.44
318.065	73.44
318.295	75.44
318.524	100.44
318.753	79.44
318.983	79.44
319.212	93.44
319.441	84.44
319.67	93.44
319.9	96.44
320.129	91.44
320.358	84.44
320.587	94.44
320.816	99.44
321.046	96.44
321.275	87.44
321.504	76.44
321.733	77.44
321.962	101.44
322.191	83.44
322.42	81.44
322.649	81.44
322.878	91.44
323.108	90.44
323.337	95.44
323.566	87.44
323.795	77.44
324.024	90.44
324.253	87.44
324.482	81.44
324.71	83.44
324.939	88.44
325.168	85.44
325.397	87.44
325.626	66.44
325.855	65.44
326.084	84.44
326.313	74.44
326.542	85.44
326.77	95.44
326.999	89.44
327.228	72.44
327.457	95.44
327.686	85.44
327.914	89.44
328.143	90.44
328.372	86.44
328.6	87.44
328.829	89.44
329.058	71.44
329.287	85.44
329.515	76.44
329.744	83.44
329.972	89.44
330.201	95.44
330.43	95.44
330.658	96.44
330.887	87.44
331.115	89.44
331.344	86.44
331.572	99.44
331.801	98.44
332.03	86.44
332.258	91.44
332.486	73.44
332.715	79.44
332.943	103.44
333.172	73.44
333.4	71.44
333.629	91.44
333.857	81.44
334.085	73.44
334.314	87.44
334.542	80.44
334.771	107.44
334.999	74.44
335.227	80.44
335.455	81.44
335.684	91.44
335.912	90.44
336.14	86.44
336.369	83.44
336.597	101.44
336.825	101.44
337.053	109.44
337.281	95.44
337.51	81.44
337.738	84.44
337.966	97.44
338.194	83.44
338.422	101.44
338.65	83.44
338.878	87.44
339.106	70.44
339.334	80.44
339.562	84.44
339.79	96.44
340.018	91.44
340.246	83.44
340.474	93.44
340.702	91.44
340.93	73.44
341.158	79.44
341.386	75.44
341.614	94.44
341.842	96.44
342.07	86.44
342.298	88.44
342.526	79.44
342.754	93.44
342.981	92.44
343.209	84.44
343.437	82.44
343.665	77.44
343.893	87.44
344.12	86.44
344.348	80.44
344.576	64.44
344.804	90.44
345.031	73.44
345.259	69.44
345.487	72.44
345.714	82.44
345.942	84.44
346.17	93.44
346.397	90.44
346.625	85.44
346.853	83.44
347.08	86.44
347.308	109.44
347.535	75.44
347.763	82.44
347.99	80.44
348.218	79.44
348.445	76.44
348.673	93.44
348.9	85.44
349.128	91.44
349.355	89.44
349.583	86.44
349.81	86.44
350.037	88.44
350.265	95.44
350.492	75.44
350.72	70.44
350.947	97.44
351.174	87.44
351.402	80.44
351.629	93.44
351.856	91.44
352.083	83.44
352.311	90.44
352.538	91.44
352.765	72.44
352.992	83.44
353.22	94.44
353.447	71.44
353.674	83.44
353.901	91.44
354.128	90.44
354.355	84.44
354.583	94.44
354.81	79.44
355.037	87.44
355.264	89.44
355.491	72.44
355.718	81.44
355.945	83.44
356.172	62.44
356.399	91.44
356.626	83.44
356.853	81.44
357.08	94.44
357.307	85.44
357.534	74.44
357.761	88.44
357.988	77.44
358.215	80.44
358.441	93.44
358.668	83.44
358.895	71.44
359.122	84.44
359.349	80.44
359.576	83.44
359.802	79.44
360.029	83.44
360.256	83.44
360.483	88.44
360.709	76.44
360.936	90.44
361.163	81.44
361.39	78.44
361.616	89.44
361.843	83.44
362.07	89.44
362.296	82.44
362.523	80.44
362.749	79.44
362.976	88.44
363.203	86.44
363.429	91.44
363.656	98.44
363.882	100.44
364.109	101.44
364.335	73.44
364.562	95.44
364.788	82.44
365.015	96.44
365.241	94.44
365.468	93.44
365.694	71.44
365.92	85.44
366.147	91.44
366.373	88.44
366.599	81.44
366.826	84.44
367.052	77.44
367.278	97.44
367.505	75.44
367.731	86.44
367.957	81.44
368.184	85.44
368.41	82.44
368.636	90.44
368.862	82.44
369.089	83.44
369.315	84.44
369.541	67.44
369.767	79.44
369.993	82.44
370.219	86.44
370.445	81.44
370.672	83.44
370.898	83.44
371.124	89.44
371.35	79.44
371.576	89.44
371.802	85.44
372.028	79.44
372.254	98.44
372.48	87.44
372.706	61.44
372.932	84.44
373.158	81.44
373.384	75.44
373.61	89.44
373.835	86.44
374.061	84.44
374.287	85.44
374.513	94.44
374.739	75.44
374.965	89.44
375.191	97.44
375.416	81.44
375.642	78.44
375.868	100.44
376.094	90.44
376.319	85.44
376.545	93.44
376.771	87.44
376.997	84.44
377.222	83.44
377.448	93.44
377.674	91.44
377.899	88.44
378.125	96.44
378.35	84.44
378.576	78.44
378.802	77.44
379.027	76.44
379.253	80.44
379.478	97.44
379.704	88.44
379.929	91.44
380.155	104.44
380.38	74.44
380.606	75.44
380.831	70.44
381.057	102.44
381.282	97.44
381.507	92.44
381.733	81.44
381.958	91.44
382.184	91.44
382.409	98.44
382.634	83.44
382.86	88.44
383.085	84.44
383.31	76.44
383.535	82.44
383.761	85.44
383.986	91.44
384.211	75.44
384.436	68.44
384.662	93.44
384.887	87.44
385.112	80.44
385.337	81.44
385.562	80.44
385.787	82.44
386.013	78.44
386.238	84.44
386.463	75.44
386.688	90.44
386.913	72.44
387.138	84.44
387.363	73.44
387.588	81.44
387.813	95.44
388.038	76.44
388.263	76.44
388.488	83.44
388.713	76.44
388.938	78.44
389.163	74.44
389.387	83.44
389.612	100.44
389.837	92.44
390.062	87.44
390.287	83.44
390.512	76.44
390.736	82.44
390.961	78.44
391.186	73.44
391.411	80.44
391.636	69.44
391.86	90.44
392.085	71.44
392.31	93.44
392.534	99.44
392.759	85.44
392.984	95.44
393.208	111.44
393.433	144.44
393.658	138.44
393.882	79.44
394.107	83.44
394.331	71.44
394.556	88.44
394.78	87.44
395.005	90.44
395.229	80.44
395.454	90.44
395.678	83.44
395.903	95.44
396.127	77.44
396.352	103.44
396.576	96.44
396.801	97.44
397.025	124.44
397.249	96.44
397.474	98.44
397.698	81.44
397.922	85.44
398.147	89.44
398.371	76.44
398.595	64.44
398.82	71.44
399.044	82.44
399.268	76.44
399.492	75.44
399.717	69.44
399.941	82.44
400.165	74.44
400.389	94.44
400.613	79.44
400.837	78.44
401.062	73.44
401.286	87.44
401.51	85.44
401.734	90.44
401.958	82.44
402.182	81.44
402.406	70.44
402.63	81.44
402.854	89.44
403.078	84.44
403.302	86.44
403.526	88.44
403.75	86.44
403.974	85.44
404.198	90.44
404.422	77.44
404.645	90.44
404.869	80.44
405.093	84.44
405.317	76.44
405.541	86.44
405.765	78.44
405.988	83.44
406.212	91.44
406.436	76.44
406.66	94.44
406.883	74.44
407.107	84.44
407.331	73.44
407.555	95.44
407.778	85.44
408.002	88.44
408.226	82.44
408.449	88.44
408.673	81.44
408.896	79.44
409.12	74.44
409.344	78.44
409.567	80.44
409.791	78.44
410.014	74.44
410.238	89.44
410.461	93.44
410.685	77.44
410.908	80.44
411.132	83.44
411.355	75.44
411.578	80.44
411.802	76.44
412.025	72.44
412.249	78.44
412.472	84.44
412.695	96.44
412.919	79.44
413.142	87.44
413.365	80.44
413.589	75.44
413.812	75.44
414.035	84.44
414.258	93.44
414.482	66.44
414.705	91.44
414.928	89.44
415.151	70.44
415.374	87.44
415.597	87.44
415.821	86.44
416.044	94.44
416.267	82.44
416.49	80.44
416.713	73.44
416.936	71.44
417.159	82.44
417.382	72.44
417.605	69.44
417.828	72.44
418.051	88.44
418.274	81.44
418.497	86.44
418.72	76.44
418.943	80.44
419.166	87.44
419.389	76.44
419.611	73.44
419.834	75.44
420.057	78.44
420.28	85.44
420.503	89.44
420.726	94.44
420.948	86.44
421.171	82.44
421.394	76.44
421.617	87.44
421.839	97.44
422.062	76.44
422.285	90.44
422.507	90.44
422.73	112.44
422.953	108.44
423.175	87.44
423.398	71.44
423.621	75.44
423.843	88.44
424.066	79.44
424.288	80.44
424.511	85.44
424.733	104.44
424.956	86.44
425.178	79.44
425.401	86.44
425.623	86.44
425.846	73.44
426.068	75.44
426.291	80.44
426.513	68.44
426.735	67.44
426.958	79.44
427.18	84.44
427.402	85.44
427.625	91.44
427.847	92.44
428.069	83.44
428.292	100.44
428.514	81.44
428.736	87.44
428.958	83.44
429.181	81.44
429.403	73.44
429.625	93.44
429.847	89.44
430.069	87.44
430.292	95.44
430.514	83.44
430.736	91.44
430.958	85.44
431.18	73.44
431.402	79.44
431.624	75.44
431.846	88.44
432.068	95.44
432.29	99.44
432.512	78.44
432.734	78.44
432.956	76.44
433.178	90.44
433.4	78.44
433.622	86.44
433.844	75.44
434.066	86.44
434.287	81.44
434.509	95.44
434.731	80.44
434.953	80.44
435.175	80.44
435.397	80.44
435.618	73.44
435.84	69.44
436.062	90.44
436.284	71.44
436.505	75.44
436.727	82.44
436.949	77.44
437.17	82.44
437.392	107.44
437.614	88.44
437.835	71.44
438.057	83.44
438.278	85.44
438.5	83.44
438.721	93.44
438.943	81.44
439.165	83.44
439.386	81.44
439.608	89.44
439.829	89.44
440.05	76.44
440.272	89.44
440.493	86.44
440.715	80.44
440.936	87.44
441.158	64.44
441.379	65.44
441.6	81.44
441.822	82.44
442.043	84.44
442.264	95.44
442.486	79.44
442.707	71.44
442.928	84.44
443.149	66.44
443.371	90.44
443.592	84.44
443.813	92.44
444.034	82.44
444.255	87.44
444.476	85.44
444.698	97.44
444.919	79.44
445.14	141.44
445.361	126.44
445.582	95.44
445.803	113.44
446.024	90.44
446.245	82.44
446.466	74.44
446.687	75.44
446.908	82.44
447.129	79.44
447.35	73.44
447.571	66.44
447.792	83.44
448.013	89.44
448.234	79.44
448.455	74.44
448.675	83.44
448.896	83.44
449.117	84.44
449.338	80.44
449.559	84.44
449.779	85.44
450	86.44
450.221	85.44
450.442	74.44
450.662	75.44
450.883	93.44
451.104	91.44
451.324	93.44
451.545	79.44
451.766	89.44
451.986	89.44
452.207	80.44
452.428	82.44
452.648	78.44
452.869	91.44
453.089	74.44
453.31	87.44
453.53	82.44
453.751	75.44
453.971	99.44
454.192	82.44
454.412	78.44
454.633	76.44
454.853	82.44
455.073	87.44
455.294	83.44
455.514	90.44
455.734	83.44
455.955	86.44
456.175	87.44
456.395	84.44
456.616	71.44
456.836	81.44
457.056	83.44
457.276	84.44
457.497	59.44
457.717	69.44
457.937	93.44
458.157	96.44
458.377	91.44
458.598	82.44
458.818	89.44
459.038	81.44
459.258	83.44
459.478	81.44
459.698	66.44
459.918	93.44
460.138	74.44
460.358	89.44
460.578	83.44
460.798	83.44
461.018	76.44
461.238	85.44
461.458	94.44
461.678	81.44
461.898	89.44
462.118	99.44
462.338	62.44
462.558	81.44
462.777	69.44
462.997	80.44
463.217	73.44
463.437	75.44
463.657	73.44
463.876	86.44
464.096	89.44
464.316	86.44
464.536	86.44
464.755	85.44
464.975	71.44
465.195	81.44
465.414	88.44
465.634	80.44
465.854	94.44
466.073	74.44
466.293	88.44
466.512	89.44
466.732	76.44
466.951	82.44
467.171	74.44
467.391	69.44
467.61	76.44
467.829	77.44
468.049	82.44
468.268	80.44
468.488	85.44
468.707	80.44
468.927	88.44
469.146	83.44
469.365	72.44
469.585	82.44
469.804	67.44
470.023	81.44
470.243	86.44
470.462	90.44
470.681	80.44
470.901	89.44
471.12	78.44
471.339	87.44
471.558	67.44
471.777	74.44
471.997	87.44
472.216	78.44
472.435	80.44
472.654	83.44
472.873	74.44
473.092	87.44
473.311	77.44
473.53	79.44
473.749	73.44
473.968	70.44
474.187	82.44
474.406	81.44
474.625	93.44
474.844	80.44
475.063	80.44
475.282	72.44
475.501	87.44
475.72	90.44
475.939	84.44
476.158	82.44
476.377	72.44
476.596	78.44
476.814	87.44
477.033	71.44
477.252	87.44
477.471	87.44
477.69	89.44
477.908	84.44
478.127	89.44
478.346	95.44
478.564	81.44
478.783	82.44
479.002	84.44
479.22	81.44
479.439	84.44
479.658	74.44
479.876	73.44
480.095	75.44
480.313	76.44
480.532	87.44
480.751	75.44
480.969	83.44
481.188	83.44
481.406	80.44
481.624	82.44
481.843	78.44
482.061	73.44
482.28	75.44
482.498	94.44
482.717	87.44
482.935	89.44
483.153	79.44
483.372	63.44
483.59	78.44
483.808	90.44
484.027	81.44
484.245	82.44
484.463	75.44
484.681	91.44
484.9	76.44
485.118	86.44
485.336	67.44
485.554	81.44
485.772	67.44
485.99	67.44
486.209	80.44
486.427	75.44
486.645	95.44
486.863	86.44
487.081	79.44
487.299	89.44
487.517	84.44
487.735	84.44
487.953	94.44
488.171	92.44
488.389	90.44
488.607	73.44
488.825	89.44
489.043	85.44
489.261	91.44
489.479	81.44
489.696	75.44
489.914	81.44
490.132	94.44
490.35	85.44
490.568	85.44
490.786	86.44
491.003	68.44
491.221	82.44
491.439	78.44
491.657	68.44
491.874	79.44
492.092	77.44
492.31	93.44
492.527	80.44
492.745	83.44
492.963	80.44
493.18	72.44
493.398	77.44
493.615	74.44
493.833	81.44
494.05	82.44
494.268	102.44
494.485	67.44
494.703	85.44
494.92	87.44
495.138	97.44
495.355	101.44
495.573	81.44
495.79	82.44
496.008	89.44
496.225	95.44
496.442	82.44
496.66	85.44
496.877	80.44
497.094	87.44
497.312	85.44
497.529	69.44
497.746	93.44
497.963	89.44
498.181	85.44
498.398	90.44
498.615	87.44
498.832	75.44
499.049	84.44
499.267	75.44
499.484	67.44
499.701	83.44
499.918	99.44
500.135	78.44
500.352	94.44
500.569	81.44
500.786	74.44
501.003	87.44
501.22	79.44
501.437	80.44
501.654	97.44
501.871	76.44
502.088	97.44
502.305	90.44
502.522	97.44
502.739	76.44
502.956	85.44
503.172	72.44
503.389	89.44
503.606	73.44
503.823	83.44
504.04	85.44
504.256	93.44
504.473	68.44
504.69	98.44
504.907	98.44
505.123	83.44
505.34	73.44
505.557	61.44
505.773	78.44
505.99	81.44
506.207	81.44
506.423	87.44
506.64	87.44
506.856	82.44
507.073	80.44
507.289	73.44
507.506	81.44
507.722	86.44
507.939	86.44
508.155	82.44
508.372	78.44
508.588	85.44
508.805	69.44
509.021	90.44
509.238	96.44
509.454	85.44
509.67	70.44
509.887	77.44
510.103	91.44
510.319	97.44
510.536	75.44
510.752	75.44
510.968	88.44
511.184	96.44
511.401	81.44
511.617	92.44
511.833	84.44
512.049	67.44
512.265	75.44
512.481	96.44
512.698	97.44
512.914	76.44
513.13	94.44
513.346	66.44
513.562	76.44
513.778	71.44
513.994	95.44
514.21	83.44
514.426	82.44
514.642	111.44
514.858	85.44
515.074	79.44
515.29	85.44
515.506	81.44
515.721	88.44
515.937	74.44
516.153	67.44
516.369	86.44
516.585	106.44
516.801	82.44
517.016	81.44
517.232	84.44
517.448	73.44
517.664	77.44
517.879	76.44
518.095	75.44
518.311	83.44
518.527	91.44
518.742	80.44
518.958	80.44
519.173	83.44
519.389	87.44
519.605	88.44
519.82	82.44
