Data from 1600_4_HRD10591_00018.txt Node
Date: Mon Jan 19 13:56:19 EST 2026
User: Yrep
Spectrometer: HR+D1059
Trigger mode: 1
Integration Time (sec): 1.000000E-1
Scans to average: 1
Electric dark correction enabled: true
Nonlinearity correction enabled: false
Boxcar width: 0
XAxis mode: Wavelengths
Number of Pixels in Spectrum: 2048
>>>>>Begin Spectral Data<<<<<
223.165	-16.69
223.4	-16.69
223.635	-16.69
223.869	-25.69
224.104	-27.69
224.338	-13.69
224.573	-29.69
224.808	5.31
225.042	-7.69
225.277	-1.69
225.511	2.31
225.746	10.31
225.98	-7.69
226.215	6.31
226.449	23.31
226.683	25.31
226.918	22.31
227.152	35.31
227.387	34.31
227.621	53.31
227.856	39.31
228.09	50.31
228.324	56.31
228.559	56.31
228.793	45.31
229.027	73.31
229.262	66.31
229.496	75.31
229.73	66.31
229.964	64.31
230.199	61.31
230.433	77.31
230.667	87.31
230.901	70.31
231.136	78.31
231.37	65.31
231.604	84.31
231.838	80.31
232.072	86.31
232.306	96.31
232.541	73.31
232.775	78.31
233.009	74.31
233.243	86.31
233.477	80.31
233.711	69.31
233.945	85.31
234.179	92.31
234.413	88.31
234.647	82.31
234.881	71.31
235.115	90.31
235.349	75.31
235.583	75.31
235.817	79.31
236.051	79.31
236.285	82.31
236.519	73.31
236.753	79.31
236.987	83.31
237.221	77.31
237.455	91.31
237.689	74.31
237.922	69.31
238.156	82.31
238.39	86.31
238.624	73.31
238.858	90.31
239.091	84.31
239.325	59.31
239.559	84.31
239.793	80.31
240.027	72.31
240.26	74.31
240.494	78.31
240.728	64.31
240.961	72.31
241.195	80.31
241.429	76.31
241.662	65.31
241.896	67.31
242.13	63.31
242.363	90.31
242.597	76.31
242.83	75.31
243.064	61.31
243.298	75.31
243.531	68.31
243.765	84.31
243.998	72.31
244.232	85.31
244.465	79.31
244.699	84.31
244.932	65.31
245.166	82.31
245.399	82.31
245.633	73.31
245.866	73.31
246.099	77.31
246.333	79.31
246.566	65.31
246.8	93.31
247.033	77.31
247.266	85.31
247.5	85.31
247.733	65.31
247.966	73.31
248.2	73.31
248.433	74.31
248.666	78.31
248.899	89.31
249.133	75.31
249.366	85.31
249.599	83.31
249.832	78.31
250.066	78.31
250.299	82.31
250.532	74.31
250.765	81.31
250.998	90.31
251.231	84.31
251.465	90.31
251.698	88.31
251.931	89.31
252.164	81.31
252.397	73.31
252.63	88.31
252.863	80.31
253.096	75.31
253.329	84.31
253.562	84.31
253.795	68.31
254.028	73.31
254.261	84.31
254.494	81.31
254.727	74.31
254.96	80.31
255.193	90.31
255.426	96.31
255.659	83.31
255.892	83.31
256.124	69.31
256.357	94.31
256.59	82.31
256.823	85.31
257.056	86.31
257.289	92.31
257.521	72.31
257.754	88.31
257.987	79.31
258.22	79.31
258.452	74.31
258.685	90.31
258.918	82.31
259.151	90.31
259.383	69.31
259.616	86.31
259.849	90.31
260.081	109.31
260.314	83.31
260.547	84.31
260.779	88.31
261.012	66.31
261.244	84.31
261.477	78.31
261.71	82.31
261.942	81.31
262.175	68.31
262.407	88.31
262.64	77.31
262.872	92.31
263.105	83.31
263.337	82.31
263.57	89.31
263.802	80.31
264.035	101.31
264.267	74.31
264.499	75.31
264.732	95.31
264.964	84.31
265.197	84.31
265.429	95.31
265.661	75.31
265.894	79.31
266.126	83.31
266.358	88.31
266.591	74.31
266.823	82.31
267.055	80.31
267.287	79.31
267.52	84.31
267.752	84.31
267.984	82.31
268.216	85.31
268.448	85.31
268.681	74.31
268.913	75.31
269.145	86.31
269.377	95.31
269.609	85.31
269.841	84.31
270.073	82.31
270.306	87.31
270.538	80.31
270.77	84.31
271.002	74.31
271.234	71.31
271.466	91.31
271.698	84.31
271.93	75.31
272.162	94.31
272.394	77.31
272.626	75.31
272.858	78.31
273.09	81.31
273.322	96.31
273.553	99.31
273.785	93.31
274.017	85.31
274.249	77.31
274.481	87.31
274.713	67.31
274.945	86.31
275.176	85.31
275.408	68.31
275.64	86.31
275.872	81.31
276.104	80.31
276.335	85.31
276.567	89.31
276.799	82.31
277.031	78.31
277.262	87.31
277.494	85.31
277.726	87.31
277.957	83.31
278.189	93.31
278.421	90.31
278.652	93.31
278.884	82.31
279.115	84.31
279.347	74.31
279.579	94.31
279.81	80.31
280.042	84.31
280.273	99.31
280.505	80.31
280.736	70.31
280.968	78.31
281.199	80.31
281.431	78.31
281.662	86.31
281.894	86.31
282.125	77.31
282.356	88.31
282.588	80.31
282.819	75.31
283.051	80.31
283.282	87.31
283.513	85.31
283.745	84.31
283.976	77.31
284.207	87.31
284.439	90.31
284.67	94.31
284.901	86.31
285.132	70.31
285.364	85.31
285.595	90.31
285.826	86.31
286.057	94.31
286.288	74.31
286.52	76.31
286.751	82.31
286.982	85.31
287.213	94.31
287.444	94.31
287.675	92.31
287.906	85.31
288.138	86.31
288.369	95.31
288.6	89.31
288.831	90.31
289.062	82.31
289.293	80.31
289.524	108.31
289.755	84.31
289.986	89.31
290.217	88.31
290.448	90.31
290.679	84.31
290.91	97.31
291.141	84.31
291.371	80.31
291.602	96.31
291.833	78.31
292.064	82.31
292.295	83.31
292.526	82.31
292.757	92.31
292.987	89.31
293.218	84.31
293.449	83.31
293.68	88.31
293.91	88.31
294.141	83.31
294.372	91.31
294.603	93.31
294.833	79.31
295.064	80.31
295.295	72.31
295.525	86.31
295.756	100.31
295.987	101.31
296.217	93.31
296.448	94.31
296.679	84.31
296.909	87.31
297.14	86.31
297.37	103.31
297.601	74.31
297.831	85.31
298.062	74.31
298.292	78.31
298.523	85.31
298.753	82.31
298.984	83.31
299.214	80.31
299.445	86.31
299.675	89.31
299.905	77.31
300.136	78.31
300.366	88.31
300.597	88.31
300.827	78.31
301.057	75.31
301.288	87.31
301.518	88.31
301.748	75.31
301.979	96.31
302.209	85.31
302.439	76.31
302.669	78.31
302.9	86.31
303.13	81.31
303.36	95.31
303.59	82.31
303.82	92.31
304.051	92.31
304.281	64.31
304.511	88.31
304.741	86.31
304.971	93.31
305.201	89.31
305.431	75.31
305.661	77.31
305.891	82.31
306.121	89.31
306.352	79.31
306.582	81.31
306.812	93.31
307.042	74.31
307.272	87.31
307.502	92.31
307.731	82.31
307.961	85.31
308.191	71.31
308.421	82.31
308.651	86.31
308.881	85.31
309.111	94.31
309.341	88.31
309.571	80.31
309.8	81.31
310.03	92.31
310.26	92.31
310.49	74.31
310.72	76.31
310.949	92.31
311.179	82.31
311.409	77.31
311.639	85.31
311.868	86.31
312.098	87.31
312.328	86.31
312.557	86.31
312.787	72.31
313.017	82.31
313.246	78.31
313.476	82.31
313.706	81.31
313.935	85.31
314.165	101.31
314.394	78.31
314.624	76.31
314.853	77.31
315.083	99.31
315.312	83.31
315.542	90.31
315.771	96.31
316.001	85.31
316.23	92.31
316.46	74.31
316.689	103.31
316.919	74.31
317.148	76.31
317.377	89.31
317.607	85.31
317.836	75.31
318.065	81.31
318.295	73.31
318.524	93.31
318.753	92.31
318.983	86.31
319.212	67.31
319.441	88.31
319.67	90.31
319.9	87.31
320.129	90.31
320.358	90.31
320.587	70.31
320.816	68.31
321.046	95.31
321.275	86.31
321.504	85.31
321.733	78.31
321.962	90.31
322.191	86.31
322.42	90.31
322.649	101.31
322.878	83.31
323.108	88.31
323.337	86.31
323.566	89.31
323.795	80.31
324.024	90.31
324.253	77.31
324.482	95.31
324.71	93.31
324.939	69.31
325.168	83.31
325.397	84.31
325.626	87.31
325.855	97.31
326.084	95.31
326.313	82.31
326.542	94.31
326.77	85.31
326.999	82.31
327.228	85.31
327.457	92.31
327.686	78.31
327.914	93.31
328.143	90.31
328.372	78.31
328.6	89.31
328.829	70.31
329.058	72.31
329.287	71.31
329.515	82.31
329.744	96.31
329.972	99.31
330.201	88.31
330.43	89.31
330.658	80.31
330.887	82.31
331.115	91.31
331.344	88.31
331.572	84.31
331.801	84.31
332.03	87.31
332.258	85.31
332.486	76.31
332.715	73.31
332.943	87.31
333.172	87.31
333.4	85.31
333.629	102.31
333.857	91.31
334.085	95.31
334.314	86.31
334.542	78.31
334.771	81.31
334.999	94.31
335.227	78.31
335.455	79.31
335.684	96.31
335.912	80.31
336.14	95.31
336.369	74.31
336.597	82.31
336.825	88.31
337.053	89.31
337.281	88.31
337.51	81.31
337.738	76.31
337.966	88.31
338.194	66.31
338.422	88.31
338.65	87.31
338.878	96.31
339.106	88.31
339.334	91.31
339.562	84.31
339.79	94.31
340.018	81.31
340.246	95.31
340.474	104.31
340.702	92.31
340.93	88.31
341.158	72.31
341.386	75.31
341.614	76.31
341.842	101.31
342.07	88.31
342.298	92.31
342.526	72.31
342.754	78.31
342.981	90.31
343.209	87.31
343.437	94.31
343.665	92.31
343.893	95.31
344.12	88.31
344.348	86.31
344.576	97.31
344.804	90.31
345.031	78.31
345.259	83.31
345.487	88.31
345.714	82.31
345.942	82.31
346.17	80.31
346.397	70.31
346.625	79.31
346.853	84.31
347.08	84.31
347.308	97.31
347.535	98.31
347.763	87.31
347.99	90.31
348.218	88.31
348.445	88.31
348.673	89.31
348.9	84.31
349.128	83.31
349.355	100.31
349.583	88.31
349.81	96.31
350.037	100.31
350.265	81.31
350.492	96.31
350.72	79.31
350.947	65.31
351.174	92.31
351.402	74.31
351.629	89.31
351.856	87.31
352.083	93.31
352.311	74.31
352.538	98.31
352.765	100.31
352.992	89.31
353.22	87.31
353.447	90.31
353.674	92.31
353.901	86.31
354.128	87.31
354.355	89.31
354.583	84.31
354.81	85.31
355.037	80.31
355.264	90.31
355.491	83.31
355.718	94.31
355.945	72.31
356.172	74.31
356.399	71.31
356.626	80.31
356.853	84.31
357.08	87.31
357.307	100.31
357.534	86.31
357.761	76.31
357.988	85.31
358.215	72.31
358.441	70.31
358.668	77.31
358.895	85.31
359.122	68.31
359.349	85.31
359.576	82.31
359.802	75.31
360.029	96.31
360.256	73.31
360.483	87.31
360.709	81.31
360.936	92.31
361.163	90.31
361.39	85.31
361.616	81.31
361.843	87.31
362.07	80.31
362.296	96.31
362.523	87.31
362.749	85.31
362.976	83.31
363.203	86.31
363.429	95.31
363.656	107.31
363.882	84.31
364.109	90.31
364.335	96.31
364.562	78.31
364.788	87.31
365.015	87.31
365.241	93.31
365.468	82.31
365.694	86.31
365.92	77.31
366.147	81.31
366.373	90.31
366.599	91.31
366.826	83.31
367.052	92.31
367.278	81.31
367.505	68.31
367.731	89.31
367.957	102.31
368.184	80.31
368.41	76.31
368.636	82.31
368.862	80.31
369.089	89.31
369.315	84.31
369.541	92.31
369.767	83.31
369.993	84.31
370.219	88.31
370.445	84.31
370.672	88.31
370.898	84.31
371.124	82.31
371.35	84.31
371.576	84.31
371.802	80.31
372.028	93.31
372.254	78.31
372.48	76.31
372.706	97.31
372.932	86.31
373.158	85.31
373.384	100.31
373.61	101.31
373.835	82.31
374.061	85.31
374.287	82.31
374.513	82.31
374.739	96.31
374.965	94.31
375.191	98.31
375.416	67.31
375.642	86.31
375.868	93.31
376.094	98.31
376.319	77.31
376.545	85.31
376.771	84.31
376.997	80.31
377.222	96.31
377.448	92.31
377.674	80.31
377.899	78.31
378.125	74.31
378.35	100.31
378.576	97.31
378.802	83.31
379.027	83.31
379.253	97.31
379.478	93.31
379.704	85.31
379.929	79.31
380.155	88.31
380.38	68.31
380.606	97.31
380.831	75.31
381.057	92.31
381.282	79.31
381.507	73.31
381.733	80.31
381.958	83.31
382.184	95.31
382.409	86.31
382.634	89.31
382.86	86.31
383.085	79.31
383.31	78.31
383.535	102.31
383.761	93.31
383.986	87.31
384.211	77.31
384.436	90.31
384.662	84.31
384.887	77.31
385.112	78.31
385.337	90.31
385.562	80.31
385.787	91.31
386.013	90.31
386.238	77.31
386.463	84.31
386.688	79.31
386.913	90.31
387.138	95.31
387.363	72.31
387.588	101.31
387.813	80.31
388.038	96.31
388.263	83.31
388.488	58.31
388.713	93.31
388.938	81.31
389.163	83.31
389.387	101.31
389.612	90.31
389.837	85.31
390.062	84.31
390.287	86.31
390.512	85.31
390.736	91.31
390.961	90.31
391.186	75.31
391.411	65.31
391.636	83.31
391.86	76.31
392.085	85.31
392.31	87.31
392.534	89.31
392.759	80.31
392.984	89.31
393.208	100.31
393.433	131.31
393.658	109.31
393.882	91.31
394.107	87.31
394.331	97.31
394.556	102.31
394.78	98.31
395.005	86.31
395.229	76.31
395.454	79.31
395.678	76.31
395.903	78.31
396.127	104.31
396.352	123.31
396.576	104.31
396.801	99.31
397.025	114.31
397.249	104.31
397.474	90.31
397.698	84.31
397.922	82.31
398.147	86.31
398.371	77.31
398.595	69.31
398.82	82.31
399.044	82.31
399.268	87.31
399.492	87.31
399.717	81.31
399.941	72.31
400.165	104.31
400.389	90.31
400.613	96.31
400.837	88.31
401.062	93.31
401.286	84.31
401.51	86.31
401.734	83.31
401.958	73.31
402.182	84.31
402.406	92.31
402.63	81.31
402.854	85.31
403.078	85.31
403.302	74.31
403.526	86.31
403.75	94.31
403.974	78.31
404.198	87.31
404.422	92.31
404.645	92.31
404.869	92.31
405.093	99.31
405.317	72.31
405.541	86.31
405.765	83.31
405.988	78.31
406.212	91.31
406.436	90.31
406.66	87.31
406.883	80.31
407.107	80.31
407.331	79.31
407.555	88.31
407.778	72.31
408.002	77.31
408.226	96.31
408.449	85.31
408.673	82.31
408.896	86.31
409.12	89.31
409.344	87.31
409.567	88.31
409.791	74.31
410.014	74.31
410.238	83.31
410.461	92.31
410.685	70.31
410.908	96.31
411.132	86.31
411.355	61.31
411.578	84.31
411.802	91.31
412.025	89.31
412.249	73.31
412.472	80.31
412.695	80.31
412.919	91.31
413.142	78.31
413.365	66.31
413.589	74.31
413.812	89.31
414.035	74.31
414.258	101.31
414.482	82.31
414.705	82.31
414.928	84.31
415.151	83.31
415.374	76.31
415.597	75.31
415.821	82.31
416.044	88.31
416.267	78.31
416.49	69.31
416.713	97.31
416.936	93.31
417.159	84.31
417.382	79.31
417.605	89.31
417.828	79.31
418.051	77.31
418.274	106.31
418.497	90.31
418.72	87.31
418.943	91.31
419.166	85.31
419.389	74.31
419.611	80.31
419.834	82.31
420.057	84.31
420.28	75.31
420.503	83.31
420.726	75.31
420.948	70.31
421.171	90.31
421.394	92.31
421.617	95.31
421.839	94.31
422.062	96.31
422.285	105.31
422.507	128.31
422.73	175.31
422.953	149.31
423.175	100.31
423.398	90.31
423.621	74.31
423.843	86.31
424.066	98.31
424.288	94.31
424.511	82.31
424.733	79.31
424.956	79.31
425.178	86.31
425.401	82.31
425.623	89.31
425.846	91.31
426.068	80.31
426.291	85.31
426.513	81.31
426.735	76.31
426.958	78.31
427.18	87.31
427.402	92.31
427.625	89.31
427.847	88.31
428.069	97.31
428.292	89.31
428.514	84.31
428.736	85.31
428.958	105.31
429.181	97.31
429.403	70.31
429.625	92.31
429.847	91.31
430.069	110.31
430.292	102.31
430.514	94.31
430.736	97.31
430.958	94.31
431.18	86.31
431.402	82.31
431.624	94.31
431.846	93.31
432.068	91.31
432.29	79.31
432.512	84.31
432.734	98.31
432.956	93.31
433.178	89.31
433.4	78.31
433.622	92.31
433.844	83.31
434.066	78.31
434.287	72.31
434.509	90.31
434.731	86.31
434.953	91.31
435.175	73.31
435.397	82.31
435.618	72.31
435.84	80.31
436.062	71.31
436.284	74.31
436.505	82.31
436.727	82.31
436.949	88.31
437.17	69.31
437.392	70.31
437.614	79.31
437.835	78.31
438.057	78.31
438.278	93.31
438.5	92.31
438.721	102.31
438.943	89.31
439.165	82.31
439.386	81.31
439.608	85.31
439.829	90.31
440.05	89.31
440.272	77.31
440.493	80.31
440.715	79.31
440.936	83.31
441.158	106.31
441.379	90.31
441.6	90.31
441.822	82.31
442.043	83.31
442.264	73.31
442.486	80.31
442.707	77.31
442.928	82.31
443.149	82.31
443.371	101.31
443.592	113.31
443.813	101.31
444.034	84.31
444.255	86.31
444.476	90.31
444.698	77.31
444.919	86.31
445.14	143.31
445.361	127.31
445.582	120.31
445.803	93.31
446.024	89.31
446.245	96.31
446.466	96.31
446.687	88.31
446.908	85.31
447.129	73.31
447.35	91.31
447.571	74.31
447.792	80.31
448.013	65.31
448.234	96.31
448.455	76.31
448.675	71.31
448.896	99.31
449.117	82.31
449.338	84.31
449.559	96.31
449.779	56.31
450	82.31
450.221	73.31
450.442	73.31
450.662	75.31
450.883	73.31
451.104	78.31
451.324	76.31
451.545	76.31
451.766	77.31
451.986	86.31
452.207	88.31
452.428	73.31
452.648	74.31
452.869	88.31
453.089	84.31
453.31	79.31
453.53	78.31
453.751	76.31
453.971	93.31
454.192	72.31
454.412	69.31
454.633	74.31
454.853	80.31
455.073	78.31
455.294	86.31
455.514	84.31
455.734	82.31
455.955	78.31
456.175	84.31
456.395	88.31
456.616	80.31
456.836	75.31
457.056	87.31
457.276	88.31
457.497	69.31
457.717	87.31
457.937	84.31
458.157	84.31
458.377	86.31
458.598	84.31
458.818	83.31
459.038	89.31
459.258	94.31
459.478	81.31
459.698	92.31
459.918	82.31
460.138	77.31
460.358	82.31
460.578	91.31
460.798	78.31
461.018	86.31
461.238	90.31
461.458	80.31
461.678	82.31
461.898	71.31
462.118	75.31
462.338	84.31
462.558	93.31
462.777	74.31
462.997	82.31
463.217	84.31
463.437	88.31
463.657	78.31
463.876	93.31
464.096	80.31
464.316	88.31
464.536	91.31
464.755	91.31
464.975	85.31
465.195	96.31
465.414	73.31
465.634	68.31
465.854	74.31
466.073	81.31
466.293	92.31
466.512	91.31
466.732	87.31
466.951	84.31
467.171	72.31
467.391	90.31
467.61	101.31
467.829	73.31
468.049	72.31
468.268	76.31
468.488	89.31
468.707	79.31
468.927	70.31
469.146	89.31
469.365	88.31
469.585	85.31
469.804	80.31
470.023	88.31
470.243	90.31
470.462	83.31
470.681	87.31
470.901	75.31
471.12	84.31
471.339	97.31
471.558	84.31
471.777	76.31
471.997	81.31
472.216	83.31
472.435	80.31
472.654	79.31
472.873	97.31
473.092	81.31
473.311	86.31
473.53	86.31
473.749	84.31
473.968	86.31
474.187	76.31
474.406	88.31
474.625	86.31
474.844	89.31
475.063	95.31
475.282	77.31
475.501	81.31
475.72	93.31
475.939	89.31
476.158	84.31
476.377	78.31
476.596	74.31
476.814	90.31
477.033	79.31
477.252	85.31
477.471	89.31
477.69	80.31
477.908	97.31
478.127	89.31
478.346	84.31
478.564	78.31
478.783	75.31
479.002	69.31
479.22	77.31
479.439	84.31
479.658	86.31
479.876	72.31
480.095	87.31
480.313	66.31
480.532	67.31
480.751	78.31
480.969	81.31
481.188	91.31
481.406	97.31
481.624	73.31
481.843	92.31
482.061	69.31
482.28	84.31
482.498	74.31
482.717	68.31
482.935	81.31
483.153	93.31
483.372	72.31
483.59	84.31
483.808	70.31
484.027	81.31
484.245	83.31
484.463	82.31
484.681	82.31
484.9	97.31
485.118	80.31
485.336	84.31
485.554	85.31
485.772	79.31
485.99	78.31
486.209	93.31
486.427	97.31
486.645	77.31
486.863	85.31
487.081	80.31
487.299	83.31
487.517	85.31
487.735	68.31
487.953	85.31
488.171	96.31
488.389	75.31
488.607	80.31
488.825	100.31
489.043	90.31
489.261	93.31
489.479	84.31
489.696	75.31
489.914	70.31
490.132	82.31
490.35	90.31
490.568	93.31
490.786	92.31
491.003	97.31
491.221	82.31
491.439	92.31
491.657	71.31
491.874	76.31
492.092	77.31
492.31	83.31
492.527	90.31
492.745	95.31
492.963	88.31
493.18	93.31
493.398	96.31
493.615	84.31
493.833	79.31
494.05	72.31
494.268	89.31
494.485	90.31
494.703	90.31
494.92	85.31
495.138	71.31
495.355	76.31
495.573	83.31
495.79	88.31
496.008	80.31
496.225	67.31
496.442	79.31
496.66	90.31
496.877	82.31
497.094	69.31
497.312	80.31
497.529	84.31
497.746	89.31
497.963	75.31
498.181	85.31
498.398	88.31
498.615	73.31
498.832	83.31
499.049	87.31
499.267	75.31
499.484	83.31
499.701	77.31
499.918	80.31
500.135	89.31
500.352	84.31
500.569	77.31
500.786	88.31
501.003	86.31
501.22	75.31
501.437	82.31
501.654	97.31
501.871	80.31
502.088	76.31
502.305	84.31
502.522	84.31
502.739	88.31
502.956	85.31
503.172	86.31
503.389	80.31
503.606	82.31
503.823	80.31
504.04	96.31
504.256	93.31
504.473	82.31
504.69	88.31
504.907	87.31
505.123	86.31
505.34	82.31
505.557	79.31
505.773	84.31
505.99	80.31
506.207	95.31
506.423	78.31
506.64	76.31
506.856	88.31
507.073	87.31
507.289	73.31
507.506	81.31
507.722	75.31
507.939	79.31
508.155	78.31
508.372	80.31
508.588	65.31
508.805	84.31
509.021	83.31
509.238	97.31
509.454	82.31
509.67	74.31
509.887	80.31
510.103	76.31
510.319	80.31
510.536	71.31
510.752	85.31
510.968	80.31
511.184	76.31
511.401	80.31
511.617	77.31
511.833	82.31
512.049	88.31
512.265	85.31
512.481	83.31
512.698	89.31
512.914	82.31
513.13	88.31
513.346	74.31
513.562	77.31
513.778	87.31
513.994	79.31
514.21	89.31
514.426	79.31
514.642	85.31
514.858	88.31
515.074	72.31
515.29	76.31
515.506	86.31
515.721	89.31
515.937	82.31
516.153	88.31
516.369	96.31
516.585	91.31
516.801	92.31
517.016	84.31
517.232	84.31
517.448	94.31
517.664	95.31
517.879	85.31
518.095	90.31
518.311	83.31
518.527	91.31
518.742	73.31
518.958	101.31
519.173	94.31
519.389	86.31
519.605	88.31
