Data from 1600_4_HRD10591_00029.txt Node
Date: Mon Jan 19 13:56:25 EST 2026
User: Yrep
Spectrometer: HR+D1059
Trigger mode: 1
Integration Time (sec): 1.000000E-1
Scans to average: 1
Electric dark correction enabled: true
Nonlinearity correction enabled: false
Boxcar width: 0
XAxis mode: Wavelengths
Number of Pixels in Spectrum: 2048
>>>>>Begin Spectral Data<<<<<
223.165	-22
223.4	-22
223.635	-22
223.869	-23
224.104	-6
224.338	-6
224.573	-6
224.808	-14
225.042	-18
225.277	-15
225.511	-3
225.746	4
225.98	2
226.215	-1
226.449	23
226.683	24
226.918	21
227.152	40
227.387	31
227.621	42
227.856	37
228.09	53
228.324	50
228.559	51
228.793	46
229.027	60
229.262	58
229.496	72
229.73	72
229.964	67
230.199	75
230.433	74
230.667	66
230.901	86
231.136	71
231.37	80
231.604	73
231.838	78
232.072	74
232.306	83
232.541	86
232.775	83
233.009	66
233.243	78
233.477	84
233.711	93
233.945	79
234.179	82
234.413	68
234.647	74
234.881	83
235.115	72
235.349	73
235.583	85
235.817	82
236.051	64
236.285	67
236.519	73
236.753	75
236.987	70
237.221	74
237.455	73
237.689	81
237.922	76
238.156	72
238.39	78
238.624	74
238.858	77
239.091	83
239.325	79
239.559	74
239.793	74
240.027	74
240.26	72
240.494	78
240.728	76
240.961	72
241.195	62
241.429	78
241.662	73
241.896	105
242.13	84
242.363	78
242.597	80
242.83	87
243.064	71
243.298	81
243.531	72
243.765	78
243.998	70
244.232	89
244.465	60
244.699	81
244.932	74
245.166	81
245.399	72
245.633	77
245.866	74
246.099	80
246.333	76
246.566	78
246.8	79
247.033	73
247.266	94
247.5	59
247.733	72
247.966	78
248.2	75
248.433	79
248.666	84
248.899	78
249.133	79
249.366	81
249.599	65
249.832	85
250.066	71
250.299	78
250.532	73
250.765	69
250.998	73
251.231	82
251.465	74
251.698	88
251.931	87
252.164	67
252.397	68
252.63	88
252.863	77
253.096	71
253.329	68
253.562	86
253.795	71
254.028	80
254.261	71
254.494	82
254.727	82
254.96	73
255.193	87
255.426	80
255.659	81
255.892	77
256.124	70
256.357	82
256.59	74
256.823	60
257.056	80
257.289	71
257.521	96
257.754	85
257.987	99
258.22	83
258.452	85
258.685	82
258.918	89
259.151	75
259.383	80
259.616	91
259.849	91
260.081	96
260.314	74
260.547	81
260.779	82
261.012	70
261.244	67
261.477	86
261.71	73
261.942	79
262.175	73
262.407	61
262.64	88
262.872	83
263.105	72
263.337	71
263.57	93
263.802	86
264.035	90
264.267	81
264.499	81
264.732	89
264.964	70
265.197	64
265.429	78
265.661	67
265.894	75
266.126	84
266.358	97
266.591	70
266.823	68
267.055	82
267.287	71
267.52	72
267.752	77
267.984	88
268.216	85
268.448	78
268.681	87
268.913	81
269.145	82
269.377	84
269.609	75
269.841	74
270.073	80
270.306	74
270.538	77
270.77	78
271.002	72
271.234	76
271.466	69
271.698	96
271.93	79
272.162	87
272.394	88
272.626	81
272.858	85
273.09	83
273.322	57
273.553	83
273.785	74
274.017	92
274.249	81
274.481	75
274.713	85
274.945	88
275.176	67
275.408	73
275.64	82
275.872	87
276.104	80
276.335	67
276.567	78
276.799	96
277.031	83
277.262	85
277.494	95
277.726	80
277.957	89
278.189	85
278.421	75
278.652	69
278.884	84
279.115	77
279.347	89
279.579	95
279.81	69
280.042	72
280.273	78
280.505	84
280.736	74
280.968	75
281.199	74
281.431	80
281.662	78
281.894	66
282.125	84
282.356	73
282.588	68
282.819	91
283.051	92
283.282	82
283.513	98
283.745	82
283.976	94
284.207	90
284.439	86
284.67	82
284.901	93
285.132	86
285.364	89
285.595	91
285.826	68
286.057	83
286.288	73
286.52	91
286.751	72
286.982	78
287.213	82
287.444	99
287.675	86
287.906	79
288.138	95
288.369	83
288.6	80
288.831	85
289.062	85
289.293	89
289.524	85
289.755	74
289.986	76
290.217	80
290.448	80
290.679	87
290.91	81
291.141	82
291.371	98
291.602	72
291.833	95
292.064	74
292.295	92
292.526	89
292.757	71
292.987	81
293.218	87
293.449	69
293.68	82
293.91	71
294.141	73
294.372	83
294.603	81
294.833	78
295.064	75
295.295	78
295.525	80
295.756	86
295.987	88
296.217	87
296.448	79
296.679	68
296.909	80
297.14	92
297.37	86
297.601	84
297.831	93
298.062	76
298.292	83
298.523	83
298.753	87
298.984	85
299.214	85
299.445	98
299.675	88
299.905	83
300.136	77
300.366	84
300.597	81
300.827	94
301.057	73
301.288	88
301.518	70
301.748	78
301.979	88
302.209	88
302.439	86
302.669	71
302.9	85
303.13	86
303.36	80
303.59	84
303.82	81
304.051	108
304.281	75
304.511	95
304.741	81
304.971	83
305.201	77
305.431	78
305.661	81
305.891	89
306.121	85
306.352	83
306.582	71
306.812	74
307.042	77
307.272	86
307.502	85
307.731	72
307.961	79
308.191	86
308.421	100
308.651	85
308.881	92
309.111	85
309.341	70
309.571	70
309.8	79
310.03	90
310.26	85
310.49	79
310.72	80
310.949	84
311.179	76
311.409	75
311.639	95
311.868	95
312.098	89
312.328	74
312.557	80
312.787	80
313.017	95
313.246	71
313.476	83
313.706	86
313.935	86
314.165	99
314.394	78
314.624	82
314.853	84
315.083	90
315.312	98
315.542	89
315.771	83
316.001	89
316.23	77
316.46	82
316.689	80
316.919	74
317.148	85
317.377	83
317.607	67
317.836	79
318.065	80
318.295	78
318.524	82
318.753	73
318.983	69
319.212	79
319.441	72
319.67	74
319.9	97
320.129	69
320.358	80
320.587	90
320.816	89
321.046	89
321.275	81
321.504	89
321.733	85
321.962	83
322.191	89
322.42	80
322.649	80
322.878	96
323.108	75
323.337	81
323.566	87
323.795	83
324.024	80
324.253	75
324.482	86
324.71	80
324.939	78
325.168	91
325.397	77
325.626	89
325.855	80
326.084	84
326.313	77
326.542	88
326.77	80
326.999	63
327.228	87
327.457	93
327.686	91
327.914	77
328.143	81
328.372	73
328.6	85
328.829	92
329.058	71
329.287	85
329.515	65
329.744	90
329.972	78
330.201	79
330.43	80
330.658	73
330.887	74
331.115	72
331.344	83
331.572	86
331.801	79
332.03	88
332.258	92
332.486	67
332.715	79
332.943	69
333.172	82
333.4	89
333.629	96
333.857	80
334.085	79
334.314	70
334.542	71
334.771	68
334.999	89
335.227	72
335.455	75
335.684	73
335.912	87
336.14	79
336.369	82
336.597	78
336.825	84
337.053	69
337.281	97
337.51	84
337.738	73
337.966	63
338.194	88
338.422	70
338.65	91
338.878	84
339.106	82
339.334	92
339.562	91
339.79	86
340.018	78
340.246	79
340.474	87
340.702	72
340.93	74
341.158	92
341.386	81
341.614	90
341.842	74
342.07	83
342.298	90
342.526	82
342.754	77
342.981	89
343.209	81
343.437	88
343.665	102
343.893	61
344.12	92
344.348	93
344.576	74
344.804	81
345.031	84
345.259	69
345.487	81
345.714	70
345.942	78
346.17	81
346.397	89
346.625	86
346.853	81
347.08	76
347.308	85
347.535	66
347.763	75
347.99	83
348.218	81
348.445	80
348.673	82
348.9	92
349.128	82
349.355	97
349.583	84
349.81	79
350.037	84
350.265	85
350.492	96
350.72	71
350.947	71
351.174	82
351.402	86
351.629	75
351.856	80
352.083	72
352.311	81
352.538	85
352.765	82
352.992	86
353.22	85
353.447	86
353.674	81
353.901	87
354.128	78
354.355	79
354.583	91
354.81	87
355.037	83
355.264	82
355.491	76
355.718	72
355.945	82
356.172	71
356.399	92
356.626	75
356.853	74
357.08	78
357.307	75
357.534	81
357.761	80
357.988	83
358.215	80
358.441	88
358.668	83
358.895	92
359.122	75
359.349	74
359.576	80
359.802	89
360.029	80
360.256	80
360.483	89
360.709	85
360.936	87
361.163	95
361.39	81
361.616	79
361.843	80
362.07	81
362.296	71
362.523	85
362.749	86
362.976	76
363.203	82
363.429	78
363.656	81
363.882	72
364.109	70
364.335	82
364.562	83
364.788	93
365.015	71
365.241	87
365.468	87
365.694	80
365.92	67
366.147	82
366.373	86
366.599	86
366.826	97
367.052	78
367.278	78
367.505	81
367.731	83
367.957	87
368.184	72
368.41	82
368.636	86
368.862	86
369.089	81
369.315	95
369.541	94
369.767	78
369.993	76
370.219	84
370.445	85
370.672	72
370.898	96
371.124	71
371.35	74
371.576	79
371.802	72
372.028	82
372.254	81
372.48	72
372.706	86
372.932	89
373.158	69
373.384	77
373.61	82
373.835	73
374.061	94
374.287	78
374.513	84
374.739	83
374.965	82
375.191	82
375.416	85
375.642	88
375.868	93
376.094	98
376.319	74
376.545	85
376.771	85
376.997	77
377.222	81
377.448	96
377.674	92
377.899	73
378.125	84
378.35	86
378.576	84
378.802	81
379.027	74
379.253	84
379.478	76
379.704	85
379.929	78
380.155	80
380.38	88
380.606	82
380.831	92
381.057	92
381.282	91
381.507	74
381.733	78
381.958	80
382.184	74
382.409	92
382.634	74
382.86	104
383.085	88
383.31	75
383.535	78
383.761	80
383.986	88
384.211	81
384.436	94
384.662	78
384.887	84
385.112	74
385.337	92
385.562	70
385.787	78
386.013	89
386.238	87
386.463	92
386.688	95
386.913	91
387.138	96
387.363	83
387.588	86
387.813	60
388.038	80
388.263	82
388.488	63
388.713	83
388.938	81
389.163	77
389.387	84
389.612	85
389.837	70
390.062	81
390.287	73
390.512	79
390.736	86
390.961	78
391.186	80
391.411	86
391.636	86
391.86	82
392.085	82
392.31	74
392.534	73
392.759	78
392.984	88
393.208	91
393.433	97
393.658	98
393.882	80
394.107	80
394.331	83
394.556	78
394.78	68
395.005	81
395.229	89
395.454	80
395.678	80
395.903	86
396.127	63
396.352	85
396.576	78
396.801	84
397.025	97
397.249	92
397.474	84
397.698	83
397.922	79
398.147	92
398.371	80
398.595	87
398.82	75
399.044	78
399.268	69
399.492	80
399.717	85
399.941	68
400.165	73
400.389	84
400.613	68
400.837	85
401.062	98
401.286	78
401.51	67
401.734	82
401.958	71
402.182	81
402.406	81
402.63	79
402.854	75
403.078	85
403.302	66
403.526	82
403.75	89
403.974	87
404.198	65
404.422	78
404.645	80
404.869	77
405.093	88
405.317	79
405.541	92
405.765	80
405.988	88
406.212	71
406.436	87
406.66	74
406.883	75
407.107	60
407.331	80
407.555	90
407.778	88
408.002	77
408.226	93
408.449	91
408.673	89
408.896	80
409.12	87
409.344	92
409.567	80
409.791	87
410.014	91
410.238	91
410.461	75
410.685	77
410.908	76
411.132	87
411.355	79
411.578	93
411.802	74
412.025	77
412.249	84
412.472	84
412.695	86
412.919	71
413.142	88
413.365	88
413.589	85
413.812	87
414.035	77
414.258	96
414.482	92
414.705	77
414.928	89
415.151	95
415.374	68
415.597	76
415.821	84
416.044	78
416.267	93
416.49	83
416.713	83
416.936	73
417.159	78
417.382	78
417.605	81
417.828	88
418.051	79
418.274	88
418.497	92
418.72	74
418.943	66
419.166	74
419.389	76
419.611	82
419.834	81
420.057	87
420.28	64
420.503	83
420.726	88
420.948	93
421.171	89
421.394	87
421.617	81
421.839	86
422.062	87
422.285	85
422.507	97
422.73	90
422.953	86
423.175	85
423.398	74
423.621	82
423.843	78
424.066	87
424.288	80
424.511	74
424.733	72
424.956	81
425.178	84
425.401	76
425.623	87
425.846	94
426.068	81
426.291	81
426.513	86
426.735	72
426.958	83
427.18	77
427.402	80
427.625	92
427.847	59
428.069	80
428.292	83
428.514	92
428.736	83
428.958	80
429.181	87
429.403	85
429.625	80
429.847	86
430.069	78
430.292	81
430.514	78
430.736	70
430.958	92
431.18	81
431.402	80
431.624	88
431.846	84
432.068	74
432.29	85
432.512	78
432.734	82
432.956	74
433.178	93
433.4	92
433.622	78
433.844	85
434.066	80
434.287	79
434.509	74
434.731	95
434.953	85
435.175	80
435.397	73
435.618	67
435.84	87
436.062	90
436.284	81
436.505	90
436.727	94
436.949	92
437.17	84
437.392	77
437.614	77
437.835	62
438.057	81
438.278	72
438.5	80
438.721	84
438.943	87
439.165	74
439.386	82
439.608	89
439.829	86
440.05	72
440.272	65
440.493	75
440.715	74
440.936	85
441.158	74
441.379	72
441.6	73
441.822	87
442.043	83
442.264	70
442.486	85
442.707	75
442.928	82
443.149	82
443.371	86
443.592	68
443.813	94
444.034	80
444.255	80
444.476	73
444.698	88
444.919	72
445.14	144
445.361	119
445.582	81
445.803	89
446.024	86
446.245	71
446.466	70
446.687	76
446.908	83
447.129	84
447.35	96
447.571	97
447.792	71
448.013	72
448.234	89
448.455	82
448.675	72
448.896	82
449.117	63
449.338	75
449.559	82
449.779	84
450	92
450.221	78
450.442	90
450.662	93
450.883	78
451.104	79
451.324	86
451.545	75
451.766	81
451.986	88
452.207	78
452.428	80
452.648	86
452.869	109
453.089	74
453.31	81
453.53	71
453.751	78
453.971	85
454.192	70
454.412	67
454.633	83
454.853	78
455.073	74
455.294	79
455.514	88
455.734	92
455.955	91
456.175	78
456.395	86
456.616	85
456.836	80
457.056	80
457.276	79
457.497	84
457.717	70
457.937	75
458.157	84
458.377	74
458.598	85
458.818	73
459.038	76
459.258	76
459.478	71
459.698	92
459.918	91
460.138	92
460.358	87
460.578	82
460.798	89
461.018	74
461.238	72
461.458	78
461.678	80
461.898	73
462.118	78
462.338	68
462.558	93
462.777	78
462.997	93
463.217	78
463.437	83
463.657	80
463.876	82
464.096	75
464.316	85
464.536	92
464.755	82
464.975	83
465.195	80
465.414	65
465.634	81
465.854	63
466.073	82
466.293	94
466.512	90
466.732	85
466.951	89
467.171	73
467.391	65
467.61	75
467.829	85
468.049	80
468.268	87
468.488	85
468.707	82
468.927	85
469.146	86
469.365	73
469.585	72
469.804	78
470.023	82
470.243	80
470.462	88
470.681	81
470.901	86
471.12	72
471.339	76
471.558	74
471.777	74
471.997	88
472.216	77
472.435	76
472.654	57
472.873	85
473.092	89
473.311	85
473.53	84
473.749	79
473.968	98
474.187	84
474.406	71
474.625	78
474.844	90
475.063	62
475.282	73
475.501	80
475.72	87
475.939	95
476.158	77
476.377	72
476.596	78
476.814	97
477.033	88
477.252	88
477.471	83
477.69	75
477.908	80
478.127	78
478.346	82
478.564	84
478.783	78
479.002	85
479.22	72
479.439	72
479.658	87
479.876	96
480.095	75
480.313	85
480.532	90
480.751	96
480.969	76
481.188	86
481.406	69
481.624	86
481.843	74
482.061	74
482.28	82
482.498	68
482.717	74
482.935	84
483.153	78
483.372	81
483.59	97
483.808	71
484.027	77
484.245	77
484.463	75
484.681	86
484.9	79
485.118	98
485.336	90
485.554	93
485.772	84
485.99	76
486.209	82
486.427	83
486.645	64
486.863	82
487.081	76
487.299	90
487.517	85
487.735	82
487.953	84
488.171	82
488.389	88
488.607	83
488.825	85
489.043	70
489.261	89
489.479	97
489.696	77
489.914	82
490.132	72
490.35	98
490.568	83
490.786	73
491.003	62
491.221	86
491.439	72
491.657	81
491.874	73
492.092	82
492.31	84
492.527	73
492.745	79
492.963	88
493.18	104
493.398	89
493.615	77
493.833	90
494.05	88
494.268	93
494.485	92
494.703	73
494.92	62
495.138	83
495.355	88
495.573	78
495.79	80
496.008	84
496.225	85
496.442	81
496.66	70
496.877	71
497.094	78
497.312	70
497.529	73
497.746	83
497.963	80
498.181	70
498.398	99
498.615	70
498.832	71
499.049	75
499.267	80
499.484	83
499.701	85
499.918	70
500.135	79
500.352	82
500.569	77
500.786	86
501.003	88
501.22	80
501.437	95
501.654	80
501.871	79
502.088	86
502.305	85
502.522	80
502.739	77
502.956	80
503.172	85
503.389	65
503.606	70
503.823	84
504.04	75
504.256	89
504.473	85
504.69	74
504.907	79
505.123	102
505.34	82
505.557	89
505.773	81
505.99	95
506.207	74
506.423	89
506.64	78
506.856	85
507.073	75
507.289	71
507.506	73
507.722	84
507.939	85
508.155	84
508.372	80
508.588	78
508.805	86
509.021	78
509.238	87
509.454	75
509.67	83
509.887	74
510.103	78
510.319	83
510.536	73
510.752	84
510.968	89
511.184	89
511.401	77
511.617	85
511.833	85
512.049	86
512.265	83
512.481	70
512.698	85
512.914	82
513.13	80
513.346	86
513.562	94
513.778	96
513.994	77
514.21	77
514.426	79
514.642	83
514.858	84
515.074	88
515.29	94
515.506	84
515.721	88
515.937	87
516.153	77
516.369	70
516.585	75
516.801	90
517.016	93
517.232	81
517.448	80
517.664	67
517.879	79
518.095	82
518.311	90
518.527	81
518.742	87
518.958	83
519.173	97
519.389	76
519.605	82
519.82	85
520.036	76
520.251	78
520.467	71
520.682	77
520.898	92
521.113	84
521.329	84
521.544	93
521.76	72
521.975	84
522.19	96
522.406	75
522.621	76
522.836	90
523.052	87
523.267	89
523.482	79
523.698	76
523.913	77
524.128	79
524.343	97
524.559	93
524.774	92
524.989	84
525.204	75
525.419	79
525.634	88
525.849	89
526.064	83
526.28	98
526.495	75
526.71	96
526.925	81
527.14	93
527.355	82
527.57	87
527.785	85
527.999	85
528.214	95
528.429	84
528.644	80
528.859	71
529.074	72
529.289	82
529.503	99
529.718	93
529.933	94
530.148	87
530.363	88
530.577	76
530.792	72
531.007	84
531.221	77
531.436	78
531.651	86
531.865	84
532.08	79
532.295	86
532.509	70
532.724	70
532.938	75
533.153	88
533.367	82
533.582	69
533.796	87
534.011	81
534.225	87
534.44	89
534.654	83
534.868	85
535.083	93
535.297	90
535.511	92
535.726	90
535.94	86
536.154	92
536.369	91
536.583	89
536.797	92
537.011	88
537.225	86
537.44	75
537.654	73
537.868	81
538.082	90
538.296	86
538.51	94
538.724	77
538.938	89
539.153	91
539.367	80
539.581	73
539.795	81
540.009	95
540.222	88
540.436	88
540.65	73
540.864	82
541.078	74
541.292	97
541.506	95
541.72	80
541.934	80
542.147	92
542.361	90
542.575	78
542.789	93
543.002	89
543.216	97
543.43	93
543.644	75
543.857	81
544.071	74
544.285	69
544.498	81
544.712	82
544.925	87
545.139	82
545.352	69
545.566	85
545.779	86
545.993	79
546.206	80
546.42	74
546.633	86
546.847	97
547.06	84
547.274	96
547.487	93
547.7	88
547.914	91
548.127	72
548.34	81
548.554	84
548.767	82
548.98	84
549.193	94
549.407	100
549.62	89
549.833	97
550.046	89
550.259	97
550.473	85
550.686	88
550.899	84
551.112	74
551.325	88
551.538	87
551.751	79
551.964	92
552.177	96
552.39	89
552.603	93
552.816	89
553.029	97
553.242	91
553.455	81
553.667	81
553.88	73
554.093	79
554.306	94
554.519	101
554.732	101
554.944	98
555.157	92
555.37	100
555.583	104
555.795	104
556.008	92
556.221	90
556.433	76
556.646	89
556.859	80
557.071	97
557.284	92
557.496	92
557.709	77
557.921	89
558.134	94
558.346	88
558.559	110
558.771	94
558.984	90
559.196	98
559.409	88
559.621	86
559.833	81
560.046	77
560.258	88
560.47	92
560.683	83
560.895	91
561.107	84
561.32	75
561.532	88
561.744	99
561.956	87
562.168	88
562.381	90
562.593	79
562.805	83
563.017	86
563.229	80
563.441	87
563.653	97
563.865	81
564.077	73
564.289	86
564.501	88
564.713	93
564.925	94
565.137	94
565.349	77
565.561	88
565.773	80
565.985	86
566.197	85
566.408	85
566.62	77
566.832	88
567.044	86
567.255	83
567.467	87
567.679	90
567.891	83
568.102	79
568.314	97
568.526	90
568.737	78
568.949	86
569.161	67
569.372	88
569.584	86
569.795	77
570.007	94
570.218	69
570.43	94
570.641	86
570.853	92
571.064	86
571.276	78
571.487	78
571.698	87
571.91	80
572.121	83
572.333	93
572.544	92
572.755	81
572.966	73
573.178	70
573.389	92
573.6	82
573.811	85
574.023	89
574.234	85
574.445	81
574.656	88
574.867	78
575.078	71
575.289	91
575.501	79
575.712	88
575.923	94
576.134	81
576.345	93
576.556	96
576.767	92
576.978	89
577.188	92
577.399	84
577.61	78
577.821	88
578.032	79
578.243	95
578.454	84
578.665	99
578.875	90
579.086	79
579.297	68
579.508	82
579.718	78
579.929	98
580.14	82
580.35	84
580.561	94
580.772	84
580.982	86
581.193	75
581.403	92
581.614	85
581.825	79
582.035	92
582.246	79
582.456	71
582.667	84
582.877	77
583.087	89
583.298	80
583.508	77
583.719	88
583.929	82
584.139	89
584.35	79
584.56	86
584.77	98
584.981	98
585.191	87
585.401	92
585.611	86
585.821	85
586.032	84
586.242	77
586.452	94
586.662	77
586.872	76
587.082	89
587.292	91
587.502	87
587.713	82
587.923	74
588.133	84
588.343	101
588.553	87
588.762	85
588.972	116
589.182	115
589.392	112
589.602	100
589.812	134
590.022	93
590.232	95
590.441	68
590.651	80
