Data from 1600_4_HRD10591_00004.txt Node
Date: Mon Jan 19 13:56:12 EST 2026
User: Yrep
Spectrometer: HR+D1059
Trigger mode: 1
Integration Time (sec): 1.000000E-1
Scans to average: 1
Electric dark correction enabled: true
Nonlinearity correction enabled: false
Boxcar width: 0
XAxis mode: Wavelengths
Number of Pixels in Spectrum: 2048
>>>>>Begin Spectral Data<<<<<
223.165	-15.88
223.4	-15.88
223.635	-15.88
223.869	-19.88
224.104	-17.88
224.338	-23.88
224.573	-22.88
224.808	-10.88
225.042	-1.88
225.277	-13.88
225.511	-7.88
225.746	-1.88
225.98	23.12
226.215	18.12
226.449	13.12
226.683	34.12
226.918	16.12
227.152	32.12
227.387	48.12
227.621	49.12
227.856	53.12
228.09	44.12
228.324	36.12
228.559	62.12
228.793	56.12
229.027	60.12
229.262	72.12
229.496	70.12
229.73	70.12
229.964	78.12
230.199	63.12
230.433	72.12
230.667	59.12
230.901	73.12
231.136	66.12
231.37	87.12
231.604	76.12
231.838	80.12
232.072	85.12
232.306	80.12
232.541	74.12
232.775	80.12
233.009	73.12
233.243	85.12
233.477	82.12
233.711	77.12
233.945	76.12
234.179	80.12
234.413	86.12
234.647	65.12
234.881	66.12
235.115	83.12
235.349	86.12
235.583	88.12
235.817	70.12
236.051	78.12
236.285	66.12
236.519	77.12
236.753	83.12
236.987	74.12
237.221	67.12
237.455	83.12
237.689	79.12
237.922	74.12
238.156	72.12
238.39	60.12
238.624	80.12
238.858	62.12
239.091	66.12
239.325	63.12
239.559	78.12
239.793	68.12
240.027	75.12
240.26	83.12
240.494	78.12
240.728	73.12
240.961	62.12
241.195	76.12
241.429	72.12
241.662	63.12
241.896	71.12
242.13	80.12
242.363	79.12
242.597	69.12
242.83	73.12
243.064	80.12
243.298	83.12
243.531	70.12
243.765	81.12
243.998	85.12
244.232	73.12
244.465	70.12
244.699	64.12
244.932	70.12
245.166	83.12
245.399	65.12
245.633	68.12
245.866	78.12
246.099	78.12
246.333	82.12
246.566	79.12
246.8	94.12
247.033	71.12
247.266	80.12
247.5	76.12
247.733	77.12
247.966	85.12
248.2	79.12
248.433	72.12
248.666	85.12
248.899	73.12
249.133	90.12
249.366	82.12
249.599	75.12
249.832	76.12
250.066	93.12
250.299	79.12
250.532	83.12
250.765	70.12
250.998	76.12
251.231	76.12
251.465	76.12
251.698	73.12
251.931	71.12
252.164	73.12
252.397	68.12
252.63	71.12
252.863	77.12
253.096	75.12
253.329	82.12
253.562	76.12
253.795	63.12
254.028	90.12
254.261	83.12
254.494	61.12
254.727	76.12
254.96	76.12
255.193	68.12
255.426	76.12
255.659	87.12
255.892	69.12
256.124	62.12
256.357	71.12
256.59	99.12
256.823	81.12
257.056	77.12
257.289	83.12
257.521	79.12
257.754	81.12
257.987	75.12
258.22	87.12
258.452	82.12
258.685	87.12
258.918	80.12
259.151	76.12
259.383	71.12
259.616	90.12
259.849	70.12
260.081	88.12
260.314	62.12
260.547	84.12
260.779	77.12
261.012	71.12
261.244	83.12
261.477	88.12
261.71	74.12
261.942	78.12
262.175	68.12
262.407	79.12
262.64	90.12
262.872	78.12
263.105	79.12
263.337	94.12
263.57	77.12
263.802	83.12
264.035	80.12
264.267	77.12
264.499	84.12
264.732	78.12
264.964	82.12
265.197	79.12
265.429	64.12
265.661	68.12
265.894	70.12
266.126	80.12
266.358	88.12
266.591	92.12
266.823	84.12
267.055	76.12
267.287	75.12
267.52	76.12
267.752	82.12
267.984	78.12
268.216	82.12
268.448	78.12
268.681	81.12
268.913	88.12
269.145	88.12
269.377	91.12
269.609	78.12
269.841	93.12
270.073	91.12
270.306	87.12
270.538	77.12
270.77	80.12
271.002	82.12
271.234	78.12
271.466	83.12
271.698	76.12
271.93	88.12
272.162	84.12
272.394	98.12
272.626	77.12
272.858	88.12
273.09	87.12
273.322	71.12
273.553	89.12
273.785	79.12
274.017	72.12
274.249	86.12
274.481	82.12
274.713	85.12
274.945	83.12
275.176	83.12
275.408	84.12
275.64	83.12
275.872	75.12
276.104	75.12
276.335	77.12
276.567	87.12
276.799	94.12
277.031	82.12
277.262	84.12
277.494	90.12
277.726	92.12
277.957	83.12
278.189	80.12
278.421	82.12
278.652	75.12
278.884	86.12
279.115	104.12
279.347	83.12
279.579	75.12
279.81	83.12
280.042	80.12
280.273	88.12
280.505	83.12
280.736	65.12
280.968	87.12
281.199	81.12
281.431	87.12
281.662	77.12
281.894	92.12
282.125	78.12
282.356	85.12
282.588	75.12
282.819	84.12
283.051	75.12
283.282	70.12
283.513	80.12
283.745	90.12
283.976	79.12
284.207	78.12
284.439	77.12
284.67	74.12
284.901	72.12
285.132	70.12
285.364	86.12
285.595	78.12
285.826	76.12
286.057	87.12
286.288	76.12
286.52	82.12
286.751	79.12
286.982	73.12
287.213	83.12
287.444	78.12
287.675	82.12
287.906	74.12
288.138	85.12
288.369	86.12
288.6	74.12
288.831	92.12
289.062	94.12
289.293	81.12
289.524	85.12
289.755	88.12
289.986	74.12
290.217	68.12
290.448	82.12
290.679	79.12
290.91	80.12
291.141	87.12
291.371	87.12
291.602	82.12
291.833	67.12
292.064	76.12
292.295	79.12
292.526	83.12
292.757	72.12
292.987	84.12
293.218	87.12
293.449	68.12
293.68	101.12
293.91	76.12
294.141	86.12
294.372	76.12
294.603	72.12
294.833	83.12
295.064	83.12
295.295	82.12
295.525	80.12
295.756	85.12
295.987	79.12
296.217	82.12
296.448	69.12
296.679	85.12
296.909	82.12
297.14	94.12
297.37	88.12
297.601	76.12
297.831	78.12
298.062	75.12
298.292	85.12
298.523	80.12
298.753	80.12
298.984	92.12
299.214	73.12
299.445	85.12
299.675	79.12
299.905	87.12
300.136	65.12
300.366	83.12
300.597	88.12
300.827	107.12
301.057	90.12
301.288	78.12
301.518	77.12
301.748	77.12
301.979	85.12
302.209	101.12
302.439	78.12
302.669	79.12
302.9	80.12
303.13	82.12
303.36	87.12
303.59	72.12
303.82	85.12
304.051	95.12
304.281	87.12
304.511	82.12
304.741	81.12
304.971	82.12
305.201	67.12
305.431	87.12
305.661	69.12
305.891	92.12
306.121	99.12
306.352	87.12
306.582	78.12
306.812	75.12
307.042	75.12
307.272	97.12
307.502	85.12
307.731	85.12
307.961	80.12
308.191	86.12
308.421	87.12
308.651	82.12
308.881	85.12
309.111	78.12
309.341	80.12
309.571	71.12
309.8	78.12
310.03	78.12
310.26	84.12
310.49	78.12
310.72	78.12
310.949	79.12
311.179	76.12
311.409	91.12
311.639	90.12
311.868	85.12
312.098	80.12
312.328	79.12
312.557	79.12
312.787	80.12
313.017	95.12
313.246	90.12
313.476	83.12
313.706	82.12
313.935	80.12
314.165	68.12
314.394	77.12
314.624	82.12
314.853	70.12
315.083	82.12
315.312	79.12
315.542	86.12
315.771	94.12
316.001	84.12
316.23	79.12
316.46	76.12
316.689	85.12
316.919	86.12
317.148	92.12
317.377	84.12
317.607	77.12
317.836	81.12
318.065	78.12
318.295	92.12
318.524	80.12
318.753	87.12
318.983	71.12
319.212	79.12
319.441	89.12
319.67	87.12
319.9	91.12
320.129	78.12
320.358	91.12
320.587	84.12
320.816	85.12
321.046	90.12
321.275	99.12
321.504	80.12
321.733	85.12
321.962	91.12
322.191	94.12
322.42	84.12
322.649	86.12
322.878	81.12
323.108	73.12
323.337	82.12
323.566	84.12
323.795	82.12
324.024	90.12
324.253	77.12
324.482	80.12
324.71	90.12
324.939	94.12
325.168	77.12
325.397	80.12
325.626	78.12
325.855	93.12
326.084	71.12
326.313	86.12
326.542	88.12
326.77	74.12
326.999	86.12
327.228	82.12
327.457	81.12
327.686	78.12
327.914	70.12
328.143	94.12
328.372	84.12
328.6	86.12
328.829	81.12
329.058	78.12
329.287	86.12
329.515	69.12
329.744	89.12
329.972	90.12
330.201	78.12
330.43	84.12
330.658	78.12
330.887	71.12
331.115	89.12
331.344	89.12
331.572	94.12
331.801	84.12
332.03	78.12
332.258	83.12
332.486	88.12
332.715	86.12
332.943	98.12
333.172	96.12
333.4	79.12
333.629	73.12
333.857	80.12
334.085	72.12
334.314	90.12
334.542	85.12
334.771	93.12
334.999	95.12
335.227	90.12
335.455	101.12
335.684	74.12
335.912	81.12
336.14	75.12
336.369	90.12
336.597	87.12
336.825	81.12
337.053	68.12
337.281	91.12
337.51	76.12
337.738	87.12
337.966	94.12
338.194	87.12
338.422	86.12
338.65	93.12
338.878	87.12
339.106	78.12
339.334	95.12
339.562	74.12
339.79	81.12
340.018	81.12
340.246	95.12
340.474	73.12
340.702	74.12
340.93	76.12
341.158	64.12
341.386	80.12
341.614	81.12
341.842	90.12
342.07	92.12
342.298	86.12
342.526	66.12
342.754	80.12
342.981	79.12
343.209	85.12
343.437	91.12
343.665	78.12
343.893	80.12
344.12	92.12
344.348	89.12
344.576	88.12
344.804	86.12
345.031	80.12
345.259	85.12
345.487	72.12
345.714	87.12
345.942	80.12
346.17	81.12
346.397	73.12
346.625	95.12
346.853	82.12
347.08	76.12
347.308	65.12
347.535	78.12
347.763	81.12
347.99	78.12
348.218	79.12
348.445	73.12
348.673	73.12
348.9	75.12
349.128	94.12
349.355	80.12
349.583	84.12
349.81	78.12
350.037	101.12
350.265	86.12
350.492	88.12
350.72	90.12
350.947	82.12
351.174	83.12
351.402	87.12
351.629	89.12
351.856	78.12
352.083	81.12
352.311	87.12
352.538	80.12
352.765	90.12
352.992	101.12
353.22	86.12
353.447	86.12
353.674	92.12
353.901	86.12
354.128	96.12
354.355	73.12
354.583	73.12
354.81	75.12
355.037	75.12
355.264	81.12
355.491	80.12
355.718	81.12
355.945	78.12
356.172	76.12
356.399	86.12
356.626	91.12
356.853	83.12
357.08	94.12
357.307	76.12
357.534	74.12
357.761	81.12
357.988	86.12
358.215	93.12
358.441	86.12
358.668	78.12
358.895	76.12
359.122	85.12
359.349	74.12
359.576	84.12
359.802	89.12
360.029	96.12
360.256	82.12
360.483	71.12
360.709	87.12
360.936	87.12
361.163	83.12
361.39	85.12
361.616	76.12
361.843	75.12
362.07	83.12
362.296	87.12
362.523	85.12
362.749	83.12
362.976	72.12
363.203	103.12
363.429	103.12
363.656	88.12
363.882	81.12
364.109	98.12
364.335	78.12
364.562	80.12
364.788	88.12
365.015	93.12
365.241	79.12
365.468	89.12
365.694	84.12
365.92	86.12
366.147	73.12
366.373	87.12
366.599	75.12
366.826	89.12
367.052	82.12
367.278	74.12
367.505	78.12
367.731	98.12
367.957	79.12
368.184	79.12
368.41	75.12
368.636	70.12
368.862	81.12
369.089	78.12
369.315	74.12
369.541	86.12
369.767	92.12
369.993	93.12
370.219	78.12
370.445	85.12
370.672	87.12
370.898	72.12
371.124	81.12
371.35	77.12
371.576	87.12
371.802	81.12
372.028	86.12
372.254	60.12
372.48	86.12
372.706	77.12
372.932	75.12
373.158	94.12
373.384	95.12
373.61	84.12
373.835	86.12
374.061	86.12
374.287	82.12
374.513	94.12
374.739	83.12
374.965	85.12
375.191	102.12
375.416	72.12
375.642	85.12
375.868	87.12
376.094	88.12
376.319	74.12
376.545	82.12
376.771	77.12
376.997	81.12
377.222	84.12
377.448	80.12
377.674	65.12
377.899	85.12
378.125	73.12
378.35	78.12
378.576	91.12
378.802	80.12
379.027	99.12
379.253	96.12
379.478	74.12
379.704	79.12
379.929	82.12
380.155	74.12
380.38	72.12
380.606	80.12
380.831	71.12
381.057	78.12
381.282	87.12
381.507	87.12
381.733	95.12
381.958	92.12
382.184	97.12
382.409	88.12
382.634	65.12
382.86	76.12
383.085	90.12
383.31	104.12
383.535	90.12
383.761	80.12
383.986	86.12
384.211	94.12
384.436	67.12
384.662	94.12
384.887	82.12
385.112	92.12
385.337	96.12
385.562	89.12
385.787	86.12
386.013	71.12
386.238	83.12
386.463	80.12
386.688	99.12
386.913	99.12
387.138	88.12
387.363	73.12
387.588	92.12
387.813	103.12
388.038	92.12
388.263	78.12
388.488	68.12
388.713	62.12
388.938	82.12
389.163	84.12
389.387	82.12
389.612	90.12
389.837	83.12
390.062	78.12
390.287	86.12
390.512	92.12
390.736	70.12
390.961	82.12
391.186	74.12
391.411	87.12
391.636	84.12
391.86	82.12
392.085	82.12
392.31	78.12
392.534	86.12
392.759	107.12
392.984	82.12
393.208	91.12
393.433	131.12
393.658	115.12
393.882	90.12
394.107	81.12
394.331	88.12
394.556	86.12
394.78	80.12
395.005	83.12
395.229	83.12
395.454	91.12
395.678	72.12
395.903	99.12
396.127	98.12
396.352	88.12
396.576	83.12
396.801	114.12
397.025	119.12
397.249	93.12
397.474	90.12
397.698	82.12
397.922	70.12
398.147	82.12
398.371	72.12
398.595	85.12
398.82	98.12
399.044	85.12
399.268	76.12
399.492	76.12
399.717	93.12
399.941	87.12
400.165	94.12
400.389	95.12
400.613	74.12
400.837	78.12
401.062	78.12
401.286	87.12
401.51	90.12
401.734	84.12
401.958	82.12
402.182	86.12
402.406	86.12
402.63	78.12
402.854	78.12
403.078	88.12
403.302	84.12
403.526	77.12
403.75	76.12
403.974	81.12
404.198	78.12
404.422	92.12
404.645	69.12
404.869	72.12
405.093	87.12
405.317	83.12
405.541	76.12
405.765	67.12
405.988	93.12
406.212	92.12
406.436	73.12
406.66	80.12
406.883	72.12
407.107	69.12
407.331	77.12
407.555	71.12
407.778	80.12
408.002	86.12
408.226	86.12
408.449	94.12
408.673	80.12
408.896	87.12
409.12	81.12
409.344	82.12
409.567	74.12
409.791	82.12
410.014	87.12
410.238	84.12
410.461	83.12
410.685	88.12
410.908	71.12
411.132	71.12
411.355	76.12
411.578	70.12
411.802	62.12
412.025	70.12
412.249	67.12
412.472	86.12
412.695	76.12
412.919	86.12
413.142	75.12
413.365	98.12
413.589	76.12
413.812	87.12
414.035	93.12
414.258	87.12
414.482	69.12
414.705	75.12
414.928	77.12
415.151	71.12
415.374	73.12
415.597	86.12
415.821	90.12
416.044	78.12
416.267	88.12
416.49	81.12
416.713	81.12
416.936	84.12
417.159	77.12
417.382	70.12
417.605	71.12
417.828	75.12
418.051	77.12
418.274	75.12
418.497	85.12
418.72	81.12
418.943	81.12
419.166	76.12
419.389	82.12
419.611	79.12
419.834	72.12
420.057	93.12
420.28	76.12
420.503	96.12
420.726	76.12
420.948	72.12
421.171	94.12
421.394	81.12
421.617	83.12
421.839	78.12
422.062	90.12
422.285	88.12
422.507	91.12
422.73	118.12
422.953	101.12
423.175	84.12
423.398	76.12
423.621	94.12
423.843	84.12
424.066	85.12
424.288	94.12
424.511	71.12
424.733	72.12
424.956	92.12
425.178	96.12
425.401	66.12
425.623	81.12
425.846	87.12
426.068	78.12
426.291	75.12
426.513	91.12
426.735	70.12
426.958	79.12
427.18	96.12
427.402	100.12
427.625	78.12
427.847	64.12
428.069	83.12
428.292	82.12
428.514	89.12
428.736	94.12
428.958	82.12
429.181	95.12
429.403	97.12
429.625	72.12
429.847	88.12
430.069	101.12
430.292	109.12
430.514	91.12
430.736	84.12
430.958	85.12
431.18	80.12
431.402	80.12
431.624	83.12
431.846	85.12
432.068	93.12
432.29	72.12
432.512	82.12
432.734	99.12
432.956	75.12
433.178	81.12
433.4	70.12
433.622	86.12
433.844	80.12
434.066	77.12
434.287	74.12
434.509	84.12
434.731	77.12
434.953	84.12
435.175	70.12
435.397	93.12
435.618	72.12
435.84	61.12
436.062	83.12
436.284	71.12
436.505	70.12
436.727	62.12
436.949	80.12
437.17	76.12
437.392	94.12
437.614	81.12
437.835	86.12
438.057	78.12
438.278	73.12
438.5	95.12
438.721	70.12
438.943	84.12
439.165	73.12
439.386	73.12
439.608	75.12
439.829	79.12
440.05	84.12
440.272	84.12
440.493	69.12
440.715	82.12
440.936	80.12
441.158	75.12
441.379	72.12
441.6	78.12
441.822	88.12
442.043	82.12
442.264	83.12
442.486	95.12
442.707	92.12
442.928	72.12
443.149	82.12
443.371	92.12
443.592	89.12
443.813	107.12
444.034	87.12
444.255	84.12
444.476	69.12
444.698	73.12
444.919	83.12
445.14	170.12
445.361	127.12
445.582	110.12
445.803	94.12
446.024	83.12
446.245	81.12
446.466	82.12
446.687	76.12
446.908	86.12
447.129	94.12
447.35	91.12
447.571	88.12
447.792	80.12
448.013	80.12
448.234	87.12
448.455	82.12
448.675	86.12
448.896	76.12
449.117	83.12
449.338	72.12
449.559	87.12
449.779	74.12
450	71.12
450.221	82.12
450.442	89.12
450.662	71.12
450.883	81.12
451.104	83.12
451.324	79.12
451.545	78.12
451.766	90.12
451.986	76.12
452.207	77.12
452.428	82.12
452.648	99.12
452.869	81.12
453.089	80.12
453.31	86.12
453.53	72.12
453.751	71.12
453.971	83.12
454.192	78.12
454.412	72.12
454.633	78.12
454.853	76.12
455.073	79.12
455.294	83.12
455.514	84.12
455.734	93.12
455.955	76.12
456.175	89.12
456.395	86.12
456.616	83.12
456.836	85.12
457.056	88.12
457.276	80.12
457.497	72.12
457.717	83.12
457.937	77.12
458.157	98.12
458.377	92.12
458.598	94.12
458.818	71.12
459.038	80.12
459.258	75.12
459.478	72.12
459.698	70.12
459.918	76.12
460.138	89.12
460.358	81.12
460.578	89.12
460.798	83.12
461.018	78.12
461.238	82.12
461.458	80.12
461.678	95.12
461.898	85.12
462.118	78.12
462.338	73.12
462.558	73.12
462.777	87.12
462.997	85.12
463.217	78.12
463.437	79.12
463.657	78.12
463.876	85.12
464.096	89.12
464.316	78.12
464.536	85.12
464.755	94.12
464.975	70.12
465.195	90.12
465.414	76.12
465.634	82.12
465.854	87.12
466.073	90.12
466.293	87.12
466.512	83.12
466.732	79.12
466.951	72.12
467.171	86.12
467.391	82.12
467.61	83.12
467.829	76.12
468.049	67.12
468.268	71.12
468.488	93.12
468.707	74.12
468.927	90.12
469.146	78.12
469.365	83.12
469.585	73.12
469.804	73.12
470.023	73.12
470.243	85.12
470.462	81.12
470.681	81.12
470.901	88.12
471.12	59.12
471.339	78.12
471.558	69.12
471.777	80.12
471.997	84.12
472.216	62.12
472.435	74.12
472.654	86.12
472.873	82.12
473.092	86.12
473.311	92.12
473.53	88.12
473.749	86.12
473.968	98.12
474.187	78.12
474.406	87.12
474.625	72.12
474.844	92.12
475.063	76.12
475.282	76.12
475.501	70.12
475.72	78.12
475.939	75.12
476.158	74.12
476.377	83.12
476.596	84.12
476.814	94.12
477.033	62.12
477.252	87.12
477.471	68.12
477.69	92.12
477.908	78.12
478.127	82.12
478.346	63.12
478.564	76.12
478.783	82.12
479.002	77.12
479.22	78.12
479.439	90.12
479.658	52.12
479.876	83.12
480.095	86.12
480.313	75.12
480.532	78.12
480.751	81.12
480.969	83.12
481.188	85.12
481.406	88.12
481.624	75.12
481.843	78.12
482.061	91.12
482.28	70.12
482.498	83.12
482.717	89.12
482.935	87.12
483.153	67.12
483.372	70.12
483.59	71.12
483.808	69.12
484.027	79.12
484.245	84.12
484.463	78.12
484.681	89.12
484.9	94.12
485.118	90.12
485.336	82.12
485.554	80.12
485.772	82.12
485.99	87.12
486.209	90.12
486.427	76.12
486.645	90.12
486.863	92.12
487.081	84.12
487.299	82.12
487.517	86.12
487.735	83.12
487.953	87.12
488.171	84.12
488.389	99.12
488.607	78.12
488.825	82.12
489.043	71.12
489.261	88.12
489.479	70.12
489.696	85.12
489.914	84.12
490.132	86.12
490.35	100.12
490.568	83.12
490.786	82.12
491.003	94.12
491.221	73.12
491.439	83.12
491.657	86.12
491.874	78.12
492.092	94.12
492.31	80.12
492.527	77.12
492.745	82.12
492.963	90.12
493.18	76.12
493.398	82.12
493.615	83.12
493.833	86.12
494.05	92.12
494.268	95.12
494.485	87.12
494.703	94.12
494.92	81.12
495.138	77.12
495.355	87.12
495.573	77.12
495.79	80.12
496.008	95.12
496.225	80.12
496.442	72.12
496.66	89.12
496.877	85.12
497.094	74.12
497.312	67.12
497.529	83.12
497.746	81.12
497.963	84.12
498.181	78.12
498.398	87.12
498.615	92.12
498.832	76.12
499.049	85.12
499.267	92.12
499.484	89.12
499.701	71.12
499.918	78.12
500.135	82.12
500.352	86.12
500.569	99.12
500.786	82.12
501.003	84.12
501.22	76.12
501.437	100.12
501.654	84.12
501.871	79.12
502.088	72.12
502.305	80.12
502.522	90.12
502.739	79.12
502.956	69.12
503.172	97.12
503.389	78.12
503.606	85.12
503.823	82.12
504.04	96.12
504.256	82.12
504.473	90.12
504.69	76.12
504.907	93.12
505.123	86.12
505.34	90.12
505.557	91.12
505.773	90.12
505.99	96.12
506.207	78.12
506.423	97.12
506.64	82.12
506.856	78.12
507.073	75.12
507.289	81.12
507.506	85.12
507.722	71.12
507.939	75.12
508.155	84.12
508.372	82.12
508.588	83.12
508.805	81.12
509.021	86.12
509.238	87.12
509.454	79.12
509.67	84.12
509.887	86.12
510.103	87.12
510.319	68.12
510.536	88.12
510.752	92.12
510.968	84.12
511.184	81.12
511.401	73.12
511.617	89.12
511.833	76.12
512.049	76.12
512.265	82.12
512.481	95.12
512.698	92.12
512.914	72.12
513.13	86.12
513.346	85.12
513.562	69.12
513.778	78.12
513.994	92.12
514.21	77.12
514.426	88.12
514.642	82.12
514.858	84.12
515.074	90.12
515.29	78.12
515.506	83.12
515.721	89.12
515.937	89.12
516.153	92.12
516.369	98.12
516.585	68.12
516.801	89.12
517.016	84.12
517.232	75.12
517.448	83.12
517.664	83.12
517.879	87.12
518.095	81.12
518.311	93.12
518.527	96.12
518.742	94.12
518.958	94.12
519.173	101.12
519.389	91.12
519.605	84.12
519.82	83.12
