Data from 1600_4_HRD10591_00038.txt Node
Date: Mon Jan 19 13:56:29 EST 2026
User: Yrep
Spectrometer: HR+D1059
Trigger mode: 1
Integration Time (sec): 1.000000E-1
Scans to average: 1
Electric dark correction enabled: true
Nonlinearity correction enabled: false
Boxcar width: 0
XAxis mode: Wavelengths
Number of Pixels in Spectrum: 2048
>>>>>Begin Spectral Data<<<<<
223.165	-13.12
223.4	-13.12
223.635	-13.12
223.869	-11.12
224.104	-19.12
224.338	-24.12
224.573	-17.12
224.808	-11.12
225.042	-5.12
225.277	9.88
225.511	4.88
225.746	8.88
225.98	-2.12
226.215	10.88
226.449	9.88
226.683	2.88
226.918	14.88
227.152	40.88
227.387	30.88
227.621	48.88
227.856	52.88
228.09	38.88
228.324	50.88
228.559	49.88
228.793	60.88
229.027	60.88
229.262	68.88
229.496	71.88
229.73	71.88
229.964	73.88
230.199	61.88
230.433	52.88
230.667	79.88
230.901	74.88
231.136	81.88
231.37	92.88
231.604	59.88
231.838	82.88
232.072	72.88
232.306	92.88
232.541	78.88
232.775	77.88
233.009	93.88
233.243	76.88
233.477	79.88
233.711	87.88
233.945	75.88
234.179	87.88
234.413	81.88
234.647	77.88
234.881	94.88
235.115	82.88
235.349	80.88
235.583	76.88
235.817	70.88
236.051	66.88
236.285	79.88
236.519	71.88
236.753	85.88
236.987	78.88
237.221	77.88
237.455	87.88
237.689	76.88
237.922	64.88
238.156	72.88
238.39	68.88
238.624	70.88
238.858	65.88
239.091	71.88
239.325	73.88
239.559	76.88
239.793	84.88
240.027	80.88
240.26	69.88
240.494	70.88
240.728	84.88
240.961	66.88
241.195	75.88
241.429	72.88
241.662	66.88
241.896	80.88
242.13	67.88
242.363	68.88
242.597	66.88
242.83	85.88
243.064	74.88
243.298	89.88
243.531	69.88
243.765	78.88
243.998	80.88
244.232	66.88
244.465	73.88
244.699	78.88
244.932	66.88
245.166	80.88
245.399	85.88
245.633	77.88
245.866	78.88
246.099	79.88
246.333	87.88
246.566	75.88
246.8	78.88
247.033	72.88
247.266	89.88
247.5	70.88
247.733	74.88
247.966	85.88
248.2	82.88
248.433	87.88
248.666	86.88
248.899	79.88
249.133	81.88
249.366	79.88
249.599	69.88
249.832	80.88
250.066	82.88
250.299	73.88
250.532	89.88
250.765	81.88
250.998	87.88
251.231	87.88
251.465	83.88
251.698	82.88
251.931	69.88
252.164	71.88
252.397	74.88
252.63	87.88
252.863	64.88
253.096	80.88
253.329	65.88
253.562	86.88
253.795	73.88
254.028	83.88
254.261	84.88
254.494	70.88
254.727	76.88
254.96	78.88
255.193	77.88
255.426	84.88
255.659	90.88
255.892	87.88
256.124	88.88
256.357	80.88
256.59	97.88
256.823	79.88
257.056	74.88
257.289	79.88
257.521	70.88
257.754	71.88
257.987	87.88
258.22	76.88
258.452	78.88
258.685	75.88
258.918	76.88
259.151	82.88
259.383	82.88
259.616	88.88
259.849	72.88
260.081	78.88
260.314	95.88
260.547	82.88
260.779	88.88
261.012	72.88
261.244	80.88
261.477	82.88
261.71	81.88
261.942	78.88
262.175	76.88
262.407	68.88
262.64	73.88
262.872	82.88
263.105	94.88
263.337	79.88
263.57	90.88
263.802	98.88
264.035	78.88
264.267	92.88
264.499	89.88
264.732	74.88
264.964	82.88
265.197	74.88
265.429	80.88
265.661	88.88
265.894	101.88
266.126	86.88
266.358	71.88
266.591	89.88
266.823	78.88
267.055	81.88
267.287	80.88
267.52	93.88
267.752	88.88
267.984	89.88
268.216	70.88
268.448	82.88
268.681	87.88
268.913	93.88
269.145	82.88
269.377	78.88
269.609	81.88
269.841	75.88
270.073	86.88
270.306	80.88
270.538	78.88
270.77	82.88
271.002	93.88
271.234	81.88
271.466	90.88
271.698	67.88
271.93	80.88
272.162	84.88
272.394	96.88
272.626	86.88
272.858	69.88
273.09	85.88
273.322	85.88
273.553	82.88
273.785	82.88
274.017	81.88
274.249	77.88
274.481	74.88
274.713	64.88
274.945	77.88
275.176	78.88
275.408	71.88
275.64	95.88
275.872	69.88
276.104	84.88
276.335	77.88
276.567	88.88
276.799	91.88
277.031	91.88
277.262	72.88
277.494	85.88
277.726	87.88
277.957	75.88
278.189	85.88
278.421	80.88
278.652	101.88
278.884	80.88
279.115	91.88
279.347	87.88
279.579	90.88
279.81	93.88
280.042	88.88
280.273	72.88
280.505	87.88
280.736	84.88
280.968	79.88
281.199	83.88
281.431	82.88
281.662	78.88
281.894	83.88
282.125	78.88
282.356	87.88
282.588	81.88
282.819	78.88
283.051	80.88
283.282	72.88
283.513	84.88
283.745	79.88
283.976	68.88
284.207	78.88
284.439	73.88
284.67	89.88
284.901	79.88
285.132	94.88
285.364	85.88
285.595	80.88
285.826	86.88
286.057	88.88
286.288	82.88
286.52	106.88
286.751	96.88
286.982	77.88
287.213	88.88
287.444	65.88
287.675	75.88
287.906	75.88
288.138	95.88
288.369	94.88
288.6	83.88
288.831	81.88
289.062	84.88
289.293	82.88
289.524	86.88
289.755	80.88
289.986	67.88
290.217	94.88
290.448	95.88
290.679	81.88
290.91	90.88
291.141	75.88
291.371	83.88
291.602	97.88
291.833	92.88
292.064	82.88
292.295	100.88
292.526	74.88
292.757	80.88
292.987	69.88
293.218	88.88
293.449	76.88
293.68	75.88
293.91	86.88
294.141	94.88
294.372	86.88
294.603	78.88
294.833	76.88
295.064	88.88
295.295	86.88
295.525	78.88
295.756	85.88
295.987	77.88
296.217	86.88
296.448	81.88
296.679	92.88
296.909	77.88
297.14	103.88
297.37	95.88
297.601	79.88
297.831	79.88
298.062	79.88
298.292	96.88
298.523	98.88
298.753	81.88
298.984	75.88
299.214	87.88
299.445	89.88
299.675	94.88
299.905	90.88
300.136	74.88
300.366	95.88
300.597	89.88
300.827	81.88
301.057	81.88
301.288	77.88
301.518	71.88
301.748	85.88
301.979	96.88
302.209	89.88
302.439	79.88
302.669	84.88
302.9	92.88
303.13	85.88
303.36	74.88
303.59	79.88
303.82	96.88
304.051	81.88
304.281	88.88
304.511	93.88
304.741	84.88
304.971	85.88
305.201	74.88
305.431	91.88
305.661	88.88
305.891	80.88
306.121	86.88
306.352	78.88
306.582	87.88
306.812	88.88
307.042	70.88
307.272	87.88
307.502	97.88
307.731	94.88
307.961	94.88
308.191	86.88
308.421	92.88
308.651	88.88
308.881	77.88
309.111	88.88
309.341	99.88
309.571	95.88
309.8	78.88
310.03	78.88
310.26	85.88
310.49	72.88
310.72	66.88
310.949	71.88
311.179	84.88
311.409	84.88
311.639	77.88
311.868	90.88
312.098	91.88
312.328	92.88
312.557	75.88
312.787	76.88
313.017	93.88
313.246	88.88
313.476	72.88
313.706	80.88
313.935	92.88
314.165	108.88
314.394	75.88
314.624	79.88
314.853	83.88
315.083	75.88
315.312	93.88
315.542	80.88
315.771	97.88
316.001	80.88
316.23	78.88
316.46	80.88
316.689	87.88
316.919	87.88
317.148	96.88
317.377	68.88
317.607	90.88
317.836	98.88
318.065	86.88
318.295	82.88
318.524	68.88
318.753	86.88
318.983	83.88
319.212	87.88
319.441	91.88
319.67	79.88
319.9	80.88
320.129	77.88
320.358	77.88
320.587	85.88
320.816	74.88
321.046	68.88
321.275	90.88
321.504	78.88
321.733	81.88
321.962	89.88
322.191	79.88
322.42	81.88
322.649	74.88
322.878	87.88
323.108	87.88
323.337	66.88
323.566	92.88
323.795	92.88
324.024	94.88
324.253	68.88
324.482	85.88
324.71	91.88
324.939	87.88
325.168	85.88
325.397	82.88
325.626	76.88
325.855	81.88
326.084	72.88
326.313	84.88
326.542	95.88
326.77	98.88
326.999	86.88
327.228	80.88
327.457	80.88
327.686	96.88
327.914	98.88
328.143	98.88
328.372	86.88
328.6	68.88
328.829	87.88
329.058	78.88
329.287	92.88
329.515	81.88
329.744	89.88
329.972	88.88
330.201	87.88
330.43	86.88
330.658	94.88
330.887	88.88
331.115	88.88
331.344	88.88
331.572	87.88
331.801	89.88
332.03	73.88
332.258	86.88
332.486	84.88
332.715	79.88
332.943	84.88
333.172	73.88
333.4	92.88
333.629	77.88
333.857	74.88
334.085	82.88
334.314	89.88
334.542	88.88
334.771	93.88
334.999	83.88
335.227	86.88
335.455	84.88
335.684	79.88
335.912	82.88
336.14	84.88
336.369	94.88
336.597	75.88
336.825	87.88
337.053	86.88
337.281	74.88
337.51	73.88
337.738	92.88
337.966	73.88
338.194	70.88
338.422	84.88
338.65	76.88
338.878	62.88
339.106	74.88
339.334	100.88
339.562	84.88
339.79	86.88
340.018	87.88
340.246	77.88
340.474	95.88
340.702	97.88
340.93	94.88
341.158	99.88
341.386	84.88
341.614	80.88
341.842	76.88
342.07	98.88
342.298	100.88
342.526	84.88
342.754	94.88
342.981	93.88
343.209	88.88
343.437	92.88
343.665	64.88
343.893	72.88
344.12	80.88
344.348	90.88
344.576	80.88
344.804	83.88
345.031	71.88
345.259	73.88
345.487	87.88
345.714	88.88
345.942	68.88
346.17	84.88
346.397	92.88
346.625	95.88
346.853	96.88
347.08	86.88
347.308	84.88
347.535	81.88
347.763	94.88
347.99	76.88
348.218	83.88
348.445	85.88
348.673	89.88
348.9	80.88
349.128	82.88
349.355	94.88
349.583	80.88
349.81	68.88
350.037	70.88
350.265	84.88
350.492	67.88
350.72	78.88
350.947	87.88
351.174	78.88
351.402	80.88
351.629	85.88
351.856	84.88
352.083	85.88
352.311	72.88
352.538	80.88
352.765	92.88
352.992	102.88
353.22	80.88
353.447	84.88
353.674	86.88
353.901	80.88
354.128	78.88
354.355	82.88
354.583	81.88
354.81	96.88
355.037	63.88
355.264	88.88
355.491	85.88
355.718	80.88
355.945	80.88
356.172	80.88
356.399	91.88
356.626	78.88
356.853	94.88
357.08	84.88
357.307	83.88
357.534	75.88
357.761	85.88
357.988	96.88
358.215	80.88
358.441	93.88
358.668	79.88
358.895	86.88
359.122	66.88
359.349	99.88
359.576	76.88
359.802	91.88
360.029	85.88
360.256	79.88
360.483	91.88
360.709	81.88
360.936	82.88
361.163	84.88
361.39	80.88
361.616	74.88
361.843	93.88
362.07	94.88
362.296	92.88
362.523	89.88
362.749	89.88
362.976	92.88
363.203	89.88
363.429	91.88
363.656	80.88
363.882	91.88
364.109	101.88
364.335	98.88
364.562	98.88
364.788	89.88
365.015	101.88
365.241	90.88
365.468	84.88
365.694	92.88
365.92	95.88
366.147	84.88
366.373	79.88
366.599	88.88
366.826	83.88
367.052	65.88
367.278	79.88
367.505	80.88
367.731	84.88
367.957	82.88
368.184	93.88
368.41	96.88
368.636	82.88
368.862	94.88
369.089	77.88
369.315	80.88
369.541	92.88
369.767	88.88
369.993	83.88
370.219	81.88
370.445	83.88
370.672	93.88
370.898	70.88
371.124	85.88
371.35	77.88
371.576	85.88
371.802	86.88
372.028	81.88
372.254	75.88
372.48	94.88
372.706	77.88
372.932	85.88
373.158	88.88
373.384	97.88
373.61	91.88
373.835	92.88
374.061	85.88
374.287	82.88
374.513	91.88
374.739	97.88
374.965	86.88
375.191	85.88
375.416	84.88
375.642	102.88
375.868	89.88
376.094	85.88
376.319	95.88
376.545	83.88
376.771	85.88
376.997	78.88
377.222	78.88
377.448	89.88
377.674	80.88
377.899	79.88
378.125	104.88
378.35	84.88
378.576	90.88
378.802	82.88
379.027	92.88
379.253	78.88
379.478	89.88
379.704	91.88
379.929	68.88
380.155	83.88
380.38	88.88
380.606	86.88
380.831	85.88
381.057	82.88
381.282	90.88
381.507	92.88
381.733	87.88
381.958	85.88
382.184	80.88
382.409	89.88
382.634	83.88
382.86	86.88
383.085	91.88
383.31	101.88
383.535	92.88
383.761	99.88
383.986	101.88
384.211	84.88
384.436	91.88
384.662	94.88
384.887	72.88
385.112	88.88
385.337	91.88
385.562	87.88
385.787	85.88
386.013	78.88
386.238	91.88
386.463	76.88
386.688	89.88
386.913	81.88
387.138	97.88
387.363	80.88
387.588	93.88
387.813	79.88
388.038	94.88
388.263	84.88
388.488	88.88
388.713	72.88
388.938	88.88
389.163	87.88
389.387	85.88
389.612	76.88
389.837	84.88
390.062	97.88
390.287	90.88
390.512	86.88
390.736	75.88
390.961	89.88
391.186	89.88
391.411	96.88
391.636	76.88
391.86	89.88
392.085	82.88
392.31	81.88
392.534	83.88
392.759	89.88
392.984	108.88
393.208	134.88
393.433	185.88
393.658	150.88
393.882	110.88
394.107	110.88
394.331	99.88
394.556	95.88
394.78	95.88
395.005	73.88
395.229	73.88
395.454	101.88
395.678	93.88
395.903	106.88
396.127	106.88
396.352	101.88
396.576	128.88
396.801	146.88
397.025	171.88
397.249	99.88
397.474	93.88
397.698	93.88
397.922	81.88
398.147	80.88
398.371	87.88
398.595	79.88
398.82	97.88
399.044	82.88
399.268	80.88
399.492	86.88
399.717	100.88
399.941	80.88
400.165	86.88
400.389	85.88
400.613	84.88
400.837	84.88
401.062	85.88
401.286	77.88
401.51	72.88
401.734	72.88
401.958	81.88
402.182	75.88
402.406	81.88
402.63	74.88
402.854	90.88
403.078	83.88
403.302	83.88
403.526	81.88
403.75	92.88
403.974	85.88
404.198	88.88
404.422	97.88
404.645	87.88
404.869	101.88
405.093	88.88
405.317	76.88
405.541	79.88
405.765	77.88
405.988	68.88
406.212	75.88
406.436	80.88
406.66	95.88
406.883	75.88
407.107	82.88
407.331	88.88
407.555	87.88
407.778	84.88
408.002	79.88
408.226	80.88
408.449	66.88
408.673	75.88
408.896	92.88
409.12	69.88
409.344	90.88
409.567	88.88
409.791	79.88
410.014	84.88
410.238	77.88
410.461	98.88
410.685	85.88
410.908	87.88
411.132	64.88
411.355	80.88
411.578	81.88
411.802	73.88
412.025	82.88
412.249	78.88
412.472	82.88
412.695	90.88
412.919	85.88
413.142	78.88
413.365	82.88
413.589	83.88
413.812	86.88
414.035	91.88
414.258	75.88
414.482	79.88
414.705	94.88
414.928	86.88
415.151	74.88
415.374	90.88
415.597	80.88
415.821	69.88
416.044	73.88
416.267	92.88
416.49	75.88
416.713	92.88
416.936	88.88
417.159	72.88
417.382	64.88
417.605	73.88
417.828	70.88
418.051	71.88
418.274	73.88
418.497	80.88
418.72	81.88
418.943	77.88
419.166	65.88
419.389	80.88
419.611	60.88
419.834	78.88
420.057	84.88
420.28	78.88
420.503	74.88
420.726	78.88
420.948	80.88
421.171	85.88
421.394	82.88
421.617	96.88
421.839	107.88
422.062	96.88
422.285	102.88
422.507	130.88
422.73	183.88
422.953	176.88
423.175	123.88
423.398	84.88
423.621	71.88
423.843	70.88
424.066	98.88
424.288	90.88
424.511	87.88
424.733	80.88
424.956	82.88
425.178	89.88
425.401	85.88
425.623	77.88
425.846	67.88
426.068	67.88
426.291	70.88
426.513	90.88
426.735	82.88
426.958	102.88
427.18	79.88
427.402	78.88
427.625	87.88
427.847	69.88
428.069	91.88
428.292	96.88
428.514	110.88
428.736	84.88
428.958	88.88
429.181	91.88
429.403	90.88
429.625	90.88
429.847	101.88
430.069	90.88
430.292	102.88
430.514	92.88
430.736	108.88
430.958	105.88
431.18	86.88
431.402	82.88
431.624	75.88
431.846	100.88
432.068	95.88
432.29	84.88
432.512	77.88
432.734	89.88
432.956	86.88
433.178	82.88
433.4	73.88
433.622	74.88
433.844	65.88
434.066	62.88
434.287	77.88
434.509	75.88
434.731	90.88
434.953	69.88
435.175	93.88
435.397	81.88
435.618	81.88
435.84	85.88
436.062	92.88
436.284	82.88
436.505	70.88
436.727	82.88
436.949	72.88
437.17	70.88
437.392	79.88
437.614	74.88
437.835	74.88
438.057	87.88
438.278	91.88
438.5	90.88
438.721	84.88
438.943	86.88
439.165	77.88
439.386	78.88
439.608	72.88
439.829	80.88
440.05	85.88
440.272	87.88
440.493	75.88
440.715	84.88
440.936	77.88
441.158	80.88
441.379	83.88
441.6	84.88
441.822	77.88
442.043	73.88
442.264	82.88
442.486	99.88
442.707	100.88
442.928	86.88
443.149	103.88
443.371	110.88
443.592	139.88
443.813	118.88
444.034	84.88
444.255	76.88
444.476	73.88
444.698	82.88
444.919	88.88
445.14	158.88
445.361	153.88
445.582	149.88
445.803	118.88
446.024	101.88
446.245	80.88
446.466	89.88
446.687	77.88
446.908	89.88
447.129	76.88
447.35	90.88
447.571	78.88
447.792	71.88
448.013	84.88
448.234	104.88
448.455	87.88
448.675	86.88
448.896	83.88
449.117	74.88
449.338	83.88
449.559	74.88
449.779	84.88
450	80.88
450.221	78.88
450.442	84.88
450.662	84.88
450.883	79.88
451.104	69.88
451.324	86.88
451.545	77.88
451.766	84.88
451.986	92.88
452.207	69.88
452.428	100.88
452.648	88.88
452.869	83.88
453.089	80.88
453.31	84.88
453.53	86.88
453.751	85.88
453.971	89.88
454.192	87.88
454.412	81.88
454.633	75.88
454.853	101.88
455.073	89.88
455.294	85.88
455.514	82.88
455.734	75.88
455.955	82.88
456.175	80.88
456.395	84.88
456.616	92.88
456.836	79.88
457.056	68.88
457.276	87.88
457.497	81.88
457.717	86.88
457.937	96.88
458.157	82.88
458.377	95.88
458.598	95.88
458.818	108.88
459.038	87.88
459.258	88.88
459.478	81.88
459.698	98.88
459.918	79.88
460.138	79.88
460.358	65.88
460.578	85.88
460.798	83.88
461.018	108.88
461.238	97.88
461.458	82.88
461.678	76.88
461.898	73.88
462.118	68.88
462.338	76.88
462.558	82.88
462.777	79.88
462.997	94.88
463.217	80.88
463.437	70.88
463.657	72.88
463.876	92.88
464.096	93.88
464.316	90.88
464.536	71.88
464.755	63.88
464.975	77.88
465.195	85.88
465.414	86.88
465.634	81.88
465.854	90.88
466.073	49.88
466.293	73.88
466.512	86.88
466.732	84.88
466.951	88.88
467.171	75.88
467.391	62.88
467.61	68.88
467.829	82.88
468.049	83.88
468.268	80.88
468.488	80.88
468.707	70.88
468.927	86.88
469.146	88.88
469.365	94.88
469.585	102.88
469.804	92.88
470.023	80.88
470.243	72.88
470.462	79.88
470.681	69.88
470.901	86.88
471.12	82.88
471.339	90.88
471.558	86.88
471.777	80.88
471.997	81.88
472.216	77.88
472.435	86.88
472.654	73.88
472.873	78.88
473.092	88.88
473.311	72.88
473.53	83.88
473.749	68.88
473.968	87.88
474.187	77.88
474.406	86.88
474.625	84.88
474.844	88.88
475.063	87.88
475.282	75.88
475.501	63.88
475.72	92.88
475.939	84.88
476.158	66.88
476.377	88.88
476.596	82.88
476.814	75.88
477.033	82.88
477.252	76.88
477.471	80.88
477.69	76.88
477.908	88.88
478.127	78.88
478.346	77.88
478.564	73.88
478.783	76.88
479.002	68.88
479.22	78.88
479.439	85.88
479.658	73.88
479.876	81.88
480.095	93.88
480.313	95.88
480.532	89.88
480.751	84.88
480.969	94.88
481.188	80.88
481.406	94.88
481.624	73.88
481.843	76.88
482.061	77.88
482.28	88.88
482.498	85.88
482.717	84.88
482.935	93.88
483.153	80.88
483.372	90.88
483.59	83.88
483.808	67.88
484.027	74.88
484.245	69.88
484.463	73.88
484.681	84.88
484.9	67.88
485.118	86.88
485.336	89.88
485.554	89.88
485.772	84.88
485.99	77.88
486.209	80.88
486.427	75.88
486.645	86.88
486.863	84.88
487.081	84.88
487.299	95.88
487.517	90.88
487.735	82.88
487.953	101.88
488.171	89.88
488.389	93.88
488.607	89.88
488.825	88.88
489.043	75.88
489.261	91.88
489.479	80.88
489.696	89.88
489.914	89.88
490.132	85.88
490.35	77.88
490.568	90.88
490.786	82.88
491.003	81.88
491.221	74.88
491.439	87.88
491.657	84.88
491.874	81.88
492.092	74.88
492.31	73.88
492.527	81.88
492.745	80.88
492.963	60.88
493.18	71.88
493.398	77.88
493.615	93.88
493.833	82.88
494.05	74.88
494.268	90.88
494.485	87.88
494.703	88.88
494.92	84.88
495.138	80.88
495.355	88.88
495.573	91.88
495.79	82.88
496.008	81.88
496.225	84.88
496.442	78.88
496.66	87.88
496.877	84.88
497.094	113.88
497.312	80.88
497.529	84.88
497.746	73.88
497.963	80.88
498.181	67.88
498.398	88.88
498.615	86.88
498.832	92.88
499.049	94.88
499.267	86.88
499.484	93.88
499.701	79.88
499.918	76.88
500.135	70.88
500.352	73.88
500.569	72.88
500.786	78.88
501.003	94.88
501.22	79.88
501.437	83.88
501.654	83.88
501.871	87.88
502.088	73.88
502.305	94.88
502.522	82.88
502.739	95.88
502.956	81.88
503.172	88.88
503.389	83.88
503.606	82.88
503.823	81.88
504.04	89.88
504.256	98.88
504.473	93.88
504.69	85.88
504.907	81.88
505.123	90.88
505.34	84.88
505.557	88.88
505.773	100.88
505.99	85.88
506.207	88.88
506.423	85.88
506.64	82.88
506.856	82.88
507.073	89.88
507.289	84.88
507.506	80.88
507.722	86.88
507.939	79.88
508.155	84.88
508.372	82.88
508.588	86.88
508.805	89.88
509.021	74.88
509.238	95.88
509.454	84.88
509.67	69.88
509.887	83.88
510.103	78.88
510.319	68.88
510.536	92.88
510.752	77.88
510.968	84.88
511.184	83.88
511.401	63.88
511.617	72.88
511.833	84.88
512.049	88.88
512.265	78.88
512.481	91.88
512.698	82.88
512.914	91.88
513.13	80.88
513.346	87.88
513.562	81.88
513.778	82.88
513.994	90.88
514.21	65.88
514.426	86.88
514.642	92.88
514.858	87.88
515.074	92.88
515.29	76.88
515.506	91.88
515.721	94.88
515.937	78.88
516.153	91.88
516.369	82.88
516.585	71.88
516.801	84.88
517.016	96.88
517.232	89.88
517.448	85.88
517.664	105.88
517.879	107.88
518.095	97.88
518.311	104.88
518.527	102.88
518.742	102.88
518.958	109.88
519.173	101.88
519.389	83.88
