Data from 1600_4_HRD10591_00036.txt Node
Date: Mon Jan 19 13:56:28 EST 2026
User: Yrep
Spectrometer: HR+D1059
Trigger mode: 1
Integration Time (sec): 1.000000E-1
Scans to average: 1
Electric dark correction enabled: true
Nonlinearity correction enabled: false
Boxcar width: 0
XAxis mode: Wavelengths
Number of Pixels in Spectrum: 2048
>>>>>Begin Spectral Data<<<<<
223.165	-11.62
223.4	-11.62
223.635	-11.62
223.869	-13.62
224.104	-11.62
224.338	-7.62
224.573	-16.62
224.808	-14.62
225.042	-13.62
225.277	-0.62
225.511	-11.62
225.746	-2.62
225.98	16.38
226.215	12.38
226.449	18.38
226.683	14.38
226.918	19.38
227.152	23.38
227.387	52.38
227.621	54.38
227.856	51.38
228.09	39.38
228.324	52.38
228.559	62.38
228.793	57.38
229.027	74.38
229.262	61.38
229.496	82.38
229.73	75.38
229.964	73.38
230.199	79.38
230.433	76.38
230.667	84.38
230.901	55.38
231.136	78.38
231.37	82.38
231.604	72.38
231.838	86.38
232.072	85.38
232.306	91.38
232.541	77.38
232.775	81.38
233.009	73.38
233.243	70.38
233.477	86.38
233.711	88.38
233.945	90.38
234.179	90.38
234.413	91.38
234.647	76.38
234.881	89.38
235.115	78.38
235.349	83.38
235.583	84.38
235.817	90.38
236.051	91.38
236.285	71.38
236.519	77.38
236.753	76.38
236.987	93.38
237.221	76.38
237.455	90.38
237.689	72.38
237.922	82.38
238.156	86.38
238.39	75.38
238.624	66.38
238.858	74.38
239.091	59.38
239.325	73.38
239.559	69.38
239.793	76.38
240.027	89.38
240.26	62.38
240.494	74.38
240.728	72.38
240.961	71.38
241.195	70.38
241.429	73.38
241.662	81.38
241.896	79.38
242.13	67.38
242.363	84.38
242.597	82.38
242.83	74.38
243.064	69.38
243.298	75.38
243.531	74.38
243.765	80.38
243.998	85.38
244.232	86.38
244.465	69.38
244.699	66.38
244.932	63.38
245.166	82.38
245.399	77.38
245.633	81.38
245.866	76.38
246.099	64.38
246.333	76.38
246.566	75.38
246.8	85.38
247.033	84.38
247.266	84.38
247.5	77.38
247.733	88.38
247.966	73.38
248.2	82.38
248.433	84.38
248.666	90.38
248.899	69.38
249.133	66.38
249.366	81.38
249.599	76.38
249.832	81.38
250.066	82.38
250.299	87.38
250.532	91.38
250.765	79.38
250.998	89.38
251.231	78.38
251.465	72.38
251.698	64.38
251.931	77.38
252.164	70.38
252.397	92.38
252.63	84.38
252.863	83.38
253.096	83.38
253.329	91.38
253.562	86.38
253.795	75.38
254.028	71.38
254.261	80.38
254.494	86.38
254.727	101.38
254.96	91.38
255.193	88.38
255.426	72.38
255.659	85.38
255.892	74.38
256.124	82.38
256.357	94.38
256.59	81.38
256.823	63.38
257.056	82.38
257.289	78.38
257.521	82.38
257.754	86.38
257.987	74.38
258.22	88.38
258.452	86.38
258.685	82.38
258.918	87.38
259.151	99.38
259.383	90.38
259.616	78.38
259.849	72.38
260.081	77.38
260.314	82.38
260.547	84.38
260.779	97.38
261.012	83.38
261.244	101.38
261.477	86.38
261.71	84.38
261.942	82.38
262.175	80.38
262.407	85.38
262.64	86.38
262.872	76.38
263.105	73.38
263.337	79.38
263.57	86.38
263.802	74.38
264.035	80.38
264.267	70.38
264.499	90.38
264.732	74.38
264.964	90.38
265.197	78.38
265.429	81.38
265.661	90.38
265.894	82.38
266.126	81.38
266.358	80.38
266.591	88.38
266.823	96.38
267.055	76.38
267.287	86.38
267.52	89.38
267.752	83.38
267.984	83.38
268.216	79.38
268.448	72.38
268.681	100.38
268.913	99.38
269.145	81.38
269.377	87.38
269.609	82.38
269.841	83.38
270.073	74.38
270.306	74.38
270.538	89.38
270.77	76.38
271.002	83.38
271.234	78.38
271.466	79.38
271.698	85.38
271.93	88.38
272.162	90.38
272.394	80.38
272.626	78.38
272.858	73.38
273.09	83.38
273.322	94.38
273.553	76.38
273.785	80.38
274.017	81.38
274.249	80.38
274.481	77.38
274.713	90.38
274.945	74.38
275.176	71.38
275.408	96.38
275.64	84.38
275.872	79.38
276.104	98.38
276.335	68.38
276.567	77.38
276.799	87.38
277.031	84.38
277.262	74.38
277.494	82.38
277.726	82.38
277.957	91.38
278.189	71.38
278.421	74.38
278.652	85.38
278.884	81.38
279.115	97.38
279.347	84.38
279.579	77.38
279.81	83.38
280.042	86.38
280.273	84.38
280.505	91.38
280.736	90.38
280.968	88.38
281.199	80.38
281.431	85.38
281.662	76.38
281.894	87.38
282.125	82.38
282.356	83.38
282.588	80.38
282.819	79.38
283.051	69.38
283.282	82.38
283.513	92.38
283.745	81.38
283.976	94.38
284.207	86.38
284.439	75.38
284.67	88.38
284.901	94.38
285.132	74.38
285.364	100.38
285.595	86.38
285.826	75.38
286.057	80.38
286.288	69.38
286.52	85.38
286.751	94.38
286.982	82.38
287.213	91.38
287.444	87.38
287.675	87.38
287.906	73.38
288.138	101.38
288.369	103.38
288.6	108.38
288.831	72.38
289.062	78.38
289.293	89.38
289.524	83.38
289.755	83.38
289.986	86.38
290.217	96.38
290.448	86.38
290.679	82.38
290.91	88.38
291.141	80.38
291.371	82.38
291.602	86.38
291.833	77.38
292.064	72.38
292.295	94.38
292.526	90.38
292.757	79.38
292.987	81.38
293.218	88.38
293.449	81.38
293.68	91.38
293.91	84.38
294.141	91.38
294.372	94.38
294.603	83.38
294.833	78.38
295.064	100.38
295.295	84.38
295.525	98.38
295.756	88.38
295.987	103.38
296.217	84.38
296.448	90.38
296.679	91.38
296.909	100.38
297.14	104.38
297.37	77.38
297.601	100.38
297.831	81.38
298.062	78.38
298.292	86.38
298.523	76.38
298.753	78.38
298.984	84.38
299.214	90.38
299.445	102.38
299.675	100.38
299.905	84.38
300.136	86.38
300.366	89.38
300.597	84.38
300.827	80.38
301.057	90.38
301.288	85.38
301.518	90.38
301.748	91.38
301.979	96.38
302.209	84.38
302.439	91.38
302.669	75.38
302.9	87.38
303.13	89.38
303.36	83.38
303.59	89.38
303.82	79.38
304.051	78.38
304.281	81.38
304.511	92.38
304.741	87.38
304.971	73.38
305.201	90.38
305.431	82.38
305.661	92.38
305.891	77.38
306.121	88.38
306.352	87.38
306.582	97.38
306.812	89.38
307.042	82.38
307.272	87.38
307.502	90.38
307.731	90.38
307.961	104.38
308.191	75.38
308.421	76.38
308.651	86.38
308.881	82.38
309.111	91.38
309.341	86.38
309.571	99.38
309.8	96.38
310.03	92.38
310.26	86.38
310.49	83.38
310.72	88.38
310.949	87.38
311.179	86.38
311.409	67.38
311.639	76.38
311.868	86.38
312.098	86.38
312.328	83.38
312.557	89.38
312.787	88.38
313.017	84.38
313.246	87.38
313.476	87.38
313.706	69.38
313.935	81.38
314.165	83.38
314.394	83.38
314.624	86.38
314.853	80.38
315.083	86.38
315.312	83.38
315.542	93.38
315.771	92.38
316.001	80.38
316.23	80.38
316.46	90.38
316.689	83.38
316.919	94.38
317.148	90.38
317.377	84.38
317.607	89.38
317.836	82.38
318.065	93.38
318.295	88.38
318.524	94.38
318.753	93.38
318.983	90.38
319.212	83.38
319.441	89.38
319.67	82.38
319.9	102.38
320.129	80.38
320.358	92.38
320.587	96.38
320.816	88.38
321.046	88.38
321.275	101.38
321.504	73.38
321.733	80.38
321.962	75.38
322.191	84.38
322.42	86.38
322.649	97.38
322.878	97.38
323.108	93.38
323.337	92.38
323.566	92.38
323.795	90.38
324.024	87.38
324.253	98.38
324.482	79.38
324.71	88.38
324.939	98.38
325.168	75.38
325.397	75.38
325.626	95.38
325.855	90.38
326.084	88.38
326.313	81.38
326.542	78.38
326.77	81.38
326.999	73.38
327.228	95.38
327.457	72.38
327.686	74.38
327.914	83.38
328.143	97.38
328.372	88.38
328.6	76.38
328.829	88.38
329.058	70.38
329.287	85.38
329.515	76.38
329.744	84.38
329.972	91.38
330.201	81.38
330.43	95.38
330.658	95.38
330.887	80.38
331.115	90.38
331.344	83.38
331.572	90.38
331.801	92.38
332.03	82.38
332.258	88.38
332.486	96.38
332.715	83.38
332.943	74.38
333.172	78.38
333.4	94.38
333.629	88.38
333.857	89.38
334.085	88.38
334.314	78.38
334.542	86.38
334.771	90.38
334.999	90.38
335.227	83.38
335.455	95.38
335.684	71.38
335.912	88.38
336.14	80.38
336.369	79.38
336.597	89.38
336.825	83.38
337.053	85.38
337.281	102.38
337.51	94.38
337.738	89.38
337.966	78.38
338.194	83.38
338.422	81.38
338.65	91.38
338.878	85.38
339.106	88.38
339.334	100.38
339.562	88.38
339.79	76.38
340.018	76.38
340.246	93.38
340.474	79.38
340.702	88.38
340.93	80.38
341.158	79.38
341.386	94.38
341.614	83.38
341.842	82.38
342.07	77.38
342.298	91.38
342.526	82.38
342.754	89.38
342.981	90.38
343.209	95.38
343.437	110.38
343.665	80.38
343.893	86.38
344.12	82.38
344.348	91.38
344.576	73.38
344.804	92.38
345.031	80.38
345.259	75.38
345.487	88.38
345.714	80.38
345.942	85.38
346.17	97.38
346.397	82.38
346.625	88.38
346.853	79.38
347.08	81.38
347.308	94.38
347.535	96.38
347.763	80.38
347.99	81.38
348.218	83.38
348.445	69.38
348.673	97.38
348.9	81.38
349.128	75.38
349.355	77.38
349.583	89.38
349.81	75.38
350.037	94.38
350.265	82.38
350.492	92.38
350.72	77.38
350.947	86.38
351.174	79.38
351.402	74.38
351.629	88.38
351.856	83.38
352.083	87.38
352.311	92.38
352.538	82.38
352.765	89.38
352.992	86.38
353.22	74.38
353.447	72.38
353.674	88.38
353.901	87.38
354.128	85.38
354.355	81.38
354.583	82.38
354.81	80.38
355.037	91.38
355.264	82.38
355.491	87.38
355.718	80.38
355.945	86.38
356.172	94.38
356.399	105.38
356.626	94.38
356.853	89.38
357.08	70.38
357.307	80.38
357.534	87.38
357.761	80.38
357.988	89.38
358.215	90.38
358.441	81.38
358.668	85.38
358.895	84.38
359.122	86.38
359.349	87.38
359.576	89.38
359.802	94.38
360.029	99.38
360.256	80.38
360.483	88.38
360.709	82.38
360.936	88.38
361.163	93.38
361.39	74.38
361.616	72.38
361.843	93.38
362.07	77.38
362.296	83.38
362.523	98.38
362.749	79.38
362.976	88.38
363.203	91.38
363.429	98.38
363.656	85.38
363.882	96.38
364.109	74.38
364.335	87.38
364.562	92.38
364.788	82.38
365.015	96.38
365.241	86.38
365.468	87.38
365.694	82.38
365.92	104.38
366.147	86.38
366.373	89.38
366.599	90.38
366.826	84.38
367.052	89.38
367.278	89.38
367.505	95.38
367.731	95.38
367.957	74.38
368.184	88.38
368.41	95.38
368.636	89.38
368.862	83.38
369.089	85.38
369.315	78.38
369.541	73.38
369.767	90.38
369.993	79.38
370.219	92.38
370.445	83.38
370.672	76.38
370.898	78.38
371.124	102.38
371.35	85.38
371.576	96.38
371.802	90.38
372.028	80.38
372.254	86.38
372.48	103.38
372.706	103.38
372.932	90.38
373.158	89.38
373.384	85.38
373.61	93.38
373.835	94.38
374.061	96.38
374.287	87.38
374.513	111.38
374.739	89.38
374.965	84.38
375.191	112.38
375.416	99.38
375.642	90.38
375.868	86.38
376.094	89.38
376.319	79.38
376.545	99.38
376.771	89.38
376.997	95.38
377.222	82.38
377.448	81.38
377.674	87.38
377.899	84.38
378.125	74.38
378.35	95.38
378.576	72.38
378.802	94.38
379.027	79.38
379.253	76.38
379.478	88.38
379.704	86.38
379.929	85.38
380.155	89.38
380.38	70.38
380.606	85.38
380.831	88.38
381.057	92.38
381.282	98.38
381.507	103.38
381.733	81.38
381.958	85.38
382.184	107.38
382.409	82.38
382.634	111.38
382.86	95.38
383.085	109.38
383.31	92.38
383.535	103.38
383.761	92.38
383.986	117.38
384.211	84.38
384.436	74.38
384.662	80.38
384.887	91.38
385.112	76.38
385.337	88.38
385.562	65.38
385.787	90.38
386.013	94.38
386.238	89.38
386.463	72.38
386.688	100.38
386.913	74.38
387.138	87.38
387.363	84.38
387.588	97.38
387.813	87.38
388.038	98.38
388.263	92.38
388.488	80.38
388.713	85.38
388.938	83.38
389.163	86.38
389.387	75.38
389.612	84.38
389.837	84.38
390.062	82.38
390.287	89.38
390.512	88.38
390.736	96.38
390.961	90.38
391.186	81.38
391.411	70.38
391.636	82.38
391.86	87.38
392.085	86.38
392.31	84.38
392.534	84.38
392.759	94.38
392.984	101.38
393.208	133.38
393.433	166.38
393.658	138.38
393.882	105.38
394.107	86.38
394.331	92.38
394.556	87.38
394.78	94.38
395.005	80.38
395.229	85.38
395.454	83.38
395.678	88.38
395.903	102.38
396.127	110.38
396.352	94.38
396.576	109.38
396.801	131.38
397.025	140.38
397.249	104.38
397.474	105.38
397.698	94.38
397.922	95.38
398.147	86.38
398.371	91.38
398.595	73.38
398.82	79.38
399.044	90.38
399.268	86.38
399.492	88.38
399.717	95.38
399.941	84.38
400.165	87.38
400.389	94.38
400.613	72.38
400.837	86.38
401.062	96.38
401.286	88.38
401.51	77.38
401.734	82.38
401.958	81.38
402.182	72.38
402.406	86.38
402.63	82.38
402.854	86.38
403.078	80.38
403.302	86.38
403.526	91.38
403.75	80.38
403.974	74.38
404.198	98.38
404.422	83.38
404.645	90.38
404.869	83.38
405.093	65.38
405.317	77.38
405.541	82.38
405.765	71.38
405.988	71.38
406.212	85.38
406.436	91.38
406.66	96.38
406.883	90.38
407.107	80.38
407.331	83.38
407.555	77.38
407.778	95.38
408.002	78.38
408.226	80.38
408.449	90.38
408.673	96.38
408.896	90.38
409.12	94.38
409.344	93.38
409.567	78.38
409.791	70.38
410.014	88.38
410.238	72.38
410.461	90.38
410.685	86.38
410.908	79.38
411.132	94.38
411.355	72.38
411.578	75.38
411.802	87.38
412.025	80.38
412.249	65.38
412.472	80.38
412.695	90.38
412.919	84.38
413.142	88.38
413.365	94.38
413.589	95.38
413.812	73.38
414.035	80.38
414.258	70.38
414.482	84.38
414.705	80.38
414.928	99.38
415.151	94.38
415.374	78.38
415.597	90.38
415.821	91.38
416.044	99.38
416.267	80.38
416.49	96.38
416.713	88.38
416.936	80.38
417.159	84.38
417.382	80.38
417.605	79.38
417.828	79.38
418.051	78.38
418.274	92.38
418.497	82.38
418.72	91.38
418.943	71.38
419.166	72.38
419.389	97.38
419.611	76.38
419.834	74.38
420.057	86.38
420.28	82.38
420.503	80.38
420.726	109.38
420.948	77.38
421.171	84.38
421.394	85.38
421.617	86.38
421.839	83.38
422.062	97.38
422.285	85.38
422.507	134.38
422.73	181.38
422.953	143.38
423.175	100.38
423.398	103.38
423.621	91.38
423.843	79.38
424.066	83.38
424.288	97.38
424.511	86.38
424.733	84.38
424.956	80.38
425.178	94.38
425.401	105.38
425.623	72.38
425.846	87.38
426.068	83.38
426.291	83.38
426.513	86.38
426.735	82.38
426.958	82.38
427.18	96.38
427.402	97.38
427.625	84.38
427.847	85.38
428.069	97.38
428.292	83.38
428.514	112.38
428.736	84.38
428.958	90.38
429.181	101.38
429.403	92.38
429.625	80.38
429.847	109.38
430.069	101.38
430.292	100.38
430.514	120.38
430.736	96.38
430.958	102.38
431.18	74.38
431.402	73.38
431.624	91.38
431.846	97.38
432.068	97.38
432.29	94.38
432.512	75.38
432.734	89.38
432.956	87.38
433.178	88.38
433.4	75.38
433.622	80.38
433.844	87.38
434.066	88.38
434.287	88.38
434.509	77.38
434.731	96.38
434.953	84.38
435.175	90.38
435.397	88.38
435.618	89.38
435.84	79.38
436.062	73.38
436.284	69.38
436.505	81.38
436.727	72.38
436.949	92.38
437.17	68.38
437.392	79.38
437.614	93.38
437.835	83.38
438.057	77.38
438.278	87.38
438.5	87.38
438.721	96.38
438.943	80.38
439.165	75.38
439.386	95.38
439.608	92.38
439.829	87.38
440.05	94.38
440.272	62.38
440.493	97.38
440.715	76.38
440.936	91.38
441.158	89.38
441.379	89.38
441.6	84.38
441.822	84.38
442.043	80.38
442.264	84.38
442.486	86.38
442.707	92.38
442.928	92.38
443.149	86.38
443.371	99.38
443.592	116.38
443.813	109.38
444.034	93.38
444.255	76.38
444.476	95.38
444.698	93.38
444.919	74.38
445.14	174.38
445.361	140.38
445.582	127.38
445.803	122.38
446.024	90.38
446.245	80.38
446.466	79.38
446.687	81.38
446.908	84.38
447.129	76.38
447.35	88.38
447.571	84.38
447.792	79.38
448.013	87.38
448.234	79.38
448.455	91.38
448.675	77.38
448.896	94.38
449.117	90.38
449.338	72.38
449.559	84.38
449.779	81.38
450	80.38
450.221	96.38
450.442	88.38
450.662	87.38
450.883	78.38
451.104	91.38
451.324	91.38
451.545	89.38
451.766	95.38
451.986	88.38
452.207	84.38
452.428	88.38
452.648	85.38
452.869	86.38
453.089	80.38
453.31	82.38
453.53	78.38
453.751	72.38
453.971	92.38
454.192	65.38
454.412	80.38
454.633	86.38
454.853	80.38
455.073	86.38
455.294	96.38
455.514	87.38
455.734	86.38
455.955	96.38
456.175	82.38
456.395	70.38
456.616	81.38
456.836	87.38
457.056	83.38
457.276	88.38
457.497	80.38
457.717	87.38
457.937	93.38
458.157	107.38
458.377	84.38
458.598	84.38
458.818	84.38
459.038	85.38
459.258	99.38
459.478	77.38
459.698	94.38
459.918	93.38
460.138	70.38
460.358	89.38
460.578	85.38
460.798	99.38
461.018	83.38
461.238	80.38
461.458	82.38
461.678	88.38
461.898	77.38
462.118	81.38
462.338	83.38
462.558	100.38
462.777	89.38
462.997	77.38
463.217	86.38
463.437	85.38
463.657	85.38
463.876	69.38
464.096	94.38
464.316	76.38
464.536	74.38
464.755	84.38
464.975	82.38
465.195	68.38
465.414	84.38
465.634	93.38
465.854	86.38
466.073	84.38
466.293	72.38
466.512	77.38
466.732	80.38
466.951	101.38
467.171	77.38
467.391	74.38
467.61	80.38
467.829	74.38
468.049	86.38
468.268	87.38
468.488	91.38
468.707	87.38
468.927	86.38
469.146	76.38
469.365	90.38
469.585	83.38
469.804	90.38
470.023	80.38
470.243	88.38
470.462	80.38
470.681	75.38
470.901	92.38
471.12	97.38
471.339	91.38
471.558	84.38
471.777	91.38
471.997	82.38
472.216	71.38
472.435	77.38
472.654	87.38
472.873	83.38
473.092	89.38
473.311	72.38
473.53	90.38
473.749	94.38
473.968	82.38
474.187	89.38
474.406	76.38
474.625	80.38
474.844	83.38
475.063	96.38
475.282	80.38
475.501	81.38
475.72	85.38
475.939	73.38
476.158	82.38
476.377	90.38
476.596	81.38
476.814	89.38
477.033	75.38
477.252	94.38
477.471	73.38
477.69	86.38
477.908	98.38
478.127	101.38
478.346	66.38
478.564	67.38
478.783	90.38
479.002	90.38
479.22	80.38
479.439	82.38
479.658	76.38
479.876	83.38
480.095	82.38
480.313	78.38
480.532	84.38
480.751	91.38
480.969	67.38
481.188	71.38
481.406	80.38
481.624	86.38
481.843	82.38
482.061	93.38
482.28	68.38
482.498	74.38
482.717	79.38
482.935	88.38
483.153	84.38
483.372	81.38
483.59	75.38
483.808	89.38
484.027	84.38
484.245	84.38
484.463	81.38
484.681	89.38
484.9	90.38
485.118	95.38
485.336	74.38
485.554	95.38
485.772	82.38
485.99	90.38
486.209	80.38
486.427	87.38
486.645	84.38
486.863	80.38
487.081	95.38
487.299	85.38
487.517	82.38
487.735	87.38
487.953	91.38
488.171	90.38
488.389	95.38
488.607	98.38
488.825	85.38
489.043	75.38
489.261	94.38
489.479	73.38
489.696	87.38
489.914	83.38
490.132	72.38
490.35	80.38
490.568	86.38
490.786	83.38
491.003	82.38
491.221	95.38
491.439	83.38
491.657	96.38
491.874	83.38
492.092	91.38
492.31	91.38
492.527	80.38
492.745	85.38
492.963	76.38
493.18	91.38
493.398	73.38
493.615	80.38
493.833	88.38
494.05	98.38
494.268	82.38
494.485	82.38
494.703	81.38
494.92	85.38
495.138	75.38
495.355	95.38
495.573	83.38
495.79	87.38
496.008	98.38
496.225	87.38
496.442	88.38
496.66	80.38
496.877	78.38
497.094	89.38
497.312	84.38
497.529	92.38
497.746	78.38
497.963	62.38
498.181	77.38
498.398	98.38
498.615	85.38
498.832	84.38
499.049	74.38
499.267	78.38
499.484	87.38
499.701	82.38
499.918	90.38
500.135	74.38
500.352	78.38
500.569	74.38
500.786	91.38
501.003	82.38
501.22	82.38
501.437	73.38
501.654	87.38
501.871	74.38
502.088	80.38
502.305	98.38
502.522	73.38
502.739	92.38
502.956	88.38
503.172	77.38
503.389	96.38
503.606	87.38
503.823	94.38
504.04	98.38
504.256	82.38
504.473	92.38
504.69	84.38
504.907	100.38
505.123	80.38
505.34	81.38
505.557	93.38
505.773	90.38
505.99	68.38
506.207	80.38
506.423	78.38
506.64	98.38
506.856	98.38
507.073	92.38
507.289	77.38
507.506	88.38
507.722	82.38
507.939	86.38
508.155	80.38
508.372	83.38
508.588	68.38
508.805	86.38
509.021	87.38
509.238	86.38
509.454	87.38
509.67	82.38
509.887	88.38
510.103	89.38
510.319	77.38
510.536	84.38
510.752	81.38
510.968	81.38
511.184	92.38
511.401	88.38
511.617	71.38
511.833	78.38
512.049	80.38
512.265	98.38
512.481	95.38
512.698	86.38
512.914	98.38
513.13	90.38
513.346	92.38
513.562	92.38
513.778	94.38
513.994	81.38
514.21	89.38
514.426	77.38
514.642	76.38
514.858	55.38
515.074	86.38
515.29	87.38
515.506	95.38
515.721	80.38
515.937	82.38
516.153	87.38
516.369	88.38
516.585	89.38
516.801	93.38
517.016	100.38
517.232	80.38
517.448	94.38
517.664	94.38
517.879	87.38
518.095	86.38
518.311	98.38
518.527	100.38
518.742	98.38
518.958	92.38
519.173	98.38
