Data from 1600_4_HRD10591_00027.txt Node
Date: Mon Jan 19 13:56:24 EST 2026
User: Yrep
Spectrometer: HR+D1059
Trigger mode: 1
Integration Time (sec): 1.000000E-1
Scans to average: 1
Electric dark correction enabled: true
Nonlinearity correction enabled: false
Boxcar width: 0
XAxis mode: Wavelengths
Number of Pixels in Spectrum: 2048
>>>>>Begin Spectral Data<<<<<
223.165	-19.19
223.4	-19.19
223.635	-19.19
223.869	-33.19
224.104	-5.19
224.338	-13.19
224.573	-10.19
224.808	-3.19
225.042	-14.19
225.277	-1.19
225.511	16.81
225.746	-3.19
225.98	-2.19
226.215	5.81
226.449	8.81
226.683	15.81
226.918	24.81
227.152	32.81
227.387	18.81
227.621	52.81
227.856	55.81
228.09	47.81
228.324	54.81
228.559	52.81
228.793	48.81
229.027	58.81
229.262	72.81
229.496	73.81
229.73	70.81
229.964	75.81
230.199	74.81
230.433	80.81
230.667	72.81
230.901	82.81
231.136	71.81
231.37	70.81
231.604	80.81
231.838	86.81
232.072	83.81
232.306	79.81
232.541	84.81
232.775	80.81
233.009	67.81
233.243	94.81
233.477	80.81
233.711	92.81
233.945	88.81
234.179	79.81
234.413	88.81
234.647	79.81
234.881	78.81
235.115	72.81
235.349	72.81
235.583	79.81
235.817	86.81
236.051	75.81
236.285	72.81
236.519	72.81
236.753	75.81
236.987	74.81
237.221	69.81
237.455	81.81
237.689	74.81
237.922	78.81
238.156	64.81
238.39	78.81
238.624	78.81
238.858	67.81
239.091	76.81
239.325	78.81
239.559	75.81
239.793	55.81
240.027	72.81
240.26	75.81
240.494	83.81
240.728	84.81
240.961	79.81
241.195	74.81
241.429	86.81
241.662	73.81
241.896	91.81
242.13	56.81
242.363	59.81
242.597	83.81
242.83	77.81
243.064	56.81
243.298	76.81
243.531	83.81
243.765	79.81
243.998	80.81
244.232	73.81
244.465	73.81
244.699	54.81
244.932	96.81
245.166	76.81
245.399	67.81
245.633	83.81
245.866	67.81
246.099	78.81
246.333	89.81
246.566	65.81
246.8	85.81
247.033	82.81
247.266	73.81
247.5	66.81
247.733	80.81
247.966	84.81
248.2	67.81
248.433	71.81
248.666	68.81
248.899	74.81
249.133	78.81
249.366	86.81
249.599	77.81
249.832	76.81
250.066	78.81
250.299	80.81
250.532	73.81
250.765	80.81
250.998	77.81
251.231	75.81
251.465	80.81
251.698	85.81
251.931	68.81
252.164	77.81
252.397	74.81
252.63	87.81
252.863	70.81
253.096	73.81
253.329	80.81
253.562	76.81
253.795	80.81
254.028	86.81
254.261	80.81
254.494	85.81
254.727	75.81
254.96	86.81
255.193	74.81
255.426	76.81
255.659	81.81
255.892	69.81
256.124	80.81
256.357	70.81
256.59	78.81
256.823	72.81
257.056	81.81
257.289	78.81
257.521	66.81
257.754	70.81
257.987	80.81
258.22	72.81
258.452	68.81
258.685	73.81
258.918	95.81
259.151	72.81
259.383	81.81
259.616	70.81
259.849	74.81
260.081	71.81
260.314	84.81
260.547	81.81
260.779	78.81
261.012	70.81
261.244	68.81
261.477	72.81
261.71	87.81
261.942	74.81
262.175	85.81
262.407	96.81
262.64	84.81
262.872	87.81
263.105	86.81
263.337	84.81
263.57	83.81
263.802	81.81
264.035	67.81
264.267	80.81
264.499	86.81
264.732	83.81
264.964	87.81
265.197	67.81
265.429	90.81
265.661	84.81
265.894	88.81
266.126	80.81
266.358	87.81
266.591	82.81
266.823	82.81
267.055	87.81
267.287	76.81
267.52	92.81
267.752	81.81
267.984	88.81
268.216	60.81
268.448	86.81
268.681	88.81
268.913	78.81
269.145	72.81
269.377	73.81
269.609	78.81
269.841	71.81
270.073	92.81
270.306	76.81
270.538	97.81
270.77	74.81
271.002	84.81
271.234	82.81
271.466	88.81
271.698	76.81
271.93	75.81
272.162	72.81
272.394	76.81
272.626	82.81
272.858	82.81
273.09	89.81
273.322	75.81
273.553	77.81
273.785	89.81
274.017	91.81
274.249	93.81
274.481	83.81
274.713	77.81
274.945	80.81
275.176	78.81
275.408	89.81
275.64	90.81
275.872	70.81
276.104	81.81
276.335	76.81
276.567	80.81
276.799	95.81
277.031	74.81
277.262	74.81
277.494	66.81
277.726	90.81
277.957	80.81
278.189	98.81
278.421	86.81
278.652	79.81
278.884	82.81
279.115	71.81
279.347	95.81
279.579	79.81
279.81	91.81
280.042	73.81
280.273	78.81
280.505	83.81
280.736	76.81
280.968	76.81
281.199	85.81
281.431	82.81
281.662	92.81
281.894	74.81
282.125	83.81
282.356	84.81
282.588	81.81
282.819	69.81
283.051	85.81
283.282	89.81
283.513	97.81
283.745	82.81
283.976	83.81
284.207	85.81
284.439	71.81
284.67	86.81
284.901	91.81
285.132	84.81
285.364	100.81
285.595	86.81
285.826	87.81
286.057	90.81
286.288	75.81
286.52	75.81
286.751	72.81
286.982	72.81
287.213	87.81
287.444	75.81
287.675	83.81
287.906	82.81
288.138	92.81
288.369	98.81
288.6	93.81
288.831	73.81
289.062	85.81
289.293	82.81
289.524	83.81
289.755	80.81
289.986	93.81
290.217	92.81
290.448	80.81
290.679	66.81
290.91	84.81
291.141	91.81
291.371	82.81
291.602	95.81
291.833	78.81
292.064	85.81
292.295	87.81
292.526	73.81
292.757	86.81
292.987	81.81
293.218	91.81
293.449	76.81
293.68	91.81
293.91	83.81
294.141	87.81
294.372	80.81
294.603	74.81
294.833	84.81
295.064	84.81
295.295	75.81
295.525	85.81
295.756	72.81
295.987	86.81
296.217	85.81
296.448	81.81
296.679	86.81
296.909	77.81
297.14	83.81
297.37	91.81
297.601	88.81
297.831	81.81
298.062	76.81
298.292	88.81
298.523	95.81
298.753	84.81
298.984	88.81
299.214	97.81
299.445	94.81
299.675	86.81
299.905	87.81
300.136	90.81
300.366	82.81
300.597	79.81
300.827	82.81
301.057	92.81
301.288	95.81
301.518	97.81
301.748	84.81
301.979	108.81
302.209	96.81
302.439	93.81
302.669	104.81
302.9	82.81
303.13	85.81
303.36	79.81
303.59	75.81
303.82	91.81
304.051	82.81
304.281	96.81
304.511	95.81
304.741	87.81
304.971	80.81
305.201	88.81
305.431	78.81
305.661	85.81
305.891	83.81
306.121	88.81
306.352	87.81
306.582	87.81
306.812	86.81
307.042	92.81
307.272	85.81
307.502	88.81
307.731	79.81
307.961	84.81
308.191	70.81
308.421	81.81
308.651	100.81
308.881	82.81
309.111	89.81
309.341	106.81
309.571	103.81
309.8	77.81
310.03	90.81
310.26	94.81
310.49	63.81
310.72	84.81
310.949	89.81
311.179	73.81
311.409	88.81
311.639	75.81
311.868	88.81
312.098	83.81
312.328	79.81
312.557	66.81
312.787	64.81
313.017	78.81
313.246	68.81
313.476	78.81
313.706	71.81
313.935	84.81
314.165	84.81
314.394	79.81
314.624	78.81
314.853	83.81
315.083	74.81
315.312	75.81
315.542	87.81
315.771	82.81
316.001	94.81
316.23	89.81
316.46	79.81
316.689	82.81
316.919	81.81
317.148	81.81
317.377	83.81
317.607	94.81
317.836	84.81
318.065	90.81
318.295	96.81
318.524	86.81
318.753	94.81
318.983	63.81
319.212	89.81
319.441	99.81
319.67	77.81
319.9	78.81
320.129	85.81
320.358	80.81
320.587	85.81
320.816	78.81
321.046	85.81
321.275	79.81
321.504	89.81
321.733	99.81
321.962	82.81
322.191	87.81
322.42	90.81
322.649	89.81
322.878	89.81
323.108	94.81
323.337	97.81
323.566	82.81
323.795	78.81
324.024	90.81
324.253	85.81
324.482	85.81
324.71	83.81
324.939	100.81
325.168	89.81
325.397	94.81
325.626	74.81
325.855	91.81
326.084	85.81
326.313	82.81
326.542	79.81
326.77	85.81
326.999	79.81
327.228	79.81
327.457	101.81
327.686	83.81
327.914	80.81
328.143	75.81
328.372	82.81
328.6	66.81
328.829	80.81
329.058	76.81
329.287	87.81
329.515	91.81
329.744	79.81
329.972	78.81
330.201	78.81
330.43	89.81
330.658	79.81
330.887	85.81
331.115	87.81
331.344	75.81
331.572	96.81
331.801	79.81
332.03	99.81
332.258	74.81
332.486	84.81
332.715	95.81
332.943	91.81
333.172	87.81
333.4	90.81
333.629	92.81
333.857	81.81
334.085	92.81
334.314	82.81
334.542	94.81
334.771	87.81
334.999	85.81
335.227	91.81
335.455	88.81
335.684	92.81
335.912	86.81
336.14	86.81
336.369	81.81
336.597	84.81
336.825	85.81
337.053	90.81
337.281	79.81
337.51	80.81
337.738	91.81
337.966	86.81
338.194	70.81
338.422	89.81
338.65	90.81
338.878	86.81
339.106	83.81
339.334	88.81
339.562	88.81
339.79	75.81
340.018	81.81
340.246	86.81
340.474	80.81
340.702	80.81
340.93	83.81
341.158	88.81
341.386	91.81
341.614	82.81
341.842	82.81
342.07	78.81
342.298	82.81
342.526	83.81
342.754	84.81
342.981	68.81
343.209	80.81
343.437	85.81
343.665	86.81
343.893	92.81
344.12	90.81
344.348	86.81
344.576	87.81
344.804	86.81
345.031	82.81
345.259	76.81
345.487	84.81
345.714	70.81
345.942	74.81
346.17	89.81
346.397	96.81
346.625	86.81
346.853	78.81
347.08	87.81
347.308	91.81
347.535	87.81
347.763	102.81
347.99	78.81
348.218	82.81
348.445	70.81
348.673	86.81
348.9	93.81
349.128	78.81
349.355	82.81
349.583	79.81
349.81	94.81
350.037	70.81
350.265	83.81
350.492	82.81
350.72	76.81
350.947	86.81
351.174	78.81
351.402	78.81
351.629	84.81
351.856	79.81
352.083	88.81
352.311	82.81
352.538	84.81
352.765	97.81
352.992	76.81
353.22	110.81
353.447	74.81
353.674	98.81
353.901	80.81
354.128	82.81
354.355	83.81
354.583	75.81
354.81	73.81
355.037	81.81
355.264	77.81
355.491	76.81
355.718	76.81
355.945	78.81
356.172	75.81
356.399	84.81
356.626	90.81
356.853	95.81
357.08	96.81
357.307	82.81
357.534	98.81
357.761	78.81
357.988	94.81
358.215	91.81
358.441	84.81
358.668	95.81
358.895	81.81
359.122	86.81
359.349	95.81
359.576	69.81
359.802	81.81
360.029	87.81
360.256	90.81
360.483	74.81
360.709	86.81
360.936	93.81
361.163	80.81
361.39	78.81
361.616	77.81
361.843	83.81
362.07	79.81
362.296	90.81
362.523	92.81
362.749	82.81
362.976	90.81
363.203	91.81
363.429	90.81
363.656	87.81
363.882	80.81
364.109	99.81
364.335	98.81
364.562	93.81
364.788	100.81
365.015	86.81
365.241	91.81
365.468	94.81
365.694	87.81
365.92	80.81
366.147	78.81
366.373	84.81
366.599	85.81
366.826	82.81
367.052	86.81
367.278	107.81
367.505	92.81
367.731	87.81
367.957	82.81
368.184	87.81
368.41	90.81
368.636	86.81
368.862	87.81
369.089	97.81
369.315	74.81
369.541	90.81
369.767	88.81
369.993	76.81
370.219	74.81
370.445	86.81
370.672	80.81
370.898	94.81
371.124	98.81
371.35	91.81
371.576	75.81
371.802	90.81
372.028	92.81
372.254	93.81
372.48	92.81
372.706	85.81
372.932	94.81
373.158	90.81
373.384	102.81
373.61	103.81
373.835	113.81
374.061	99.81
374.287	97.81
374.513	102.81
374.739	89.81
374.965	93.81
375.191	107.81
375.416	85.81
375.642	74.81
375.868	89.81
376.094	94.81
376.319	82.81
376.545	88.81
376.771	83.81
376.997	88.81
377.222	76.81
377.448	91.81
377.674	84.81
377.899	84.81
378.125	75.81
378.35	77.81
378.576	92.81
378.802	86.81
379.027	78.81
379.253	87.81
379.478	70.81
379.704	94.81
379.929	91.81
380.155	68.81
380.38	81.81
380.606	80.81
380.831	97.81
381.057	84.81
381.282	92.81
381.507	81.81
381.733	115.81
381.958	98.81
382.184	94.81
382.409	101.81
382.634	98.81
382.86	102.81
383.085	104.81
383.31	114.81
383.535	110.81
383.761	102.81
383.986	116.81
384.211	99.81
384.436	93.81
384.662	83.81
384.887	81.81
385.112	83.81
385.337	73.81
385.562	83.81
385.787	93.81
386.013	118.81
386.238	85.81
386.463	87.81
386.688	91.81
386.913	76.81
387.138	74.81
387.363	84.81
387.588	79.81
387.813	82.81
388.038	83.81
388.263	74.81
388.488	70.81
388.713	100.81
388.938	90.81
389.163	84.81
389.387	80.81
389.612	80.81
389.837	91.81
390.062	90.81
390.287	86.81
390.512	93.81
390.736	82.81
390.961	82.81
391.186	78.81
391.411	91.81
391.636	87.81
391.86	85.81
392.085	83.81
392.31	88.81
392.534	92.81
392.759	108.81
392.984	136.81
393.208	186.81
393.433	268.81
393.658	192.81
393.882	106.81
394.107	101.81
394.331	97.81
394.556	107.81
394.78	92.81
395.005	102.81
395.229	94.81
395.454	81.81
395.678	81.81
395.903	99.81
396.127	104.81
396.352	147.81
396.576	134.81
396.801	189.81
397.025	202.81
397.249	143.81
397.474	79.81
397.698	92.81
397.922	97.81
398.147	76.81
398.371	72.81
398.595	84.81
398.82	103.81
399.044	64.81
399.268	72.81
399.492	78.81
399.717	67.81
399.941	90.81
400.165	92.81
400.389	89.81
400.613	69.81
400.837	91.81
401.062	85.81
401.286	80.81
401.51	86.81
401.734	86.81
401.958	68.81
402.182	73.81
402.406	83.81
402.63	83.81
402.854	69.81
403.078	78.81
403.302	86.81
403.526	81.81
403.75	80.81
403.974	70.81
404.198	87.81
404.422	83.81
404.645	102.81
404.869	82.81
405.093	70.81
405.317	94.81
405.541	77.81
405.765	92.81
405.988	77.81
406.212	101.81
406.436	83.81
406.66	88.81
406.883	95.81
407.107	84.81
407.331	87.81
407.555	82.81
407.778	100.81
408.002	103.81
408.226	83.81
408.449	86.81
408.673	85.81
408.896	78.81
409.12	78.81
409.344	90.81
409.567	94.81
409.791	73.81
410.014	90.81
410.238	89.81
410.461	78.81
410.685	88.81
410.908	78.81
411.132	99.81
411.355	100.81
411.578	80.81
411.802	70.81
412.025	73.81
412.249	84.81
412.472	66.81
412.695	79.81
412.919	93.81
413.142	65.81
413.365	70.81
413.589	67.81
413.812	85.81
414.035	81.81
414.258	79.81
414.482	81.81
414.705	86.81
414.928	78.81
415.151	84.81
415.374	77.81
415.597	92.81
415.821	83.81
416.044	86.81
416.267	75.81
416.49	71.81
416.713	80.81
416.936	62.81
417.159	78.81
417.382	71.81
417.605	94.81
417.828	95.81
418.051	94.81
418.274	85.81
418.497	82.81
418.72	86.81
418.943	86.81
419.166	64.81
419.389	87.81
419.611	64.81
419.834	87.81
420.057	80.81
420.28	82.81
420.503	78.81
420.726	69.81
420.948	81.81
421.171	90.81
421.394	85.81
421.617	93.81
421.839	87.81
422.062	92.81
422.285	97.81
422.507	138.81
422.73	234.81
422.953	224.81
423.175	107.81
423.398	90.81
423.621	83.81
423.843	82.81
424.066	84.81
424.288	83.81
424.511	68.81
424.733	87.81
424.956	85.81
425.178	71.81
425.401	88.81
425.623	93.81
425.846	79.81
426.068	102.81
426.291	86.81
426.513	79.81
426.735	82.81
426.958	63.81
427.18	82.81
427.402	95.81
427.625	86.81
427.847	90.81
428.069	84.81
428.292	104.81
428.514	115.81
428.736	92.81
428.958	86.81
429.181	92.81
429.403	88.81
429.625	83.81
429.847	94.81
430.069	112.81
430.292	121.81
430.514	114.81
430.736	90.81
430.958	111.81
431.18	100.81
431.402	92.81
431.624	91.81
431.846	95.81
432.068	111.81
432.29	91.81
432.512	90.81
432.734	85.81
432.956	70.81
433.178	81.81
433.4	87.81
433.622	81.81
433.844	86.81
434.066	78.81
434.287	79.81
434.509	83.81
434.731	90.81
434.953	64.81
435.175	97.81
435.397	70.81
435.618	75.81
435.84	79.81
436.062	82.81
436.284	78.81
436.505	85.81
436.727	76.81
436.949	72.81
437.17	84.81
437.392	85.81
437.614	79.81
437.835	87.81
438.057	83.81
438.278	82.81
438.5	92.81
438.721	93.81
438.943	82.81
439.165	90.81
439.386	80.81
439.608	69.81
439.829	76.81
440.05	76.81
440.272	79.81
440.493	96.81
440.715	95.81
440.936	78.81
441.158	76.81
441.379	85.81
441.6	81.81
441.822	93.81
442.043	78.81
442.264	82.81
442.486	96.81
442.707	100.81
442.928	88.81
443.149	84.81
443.371	99.81
443.592	146.81
443.813	127.81
444.034	93.81
444.255	92.81
444.476	82.81
444.698	82.81
444.919	73.81
445.14	136.81
445.361	131.81
445.582	152.81
445.803	129.81
446.024	78.81
446.245	85.81
446.466	82.81
446.687	80.81
446.908	81.81
447.129	82.81
447.35	82.81
447.571	80.81
447.792	86.81
448.013	85.81
448.234	73.81
448.455	85.81
448.675	78.81
448.896	75.81
449.117	80.81
449.338	81.81
449.559	84.81
449.779	75.81
450	82.81
450.221	82.81
450.442	87.81
450.662	86.81
450.883	77.81
451.104	73.81
451.324	71.81
451.545	62.81
451.766	71.81
451.986	74.81
452.207	82.81
452.428	78.81
452.648	84.81
452.869	77.81
453.089	91.81
453.31	82.81
453.53	97.81
453.751	82.81
453.971	87.81
454.192	76.81
454.412	87.81
454.633	84.81
454.853	66.81
455.073	80.81
455.294	82.81
455.514	100.81
455.734	71.81
455.955	77.81
456.175	81.81
456.395	82.81
456.616	82.81
456.836	83.81
457.056	82.81
457.276	70.81
457.497	72.81
457.717	70.81
457.937	91.81
458.157	80.81
458.377	75.81
458.598	97.81
458.818	69.81
459.038	85.81
459.258	79.81
459.478	95.81
459.698	93.81
459.918	84.81
460.138	67.81
460.358	90.81
460.578	83.81
460.798	97.81
461.018	95.81
461.238	92.81
461.458	91.81
461.678	91.81
461.898	83.81
462.118	80.81
462.338	91.81
462.558	90.81
462.777	78.81
462.997	73.81
463.217	71.81
463.437	85.81
463.657	70.81
463.876	82.81
464.096	89.81
464.316	86.81
464.536	71.81
464.755	74.81
464.975	84.81
465.195	83.81
465.414	82.81
465.634	78.81
465.854	73.81
466.073	76.81
466.293	93.81
466.512	79.81
466.732	70.81
466.951	95.81
467.171	73.81
467.391	83.81
467.61	74.81
467.829	73.81
468.049	73.81
468.268	74.81
468.488	74.81
468.707	80.81
468.927	83.81
469.146	81.81
469.365	89.81
469.585	79.81
469.804	84.81
470.023	97.81
470.243	85.81
470.462	86.81
470.681	78.81
470.901	85.81
471.12	71.81
471.339	82.81
471.558	70.81
471.777	80.81
471.997	76.81
472.216	90.81
472.435	76.81
472.654	85.81
472.873	82.81
473.092	96.81
473.311	71.81
473.53	79.81
473.749	78.81
473.968	73.81
474.187	75.81
474.406	72.81
474.625	94.81
474.844	74.81
475.063	76.81
475.282	85.81
475.501	94.81
475.72	80.81
475.939	77.81
476.158	78.81
476.377	73.81
476.596	77.81
476.814	96.81
477.033	75.81
477.252	82.81
477.471	81.81
477.69	81.81
477.908	91.81
478.127	79.81
478.346	82.81
478.564	87.81
478.783	90.81
479.002	83.81
479.22	74.81
479.439	78.81
479.658	75.81
479.876	80.81
480.095	88.81
480.313	81.81
480.532	81.81
480.751	75.81
480.969	70.81
481.188	76.81
481.406	86.81
481.624	74.81
481.843	81.81
482.061	89.81
482.28	76.81
482.498	101.81
482.717	82.81
482.935	79.81
483.153	80.81
483.372	85.81
483.59	82.81
483.808	84.81
484.027	87.81
484.245	77.81
484.463	89.81
484.681	99.81
484.9	71.81
485.118	81.81
485.336	79.81
485.554	82.81
485.772	82.81
485.99	76.81
486.209	86.81
486.427	80.81
486.645	87.81
486.863	78.81
487.081	91.81
487.299	83.81
487.517	90.81
487.735	88.81
487.953	88.81
488.171	83.81
488.389	73.81
488.607	85.81
488.825	72.81
489.043	78.81
489.261	92.81
489.479	81.81
489.696	83.81
489.914	86.81
490.132	95.81
490.35	90.81
490.568	87.81
490.786	70.81
491.003	72.81
491.221	83.81
491.439	81.81
491.657	71.81
491.874	84.81
492.092	68.81
492.31	74.81
492.527	87.81
492.745	87.81
492.963	83.81
493.18	80.81
493.398	80.81
493.615	102.81
493.833	100.81
494.05	78.81
494.268	71.81
494.485	76.81
494.703	87.81
494.92	76.81
495.138	91.81
495.355	87.81
495.573	85.81
495.79	91.81
496.008	84.81
496.225	87.81
496.442	85.81
496.66	96.81
496.877	89.81
497.094	84.81
497.312	90.81
497.529	88.81
497.746	111.81
497.963	90.81
498.181	90.81
498.398	96.81
498.615	81.81
498.832	80.81
499.049	85.81
499.267	83.81
499.484	84.81
499.701	93.81
499.918	87.81
500.135	82.81
500.352	85.81
500.569	80.81
500.786	87.81
501.003	82.81
501.22	73.81
501.437	85.81
501.654	96.81
501.871	86.81
502.088	85.81
502.305	92.81
502.522	99.81
502.739	87.81
502.956	87.81
503.172	91.81
503.389	91.81
503.606	69.81
503.823	87.81
504.04	102.81
504.256	110.81
504.473	96.81
504.69	87.81
504.907	72.81
505.123	96.81
505.34	89.81
505.557	90.81
505.773	83.81
505.99	80.81
506.207	77.81
506.423	95.81
506.64	82.81
506.856	82.81
507.073	81.81
507.289	82.81
507.506	73.81
507.722	78.81
507.939	67.81
508.155	80.81
508.372	78.81
508.588	73.81
508.805	83.81
509.021	80.81
509.238	76.81
509.454	76.81
509.67	78.81
509.887	94.81
510.103	87.81
510.319	81.81
510.536	80.81
510.752	84.81
510.968	90.81
511.184	88.81
511.401	95.81
511.617	93.81
511.833	70.81
512.049	84.81
512.265	81.81
512.481	83.81
512.698	90.81
512.914	77.81
513.13	83.81
513.346	91.81
513.562	71.81
513.778	92.81
513.994	84.81
514.21	93.81
514.426	82.81
514.642	93.81
514.858	108.81
515.074	79.81
515.29	87.81
515.506	79.81
515.721	90.81
515.937	84.81
516.153	78.81
516.369	83.81
516.585	70.81
516.801	85.81
517.016	96.81
517.232	71.81
517.448	114.81
517.664	86.81
517.879	80.81
518.095	82.81
518.311	111.81
518.527	113.81
518.742	110.81
518.958	99.81
519.173	98.81
