Data from 1600_4_HRD10591_00002.txt Node
Date: Mon Jan 19 13:56:11 EST 2026
User: Yrep
Spectrometer: HR+D1059
Trigger mode: 1
Integration Time (sec): 1.000000E-1
Scans to average: 1
Electric dark correction enabled: true
Nonlinearity correction enabled: false
Boxcar width: 0
XAxis mode: Wavelengths
Number of Pixels in Spectrum: 2048
>>>>>Begin Spectral Data<<<<<
223.165	-23
223.4	-23
223.635	-23
223.869	-27
224.104	-18
224.338	-21
224.573	-30
224.808	-4
225.042	-12
225.277	-12
225.511	9
225.746	3
225.98	8
226.215	18
226.449	19
226.683	30
226.918	23
227.152	37
227.387	47
227.621	46
227.856	45
228.09	42
228.324	50
228.559	67
228.793	50
229.027	55
229.262	61
229.496	60
229.73	68
229.964	78
230.199	74
230.433	73
230.667	79
230.901	78
231.136	72
231.37	84
231.604	82
231.838	73
232.072	85
232.306	87
232.541	86
232.775	82
233.009	69
233.243	71
233.477	80
233.711	80
233.945	72
234.179	80
234.413	81
234.647	62
234.881	84
235.115	87
235.349	77
235.583	76
235.817	77
236.051	75
236.285	74
236.519	87
236.753	78
236.987	83
237.221	73
237.455	95
237.689	80
237.922	89
238.156	63
238.39	74
238.624	69
238.858	77
239.091	68
239.325	72
239.559	69
239.793	73
240.027	71
240.26	83
240.494	70
240.728	74
240.961	73
241.195	75
241.429	74
241.662	72
241.896	86
242.13	75
242.363	82
242.597	72
242.83	78
243.064	89
243.298	86
243.531	67
243.765	77
243.998	86
244.232	65
244.465	68
244.699	77
244.932	74
245.166	85
245.399	84
245.633	80
245.866	70
246.099	74
246.333	78
246.566	79
246.8	77
247.033	81
247.266	82
247.5	83
247.733	80
247.966	71
248.2	72
248.433	70
248.666	79
248.899	78
249.133	86
249.366	86
249.599	83
249.832	73
250.066	86
250.299	63
250.532	82
250.765	98
250.998	88
251.231	73
251.465	95
251.698	83
251.931	74
252.164	82
252.397	88
252.63	74
252.863	73
253.096	66
253.329	86
253.562	72
253.795	82
254.028	81
254.261	90
254.494	82
254.727	77
254.96	87
255.193	69
255.426	64
255.659	80
255.892	79
256.124	82
256.357	84
256.59	82
256.823	60
257.056	75
257.289	74
257.521	68
257.754	79
257.987	70
258.22	85
258.452	74
258.685	82
258.918	80
259.151	85
259.383	86
259.616	68
259.849	88
260.081	88
260.314	89
260.547	75
260.779	78
261.012	72
261.244	68
261.477	79
261.71	69
261.942	76
262.175	85
262.407	70
262.64	78
262.872	89
263.105	68
263.337	80
263.57	87
263.802	68
264.035	86
264.267	97
264.499	84
264.732	84
264.964	80
265.197	85
265.429	85
265.661	69
265.894	73
266.126	81
266.358	79
266.591	89
266.823	92
267.055	75
267.287	85
267.52	78
267.752	98
267.984	84
268.216	76
268.448	92
268.681	84
268.913	76
269.145	74
269.377	67
269.609	56
269.841	78
270.073	94
270.306	83
270.538	70
270.77	79
271.002	85
271.234	85
271.466	82
271.698	84
271.93	82
272.162	76
272.394	92
272.626	72
272.858	84
273.09	84
273.322	83
273.553	81
273.785	81
274.017	82
274.249	101
274.481	78
274.713	79
274.945	74
275.176	81
275.408	84
275.64	92
275.872	83
276.104	80
276.335	79
276.567	72
276.799	89
277.031	89
277.262	83
277.494	92
277.726	84
277.957	89
278.189	84
278.421	81
278.652	56
278.884	84
279.115	81
279.347	94
279.579	84
279.81	96
280.042	94
280.273	84
280.505	88
280.736	85
280.968	89
281.199	84
281.431	88
281.662	78
281.894	87
282.125	89
282.356	80
282.588	73
282.819	69
283.051	86
283.282	82
283.513	84
283.745	76
283.976	88
284.207	88
284.439	67
284.67	86
284.901	84
285.132	86
285.364	90
285.595	74
285.826	89
286.057	111
286.288	78
286.52	87
286.751	89
286.982	85
287.213	70
287.444	90
287.675	76
287.906	84
288.138	90
288.369	86
288.6	74
288.831	85
289.062	82
289.293	86
289.524	97
289.755	98
289.986	93
290.217	101
290.448	68
290.679	90
290.91	90
291.141	83
291.371	73
291.602	90
291.833	80
292.064	92
292.295	92
292.526	75
292.757	87
292.987	84
293.218	86
293.449	89
293.68	87
293.91	75
294.141	84
294.372	87
294.603	92
294.833	87
295.064	83
295.295	87
295.525	69
295.756	87
295.987	77
296.217	81
296.448	72
296.679	80
296.909	92
297.14	95
297.37	84
297.601	78
297.831	86
298.062	86
298.292	92
298.523	91
298.753	95
298.984	80
299.214	78
299.445	97
299.675	87
299.905	78
300.136	79
300.366	74
300.597	80
300.827	82
301.057	71
301.288	78
301.518	80
301.748	94
301.979	102
302.209	84
302.439	90
302.669	84
302.9	84
303.13	78
303.36	89
303.59	92
303.82	80
304.051	92
304.281	89
304.511	85
304.741	82
304.971	80
305.201	87
305.431	82
305.661	80
305.891	80
306.121	85
306.352	88
306.582	87
306.812	92
307.042	104
307.272	82
307.502	91
307.731	93
307.961	94
308.191	87
308.421	79
308.651	111
308.881	101
309.111	86
309.341	88
309.571	95
309.8	88
310.03	76
310.26	80
310.49	84
310.72	82
310.949	85
311.179	78
311.409	73
311.639	84
311.868	87
312.098	83
312.328	74
312.557	87
312.787	92
313.017	96
313.246	88
313.476	81
313.706	90
313.935	89
314.165	87
314.394	86
314.624	83
314.853	80
315.083	93
315.312	86
315.542	104
315.771	92
316.001	70
316.23	96
316.46	75
316.689	90
316.919	77
317.148	87
317.377	87
317.607	88
317.836	92
318.065	87
318.295	93
318.524	76
318.753	85
318.983	82
319.212	105
319.441	79
319.67	87
319.9	73
320.129	93
320.358	81
320.587	77
320.816	83
321.046	93
321.275	74
321.504	72
321.733	69
321.962	72
322.191	82
322.42	84
322.649	89
322.878	102
323.108	89
323.337	73
323.566	101
323.795	70
324.024	95
324.253	86
324.482	95
324.71	87
324.939	84
325.168	83
325.397	79
325.626	73
325.855	85
326.084	89
326.313	81
326.542	80
326.77	86
326.999	85
327.228	103
327.457	79
327.686	83
327.914	78
328.143	83
328.372	72
328.6	77
328.829	94
329.058	94
329.287	82
329.515	87
329.744	81
329.972	86
330.201	88
330.43	93
330.658	86
330.887	76
331.115	67
331.344	85
331.572	85
331.801	85
332.03	97
332.258	93
332.486	89
332.715	76
332.943	82
333.172	83
333.4	69
333.629	88
333.857	95
334.085	95
334.314	96
334.542	74
334.771	67
334.999	80
335.227	97
335.455	95
335.684	77
335.912	101
336.14	75
336.369	86
336.597	88
336.825	87
337.053	87
337.281	98
337.51	70
337.738	99
337.966	74
338.194	87
338.422	85
338.65	84
338.878	81
339.106	80
339.334	84
339.562	90
339.79	80
340.018	103
340.246	92
340.474	84
340.702	74
340.93	82
341.158	81
341.386	89
341.614	85
341.842	94
342.07	86
342.298	95
342.526	94
342.754	82
342.981	108
343.209	81
343.437	113
343.665	81
343.893	89
344.12	80
344.348	90
344.576	86
344.804	88
345.031	70
345.259	91
345.487	89
345.714	62
345.942	81
346.17	85
346.397	84
346.625	88
346.853	93
347.08	84
347.308	86
347.535	83
347.763	101
347.99	93
348.218	90
348.445	98
348.673	85
348.9	87
349.128	73
349.355	81
349.583	81
349.81	92
350.037	96
350.265	87
350.492	88
350.72	84
350.947	76
351.174	94
351.402	73
351.629	100
351.856	86
352.083	95
352.311	78
352.538	74
352.765	78
352.992	88
353.22	87
353.447	82
353.674	80
353.901	89
354.128	86
354.355	84
354.583	87
354.81	71
355.037	94
355.264	90
355.491	98
355.718	78
355.945	79
356.172	75
356.399	82
356.626	82
356.853	111
357.08	88
357.307	87
357.534	82
357.761	78
357.988	101
358.215	82
358.441	80
358.668	92
358.895	74
359.122	78
359.349	80
359.576	82
359.802	87
360.029	81
360.256	88
360.483	77
360.709	82
360.936	98
361.163	89
361.39	86
361.616	85
361.843	92
362.07	79
362.296	88
362.523	94
362.749	92
362.976	93
363.203	95
363.429	89
363.656	84
363.882	88
364.109	91
364.335	98
364.562	96
364.788	96
365.015	97
365.241	87
365.468	82
365.694	88
365.92	88
366.147	79
366.373	97
366.599	74
366.826	84
367.052	71
367.278	88
367.505	89
367.731	81
367.957	74
368.184	89
368.41	89
368.636	85
368.862	85
369.089	88
369.315	94
369.541	88
369.767	92
369.993	77
370.219	85
370.445	101
370.672	86
370.898	93
371.124	75
371.35	78
371.576	97
371.802	87
372.028	72
372.254	86
372.48	89
372.706	92
372.932	78
373.158	100
373.384	92
373.61	99
373.835	96
374.061	75
374.287	91
374.513	90
374.739	92
374.965	95
375.191	99
375.416	84
375.642	96
375.868	87
376.094	76
376.319	90
376.545	98
376.771	91
376.997	68
377.222	93
377.448	88
377.674	80
377.899	81
378.125	86
378.35	83
378.576	97
378.802	80
379.027	97
379.253	78
379.478	85
379.704	92
379.929	94
380.155	85
380.38	85
380.606	89
380.831	103
381.057	89
381.282	89
381.507	87
381.733	79
381.958	92
382.184	90
382.409	103
382.634	104
382.86	94
383.085	101
383.31	104
383.535	100
383.761	110
383.986	94
384.211	78
384.436	73
384.662	82
384.887	82
385.112	85
385.337	97
385.562	88
385.787	81
386.013	97
386.238	85
386.463	86
386.688	93
386.913	81
387.138	87
387.363	93
387.588	94
387.813	93
388.038	81
388.263	85
388.488	89
388.713	95
388.938	91
389.163	89
389.387	83
389.612	101
389.837	74
390.062	74
390.287	91
390.512	93
390.736	88
390.961	84
391.186	78
391.411	69
391.636	82
391.86	99
392.085	88
392.31	79
392.534	86
392.759	93
392.984	100
393.208	146
393.433	164
393.658	156
393.882	98
394.107	89
394.331	89
394.556	104
394.78	95
395.005	94
395.229	88
395.454	89
395.678	92
395.903	93
396.127	109
396.352	116
396.576	110
396.801	151
397.025	148
397.249	105
397.474	101
397.698	78
397.922	77
398.147	74
398.371	96
398.595	90
398.82	83
399.044	80
399.268	86
399.492	72
399.717	87
399.941	90
400.165	81
400.389	90
400.613	83
400.837	85
401.062	82
401.286	93
401.51	89
401.734	87
401.958	71
402.182	81
402.406	82
402.63	65
402.854	72
403.078	83
403.302	92
403.526	93
403.75	85
403.974	84
404.198	93
404.422	102
404.645	93
404.869	100
405.093	89
405.317	87
405.541	73
405.765	72
405.988	87
406.212	94
406.436	95
406.66	92
406.883	82
407.107	80
407.331	78
407.555	90
407.778	89
408.002	79
408.226	84
408.449	91
408.673	83
408.896	80
409.12	86
409.344	82
409.567	84
409.791	85
410.014	92
410.238	74
410.461	89
410.685	84
410.908	89
411.132	88
411.355	77
411.578	89
411.802	92
412.025	80
412.249	95
412.472	65
412.695	71
412.919	78
413.142	84
413.365	81
413.589	77
413.812	88
414.035	84
414.258	86
414.482	89
414.705	84
414.928	86
415.151	68
415.374	93
415.597	87
415.821	94
416.044	84
416.267	86
416.49	82
416.713	83
416.936	73
417.159	82
417.382	78
417.605	90
417.828	89
418.051	72
418.274	77
418.497	97
418.72	82
418.943	73
419.166	73
419.389	65
419.611	69
419.834	90
420.057	89
420.28	77
420.503	73
420.726	86
420.948	75
421.171	76
421.394	74
421.617	98
421.839	77
422.062	109
422.285	112
422.507	152
422.73	230
422.953	221
423.175	113
423.398	82
423.621	76
423.843	82
424.066	72
424.288	77
424.511	90
424.733	82
424.956	93
425.178	81
425.401	68
425.623	89
425.846	77
426.068	94
426.291	77
426.513	72
426.735	75
426.958	87
427.18	82
427.402	93
427.625	80
427.847	73
428.069	97
428.292	97
428.514	115
428.736	114
428.958	104
429.181	102
429.403	89
429.625	85
429.847	102
430.069	118
430.292	121
430.514	117
430.736	111
430.958	124
431.18	77
431.402	90
431.624	87
431.846	97
432.068	110
432.29	86
432.512	93
432.734	86
432.956	85
433.178	83
433.4	86
433.622	82
433.844	82
434.066	74
434.287	79
434.509	80
434.731	79
434.953	84
435.175	82
435.397	84
435.618	83
435.84	74
436.062	83
436.284	86
436.505	71
436.727	84
436.949	76
437.17	61
437.392	78
437.614	88
437.835	81
438.057	94
438.278	102
438.5	84
438.721	89
438.943	90
439.165	86
439.386	87
439.608	72
439.829	82
440.05	84
440.272	74
440.493	93
440.715	87
440.936	92
441.158	83
441.379	78
441.6	82
441.822	86
442.043	86
442.264	86
442.486	103
442.707	109
442.928	84
443.149	85
443.371	111
443.592	142
443.813	142
444.034	93
444.255	97
444.476	70
444.698	78
444.919	80
445.14	156
445.361	158
445.582	160
445.803	153
446.024	111
446.245	93
446.466	94
446.687	80
446.908	104
447.129	83
447.35	87
447.571	78
447.792	76
448.013	86
448.234	72
448.455	80
448.675	83
448.896	84
449.117	82
449.338	93
449.559	73
449.779	78
450	84
450.221	85
450.442	78
450.662	89
450.883	81
451.104	79
451.324	94
451.545	75
451.766	78
451.986	86
452.207	80
452.428	78
452.648	89
452.869	85
453.089	77
453.31	74
453.53	91
453.751	90
453.971	84
454.192	84
454.412	95
454.633	86
454.853	98
455.073	84
455.294	87
455.514	92
455.734	93
455.955	92
456.175	74
456.395	75
456.616	90
456.836	96
457.056	93
457.276	83
457.497	85
457.717	87
457.937	89
458.157	89
458.377	100
458.598	106
458.818	88
459.038	88
459.258	75
459.478	86
459.698	74
459.918	74
460.138	88
460.358	86
460.578	84
460.798	80
461.018	85
461.238	73
461.458	82
461.678	92
461.898	82
462.118	89
462.338	91
462.558	76
462.777	80
462.997	86
463.217	92
463.437	83
463.657	90
463.876	80
464.096	88
464.316	83
464.536	88
464.755	86
464.975	70
465.195	84
465.414	79
465.634	94
465.854	75
466.073	70
466.293	74
466.512	65
466.732	95
466.951	82
467.171	77
467.391	82
467.61	81
467.829	93
468.049	77
468.268	81
468.488	87
468.707	83
468.927	75
469.146	82
469.365	80
469.585	94
469.804	85
470.023	74
470.243	87
470.462	92
470.681	74
470.901	80
471.12	84
471.339	84
471.558	67
471.777	94
471.997	94
472.216	91
472.435	87
472.654	80
472.873	83
473.092	89
473.311	80
473.53	72
473.749	97
473.968	81
474.187	88
474.406	85
474.625	94
474.844	104
475.063	76
475.282	74
475.501	78
475.72	89
475.939	100
476.158	84
476.377	87
476.596	73
476.814	79
477.033	92
477.252	78
477.471	81
477.69	85
477.908	82
478.127	81
478.346	105
478.564	89
478.783	90
479.002	96
479.22	82
479.439	93
479.658	78
479.876	78
480.095	79
480.313	96
480.532	80
480.751	89
480.969	95
481.188	96
481.406	81
481.624	95
481.843	91
482.061	94
482.28	81
482.498	78
482.717	84
482.935	88
483.153	84
483.372	85
483.59	81
483.808	75
484.027	94
484.245	79
484.463	85
484.681	93
484.9	83
485.118	90
485.336	83
485.554	80
485.772	80
485.99	106
486.209	88
486.427	69
486.645	88
486.863	86
487.081	83
487.299	96
487.517	90
487.735	94
487.953	95
488.171	98
488.389	95
488.607	88
488.825	88
489.043	78
489.261	93
489.479	92
489.696	85
489.914	93
490.132	81
490.35	102
490.568	100
490.786	98
491.003	76
491.221	78
491.439	88
491.657	91
491.874	94
492.092	83
492.31	92
492.527	85
492.745	77
492.963	96
493.18	84
493.398	87
493.615	108
493.833	75
494.05	95
494.268	86
494.485	91
494.703	80
494.92	94
495.138	90
495.355	92
495.573	92
495.79	85
496.008	79
496.225	74
496.442	82
496.66	93
496.877	97
497.094	85
497.312	86
497.529	72
497.746	80
497.963	84
498.181	89
498.398	100
498.615	88
498.832	84
499.049	84
499.267	82
499.484	88
499.701	96
499.918	82
500.135	101
500.352	87
500.569	82
500.786	92
501.003	93
501.22	84
501.437	95
501.654	90
501.871	86
502.088	91
502.305	86
502.522	84
502.739	89
502.956	97
503.172	90
503.389	99
503.606	91
503.823	82
504.04	93
504.256	99
504.473	92
504.69	83
504.907	92
505.123	85
505.34	82
505.557	85
505.773	103
505.99	96
506.207	95
506.423	85
506.64	90
506.856	89
507.073	84
507.289	95
507.506	88
507.722	94
507.939	92
508.155	93
508.372	92
508.588	84
508.805	101
509.021	79
509.238	92
509.454	93
509.67	77
509.887	74
510.103	77
510.319	92
510.536	99
510.752	96
510.968	78
511.184	82
511.401	80
511.617	91
511.833	85
512.049	98
512.265	87
512.481	93
512.698	104
512.914	93
513.13	92
513.346	94
513.562	92
513.778	91
513.994	99
514.21	76
514.426	84
514.642	93
514.858	102
515.074	93
515.29	97
515.506	86
515.721	88
515.937	99
516.153	100
516.369	94
516.585	95
516.801	79
517.016	101
517.232	88
517.448	117
517.664	96
517.879	85
518.095	88
518.311	106
518.527	122
518.742	95
518.958	95
519.173	107
519.389	97
519.605	108
519.82	93
520.036	93
520.251	112
520.467	88
520.682	73
520.898	95
521.113	103
521.329	98
521.544	94
521.76	85
521.975	86
522.19	89
522.406	85
522.621	91
522.836	95
523.052	95
523.267	93
523.482	85
523.698	99
523.913	96
524.128	93
524.343	90
524.559	94
524.774	102
524.989	100
525.204	91
525.419	93
525.634	98
525.849	92
526.064	97
526.28	131
526.495	161
526.71	169
526.925	111
527.14	159
527.355	135
527.57	95
527.785	102
527.999	87
528.214	106
528.429	75
528.644	82
528.859	94
529.074	94
529.289	93
529.503	87
529.718	79
529.933	95
530.148	89
530.363	95
530.577	89
530.792	91
531.007	86
531.221	88
531.436	81
531.651	108
531.865	84
532.08	88
532.295	92
532.509	100
532.724	106
532.938	110
533.153	99
533.367	79
533.582	97
533.796	87
534.011	77
534.225	105
534.44	99
534.654	96
534.868	94
535.083	106
535.297	100
535.511	101
535.726	105
535.94	117
536.154	94
536.369	115
536.583	96
536.797	94
537.011	95
537.225	91
537.44	100
537.654	98
537.868	84
538.082	75
538.296	86
538.51	100
538.724	97
538.938	90
539.153	85
539.367	102
539.581	93
539.795	98
540.009	95
540.222	85
540.436	77
540.65	81
540.864	92
541.078	89
541.292	98
541.506	87
541.72	87
541.934	84
542.147	92
542.361	78
542.575	94
542.789	97
543.002	106
543.216	95
543.43	96
543.644	101
543.857	97
544.071	85
544.285	89
544.498	91
544.712	93
544.925	99
545.139	97
545.352	98
545.566	96
545.779	90
545.993	98
546.206	85
546.42	86
546.633	97
546.847	106
547.06	102
547.274	114
547.487	116
547.7	123
547.914	113
548.127	116
548.34	130
548.554	112
548.767	115
548.98	131
549.193	117
549.407	128
549.62	130
549.833	130
550.046	133
550.259	134
550.473	148
550.686	146
550.899	154
551.112	165
551.325	174
551.538	174
551.751	158
551.964	172
552.177	164
552.39	144
552.603	167
552.816	167
553.029	162
553.242	178
553.455	172
553.667	174
553.88	168
554.093	188
554.306	195
554.519	190
554.732	196
554.944	217
555.157	182
555.37	176
555.583	164
555.795	152
556.008	150
556.221	136
556.433	149
556.646	137
556.859	128
557.071	137
557.284	123
557.496	112
557.709	112
557.921	120
558.134	120
558.346	160
558.559	138
558.771	122
558.984	168
559.196	209
559.409	151
559.621	175
559.833	141
560.046	162
560.258	135
560.47	144
560.683	108
560.895	106
561.107	108
561.32	102
561.532	108
561.744	90
561.956	93
562.168	93
562.381	94
562.593	92
562.805	98
563.017	87
563.229	87
563.441	99
563.653	106
563.865	88
564.077	98
564.289	97
564.501	94
564.713	89
564.925	98
565.137	86
565.349	86
565.561	99
565.773	104
565.985	92
566.197	102
566.408	90
566.62	94
566.832	89
567.044	84
567.255	86
567.467	89
567.679	84
567.891	88
568.102	95
568.314	98
568.526	97
568.737	102
568.949	108
569.161	104
569.372	85
569.584	91
569.795	101
570.007	93
570.218	99
570.43	94
570.641	92
570.853	101
571.064	90
571.276	100
571.487	81
571.698	92
571.91	98
572.121	106
572.333	101
572.544	97
572.755	106
572.966	94
573.178	104
573.389	89
573.6	88
573.811	97
574.023	103
574.234	104
574.445	91
574.656	92
574.867	76
575.078	90
575.289	69
575.501	88
575.712	75
575.923	88
576.134	103
576.345	93
576.556	99
576.767	99
576.978	97
577.188	86
577.399	91
577.61	82
577.821	80
578.032	91
578.243	89
578.454	109
578.665	94
578.875	96
579.086	82
579.297	93
579.508	92
579.718	89
579.929	80
580.14	87
580.35	94
580.561	98
580.772	97
580.982	68
581.193	87
581.403	94
581.614	94
581.825	89
582.035	99
582.246	100
582.456	89
582.667	81
582.877	73
583.087	89
583.298	102
583.508	102
583.719	99
583.929	93
584.139	81
584.35	88
584.56	98
584.77	83
584.981	87
585.191	85
585.401	83
585.611	103
585.821	92
586.032	144
586.242	103
586.452	105
586.662	94
586.872	103
587.082	80
587.292	110
