Data from 1600_4_HRD10591_00035.txt Node
Date: Mon Jan 19 13:56:28 EST 2026
User: Yrep
Spectrometer: HR+D1059
Trigger mode: 1
Integration Time (sec): 1.000000E-1
Scans to average: 1
Electric dark correction enabled: true
Nonlinearity correction enabled: false
Boxcar width: 0
XAxis mode: Wavelengths
Number of Pixels in Spectrum: 2048
>>>>>Begin Spectral Data<<<<<
223.165	-24.31
223.4	-24.31
223.635	-24.31
223.869	-19.31
224.104	-17.31
224.338	-11.31
224.573	-22.31
224.808	-11.31
225.042	-7.31
225.277	-5.31
225.511	-6.31
225.746	6.69
225.98	0.69
226.215	19.69
226.449	24.69
226.683	31.69
226.918	15.69
227.152	25.69
227.387	33.69
227.621	34.69
227.856	54.69
228.09	52.69
228.324	44.69
228.559	53.69
228.793	68.69
229.027	52.69
229.262	73.69
229.496	69.69
229.73	76.69
229.964	71.69
230.199	74.69
230.433	74.69
230.667	84.69
230.901	84.69
231.136	77.69
231.37	77.69
231.604	77.69
231.838	72.69
232.072	74.69
232.306	77.69
232.541	82.69
232.775	89.69
233.009	87.69
233.243	89.69
233.477	73.69
233.711	90.69
233.945	81.69
234.179	80.69
234.413	94.69
234.647	86.69
234.881	78.69
235.115	80.69
235.349	74.69
235.583	94.69
235.817	73.69
236.051	70.69
236.285	66.69
236.519	72.69
236.753	78.69
236.987	76.69
237.221	65.69
237.455	73.69
237.689	70.69
237.922	75.69
238.156	69.69
238.39	73.69
238.624	86.69
238.858	87.69
239.091	74.69
239.325	81.69
239.559	64.69
239.793	79.69
240.027	70.69
240.26	77.69
240.494	82.69
240.728	85.69
240.961	70.69
241.195	92.69
241.429	78.69
241.662	75.69
241.896	64.69
242.13	73.69
242.363	81.69
242.597	82.69
242.83	81.69
243.064	78.69
243.298	88.69
243.531	72.69
243.765	63.69
243.998	74.69
244.232	75.69
244.465	80.69
244.699	92.69
244.932	72.69
245.166	77.69
245.399	84.69
245.633	80.69
245.866	60.69
246.099	71.69
246.333	74.69
246.566	86.69
246.8	86.69
247.033	80.69
247.266	71.69
247.5	68.69
247.733	69.69
247.966	65.69
248.2	78.69
248.433	81.69
248.666	90.69
248.899	86.69
249.133	76.69
249.366	89.69
249.599	73.69
249.832	77.69
250.066	84.69
250.299	66.69
250.532	89.69
250.765	74.69
250.998	74.69
251.231	85.69
251.465	77.69
251.698	76.69
251.931	73.69
252.164	83.69
252.397	79.69
252.63	80.69
252.863	71.69
253.096	80.69
253.329	82.69
253.562	81.69
253.795	76.69
254.028	79.69
254.261	66.69
254.494	84.69
254.727	78.69
254.96	76.69
255.193	75.69
255.426	81.69
255.659	68.69
255.892	91.69
256.124	82.69
256.357	85.69
256.59	82.69
256.823	85.69
257.056	74.69
257.289	90.69
257.521	70.69
257.754	79.69
257.987	65.69
258.22	76.69
258.452	82.69
258.685	76.69
258.918	81.69
259.151	88.69
259.383	76.69
259.616	83.69
259.849	82.69
260.081	86.69
260.314	76.69
260.547	81.69
260.779	78.69
261.012	82.69
261.244	89.69
261.477	90.69
261.71	89.69
261.942	84.69
262.175	83.69
262.407	89.69
262.64	92.69
262.872	79.69
263.105	87.69
263.337	83.69
263.57	87.69
263.802	65.69
264.035	89.69
264.267	80.69
264.499	78.69
264.732	84.69
264.964	93.69
265.197	77.69
265.429	73.69
265.661	74.69
265.894	92.69
266.126	81.69
266.358	92.69
266.591	77.69
266.823	103.69
267.055	86.69
267.287	74.69
267.52	73.69
267.752	81.69
267.984	100.69
268.216	79.69
268.448	85.69
268.681	80.69
268.913	84.69
269.145	80.69
269.377	80.69
269.609	81.69
269.841	80.69
270.073	80.69
270.306	76.69
270.538	82.69
270.77	81.69
271.002	81.69
271.234	73.69
271.466	76.69
271.698	83.69
271.93	69.69
272.162	72.69
272.394	98.69
272.626	79.69
272.858	94.69
273.09	92.69
273.322	78.69
273.553	99.69
273.785	92.69
274.017	86.69
274.249	81.69
274.481	90.69
274.713	94.69
274.945	80.69
275.176	80.69
275.408	95.69
275.64	84.69
275.872	76.69
276.104	84.69
276.335	75.69
276.567	73.69
276.799	82.69
277.031	75.69
277.262	86.69
277.494	88.69
277.726	88.69
277.957	83.69
278.189	67.69
278.421	79.69
278.652	86.69
278.884	99.69
279.115	77.69
279.347	93.69
279.579	85.69
279.81	74.69
280.042	82.69
280.273	82.69
280.505	70.69
280.736	88.69
280.968	82.69
281.199	83.69
281.431	76.69
281.662	83.69
281.894	87.69
282.125	82.69
282.356	91.69
282.588	95.69
282.819	80.69
283.051	89.69
283.282	82.69
283.513	87.69
283.745	84.69
283.976	86.69
284.207	83.69
284.439	69.69
284.67	85.69
284.901	102.69
285.132	87.69
285.364	81.69
285.595	87.69
285.826	96.69
286.057	84.69
286.288	94.69
286.52	84.69
286.751	82.69
286.982	93.69
287.213	92.69
287.444	83.69
287.675	86.69
287.906	86.69
288.138	93.69
288.369	94.69
288.6	76.69
288.831	81.69
289.062	96.69
289.293	74.69
289.524	80.69
289.755	80.69
289.986	77.69
290.217	83.69
290.448	70.69
290.679	67.69
290.91	90.69
291.141	76.69
291.371	73.69
291.602	88.69
291.833	96.69
292.064	96.69
292.295	83.69
292.526	91.69
292.757	87.69
292.987	76.69
293.218	84.69
293.449	84.69
293.68	91.69
293.91	66.69
294.141	101.69
294.372	74.69
294.603	72.69
294.833	89.69
295.064	86.69
295.295	96.69
295.525	81.69
295.756	78.69
295.987	83.69
296.217	85.69
296.448	77.69
296.679	82.69
296.909	83.69
297.14	89.69
297.37	87.69
297.601	93.69
297.831	80.69
298.062	98.69
298.292	92.69
298.523	81.69
298.753	80.69
298.984	80.69
299.214	100.69
299.445	87.69
299.675	75.69
299.905	81.69
300.136	87.69
300.366	90.69
300.597	71.69
300.827	97.69
301.057	77.69
301.288	80.69
301.518	89.69
301.748	92.69
301.979	94.69
302.209	104.69
302.439	76.69
302.669	88.69
302.9	78.69
303.13	89.69
303.36	93.69
303.59	81.69
303.82	86.69
304.051	72.69
304.281	96.69
304.511	73.69
304.741	95.69
304.971	80.69
305.201	82.69
305.431	96.69
305.661	87.69
305.891	83.69
306.121	83.69
306.352	93.69
306.582	78.69
306.812	70.69
307.042	74.69
307.272	84.69
307.502	76.69
307.731	69.69
307.961	76.69
308.191	101.69
308.421	96.69
308.651	86.69
308.881	97.69
309.111	74.69
309.341	84.69
309.571	95.69
309.8	84.69
310.03	84.69
310.26	83.69
310.49	96.69
310.72	91.69
310.949	97.69
311.179	76.69
311.409	83.69
311.639	86.69
311.868	77.69
312.098	73.69
312.328	79.69
312.557	85.69
312.787	86.69
313.017	82.69
313.246	84.69
313.476	92.69
313.706	82.69
313.935	80.69
314.165	91.69
314.394	83.69
314.624	82.69
314.853	84.69
315.083	77.69
315.312	81.69
315.542	75.69
315.771	73.69
316.001	80.69
316.23	87.69
316.46	81.69
316.689	85.69
316.919	82.69
317.148	84.69
317.377	94.69
317.607	93.69
317.836	89.69
318.065	80.69
318.295	85.69
318.524	87.69
318.753	82.69
318.983	87.69
319.212	83.69
319.441	92.69
319.67	79.69
319.9	73.69
320.129	91.69
320.358	90.69
320.587	84.69
320.816	84.69
321.046	95.69
321.275	83.69
321.504	90.69
321.733	92.69
321.962	83.69
322.191	80.69
322.42	93.69
322.649	82.69
322.878	101.69
323.108	100.69
323.337	90.69
323.566	88.69
323.795	83.69
324.024	90.69
324.253	82.69
324.482	90.69
324.71	81.69
324.939	82.69
325.168	69.69
325.397	85.69
325.626	88.69
325.855	84.69
326.084	89.69
326.313	76.69
326.542	84.69
326.77	83.69
326.999	77.69
327.228	80.69
327.457	72.69
327.686	80.69
327.914	92.69
328.143	82.69
328.372	88.69
328.6	84.69
328.829	101.69
329.058	73.69
329.287	84.69
329.515	90.69
329.744	85.69
329.972	94.69
330.201	93.69
330.43	90.69
330.658	72.69
330.887	90.69
331.115	92.69
331.344	92.69
331.572	82.69
331.801	77.69
332.03	104.69
332.258	89.69
332.486	93.69
332.715	97.69
332.943	92.69
333.172	92.69
333.4	83.69
333.629	80.69
333.857	87.69
334.085	92.69
334.314	87.69
334.542	86.69
334.771	87.69
334.999	93.69
335.227	84.69
335.455	103.69
335.684	80.69
335.912	80.69
336.14	78.69
336.369	67.69
336.597	80.69
336.825	76.69
337.053	88.69
337.281	89.69
337.51	71.69
337.738	94.69
337.966	87.69
338.194	78.69
338.422	87.69
338.65	98.69
338.878	80.69
339.106	75.69
339.334	85.69
339.562	76.69
339.79	78.69
340.018	74.69
340.246	66.69
340.474	83.69
340.702	74.69
340.93	88.69
341.158	88.69
341.386	71.69
341.614	88.69
341.842	84.69
342.07	85.69
342.298	93.69
342.526	91.69
342.754	65.69
342.981	89.69
343.209	78.69
343.437	108.69
343.665	81.69
343.893	72.69
344.12	82.69
344.348	66.69
344.576	79.69
344.804	76.69
345.031	70.69
345.259	85.69
345.487	66.69
345.714	72.69
345.942	76.69
346.17	90.69
346.397	96.69
346.625	82.69
346.853	72.69
347.08	80.69
347.308	95.69
347.535	76.69
347.763	85.69
347.99	83.69
348.218	88.69
348.445	99.69
348.673	82.69
348.9	96.69
349.128	87.69
349.355	78.69
349.583	87.69
349.81	80.69
350.037	78.69
350.265	97.69
350.492	83.69
350.72	85.69
350.947	86.69
351.174	86.69
351.402	80.69
351.629	99.69
351.856	90.69
352.083	65.69
352.311	81.69
352.538	80.69
352.765	72.69
352.992	86.69
353.22	87.69
353.447	93.69
353.674	86.69
353.901	86.69
354.128	72.69
354.355	73.69
354.583	76.69
354.81	102.69
355.037	80.69
355.264	87.69
355.491	81.69
355.718	88.69
355.945	68.69
356.172	91.69
356.399	87.69
356.626	85.69
356.853	83.69
357.08	88.69
357.307	88.69
357.534	86.69
357.761	90.69
357.988	97.69
358.215	86.69
358.441	88.69
358.668	80.69
358.895	89.69
359.122	83.69
359.349	84.69
359.576	95.69
359.802	93.69
360.029	90.69
360.256	80.69
360.483	80.69
360.709	93.69
360.936	84.69
361.163	75.69
361.39	85.69
361.616	86.69
361.843	91.69
362.07	96.69
362.296	75.69
362.523	86.69
362.749	93.69
362.976	79.69
363.203	88.69
363.429	79.69
363.656	75.69
363.882	82.69
364.109	95.69
364.335	74.69
364.562	80.69
364.788	86.69
365.015	82.69
365.241	84.69
365.468	82.69
365.694	84.69
365.92	82.69
366.147	90.69
366.373	94.69
366.599	92.69
366.826	90.69
367.052	86.69
367.278	80.69
367.505	81.69
367.731	89.69
367.957	83.69
368.184	88.69
368.41	86.69
368.636	91.69
368.862	85.69
369.089	98.69
369.315	82.69
369.541	87.69
369.767	80.69
369.993	88.69
370.219	86.69
370.445	92.69
370.672	95.69
370.898	87.69
371.124	82.69
371.35	82.69
371.576	80.69
371.802	88.69
372.028	83.69
372.254	73.69
372.48	78.69
372.706	88.69
372.932	94.69
373.158	89.69
373.384	96.69
373.61	95.69
373.835	81.69
374.061	86.69
374.287	91.69
374.513	84.69
374.739	92.69
374.965	93.69
375.191	82.69
375.416	85.69
375.642	94.69
375.868	73.69
376.094	74.69
376.319	101.69
376.545	76.69
376.771	86.69
376.997	82.69
377.222	76.69
377.448	94.69
377.674	79.69
377.899	87.69
378.125	87.69
378.35	86.69
378.576	86.69
378.802	93.69
379.027	92.69
379.253	94.69
379.478	82.69
379.704	74.69
379.929	78.69
380.155	80.69
380.38	70.69
380.606	84.69
380.831	88.69
381.057	84.69
381.282	73.69
381.507	72.69
381.733	82.69
381.958	73.69
382.184	74.69
382.409	89.69
382.634	95.69
382.86	90.69
383.085	87.69
383.31	80.69
383.535	96.69
383.761	90.69
383.986	92.69
384.211	82.69
384.436	81.69
384.662	78.69
384.887	84.69
385.112	69.69
385.337	85.69
385.562	80.69
385.787	73.69
386.013	80.69
386.238	76.69
386.463	79.69
386.688	91.69
386.913	92.69
387.138	86.69
387.363	78.69
387.588	91.69
387.813	90.69
388.038	76.69
388.263	83.69
388.488	74.69
388.713	87.69
388.938	70.69
389.163	82.69
389.387	87.69
389.612	78.69
389.837	81.69
390.062	82.69
390.287	93.69
390.512	78.69
390.736	81.69
390.961	84.69
391.186	78.69
391.411	76.69
391.636	87.69
391.86	100.69
392.085	79.69
392.31	86.69
392.534	87.69
392.759	93.69
392.984	99.69
393.208	100.69
393.433	131.69
393.658	103.69
393.882	80.69
394.107	81.69
394.331	99.69
394.556	75.69
394.78	84.69
395.005	92.69
395.229	72.69
395.454	86.69
395.678	88.69
395.903	94.69
396.127	84.69
396.352	94.69
396.576	97.69
396.801	112.69
397.025	104.69
397.249	98.69
397.474	83.69
397.698	75.69
397.922	84.69
398.147	74.69
398.371	94.69
398.595	85.69
398.82	82.69
399.044	90.69
399.268	72.69
399.492	71.69
399.717	71.69
399.941	68.69
400.165	88.69
400.389	80.69
400.613	85.69
400.837	78.69
401.062	91.69
401.286	80.69
401.51	92.69
401.734	74.69
401.958	76.69
402.182	77.69
402.406	75.69
402.63	78.69
402.854	84.69
403.078	90.69
403.302	94.69
403.526	74.69
403.75	87.69
403.974	63.69
404.198	78.69
404.422	88.69
404.645	89.69
404.869	85.69
405.093	80.69
405.317	88.69
405.541	86.69
405.765	75.69
405.988	71.69
406.212	86.69
406.436	83.69
406.66	87.69
406.883	77.69
407.107	80.69
407.331	80.69
407.555	89.69
407.778	80.69
408.002	87.69
408.226	85.69
408.449	87.69
408.673	79.69
408.896	74.69
409.12	81.69
409.344	75.69
409.567	80.69
409.791	92.69
410.014	85.69
410.238	91.69
410.461	73.69
410.685	64.69
410.908	82.69
411.132	96.69
411.355	88.69
411.578	71.69
411.802	87.69
412.025	75.69
412.249	74.69
412.472	91.69
412.695	90.69
412.919	77.69
413.142	78.69
413.365	80.69
413.589	89.69
413.812	82.69
414.035	66.69
414.258	89.69
414.482	72.69
414.705	88.69
414.928	90.69
415.151	90.69
415.374	74.69
415.597	73.69
415.821	69.69
416.044	67.69
416.267	84.69
416.49	82.69
416.713	81.69
416.936	79.69
417.159	90.69
417.382	85.69
417.605	86.69
417.828	98.69
418.051	88.69
418.274	85.69
418.497	82.69
418.72	81.69
418.943	73.69
419.166	82.69
419.389	84.69
419.611	79.69
419.834	84.69
420.057	78.69
420.28	86.69
420.503	94.69
420.726	74.69
420.948	86.69
421.171	89.69
421.394	86.69
421.617	88.69
421.839	77.69
422.062	85.69
422.285	90.69
422.507	88.69
422.73	97.69
422.953	104.69
423.175	65.69
423.398	80.69
423.621	80.69
423.843	91.69
424.066	87.69
424.288	82.69
424.511	89.69
424.733	86.69
424.956	65.69
425.178	78.69
425.401	98.69
425.623	87.69
425.846	77.69
426.068	71.69
426.291	87.69
426.513	84.69
426.735	92.69
426.958	79.69
427.18	85.69
427.402	75.69
427.625	75.69
427.847	75.69
428.069	81.69
428.292	85.69
428.514	69.69
428.736	60.69
428.958	81.69
429.181	92.69
429.403	87.69
429.625	87.69
429.847	78.69
430.069	86.69
430.292	88.69
430.514	103.69
430.736	90.69
430.958	88.69
431.18	82.69
431.402	78.69
431.624	78.69
431.846	92.69
432.068	89.69
432.29	91.69
432.512	92.69
432.734	72.69
432.956	70.69
433.178	79.69
433.4	88.69
433.622	65.69
433.844	91.69
434.066	83.69
434.287	89.69
434.509	90.69
434.731	96.69
434.953	76.69
435.175	93.69
435.397	70.69
435.618	87.69
435.84	86.69
436.062	82.69
436.284	66.69
436.505	82.69
436.727	87.69
436.949	87.69
437.17	81.69
437.392	89.69
437.614	78.69
437.835	84.69
438.057	78.69
438.278	80.69
438.5	82.69
438.721	86.69
438.943	85.69
439.165	89.69
439.386	92.69
439.608	83.69
439.829	83.69
440.05	85.69
440.272	77.69
440.493	67.69
440.715	74.69
440.936	86.69
441.158	82.69
441.379	83.69
441.6	85.69
441.822	90.69
442.043	80.69
442.264	76.69
442.486	82.69
442.707	91.69
442.928	84.69
443.149	82.69
443.371	86.69
443.592	94.69
443.813	68.69
444.034	96.69
444.255	90.69
444.476	76.69
444.698	96.69
444.919	86.69
445.14	146.69
445.361	114.69
445.582	85.69
445.803	82.69
446.024	82.69
446.245	72.69
446.466	84.69
446.687	86.69
446.908	74.69
447.129	78.69
447.35	75.69
447.571	79.69
447.792	68.69
448.013	77.69
448.234	97.69
448.455	81.69
448.675	77.69
448.896	77.69
449.117	83.69
449.338	92.69
449.559	93.69
449.779	87.69
450	82.69
450.221	88.69
450.442	93.69
450.662	71.69
450.883	72.69
451.104	88.69
451.324	95.69
451.545	93.69
451.766	76.69
451.986	74.69
452.207	100.69
452.428	78.69
452.648	84.69
452.869	70.69
453.089	83.69
453.31	73.69
453.53	93.69
453.751	98.69
453.971	100.69
454.192	84.69
454.412	71.69
454.633	78.69
454.853	84.69
455.073	84.69
455.294	83.69
455.514	92.69
455.734	89.69
455.955	100.69
456.175	80.69
456.395	71.69
456.616	83.69
456.836	87.69
457.056	74.69
457.276	86.69
457.497	82.69
457.717	79.69
457.937	93.69
458.157	96.69
458.377	85.69
458.598	85.69
458.818	85.69
459.038	73.69
459.258	76.69
459.478	88.69
459.698	98.69
459.918	88.69
460.138	92.69
460.358	93.69
460.578	82.69
460.798	87.69
461.018	86.69
461.238	88.69
461.458	76.69
461.678	85.69
461.898	84.69
462.118	90.69
462.338	73.69
462.558	76.69
462.777	90.69
462.997	80.69
463.217	78.69
463.437	70.69
463.657	84.69
463.876	73.69
464.096	66.69
464.316	73.69
464.536	77.69
464.755	79.69
464.975	77.69
465.195	79.69
465.414	89.69
465.634	75.69
465.854	82.69
466.073	88.69
466.293	76.69
466.512	85.69
466.732	78.69
466.951	79.69
467.171	76.69
467.391	80.69
467.61	84.69
467.829	79.69
468.049	89.69
468.268	85.69
468.488	89.69
468.707	81.69
468.927	77.69
469.146	86.69
469.365	82.69
469.585	77.69
469.804	87.69
470.023	85.69
470.243	99.69
470.462	77.69
470.681	78.69
470.901	74.69
471.12	72.69
471.339	77.69
471.558	72.69
471.777	98.69
471.997	79.69
472.216	87.69
472.435	70.69
472.654	87.69
472.873	87.69
473.092	77.69
473.311	83.69
473.53	78.69
473.749	80.69
473.968	81.69
474.187	78.69
474.406	84.69
474.625	85.69
474.844	78.69
475.063	80.69
475.282	90.69
475.501	77.69
475.72	86.69
475.939	82.69
476.158	86.69
476.377	97.69
476.596	78.69
476.814	85.69
477.033	86.69
477.252	77.69
477.471	76.69
477.69	89.69
477.908	75.69
478.127	74.69
478.346	78.69
478.564	93.69
478.783	86.69
479.002	78.69
479.22	82.69
479.439	77.69
479.658	86.69
479.876	89.69
480.095	86.69
480.313	76.69
480.532	92.69
480.751	88.69
480.969	78.69
481.188	80.69
481.406	91.69
481.624	88.69
481.843	87.69
482.061	93.69
482.28	91.69
482.498	76.69
482.717	72.69
482.935	83.69
483.153	73.69
483.372	97.69
483.59	89.69
483.808	83.69
484.027	80.69
484.245	89.69
484.463	92.69
484.681	84.69
484.9	82.69
485.118	69.69
485.336	72.69
485.554	76.69
485.772	87.69
485.99	82.69
486.209	72.69
486.427	91.69
486.645	73.69
486.863	79.69
487.081	91.69
487.299	83.69
487.517	85.69
487.735	80.69
487.953	76.69
488.171	95.69
488.389	78.69
488.607	78.69
488.825	85.69
489.043	76.69
489.261	80.69
489.479	72.69
489.696	82.69
489.914	75.69
490.132	82.69
490.35	91.69
490.568	84.69
490.786	82.69
491.003	88.69
491.221	76.69
491.439	71.69
491.657	77.69
491.874	75.69
492.092	100.69
492.31	83.69
492.527	90.69
492.745	78.69
492.963	82.69
493.18	82.69
493.398	89.69
493.615	87.69
493.833	79.69
494.05	91.69
494.268	73.69
494.485	80.69
494.703	85.69
494.92	84.69
495.138	76.69
495.355	69.69
495.573	85.69
495.79	85.69
496.008	81.69
496.225	82.69
496.442	97.69
496.66	86.69
496.877	80.69
497.094	82.69
497.312	84.69
497.529	86.69
497.746	86.69
497.963	87.69
498.181	72.69
498.398	92.69
498.615	93.69
498.832	100.69
499.049	83.69
499.267	75.69
499.484	75.69
499.701	85.69
499.918	82.69
500.135	77.69
500.352	94.69
500.569	86.69
500.786	89.69
501.003	74.69
501.22	84.69
501.437	84.69
501.654	85.69
501.871	90.69
502.088	85.69
502.305	83.69
502.522	74.69
502.739	90.69
502.956	75.69
503.172	81.69
503.389	88.69
503.606	83.69
503.823	81.69
504.04	83.69
504.256	82.69
504.473	70.69
504.69	77.69
504.907	89.69
505.123	82.69
505.34	84.69
505.557	81.69
505.773	90.69
505.99	74.69
506.207	95.69
506.423	78.69
506.64	80.69
506.856	95.69
507.073	77.69
507.289	87.69
507.506	80.69
507.722	68.69
507.939	82.69
508.155	92.69
508.372	90.69
508.588	64.69
508.805	81.69
509.021	80.69
509.238	66.69
509.454	70.69
509.67	82.69
509.887	74.69
510.103	89.69
510.319	77.69
510.536	78.69
510.752	73.69
510.968	89.69
511.184	76.69
511.401	95.69
511.617	92.69
511.833	87.69
512.049	80.69
512.265	77.69
512.481	67.69
512.698	75.69
512.914	84.69
513.13	93.69
513.346	82.69
513.562	79.69
513.778	90.69
513.994	93.69
514.21	77.69
514.426	88.69
514.642	87.69
514.858	82.69
515.074	84.69
515.29	99.69
515.506	83.69
515.721	100.69
515.937	93.69
516.153	86.69
516.369	72.69
516.585	81.69
516.801	66.69
517.016	81.69
517.232	85.69
517.448	85.69
517.664	90.69
517.879	84.69
518.095	84.69
518.311	72.69
518.527	80.69
518.742	64.69
518.958	104.69
519.173	83.69
519.389	79.69
519.605	90.69
519.82	88.69
