Data from 1600_4_HRD10591_00005.txt Node
Date: Mon Jan 19 13:56:13 EST 2026
User: Yrep
Spectrometer: HR+D1059
Trigger mode: 1
Integration Time (sec): 1.000000E-1
Scans to average: 1
Electric dark correction enabled: true
Nonlinearity correction enabled: false
Boxcar width: 0
XAxis mode: Wavelengths
Number of Pixels in Spectrum: 2048
>>>>>Begin Spectral Data<<<<<
223.165	-22.31
223.4	-22.31
223.635	-22.31
223.869	-12.31
224.104	-26.31
224.338	-12.31
224.573	-20.31
224.808	-2.31
225.042	-19.31
225.277	3.69
225.511	-20.31
225.746	6.69
225.98	-1.31
226.215	11.69
226.449	22.69
226.683	28.69
226.918	29.69
227.152	33.69
227.387	40.69
227.621	45.69
227.856	52.69
228.09	47.69
228.324	48.69
228.559	59.69
228.793	58.69
229.027	56.69
229.262	62.69
229.496	77.69
229.73	81.69
229.964	71.69
230.199	76.69
230.433	78.69
230.667	71.69
230.901	81.69
231.136	82.69
231.37	69.69
231.604	73.69
231.838	85.69
232.072	76.69
232.306	76.69
232.541	77.69
232.775	75.69
233.009	85.69
233.243	87.69
233.477	84.69
233.711	93.69
233.945	85.69
234.179	78.69
234.413	58.69
234.647	73.69
234.881	75.69
235.115	73.69
235.349	72.69
235.583	68.69
235.817	83.69
236.051	63.69
236.285	85.69
236.519	63.69
236.753	81.69
236.987	82.69
237.221	83.69
237.455	72.69
237.689	78.69
237.922	87.69
238.156	59.69
238.39	81.69
238.624	87.69
238.858	66.69
239.091	86.69
239.325	81.69
239.559	81.69
239.793	73.69
240.027	78.69
240.26	69.69
240.494	68.69
240.728	72.69
240.961	83.69
241.195	78.69
241.429	98.69
241.662	76.69
241.896	89.69
242.13	89.69
242.363	84.69
242.597	85.69
242.83	70.69
243.064	77.69
243.298	88.69
243.531	83.69
243.765	71.69
243.998	79.69
244.232	85.69
244.465	83.69
244.699	93.69
244.932	76.69
245.166	88.69
245.399	75.69
245.633	95.69
245.866	88.69
246.099	68.69
246.333	78.69
246.566	79.69
246.8	70.69
247.033	87.69
247.266	76.69
247.5	81.69
247.733	84.69
247.966	71.69
248.2	75.69
248.433	88.69
248.666	89.69
248.899	76.69
249.133	87.69
249.366	74.69
249.599	85.69
249.832	81.69
250.066	92.69
250.299	81.69
250.532	87.69
250.765	75.69
250.998	79.69
251.231	75.69
251.465	81.69
251.698	77.69
251.931	76.69
252.164	85.69
252.397	73.69
252.63	91.69
252.863	84.69
253.096	70.69
253.329	75.69
253.562	85.69
253.795	74.69
254.028	85.69
254.261	96.69
254.494	85.69
254.727	80.69
254.96	78.69
255.193	75.69
255.426	90.69
255.659	71.69
255.892	70.69
256.124	77.69
256.357	85.69
256.59	71.69
256.823	74.69
257.056	80.69
257.289	74.69
257.521	87.69
257.754	82.69
257.987	84.69
258.22	98.69
258.452	76.69
258.685	65.69
258.918	80.69
259.151	85.69
259.383	94.69
259.616	69.69
259.849	75.69
260.081	101.69
260.314	89.69
260.547	95.69
260.779	77.69
261.012	78.69
261.244	82.69
261.477	93.69
261.71	78.69
261.942	79.69
262.175	89.69
262.407	81.69
262.64	85.69
262.872	79.69
263.105	100.69
263.337	102.69
263.57	84.69
263.802	79.69
264.035	80.69
264.267	77.69
264.499	88.69
264.732	97.69
264.964	77.69
265.197	88.69
265.429	82.69
265.661	75.69
265.894	84.69
266.126	97.69
266.358	91.69
266.591	73.69
266.823	79.69
267.055	87.69
267.287	84.69
267.52	75.69
267.752	93.69
267.984	93.69
268.216	85.69
268.448	83.69
268.681	81.69
268.913	97.69
269.145	92.69
269.377	80.69
269.609	83.69
269.841	78.69
270.073	88.69
270.306	80.69
270.538	81.69
270.77	81.69
271.002	76.69
271.234	88.69
271.466	85.69
271.698	74.69
271.93	95.69
272.162	78.69
272.394	88.69
272.626	80.69
272.858	81.69
273.09	82.69
273.322	89.69
273.553	85.69
273.785	81.69
274.017	76.69
274.249	83.69
274.481	79.69
274.713	85.69
274.945	79.69
275.176	96.69
275.408	86.69
275.64	79.69
275.872	86.69
276.104	85.69
276.335	87.69
276.567	80.69
276.799	73.69
277.031	83.69
277.262	93.69
277.494	89.69
277.726	97.69
277.957	95.69
278.189	80.69
278.421	91.69
278.652	83.69
278.884	84.69
279.115	83.69
279.347	85.69
279.579	84.69
279.81	92.69
280.042	85.69
280.273	82.69
280.505	83.69
280.736	97.69
280.968	88.69
281.199	71.69
281.431	81.69
281.662	88.69
281.894	87.69
282.125	92.69
282.356	93.69
282.588	88.69
282.819	91.69
283.051	85.69
283.282	86.69
283.513	87.69
283.745	91.69
283.976	73.69
284.207	84.69
284.439	76.69
284.67	92.69
284.901	89.69
285.132	85.69
285.364	95.69
285.595	86.69
285.826	95.69
286.057	93.69
286.288	86.69
286.52	85.69
286.751	91.69
286.982	78.69
287.213	82.69
287.444	80.69
287.675	88.69
287.906	90.69
288.138	74.69
288.369	87.69
288.6	86.69
288.831	82.69
289.062	85.69
289.293	84.69
289.524	83.69
289.755	88.69
289.986	87.69
290.217	83.69
290.448	82.69
290.679	83.69
290.91	90.69
291.141	88.69
291.371	98.69
291.602	85.69
291.833	97.69
292.064	98.69
292.295	73.69
292.526	88.69
292.757	94.69
292.987	78.69
293.218	74.69
293.449	79.69
293.68	75.69
293.91	89.69
294.141	89.69
294.372	93.69
294.603	93.69
294.833	97.69
295.064	82.69
295.295	80.69
295.525	96.69
295.756	88.69
295.987	74.69
296.217	96.69
296.448	86.69
296.679	99.69
296.909	89.69
297.14	80.69
297.37	86.69
297.601	95.69
297.831	83.69
298.062	83.69
298.292	80.69
298.523	85.69
298.753	95.69
298.984	92.69
299.214	76.69
299.445	90.69
299.675	88.69
299.905	85.69
300.136	76.69
300.366	75.69
300.597	76.69
300.827	89.69
301.057	85.69
301.288	75.69
301.518	88.69
301.748	88.69
301.979	112.69
302.209	85.69
302.439	87.69
302.669	80.69
302.9	83.69
303.13	83.69
303.36	72.69
303.59	83.69
303.82	85.69
304.051	88.69
304.281	81.69
304.511	97.69
304.741	80.69
304.971	86.69
305.201	95.69
305.431	87.69
305.661	96.69
305.891	83.69
306.121	75.69
306.352	84.69
306.582	85.69
306.812	97.69
307.042	93.69
307.272	74.69
307.502	86.69
307.731	100.69
307.961	73.69
308.191	83.69
308.421	87.69
308.651	88.69
308.881	77.69
309.111	75.69
309.341	87.69
309.571	79.69
309.8	88.69
310.03	85.69
310.26	81.69
310.49	78.69
310.72	85.69
310.949	87.69
311.179	90.69
311.409	82.69
311.639	78.69
311.868	90.69
312.098	84.69
312.328	81.69
312.557	82.69
312.787	96.69
313.017	96.69
313.246	76.69
313.476	81.69
313.706	82.69
313.935	75.69
314.165	78.69
314.394	76.69
314.624	86.69
314.853	87.69
315.083	83.69
315.312	78.69
315.542	77.69
315.771	79.69
316.001	83.69
316.23	98.69
316.46	90.69
316.689	84.69
316.919	97.69
317.148	87.69
317.377	78.69
317.607	103.69
317.836	81.69
318.065	100.69
318.295	83.69
318.524	83.69
318.753	92.69
318.983	86.69
319.212	89.69
319.441	87.69
319.67	95.69
319.9	84.69
320.129	101.69
320.358	86.69
320.587	85.69
320.816	95.69
321.046	76.69
321.275	73.69
321.504	99.69
321.733	90.69
321.962	86.69
322.191	99.69
322.42	100.69
322.649	87.69
322.878	69.69
323.108	89.69
323.337	89.69
323.566	93.69
323.795	74.69
324.024	113.69
324.253	104.69
324.482	78.69
324.71	85.69
324.939	87.69
325.168	89.69
325.397	76.69
325.626	85.69
325.855	88.69
326.084	93.69
326.313	86.69
326.542	92.69
326.77	90.69
326.999	96.69
327.228	82.69
327.457	93.69
327.686	77.69
327.914	88.69
328.143	92.69
328.372	97.69
328.6	89.69
328.829	91.69
329.058	101.69
329.287	80.69
329.515	87.69
329.744	78.69
329.972	81.69
330.201	87.69
330.43	99.69
330.658	91.69
330.887	85.69
331.115	94.69
331.344	82.69
331.572	73.69
331.801	87.69
332.03	76.69
332.258	85.69
332.486	84.69
332.715	103.69
332.943	88.69
333.172	101.69
333.4	80.69
333.629	92.69
333.857	81.69
334.085	93.69
334.314	90.69
334.542	92.69
334.771	83.69
334.999	70.69
335.227	97.69
335.455	84.69
335.684	91.69
335.912	84.69
336.14	87.69
336.369	83.69
336.597	101.69
336.825	101.69
337.053	85.69
337.281	84.69
337.51	93.69
337.738	92.69
337.966	76.69
338.194	84.69
338.422	83.69
338.65	89.69
338.878	75.69
339.106	91.69
339.334	89.69
339.562	80.69
339.79	87.69
340.018	95.69
340.246	84.69
340.474	82.69
340.702	91.69
340.93	91.69
341.158	85.69
341.386	83.69
341.614	75.69
341.842	87.69
342.07	91.69
342.298	99.69
342.526	82.69
342.754	90.69
342.981	88.69
343.209	95.69
343.437	97.69
343.665	88.69
343.893	95.69
344.12	89.69
344.348	87.69
344.576	97.69
344.804	82.69
345.031	88.69
345.259	105.69
345.487	92.69
345.714	87.69
345.942	100.69
346.17	91.69
346.397	82.69
346.625	93.69
346.853	93.69
347.08	88.69
347.308	77.69
347.535	80.69
347.763	93.69
347.99	94.69
348.218	92.69
348.445	93.69
348.673	89.69
348.9	89.69
349.128	85.69
349.355	80.69
349.583	80.69
349.81	83.69
350.037	81.69
350.265	77.69
350.492	83.69
350.72	87.69
350.947	96.69
351.174	95.69
351.402	103.69
351.629	100.69
351.856	85.69
352.083	88.69
352.311	93.69
352.538	89.69
352.765	96.69
352.992	81.69
353.22	102.69
353.447	91.69
353.674	83.69
353.901	68.69
354.128	82.69
354.355	85.69
354.583	78.69
354.81	90.69
355.037	101.69
355.264	79.69
355.491	88.69
355.718	86.69
355.945	88.69
356.172	75.69
356.399	87.69
356.626	78.69
356.853	78.69
357.08	88.69
357.307	93.69
357.534	87.69
357.761	100.69
357.988	87.69
358.215	99.69
358.441	96.69
358.668	80.69
358.895	95.69
359.122	85.69
359.349	89.69
359.576	84.69
359.802	91.69
360.029	90.69
360.256	89.69
360.483	90.69
360.709	95.69
360.936	105.69
361.163	86.69
361.39	94.69
361.616	74.69
361.843	78.69
362.07	76.69
362.296	75.69
362.523	78.69
362.749	75.69
362.976	80.69
363.203	104.69
363.429	78.69
363.656	100.69
363.882	85.69
364.109	103.69
364.335	93.69
364.562	76.69
364.788	73.69
365.015	95.69
365.241	87.69
365.468	88.69
365.694	78.69
365.92	91.69
366.147	68.69
366.373	76.69
366.599	86.69
366.826	91.69
367.052	87.69
367.278	82.69
367.505	81.69
367.731	90.69
367.957	90.69
368.184	82.69
368.41	98.69
368.636	80.69
368.862	87.69
369.089	84.69
369.315	69.69
369.541	90.69
369.767	92.69
369.993	92.69
370.219	81.69
370.445	92.69
370.672	83.69
370.898	74.69
371.124	81.69
371.35	79.69
371.576	88.69
371.802	88.69
372.028	80.69
372.254	93.69
372.48	91.69
372.706	94.69
372.932	85.69
373.158	87.69
373.384	75.69
373.61	86.69
373.835	92.69
374.061	94.69
374.287	81.69
374.513	89.69
374.739	75.69
374.965	81.69
375.191	79.69
375.416	89.69
375.642	87.69
375.868	92.69
376.094	92.69
376.319	90.69
376.545	85.69
376.771	84.69
376.997	74.69
377.222	85.69
377.448	81.69
377.674	93.69
377.899	86.69
378.125	74.69
378.35	74.69
378.576	86.69
378.802	81.69
379.027	84.69
379.253	90.69
379.478	77.69
379.704	95.69
379.929	93.69
380.155	85.69
380.38	91.69
380.606	90.69
380.831	87.69
381.057	89.69
381.282	83.69
381.507	82.69
381.733	84.69
381.958	85.69
382.184	84.69
382.409	93.69
382.634	103.69
382.86	81.69
383.085	76.69
383.31	80.69
383.535	86.69
383.761	91.69
383.986	75.69
384.211	74.69
384.436	83.69
384.662	87.69
384.887	83.69
385.112	86.69
385.337	92.69
385.562	91.69
385.787	91.69
386.013	95.69
386.238	79.69
386.463	84.69
386.688	90.69
386.913	69.69
387.138	67.69
387.363	87.69
387.588	80.69
387.813	88.69
388.038	86.69
388.263	88.69
388.488	88.69
388.713	95.69
388.938	69.69
389.163	80.69
389.387	92.69
389.612	91.69
389.837	86.69
390.062	86.69
390.287	96.69
390.512	81.69
390.736	83.69
390.961	79.69
391.186	89.69
391.411	75.69
391.636	79.69
391.86	93.69
392.085	90.69
392.31	87.69
392.534	90.69
392.759	90.69
392.984	77.69
393.208	103.69
393.433	81.69
393.658	94.69
393.882	84.69
394.107	99.69
394.331	83.69
394.556	83.69
394.78	82.69
395.005	72.69
395.229	84.69
395.454	89.69
395.678	79.69
395.903	85.69
396.127	95.69
396.352	93.69
396.576	89.69
396.801	93.69
397.025	80.69
397.249	81.69
397.474	85.69
397.698	64.69
397.922	81.69
398.147	81.69
398.371	83.69
398.595	85.69
398.82	91.69
399.044	92.69
399.268	76.69
399.492	84.69
399.717	85.69
399.941	86.69
400.165	88.69
400.389	89.69
400.613	76.69
400.837	96.69
401.062	83.69
401.286	80.69
401.51	95.69
401.734	83.69
401.958	88.69
402.182	91.69
402.406	84.69
402.63	97.69
402.854	84.69
403.078	77.69
403.302	87.69
403.526	81.69
403.75	93.69
403.974	80.69
404.198	82.69
404.422	75.69
404.645	91.69
404.869	87.69
405.093	91.69
405.317	83.69
405.541	82.69
405.765	83.69
405.988	86.69
406.212	91.69
406.436	88.69
406.66	92.69
406.883	95.69
407.107	87.69
407.331	99.69
407.555	88.69
407.778	93.69
408.002	89.69
408.226	106.69
408.449	89.69
408.673	92.69
408.896	99.69
409.12	90.69
409.344	99.69
409.567	69.69
409.791	84.69
410.014	104.69
410.238	75.69
410.461	83.69
410.685	98.69
410.908	90.69
411.132	67.69
411.355	79.69
411.578	93.69
411.802	88.69
412.025	79.69
412.249	85.69
412.472	77.69
412.695	85.69
412.919	81.69
413.142	88.69
413.365	91.69
413.589	82.69
413.812	96.69
414.035	91.69
414.258	91.69
414.482	80.69
414.705	92.69
414.928	95.69
415.151	93.69
415.374	83.69
415.597	78.69
415.821	91.69
416.044	85.69
416.267	89.69
416.49	72.69
416.713	84.69
416.936	84.69
417.159	92.69
417.382	90.69
417.605	77.69
417.828	87.69
418.051	90.69
418.274	86.69
418.497	84.69
418.72	90.69
418.943	86.69
419.166	82.69
419.389	88.69
419.611	88.69
419.834	86.69
420.057	85.69
420.28	106.69
420.503	88.69
420.726	82.69
420.948	84.69
421.171	89.69
421.394	63.69
421.617	81.69
421.839	83.69
422.062	89.69
422.285	89.69
422.507	95.69
422.73	93.69
422.953	93.69
423.175	84.69
423.398	83.69
423.621	82.69
423.843	95.69
424.066	91.69
424.288	83.69
424.511	88.69
424.733	83.69
424.956	80.69
425.178	81.69
425.401	99.69
425.623	84.69
425.846	85.69
426.068	87.69
426.291	73.69
426.513	89.69
426.735	104.69
426.958	84.69
427.18	73.69
427.402	91.69
427.625	79.69
427.847	87.69
428.069	105.69
428.292	96.69
428.514	96.69
428.736	89.69
428.958	72.69
429.181	97.69
429.403	79.69
429.625	81.69
429.847	96.69
430.069	88.69
430.292	92.69
430.514	83.69
430.736	83.69
430.958	84.69
431.18	92.69
431.402	76.69
431.624	83.69
431.846	85.69
432.068	88.69
432.29	95.69
432.512	90.69
432.734	95.69
432.956	89.69
433.178	93.69
433.4	91.69
433.622	82.69
433.844	80.69
434.066	77.69
434.287	79.69
434.509	88.69
434.731	88.69
434.953	81.69
435.175	96.69
435.397	90.69
435.618	81.69
435.84	89.69
436.062	84.69
436.284	68.69
436.505	75.69
436.727	84.69
436.949	87.69
437.17	77.69
437.392	81.69
437.614	78.69
437.835	84.69
438.057	78.69
438.278	84.69
438.5	97.69
438.721	85.69
438.943	82.69
439.165	85.69
439.386	74.69
439.608	79.69
439.829	89.69
440.05	77.69
440.272	86.69
440.493	77.69
440.715	85.69
440.936	73.69
441.158	93.69
441.379	67.69
441.6	80.69
441.822	87.69
442.043	81.69
442.264	77.69
442.486	80.69
442.707	85.69
442.928	85.69
443.149	93.69
443.371	86.69
443.592	71.69
443.813	97.69
444.034	95.69
444.255	93.69
444.476	77.69
444.698	85.69
444.919	92.69
445.14	168.69
445.361	103.69
445.582	97.69
445.803	91.69
446.024	93.69
446.245	74.69
446.466	90.69
446.687	81.69
446.908	83.69
447.129	89.69
447.35	83.69
447.571	71.69
447.792	84.69
448.013	95.69
448.234	93.69
448.455	85.69
448.675	71.69
448.896	91.69
449.117	68.69
449.338	90.69
449.559	87.69
449.779	69.69
450	84.69
450.221	86.69
450.442	77.69
450.662	85.69
450.883	93.69
451.104	69.69
451.324	83.69
451.545	77.69
451.766	87.69
451.986	91.69
452.207	86.69
452.428	76.69
452.648	87.69
452.869	93.69
453.089	89.69
453.31	66.69
453.53	96.69
453.751	89.69
453.971	89.69
454.192	63.69
454.412	77.69
454.633	77.69
454.853	86.69
455.073	89.69
455.294	79.69
455.514	79.69
455.734	83.69
455.955	86.69
456.175	87.69
456.395	87.69
456.616	89.69
456.836	85.69
457.056	67.69
457.276	75.69
457.497	86.69
457.717	88.69
457.937	70.69
458.157	91.69
458.377	82.69
458.598	88.69
458.818	74.69
459.038	87.69
459.258	75.69
459.478	77.69
459.698	89.69
459.918	88.69
460.138	73.69
460.358	86.69
460.578	91.69
460.798	97.69
461.018	81.69
461.238	87.69
461.458	92.69
461.678	97.69
461.898	75.69
462.118	87.69
462.338	109.69
462.558	84.69
462.777	89.69
462.997	89.69
463.217	75.69
463.437	70.69
463.657	73.69
463.876	78.69
464.096	81.69
464.316	67.69
464.536	80.69
464.755	84.69
464.975	72.69
465.195	84.69
465.414	64.69
465.634	81.69
465.854	73.69
466.073	87.69
466.293	76.69
466.512	93.69
466.732	76.69
466.951	84.69
467.171	96.69
467.391	95.69
467.61	87.69
467.829	64.69
468.049	82.69
468.268	71.69
468.488	77.69
468.707	73.69
468.927	84.69
469.146	77.69
469.365	87.69
469.585	85.69
469.804	85.69
470.023	80.69
470.243	89.69
470.462	79.69
470.681	70.69
470.901	85.69
471.12	92.69
471.339	90.69
471.558	83.69
471.777	97.69
471.997	84.69
472.216	72.69
472.435	87.69
472.654	96.69
472.873	100.69
473.092	82.69
473.311	81.69
473.53	88.69
473.749	67.69
473.968	79.69
474.187	84.69
474.406	82.69
474.625	89.69
474.844	86.69
475.063	83.69
475.282	76.69
475.501	67.69
475.72	91.69
475.939	70.69
476.158	99.69
476.377	83.69
476.596	87.69
476.814	86.69
477.033	68.69
477.252	75.69
477.471	79.69
477.69	75.69
477.908	68.69
478.127	78.69
478.346	85.69
478.564	71.69
478.783	91.69
479.002	72.69
479.22	90.69
479.439	80.69
479.658	87.69
479.876	84.69
480.095	83.69
480.313	85.69
480.532	90.69
480.751	96.69
480.969	91.69
481.188	82.69
481.406	81.69
481.624	75.69
481.843	75.69
482.061	65.69
482.28	85.69
482.498	86.69
482.717	89.69
482.935	89.69
483.153	82.69
483.372	89.69
483.59	89.69
483.808	94.69
484.027	99.69
484.245	74.69
484.463	92.69
484.681	78.69
484.9	92.69
485.118	76.69
485.336	87.69
485.554	78.69
485.772	93.69
485.99	85.69
486.209	90.69
486.427	75.69
486.645	90.69
486.863	78.69
487.081	103.69
487.299	86.69
487.517	85.69
487.735	84.69
487.953	87.69
488.171	92.69
488.389	90.69
488.607	86.69
488.825	83.69
489.043	77.69
489.261	88.69
489.479	83.69
489.696	69.69
489.914	99.69
490.132	83.69
490.35	96.69
490.568	85.69
490.786	83.69
491.003	93.69
491.221	92.69
491.439	64.69
491.657	93.69
491.874	78.69
492.092	75.69
492.31	73.69
492.527	78.69
492.745	83.69
492.963	81.69
493.18	83.69
493.398	95.69
493.615	87.69
493.833	83.69
494.05	93.69
494.268	95.69
494.485	80.69
494.703	88.69
494.92	104.69
495.138	78.69
495.355	95.69
495.573	99.69
495.79	79.69
496.008	87.69
496.225	77.69
496.442	92.69
496.66	91.69
496.877	80.69
497.094	83.69
497.312	82.69
497.529	94.69
497.746	83.69
497.963	87.69
498.181	71.69
498.398	81.69
498.615	74.69
498.832	88.69
499.049	89.69
499.267	82.69
499.484	85.69
499.701	76.69
499.918	96.69
500.135	75.69
500.352	96.69
500.569	98.69
500.786	95.69
501.003	76.69
501.22	88.69
501.437	92.69
501.654	82.69
501.871	77.69
502.088	89.69
502.305	94.69
502.522	65.69
502.739	80.69
502.956	79.69
503.172	97.69
503.389	87.69
503.606	70.69
503.823	95.69
504.04	96.69
504.256	93.69
504.473	87.69
504.69	101.69
504.907	95.69
505.123	100.69
505.34	81.69
505.557	93.69
505.773	101.69
505.99	77.69
506.207	80.69
506.423	92.69
506.64	85.69
506.856	89.69
507.073	79.69
507.289	85.69
507.506	93.69
507.722	78.69
507.939	86.69
508.155	87.69
508.372	89.69
508.588	85.69
508.805	96.69
509.021	95.69
509.238	85.69
509.454	77.69
509.67	84.69
509.887	81.69
510.103	85.69
510.319	98.69
510.536	93.69
510.752	84.69
510.968	81.69
511.184	79.69
511.401	82.69
511.617	71.69
511.833	80.69
512.049	94.69
512.265	80.69
512.481	79.69
512.698	101.69
512.914	83.69
513.13	95.69
513.346	78.69
513.562	92.69
513.778	73.69
513.994	83.69
514.21	89.69
514.426	103.69
514.642	105.69
514.858	74.69
515.074	89.69
515.29	94.69
515.506	85.69
515.721	89.69
515.937	84.69
516.153	72.69
516.369	83.69
516.585	84.69
516.801	94.69
517.016	93.69
517.232	76.69
517.448	93.69
517.664	90.69
517.879	83.69
518.095	99.69
518.311	87.69
518.527	85.69
518.742	99.69
518.958	78.69
519.173	78.69
519.389	82.69
519.605	78.69
