Data from 1600_4_HRD10591_00024.txt Node
Date: Mon Jan 19 13:56:22 EST 2026
User: Yrep
Spectrometer: HR+D1059
Trigger mode: 1
Integration Time (sec): 1.000000E-1
Scans to average: 1
Electric dark correction enabled: true
Nonlinearity correction enabled: false
Boxcar width: 0
XAxis mode: Wavelengths
Number of Pixels in Spectrum: 2048
>>>>>Begin Spectral Data<<<<<
223.165	-8.31
223.4	-8.31
223.635	-8.31
223.869	-26.31
224.104	-16.31
224.338	-14.31
224.573	-24.31
224.808	-6.31
225.042	-8.31
225.277	-9.31
225.511	-3.31
225.746	-4.31
225.98	10.69
226.215	12.69
226.449	21.69
226.683	23.69
226.918	28.69
227.152	23.69
227.387	29.69
227.621	36.69
227.856	49.69
228.09	44.69
228.324	52.69
228.559	63.69
228.793	70.69
229.027	66.69
229.262	79.69
229.496	48.69
229.73	66.69
229.964	73.69
230.199	69.69
230.433	80.69
230.667	78.69
230.901	74.69
231.136	68.69
231.37	70.69
231.604	76.69
231.838	73.69
232.072	85.69
232.306	80.69
232.541	90.69
232.775	80.69
233.009	81.69
233.243	71.69
233.477	93.69
233.711	70.69
233.945	78.69
234.179	70.69
234.413	87.69
234.647	84.69
234.881	78.69
235.115	86.69
235.349	68.69
235.583	88.69
235.817	79.69
236.051	80.69
236.285	73.69
236.519	74.69
236.753	77.69
236.987	68.69
237.221	67.69
237.455	85.69
237.689	78.69
237.922	65.69
238.156	78.69
238.39	80.69
238.624	70.69
238.858	78.69
239.091	81.69
239.325	58.69
239.559	66.69
239.793	83.69
240.027	74.69
240.26	89.69
240.494	87.69
240.728	82.69
240.961	99.69
241.195	70.69
241.429	88.69
241.662	83.69
241.896	60.69
242.13	78.69
242.363	75.69
242.597	76.69
242.83	79.69
243.064	91.69
243.298	80.69
243.531	70.69
243.765	80.69
243.998	65.69
244.232	79.69
244.465	83.69
244.699	64.69
244.932	71.69
245.166	84.69
245.399	81.69
245.633	62.69
245.866	82.69
246.099	85.69
246.333	65.69
246.566	83.69
246.8	72.69
247.033	81.69
247.266	82.69
247.5	74.69
247.733	71.69
247.966	91.69
248.2	75.69
248.433	83.69
248.666	78.69
248.899	78.69
249.133	80.69
249.366	82.69
249.599	81.69
249.832	85.69
250.066	77.69
250.299	74.69
250.532	80.69
250.765	83.69
250.998	72.69
251.231	77.69
251.465	94.69
251.698	86.69
251.931	78.69
252.164	68.69
252.397	74.69
252.63	78.69
252.863	74.69
253.096	75.69
253.329	74.69
253.562	79.69
253.795	76.69
254.028	84.69
254.261	84.69
254.494	66.69
254.727	80.69
254.96	84.69
255.193	88.69
255.426	74.69
255.659	78.69
255.892	85.69
256.124	66.69
256.357	85.69
256.59	68.69
256.823	70.69
257.056	87.69
257.289	70.69
257.521	76.69
257.754	83.69
257.987	83.69
258.22	69.69
258.452	94.69
258.685	72.69
258.918	72.69
259.151	86.69
259.383	82.69
259.616	79.69
259.849	77.69
260.081	68.69
260.314	84.69
260.547	72.69
260.779	73.69
261.012	79.69
261.244	71.69
261.477	93.69
261.71	81.69
261.942	90.69
262.175	87.69
262.407	80.69
262.64	80.69
262.872	79.69
263.105	81.69
263.337	94.69
263.57	78.69
263.802	78.69
264.035	85.69
264.267	72.69
264.499	69.69
264.732	86.69
264.964	67.69
265.197	80.69
265.429	86.69
265.661	82.69
265.894	84.69
266.126	95.69
266.358	82.69
266.591	81.69
266.823	83.69
267.055	92.69
267.287	77.69
267.52	59.69
267.752	81.69
267.984	73.69
268.216	90.69
268.448	77.69
268.681	72.69
268.913	82.69
269.145	89.69
269.377	85.69
269.609	88.69
269.841	81.69
270.073	91.69
270.306	76.69
270.538	77.69
270.77	85.69
271.002	76.69
271.234	80.69
271.466	82.69
271.698	89.69
271.93	76.69
272.162	67.69
272.394	73.69
272.626	80.69
272.858	86.69
273.09	70.69
273.322	82.69
273.553	87.69
273.785	86.69
274.017	69.69
274.249	83.69
274.481	63.69
274.713	73.69
274.945	89.69
275.176	85.69
275.408	88.69
275.64	83.69
275.872	78.69
276.104	80.69
276.335	93.69
276.567	93.69
276.799	72.69
277.031	96.69
277.262	82.69
277.494	92.69
277.726	93.69
277.957	71.69
278.189	77.69
278.421	63.69
278.652	86.69
278.884	85.69
279.115	89.69
279.347	88.69
279.579	79.69
279.81	82.69
280.042	86.69
280.273	89.69
280.505	79.69
280.736	93.69
280.968	94.69
281.199	102.69
281.431	82.69
281.662	75.69
281.894	74.69
282.125	84.69
282.356	65.69
282.588	79.69
282.819	68.69
283.051	92.69
283.282	81.69
283.513	96.69
283.745	87.69
283.976	79.69
284.207	79.69
284.439	72.69
284.67	88.69
284.901	82.69
285.132	81.69
285.364	80.69
285.595	88.69
285.826	84.69
286.057	95.69
286.288	84.69
286.52	88.69
286.751	86.69
286.982	98.69
287.213	85.69
287.444	80.69
287.675	77.69
287.906	92.69
288.138	92.69
288.369	81.69
288.6	79.69
288.831	82.69
289.062	85.69
289.293	74.69
289.524	94.69
289.755	86.69
289.986	75.69
290.217	84.69
290.448	76.69
290.679	97.69
290.91	85.69
291.141	73.69
291.371	86.69
291.602	89.69
291.833	76.69
292.064	71.69
292.295	82.69
292.526	65.69
292.757	81.69
292.987	96.69
293.218	92.69
293.449	84.69
293.68	81.69
293.91	84.69
294.141	98.69
294.372	82.69
294.603	95.69
294.833	87.69
295.064	102.69
295.295	96.69
295.525	88.69
295.756	88.69
295.987	92.69
296.217	78.69
296.448	86.69
296.679	79.69
296.909	82.69
297.14	82.69
297.37	79.69
297.601	81.69
297.831	77.69
298.062	96.69
298.292	90.69
298.523	82.69
298.753	78.69
298.984	78.69
299.214	82.69
299.445	82.69
299.675	79.69
299.905	80.69
300.136	95.69
300.366	86.69
300.597	80.69
300.827	88.69
301.057	80.69
301.288	79.69
301.518	88.69
301.748	72.69
301.979	92.69
302.209	75.69
302.439	78.69
302.669	88.69
302.9	77.69
303.13	77.69
303.36	89.69
303.59	90.69
303.82	73.69
304.051	84.69
304.281	81.69
304.511	95.69
304.741	89.69
304.971	88.69
305.201	75.69
305.431	85.69
305.661	69.69
305.891	76.69
306.121	87.69
306.352	76.69
306.582	89.69
306.812	89.69
307.042	75.69
307.272	88.69
307.502	75.69
307.731	69.69
307.961	97.69
308.191	104.69
308.421	90.69
308.651	90.69
308.881	99.69
309.111	80.69
309.341	82.69
309.571	94.69
309.8	73.69
310.03	80.69
310.26	76.69
310.49	87.69
310.72	84.69
310.949	82.69
311.179	79.69
311.409	83.69
311.639	85.69
311.868	85.69
312.098	80.69
312.328	78.69
312.557	73.69
312.787	81.69
313.017	82.69
313.246	87.69
313.476	73.69
313.706	69.69
313.935	86.69
314.165	94.69
314.394	93.69
314.624	101.69
314.853	85.69
315.083	85.69
315.312	89.69
315.542	95.69
315.771	66.69
316.001	80.69
316.23	77.69
316.46	84.69
316.689	82.69
316.919	80.69
317.148	92.69
317.377	100.69
317.607	93.69
317.836	69.69
318.065	73.69
318.295	96.69
318.524	73.69
318.753	80.69
318.983	84.69
319.212	89.69
319.441	68.69
319.67	100.69
319.9	86.69
320.129	84.69
320.358	90.69
320.587	92.69
320.816	94.69
321.046	90.69
321.275	72.69
321.504	66.69
321.733	83.69
321.962	67.69
322.191	85.69
322.42	81.69
322.649	82.69
322.878	80.69
323.108	89.69
323.337	90.69
323.566	86.69
323.795	82.69
324.024	80.69
324.253	79.69
324.482	108.69
324.71	88.69
324.939	92.69
325.168	92.69
325.397	94.69
325.626	75.69
325.855	96.69
326.084	82.69
326.313	92.69
326.542	89.69
326.77	94.69
326.999	92.69
327.228	92.69
327.457	90.69
327.686	90.69
327.914	88.69
328.143	91.69
328.372	86.69
328.6	88.69
328.829	88.69
329.058	84.69
329.287	77.69
329.515	86.69
329.744	78.69
329.972	74.69
330.201	87.69
330.43	72.69
330.658	82.69
330.887	84.69
331.115	82.69
331.344	95.69
331.572	82.69
331.801	89.69
332.03	73.69
332.258	97.69
332.486	79.69
332.715	83.69
332.943	86.69
333.172	84.69
333.4	88.69
333.629	99.69
333.857	80.69
334.085	99.69
334.314	89.69
334.542	89.69
334.771	85.69
334.999	77.69
335.227	91.69
335.455	95.69
335.684	82.69
335.912	84.69
336.14	72.69
336.369	86.69
336.597	86.69
336.825	66.69
337.053	88.69
337.281	83.69
337.51	79.69
337.738	69.69
337.966	84.69
338.194	94.69
338.422	75.69
338.65	90.69
338.878	80.69
339.106	70.69
339.334	87.69
339.562	92.69
339.79	85.69
340.018	85.69
340.246	86.69
340.474	85.69
340.702	91.69
340.93	92.69
341.158	83.69
341.386	77.69
341.614	91.69
341.842	83.69
342.07	81.69
342.298	89.69
342.526	81.69
342.754	87.69
342.981	83.69
343.209	92.69
343.437	96.69
343.665	79.69
343.893	79.69
344.12	88.69
344.348	83.69
344.576	87.69
344.804	89.69
345.031	73.69
345.259	65.69
345.487	71.69
345.714	74.69
345.942	76.69
346.17	89.69
346.397	75.69
346.625	81.69
346.853	92.69
347.08	80.69
347.308	78.69
347.535	89.69
347.763	78.69
347.99	78.69
348.218	86.69
348.445	94.69
348.673	96.69
348.9	84.69
349.128	104.69
349.355	78.69
349.583	90.69
349.81	81.69
350.037	100.69
350.265	92.69
350.492	84.69
350.72	89.69
350.947	83.69
351.174	75.69
351.402	85.69
351.629	90.69
351.856	89.69
352.083	89.69
352.311	75.69
352.538	87.69
352.765	92.69
352.992	97.69
353.22	79.69
353.447	86.69
353.674	83.69
353.901	89.69
354.128	82.69
354.355	83.69
354.583	80.69
354.81	94.69
355.037	85.69
355.264	76.69
355.491	75.69
355.718	72.69
355.945	95.69
356.172	73.69
356.399	92.69
356.626	84.69
356.853	79.69
357.08	85.69
357.307	86.69
357.534	77.69
357.761	76.69
357.988	78.69
358.215	109.69
358.441	74.69
358.668	80.69
358.895	83.69
359.122	83.69
359.349	88.69
359.576	88.69
359.802	73.69
360.029	82.69
360.256	93.69
360.483	88.69
360.709	101.69
360.936	84.69
361.163	94.69
361.39	88.69
361.616	90.69
361.843	89.69
362.07	83.69
362.296	85.69
362.523	90.69
362.749	82.69
362.976	89.69
363.203	91.69
363.429	99.69
363.656	66.69
363.882	85.69
364.109	92.69
364.335	99.69
364.562	93.69
364.788	87.69
365.015	88.69
365.241	78.69
365.468	96.69
365.694	69.69
365.92	92.69
366.147	74.69
366.373	94.69
366.599	90.69
366.826	80.69
367.052	74.69
367.278	89.69
367.505	95.69
367.731	96.69
367.957	84.69
368.184	88.69
368.41	84.69
368.636	84.69
368.862	71.69
369.089	90.69
369.315	78.69
369.541	74.69
369.767	94.69
369.993	75.69
370.219	78.69
370.445	71.69
370.672	82.69
370.898	84.69
371.124	94.69
371.35	82.69
371.576	85.69
371.802	74.69
372.028	83.69
372.254	78.69
372.48	86.69
372.706	87.69
372.932	89.69
373.158	81.69
373.384	96.69
373.61	94.69
373.835	110.69
374.061	96.69
374.287	82.69
374.513	90.69
374.739	88.69
374.965	91.69
375.191	85.69
375.416	86.69
375.642	91.69
375.868	92.69
376.094	93.69
376.319	80.69
376.545	97.69
376.771	82.69
376.997	72.69
377.222	78.69
377.448	90.69
377.674	89.69
377.899	88.69
378.125	84.69
378.35	75.69
378.576	82.69
378.802	78.69
379.027	83.69
379.253	102.69
379.478	73.69
379.704	81.69
379.929	85.69
380.155	77.69
380.38	83.69
380.606	97.69
380.831	83.69
381.057	84.69
381.282	82.69
381.507	76.69
381.733	88.69
381.958	93.69
382.184	87.69
382.409	83.69
382.634	81.69
382.86	83.69
383.085	87.69
383.31	95.69
383.535	87.69
383.761	77.69
383.986	92.69
384.211	69.69
384.436	87.69
384.662	87.69
384.887	87.69
385.112	82.69
385.337	82.69
385.562	95.69
385.787	88.69
386.013	84.69
386.238	86.69
386.463	78.69
386.688	93.69
386.913	96.69
387.138	79.69
387.363	98.69
387.588	102.69
387.813	97.69
388.038	77.69
388.263	79.69
388.488	81.69
388.713	88.69
388.938	84.69
389.163	85.69
389.387	93.69
389.612	94.69
389.837	83.69
390.062	84.69
390.287	80.69
390.512	82.69
390.736	74.69
390.961	92.69
391.186	93.69
391.411	82.69
391.636	78.69
391.86	93.69
392.085	74.69
392.31	84.69
392.534	82.69
392.759	93.69
392.984	102.69
393.208	106.69
393.433	160.69
393.658	127.69
393.882	97.69
394.107	92.69
394.331	90.69
394.556	95.69
394.78	85.69
395.005	88.69
395.229	80.69
395.454	71.69
395.678	96.69
395.903	106.69
396.127	98.69
396.352	113.69
396.576	119.69
396.801	121.69
397.025	133.69
397.249	106.69
397.474	100.69
397.698	94.69
397.922	93.69
398.147	80.69
398.371	88.69
398.595	78.69
398.82	89.69
399.044	78.69
399.268	74.69
399.492	89.69
399.717	85.69
399.941	74.69
400.165	87.69
400.389	72.69
400.613	77.69
400.837	96.69
401.062	81.69
401.286	78.69
401.51	74.69
401.734	88.69
401.958	80.69
402.182	92.69
402.406	77.69
402.63	76.69
402.854	94.69
403.078	86.69
403.302	84.69
403.526	97.69
403.75	89.69
403.974	86.69
404.198	95.69
404.422	80.69
404.645	81.69
404.869	93.69
405.093	86.69
405.317	80.69
405.541	81.69
405.765	82.69
405.988	68.69
406.212	93.69
406.436	80.69
406.66	64.69
406.883	79.69
407.107	94.69
407.331	81.69
407.555	92.69
407.778	88.69
408.002	79.69
408.226	71.69
408.449	77.69
408.673	89.69
408.896	87.69
409.12	83.69
409.344	89.69
409.567	96.69
409.791	72.69
410.014	81.69
410.238	86.69
410.461	76.69
410.685	84.69
410.908	82.69
411.132	79.69
411.355	88.69
411.578	86.69
411.802	89.69
412.025	92.69
412.249	78.69
412.472	95.69
412.695	80.69
412.919	87.69
413.142	78.69
413.365	72.69
413.589	78.69
413.812	87.69
414.035	80.69
414.258	96.69
414.482	87.69
414.705	89.69
414.928	84.69
415.151	83.69
415.374	69.69
415.597	78.69
415.821	88.69
416.044	86.69
416.267	80.69
416.49	77.69
416.713	79.69
416.936	88.69
417.159	75.69
417.382	97.69
417.605	64.69
417.828	86.69
418.051	79.69
418.274	74.69
418.497	101.69
418.72	90.69
418.943	92.69
419.166	86.69
419.389	76.69
419.611	78.69
419.834	68.69
420.057	84.69
420.28	81.69
420.503	87.69
420.726	96.69
420.948	79.69
421.171	75.69
421.394	87.69
421.617	95.69
421.839	86.69
422.062	79.69
422.285	90.69
422.507	113.69
422.73	168.69
422.953	154.69
423.175	101.69
423.398	78.69
423.621	86.69
423.843	88.69
424.066	81.69
424.288	86.69
424.511	90.69
424.733	81.69
424.956	83.69
425.178	80.69
425.401	85.69
425.623	76.69
425.846	71.69
426.068	82.69
426.291	83.69
426.513	84.69
426.735	86.69
426.958	77.69
427.18	71.69
427.402	72.69
427.625	85.69
427.847	85.69
428.069	101.69
428.292	103.69
428.514	98.69
428.736	84.69
428.958	98.69
429.181	86.69
429.403	83.69
429.625	83.69
429.847	100.69
430.069	98.69
430.292	118.69
430.514	98.69
430.736	76.69
430.958	81.69
431.18	91.69
431.402	73.69
431.624	75.69
431.846	86.69
432.068	91.69
432.29	80.69
432.512	74.69
432.734	82.69
432.956	87.69
433.178	100.69
433.4	92.69
433.622	91.69
433.844	85.69
434.066	80.69
434.287	88.69
434.509	80.69
434.731	82.69
434.953	93.69
435.175	66.69
435.397	93.69
435.618	76.69
435.84	65.69
436.062	96.69
436.284	89.69
436.505	83.69
436.727	96.69
436.949	73.69
437.17	86.69
437.392	74.69
437.614	95.69
437.835	72.69
438.057	85.69
438.278	84.69
438.5	97.69
438.721	88.69
438.943	70.69
439.165	80.69
439.386	75.69
439.608	74.69
439.829	88.69
440.05	79.69
440.272	80.69
440.493	69.69
440.715	78.69
440.936	83.69
441.158	79.69
441.379	95.69
441.6	86.69
441.822	89.69
442.043	85.69
442.264	89.69
442.486	96.69
442.707	86.69
442.928	80.69
443.149	80.69
443.371	97.69
443.592	114.69
443.813	91.69
444.034	95.69
444.255	80.69
444.476	81.69
444.698	79.69
444.919	92.69
445.14	140.69
445.361	127.69
445.582	112.69
445.803	111.69
446.024	97.69
446.245	78.69
446.466	97.69
446.687	71.69
446.908	79.69
447.129	69.69
447.35	84.69
447.571	80.69
447.792	69.69
448.013	84.69
448.234	82.69
448.455	66.69
448.675	81.69
448.896	78.69
449.117	73.69
449.338	68.69
449.559	80.69
449.779	80.69
450	89.69
450.221	93.69
450.442	80.69
450.662	89.69
450.883	74.69
451.104	88.69
451.324	81.69
451.545	76.69
451.766	67.69
451.986	92.69
452.207	70.69
452.428	85.69
452.648	92.69
452.869	75.69
453.089	85.69
453.31	93.69
453.53	81.69
453.751	81.69
453.971	79.69
454.192	84.69
454.412	85.69
454.633	86.69
454.853	84.69
455.073	85.69
455.294	79.69
455.514	87.69
455.734	84.69
455.955	77.69
456.175	82.69
456.395	82.69
456.616	86.69
456.836	72.69
457.056	80.69
457.276	91.69
457.497	70.69
457.717	83.69
457.937	80.69
458.157	73.69
458.377	73.69
458.598	96.69
458.818	82.69
459.038	90.69
459.258	84.69
459.478	72.69
459.698	73.69
459.918	95.69
460.138	86.69
460.358	80.69
460.578	82.69
460.798	98.69
461.018	86.69
461.238	92.69
461.458	72.69
461.678	81.69
461.898	76.69
462.118	91.69
462.338	89.69
462.558	85.69
462.777	73.69
462.997	88.69
463.217	97.69
463.437	84.69
463.657	92.69
463.876	80.69
464.096	78.69
464.316	78.69
464.536	75.69
464.755	81.69
464.975	87.69
465.195	88.69
465.414	86.69
465.634	83.69
465.854	72.69
466.073	98.69
466.293	81.69
466.512	90.69
466.732	72.69
466.951	71.69
467.171	86.69
467.391	78.69
467.61	83.69
467.829	81.69
468.049	77.69
468.268	75.69
468.488	93.69
468.707	96.69
468.927	79.69
469.146	95.69
469.365	79.69
469.585	75.69
469.804	72.69
470.023	84.69
470.243	95.69
470.462	90.69
470.681	72.69
470.901	86.69
471.12	72.69
471.339	84.69
471.558	70.69
471.777	85.69
471.997	84.69
472.216	80.69
472.435	90.69
472.654	86.69
472.873	87.69
473.092	77.69
473.311	69.69
473.53	88.69
473.749	82.69
473.968	81.69
474.187	79.69
474.406	86.69
474.625	78.69
474.844	78.69
475.063	87.69
475.282	65.69
475.501	80.69
475.72	97.69
475.939	94.69
476.158	67.69
476.377	82.69
476.596	83.69
476.814	92.69
477.033	81.69
477.252	86.69
477.471	102.69
477.69	82.69
477.908	84.69
478.127	96.69
478.346	86.69
478.564	83.69
478.783	95.69
479.002	75.69
479.22	83.69
479.439	76.69
479.658	86.69
479.876	77.69
480.095	90.69
480.313	80.69
480.532	80.69
480.751	72.69
480.969	67.69
481.188	81.69
481.406	76.69
481.624	78.69
481.843	94.69
482.061	98.69
482.28	72.69
482.498	81.69
482.717	80.69
482.935	88.69
483.153	87.69
483.372	83.69
483.59	71.69
483.808	72.69
484.027	77.69
484.245	92.69
484.463	81.69
484.681	77.69
484.9	80.69
485.118	88.69
485.336	82.69
485.554	98.69
485.772	78.69
485.99	78.69
486.209	65.69
486.427	84.69
486.645	87.69
486.863	76.69
487.081	72.69
487.299	100.69
487.517	80.69
487.735	92.69
487.953	92.69
488.171	87.69
488.389	89.69
488.607	85.69
488.825	80.69
489.043	88.69
489.261	86.69
489.479	90.69
489.696	88.69
489.914	80.69
490.132	81.69
490.35	88.69
490.568	84.69
490.786	72.69
491.003	86.69
491.221	85.69
491.439	84.69
491.657	80.69
491.874	92.69
492.092	85.69
492.31	80.69
492.527	94.69
492.745	78.69
492.963	88.69
493.18	81.69
493.398	94.69
493.615	81.69
493.833	92.69
494.05	83.69
494.268	83.69
494.485	93.69
494.703	85.69
494.92	78.69
495.138	89.69
495.355	77.69
495.573	88.69
495.79	84.69
496.008	85.69
496.225	79.69
496.442	78.69
496.66	90.69
496.877	78.69
497.094	82.69
497.312	71.69
497.529	93.69
497.746	92.69
497.963	95.69
498.181	94.69
498.398	86.69
498.615	84.69
498.832	85.69
499.049	74.69
499.267	75.69
499.484	86.69
499.701	94.69
499.918	89.69
500.135	84.69
500.352	82.69
500.569	75.69
500.786	92.69
501.003	91.69
501.22	72.69
501.437	96.69
501.654	82.69
501.871	85.69
502.088	74.69
502.305	80.69
502.522	73.69
502.739	89.69
502.956	88.69
503.172	88.69
503.389	84.69
503.606	75.69
503.823	84.69
504.04	89.69
504.256	75.69
504.473	75.69
504.69	78.69
504.907	89.69
505.123	90.69
505.34	73.69
505.557	80.69
505.773	84.69
505.99	69.69
506.207	97.69
506.423	82.69
506.64	86.69
506.856	84.69
507.073	73.69
507.289	82.69
507.506	74.69
507.722	84.69
507.939	88.69
508.155	88.69
508.372	84.69
508.588	68.69
508.805	81.69
509.021	72.69
509.238	82.69
509.454	90.69
509.67	73.69
509.887	66.69
510.103	86.69
510.319	79.69
510.536	90.69
510.752	81.69
510.968	71.69
511.184	76.69
511.401	78.69
511.617	94.69
511.833	76.69
512.049	77.69
512.265	66.69
512.481	89.69
512.698	96.69
512.914	85.69
513.13	84.69
513.346	80.69
513.562	75.69
513.778	93.69
513.994	82.69
514.21	89.69
514.426	88.69
514.642	86.69
514.858	73.69
515.074	81.69
515.29	85.69
515.506	86.69
515.721	83.69
515.937	74.69
516.153	66.69
516.369	68.69
516.585	80.69
516.801	96.69
517.016	93.69
517.232	91.69
517.448	85.69
517.664	101.69
517.879	96.69
518.095	89.69
518.311	77.69
518.527	84.69
518.742	78.69
518.958	86.69
519.173	89.69
519.389	74.69
519.605	78.69
519.82	70.69
