Data from 1600_4_HRD10591_00019.txt Node
Date: Mon Jan 19 13:56:20 EST 2026
User: Yrep
Spectrometer: HR+D1059
Trigger mode: 1
Integration Time (sec): 1.000000E-1
Scans to average: 1
Electric dark correction enabled: true
Nonlinearity correction enabled: false
Boxcar width: 0
XAxis mode: Wavelengths
Number of Pixels in Spectrum: 2048
>>>>>Begin Spectral Data<<<<<
223.165	-21.69
223.4	-21.69
223.635	-21.69
223.869	-16.69
224.104	-13.69
224.338	-16.69
224.573	-15.69
224.808	-14.69
225.042	2.31
225.277	-5.69
225.511	3.31
225.746	2.31
225.98	4.31
226.215	-5.69
226.449	14.31
226.683	28.31
226.918	24.31
227.152	31.31
227.387	38.31
227.621	49.31
227.856	33.31
228.09	45.31
228.324	45.31
228.559	62.31
228.793	64.31
229.027	65.31
229.262	76.31
229.496	71.31
229.73	86.31
229.964	85.31
230.199	76.31
230.433	99.31
230.667	76.31
230.901	88.31
231.136	77.31
231.37	90.31
231.604	87.31
231.838	89.31
232.072	85.31
232.306	80.31
232.541	86.31
232.775	76.31
233.009	92.31
233.243	90.31
233.477	83.31
233.711	76.31
233.945	89.31
234.179	93.31
234.413	93.31
234.647	87.31
234.881	69.31
235.115	95.31
235.349	80.31
235.583	76.31
235.817	102.31
236.051	73.31
236.285	76.31
236.519	75.31
236.753	78.31
236.987	77.31
237.221	70.31
237.455	92.31
237.689	94.31
237.922	88.31
238.156	79.31
238.39	83.31
238.624	65.31
238.858	87.31
239.091	80.31
239.325	75.31
239.559	86.31
239.793	86.31
240.027	76.31
240.26	78.31
240.494	87.31
240.728	79.31
240.961	84.31
241.195	97.31
241.429	75.31
241.662	82.31
241.896	76.31
242.13	83.31
242.363	89.31
242.597	96.31
242.83	93.31
243.064	81.31
243.298	79.31
243.531	74.31
243.765	69.31
243.998	73.31
244.232	99.31
244.465	96.31
244.699	87.31
244.932	67.31
245.166	75.31
245.399	84.31
245.633	76.31
245.866	89.31
246.099	75.31
246.333	76.31
246.566	77.31
246.8	83.31
247.033	97.31
247.266	84.31
247.5	61.31
247.733	93.31
247.966	79.31
248.2	78.31
248.433	76.31
248.666	78.31
248.899	88.31
249.133	81.31
249.366	90.31
249.599	88.31
249.832	79.31
250.066	83.31
250.299	78.31
250.532	95.31
250.765	75.31
250.998	82.31
251.231	81.31
251.465	85.31
251.698	85.31
251.931	87.31
252.164	76.31
252.397	71.31
252.63	77.31
252.863	83.31
253.096	86.31
253.329	86.31
253.562	76.31
253.795	91.31
254.028	89.31
254.261	90.31
254.494	92.31
254.727	93.31
254.96	106.31
255.193	87.31
255.426	85.31
255.659	111.31
255.892	84.31
256.124	78.31
256.357	86.31
256.59	85.31
256.823	78.31
257.056	84.31
257.289	89.31
257.521	92.31
257.754	79.31
257.987	81.31
258.22	75.31
258.452	87.31
258.685	85.31
258.918	85.31
259.151	77.31
259.383	79.31
259.616	89.31
259.849	88.31
260.081	81.31
260.314	89.31
260.547	92.31
260.779	91.31
261.012	81.31
261.244	79.31
261.477	76.31
261.71	93.31
261.942	91.31
262.175	96.31
262.407	86.31
262.64	90.31
262.872	87.31
263.105	91.31
263.337	81.31
263.57	90.31
263.802	100.31
264.035	84.31
264.267	84.31
264.499	72.31
264.732	90.31
264.964	97.31
265.197	80.31
265.429	103.31
265.661	87.31
265.894	86.31
266.126	91.31
266.358	99.31
266.591	84.31
266.823	78.31
267.055	91.31
267.287	99.31
267.52	98.31
267.752	88.31
267.984	87.31
268.216	93.31
268.448	92.31
268.681	81.31
268.913	95.31
269.145	93.31
269.377	86.31
269.609	89.31
269.841	74.31
270.073	84.31
270.306	99.31
270.538	97.31
270.77	91.31
271.002	89.31
271.234	74.31
271.466	81.31
271.698	99.31
271.93	84.31
272.162	101.31
272.394	87.31
272.626	91.31
272.858	86.31
273.09	88.31
273.322	92.31
273.553	96.31
273.785	89.31
274.017	89.31
274.249	106.31
274.481	98.31
274.713	77.31
274.945	83.31
275.176	87.31
275.408	92.31
275.64	90.31
275.872	90.31
276.104	96.31
276.335	85.31
276.567	90.31
276.799	95.31
277.031	89.31
277.262	83.31
277.494	86.31
277.726	98.31
277.957	86.31
278.189	87.31
278.421	88.31
278.652	88.31
278.884	90.31
279.115	97.31
279.347	80.31
279.579	88.31
279.81	86.31
280.042	89.31
280.273	91.31
280.505	98.31
280.736	82.31
280.968	89.31
281.199	85.31
281.431	83.31
281.662	99.31
281.894	90.31
282.125	92.31
282.356	102.31
282.588	88.31
282.819	85.31
283.051	88.31
283.282	97.31
283.513	97.31
283.745	93.31
283.976	93.31
284.207	83.31
284.439	93.31
284.67	83.31
284.901	85.31
285.132	84.31
285.364	100.31
285.595	101.31
285.826	96.31
286.057	93.31
286.288	91.31
286.52	85.31
286.751	79.31
286.982	100.31
287.213	86.31
287.444	103.31
287.675	82.31
287.906	78.31
288.138	74.31
288.369	87.31
288.6	95.31
288.831	87.31
289.062	90.31
289.293	83.31
289.524	95.31
289.755	86.31
289.986	84.31
290.217	83.31
290.448	98.31
290.679	83.31
290.91	79.31
291.141	86.31
291.371	92.31
291.602	80.31
291.833	104.31
292.064	78.31
292.295	87.31
292.526	80.31
292.757	85.31
292.987	84.31
293.218	89.31
293.449	89.31
293.68	92.31
293.91	98.31
294.141	97.31
294.372	90.31
294.603	99.31
294.833	78.31
295.064	93.31
295.295	95.31
295.525	91.31
295.756	94.31
295.987	90.31
296.217	98.31
296.448	87.31
296.679	90.31
296.909	99.31
297.14	85.31
297.37	92.31
297.601	77.31
297.831	77.31
298.062	85.31
298.292	97.31
298.523	86.31
298.753	74.31
298.984	83.31
299.214	89.31
299.445	95.31
299.675	105.31
299.905	86.31
300.136	103.31
300.366	96.31
300.597	81.31
300.827	83.31
301.057	91.31
301.288	85.31
301.518	92.31
301.748	87.31
301.979	106.31
302.209	83.31
302.439	93.31
302.669	85.31
302.9	100.31
303.13	94.31
303.36	97.31
303.59	91.31
303.82	87.31
304.051	96.31
304.281	101.31
304.511	94.31
304.741	78.31
304.971	88.31
305.201	93.31
305.431	93.31
305.661	86.31
305.891	88.31
306.121	91.31
306.352	86.31
306.582	93.31
306.812	84.31
307.042	89.31
307.272	94.31
307.502	80.31
307.731	80.31
307.961	87.31
308.191	85.31
308.421	102.31
308.651	100.31
308.881	90.31
309.111	93.31
309.341	99.31
309.571	92.31
309.8	95.31
310.03	88.31
310.26	93.31
310.49	92.31
310.72	81.31
310.949	75.31
311.179	94.31
311.409	83.31
311.639	106.31
311.868	96.31
312.098	92.31
312.328	97.31
312.557	90.31
312.787	85.31
313.017	89.31
313.246	84.31
313.476	105.31
313.706	91.31
313.935	82.31
314.165	96.31
314.394	88.31
314.624	84.31
314.853	83.31
315.083	78.31
315.312	98.31
315.542	84.31
315.771	82.31
316.001	81.31
316.23	87.31
316.46	91.31
316.689	87.31
316.919	83.31
317.148	88.31
317.377	91.31
317.607	93.31
317.836	91.31
318.065	101.31
318.295	83.31
318.524	92.31
318.753	85.31
318.983	85.31
319.212	92.31
319.441	94.31
319.67	83.31
319.9	88.31
320.129	83.31
320.358	101.31
320.587	80.31
320.816	85.31
321.046	81.31
321.275	99.31
321.504	78.31
321.733	90.31
321.962	79.31
322.191	98.31
322.42	101.31
322.649	104.31
322.878	101.31
323.108	85.31
323.337	92.31
323.566	88.31
323.795	85.31
324.024	86.31
324.253	103.31
324.482	90.31
324.71	87.31
324.939	93.31
325.168	92.31
325.397	86.31
325.626	99.31
325.855	108.31
326.084	91.31
326.313	91.31
326.542	101.31
326.77	88.31
326.999	98.31
327.228	78.31
327.457	84.31
327.686	89.31
327.914	77.31
328.143	94.31
328.372	96.31
328.6	102.31
328.829	98.31
329.058	87.31
329.287	87.31
329.515	96.31
329.744	87.31
329.972	81.31
330.201	84.31
330.43	97.31
330.658	90.31
330.887	94.31
331.115	92.31
331.344	91.31
331.572	90.31
331.801	85.31
332.03	90.31
332.258	104.31
332.486	93.31
332.715	90.31
332.943	94.31
333.172	79.31
333.4	84.31
333.629	86.31
333.857	86.31
334.085	80.31
334.314	98.31
334.542	102.31
334.771	88.31
334.999	69.31
335.227	85.31
335.455	87.31
335.684	92.31
335.912	95.31
336.14	82.31
336.369	90.31
336.597	87.31
336.825	92.31
337.053	87.31
337.281	89.31
337.51	99.31
337.738	90.31
337.966	80.31
338.194	89.31
338.422	98.31
338.65	92.31
338.878	93.31
339.106	70.31
339.334	92.31
339.562	73.31
339.79	99.31
340.018	101.31
340.246	97.31
340.474	81.31
340.702	75.31
340.93	89.31
341.158	92.31
341.386	94.31
341.614	87.31
341.842	79.31
342.07	82.31
342.298	75.31
342.526	81.31
342.754	77.31
342.981	94.31
343.209	94.31
343.437	116.31
343.665	82.31
343.893	79.31
344.12	85.31
344.348	83.31
344.576	80.31
344.804	82.31
345.031	88.31
345.259	90.31
345.487	87.31
345.714	92.31
345.942	85.31
346.17	78.31
346.397	71.31
346.625	92.31
346.853	90.31
347.08	94.31
347.308	102.31
347.535	94.31
347.763	97.31
347.99	91.31
348.218	89.31
348.445	101.31
348.673	89.31
348.9	89.31
349.128	92.31
349.355	71.31
349.583	87.31
349.81	85.31
350.037	93.31
350.265	99.31
350.492	76.31
350.72	93.31
350.947	97.31
351.174	85.31
351.402	97.31
351.629	105.31
351.856	86.31
352.083	97.31
352.311	93.31
352.538	90.31
352.765	88.31
352.992	85.31
353.22	85.31
353.447	95.31
353.674	107.31
353.901	106.31
354.128	93.31
354.355	84.31
354.583	78.31
354.81	79.31
355.037	82.31
355.264	70.31
355.491	77.31
355.718	89.31
355.945	97.31
356.172	102.31
356.399	97.31
356.626	98.31
356.853	99.31
357.08	96.31
357.307	89.31
357.534	91.31
357.761	91.31
357.988	102.31
358.215	100.31
358.441	97.31
358.668	85.31
358.895	95.31
359.122	100.31
359.349	101.31
359.576	83.31
359.802	89.31
360.029	84.31
360.256	90.31
360.483	94.31
360.709	84.31
360.936	95.31
361.163	96.31
361.39	101.31
361.616	81.31
361.843	97.31
362.07	85.31
362.296	82.31
362.523	88.31
362.749	94.31
362.976	100.31
363.203	100.31
363.429	93.31
363.656	81.31
363.882	93.31
364.109	76.31
364.335	103.31
364.562	102.31
364.788	103.31
365.015	89.31
365.241	89.31
365.468	85.31
365.694	83.31
365.92	94.31
366.147	89.31
366.373	88.31
366.599	88.31
366.826	84.31
367.052	88.31
367.278	83.31
367.505	89.31
367.731	92.31
367.957	74.31
368.184	95.31
368.41	81.31
368.636	85.31
368.862	90.31
369.089	94.31
369.315	91.31
369.541	79.31
369.767	96.31
369.993	93.31
370.219	86.31
370.445	87.31
370.672	100.31
370.898	90.31
371.124	98.31
371.35	83.31
371.576	78.31
371.802	87.31
372.028	103.31
372.254	98.31
372.48	107.31
372.706	104.31
372.932	74.31
373.158	88.31
373.384	99.31
373.61	99.31
373.835	98.31
374.061	99.31
374.287	95.31
374.513	98.31
374.739	102.31
374.965	107.31
375.191	98.31
375.416	97.31
375.642	89.31
375.868	103.31
376.094	97.31
376.319	95.31
376.545	95.31
376.771	90.31
376.997	90.31
377.222	72.31
377.448	87.31
377.674	93.31
377.899	92.31
378.125	73.31
378.35	80.31
378.576	92.31
378.802	87.31
379.027	109.31
379.253	104.31
379.478	80.31
379.704	102.31
379.929	83.31
380.155	74.31
380.38	83.31
380.606	90.31
380.831	99.31
381.057	100.31
381.282	91.31
381.507	94.31
381.733	101.31
381.958	109.31
382.184	100.31
382.409	93.31
382.634	102.31
382.86	100.31
383.085	103.31
383.31	91.31
383.535	99.31
383.761	107.31
383.986	114.31
384.211	94.31
384.436	98.31
384.662	96.31
384.887	91.31
385.112	87.31
385.337	79.31
385.562	84.31
385.787	94.31
386.013	98.31
386.238	86.31
386.463	95.31
386.688	87.31
386.913	91.31
387.138	95.31
387.363	83.31
387.588	90.31
387.813	85.31
388.038	103.31
388.263	92.31
388.488	84.31
388.713	99.31
388.938	93.31
389.163	94.31
389.387	77.31
389.612	83.31
389.837	95.31
390.062	90.31
390.287	101.31
390.512	92.31
390.736	98.31
390.961	85.31
391.186	83.31
391.411	85.31
391.636	93.31
391.86	92.31
392.085	91.31
392.31	80.31
392.534	85.31
392.759	104.31
392.984	107.31
393.208	147.31
393.433	176.31
393.658	149.31
393.882	108.31
394.107	102.31
394.331	111.31
394.556	109.31
394.78	85.31
395.005	99.31
395.229	90.31
395.454	104.31
395.678	90.31
395.903	99.31
396.127	119.31
396.352	125.31
396.576	116.31
396.801	141.31
397.025	150.31
397.249	122.31
397.474	86.31
397.698	96.31
397.922	90.31
398.147	90.31
398.371	82.31
398.595	85.31
398.82	90.31
399.044	89.31
399.268	94.31
399.492	86.31
399.717	89.31
399.941	81.31
400.165	90.31
400.389	84.31
400.613	89.31
400.837	80.31
401.062	80.31
401.286	85.31
401.51	95.31
401.734	79.31
401.958	105.31
402.182	83.31
402.406	89.31
402.63	87.31
402.854	96.31
403.078	71.31
403.302	91.31
403.526	90.31
403.75	99.31
403.974	83.31
404.198	101.31
404.422	103.31
404.645	97.31
404.869	89.31
405.093	80.31
405.317	86.31
405.541	92.31
405.765	93.31
405.988	90.31
406.212	97.31
406.436	95.31
406.66	90.31
406.883	101.31
407.107	104.31
407.331	86.31
407.555	98.31
407.778	95.31
408.002	90.31
408.226	86.31
408.449	86.31
408.673	84.31
408.896	83.31
409.12	93.31
409.344	90.31
409.567	87.31
409.791	94.31
410.014	98.31
410.238	86.31
410.461	84.31
410.685	92.31
410.908	94.31
411.132	91.31
411.355	85.31
411.578	86.31
411.802	85.31
412.025	102.31
412.249	89.31
412.472	85.31
412.695	87.31
412.919	89.31
413.142	87.31
413.365	93.31
413.589	88.31
413.812	94.31
414.035	93.31
414.258	88.31
414.482	95.31
414.705	97.31
414.928	86.31
415.151	90.31
415.374	87.31
415.597	89.31
415.821	88.31
416.044	73.31
416.267	81.31
416.49	83.31
416.713	81.31
416.936	82.31
417.159	86.31
417.382	85.31
417.605	87.31
417.828	83.31
418.051	94.31
418.274	86.31
418.497	91.31
418.72	88.31
418.943	86.31
419.166	92.31
419.389	103.31
419.611	83.31
419.834	91.31
420.057	92.31
420.28	65.31
420.503	84.31
420.726	85.31
420.948	79.31
421.171	96.31
421.394	85.31
421.617	103.31
421.839	97.31
422.062	102.31
422.285	115.31
422.507	150.31
422.73	226.31
422.953	202.31
423.175	129.31
423.398	110.31
423.621	90.31
423.843	94.31
424.066	89.31
424.288	86.31
424.511	88.31
424.733	80.31
424.956	94.31
425.178	89.31
425.401	100.31
425.623	94.31
425.846	84.31
426.068	78.31
426.291	90.31
426.513	74.31
426.735	86.31
426.958	78.31
427.18	87.31
427.402	91.31
427.625	85.31
427.847	85.31
428.069	96.31
428.292	95.31
428.514	105.31
428.736	85.31
428.958	94.31
429.181	96.31
429.403	91.31
429.625	103.31
429.847	104.31
430.069	94.31
430.292	113.31
430.514	115.31
430.736	102.31
430.958	109.31
431.18	89.31
431.402	91.31
431.624	105.31
431.846	113.31
432.068	97.31
432.29	80.31
432.512	91.31
432.734	81.31
432.956	101.31
433.178	92.31
433.4	83.31
433.622	101.31
433.844	88.31
434.066	85.31
434.287	86.31
434.509	85.31
434.731	95.31
434.953	88.31
435.175	79.31
435.397	77.31
435.618	82.31
435.84	87.31
436.062	88.31
436.284	71.31
436.505	96.31
436.727	96.31
436.949	85.31
437.17	90.31
437.392	90.31
437.614	92.31
437.835	91.31
438.057	88.31
438.278	81.31
438.5	87.31
438.721	87.31
438.943	83.31
439.165	97.31
439.386	98.31
439.608	89.31
439.829	83.31
440.05	95.31
440.272	86.31
440.493	100.31
440.715	99.31
440.936	78.31
441.158	75.31
441.379	89.31
441.6	88.31
441.822	94.31
442.043	88.31
442.264	101.31
442.486	99.31
442.707	108.31
442.928	111.31
443.149	105.31
443.371	95.31
443.592	129.31
443.813	122.31
444.034	86.31
444.255	83.31
444.476	90.31
444.698	85.31
444.919	89.31
445.14	149.31
445.361	121.31
445.582	137.31
445.803	144.31
446.024	86.31
446.245	96.31
446.466	94.31
446.687	88.31
446.908	101.31
447.129	93.31
447.35	91.31
447.571	73.31
447.792	99.31
448.013	86.31
448.234	82.31
448.455	84.31
448.675	91.31
448.896	97.31
449.117	87.31
449.338	86.31
449.559	76.31
449.779	92.31
450	87.31
450.221	84.31
450.442	100.31
450.662	68.31
450.883	89.31
451.104	100.31
451.324	85.31
451.545	88.31
451.766	77.31
451.986	89.31
452.207	84.31
452.428	91.31
452.648	84.31
452.869	86.31
453.089	93.31
453.31	89.31
453.53	87.31
453.751	89.31
453.971	82.31
454.192	96.31
454.412	75.31
454.633	81.31
454.853	86.31
455.073	86.31
455.294	94.31
455.514	93.31
455.734	84.31
455.955	78.31
456.175	97.31
456.395	88.31
456.616	85.31
456.836	81.31
457.056	79.31
457.276	81.31
457.497	83.31
457.717	96.31
457.937	86.31
458.157	84.31
458.377	80.31
458.598	77.31
458.818	85.31
459.038	85.31
459.258	81.31
459.478	83.31
459.698	95.31
459.918	90.31
460.138	77.31
460.358	77.31
460.578	96.31
460.798	99.31
461.018	84.31
461.238	77.31
461.458	99.31
461.678	80.31
461.898	79.31
462.118	89.31
462.338	73.31
462.558	77.31
462.777	82.31
462.997	83.31
463.217	101.31
463.437	86.31
463.657	103.31
463.876	90.31
464.096	88.31
464.316	75.31
464.536	89.31
464.755	83.31
464.975	76.31
465.195	83.31
465.414	91.31
465.634	88.31
465.854	99.31
466.073	80.31
466.293	82.31
466.512	89.31
466.732	89.31
466.951	86.31
467.171	74.31
467.391	86.31
467.61	81.31
467.829	85.31
468.049	83.31
468.268	97.31
468.488	102.31
468.707	97.31
468.927	97.31
469.146	84.31
469.365	69.31
469.585	85.31
469.804	83.31
470.023	81.31
470.243	80.31
470.462	101.31
470.681	102.31
470.901	85.31
471.12	93.31
471.339	91.31
471.558	89.31
471.777	85.31
471.997	96.31
472.216	94.31
472.435	89.31
472.654	83.31
472.873	82.31
473.092	108.31
473.311	89.31
473.53	98.31
473.749	92.31
473.968	110.31
474.187	92.31
474.406	85.31
474.625	98.31
474.844	84.31
475.063	81.31
475.282	87.31
475.501	88.31
475.72	92.31
475.939	90.31
476.158	86.31
476.377	85.31
476.596	101.31
476.814	77.31
477.033	80.31
477.252	86.31
477.471	90.31
477.69	99.31
477.908	80.31
478.127	85.31
478.346	70.31
478.564	89.31
478.783	85.31
479.002	79.31
479.22	92.31
479.439	86.31
479.658	87.31
479.876	84.31
480.095	99.31
480.313	90.31
480.532	86.31
480.751	81.31
480.969	84.31
481.188	90.31
481.406	70.31
481.624	87.31
481.843	91.31
482.061	82.31
482.28	73.31
482.498	89.31
482.717	80.31
482.935	86.31
483.153	73.31
483.372	99.31
483.59	84.31
483.808	99.31
484.027	79.31
484.245	87.31
484.463	90.31
484.681	86.31
484.9	89.31
485.118	80.31
485.336	84.31
485.554	91.31
485.772	106.31
485.99	83.31
486.209	92.31
486.427	93.31
486.645	73.31
486.863	89.31
487.081	95.31
487.299	82.31
487.517	90.31
487.735	100.31
487.953	105.31
488.171	91.31
488.389	93.31
488.607	81.31
488.825	86.31
489.043	91.31
489.261	92.31
489.479	97.31
489.696	92.31
489.914	92.31
490.132	87.31
490.35	82.31
490.568	83.31
490.786	83.31
491.003	82.31
491.221	89.31
491.439	87.31
491.657	99.31
491.874	86.31
492.092	89.31
492.31	85.31
492.527	76.31
492.745	82.31
492.963	73.31
493.18	95.31
493.398	78.31
493.615	92.31
493.833	83.31
494.05	95.31
494.268	81.31
494.485	94.31
494.703	84.31
494.92	99.31
495.138	87.31
495.355	90.31
495.573	99.31
495.79	83.31
496.008	91.31
496.225	87.31
496.442	94.31
496.66	86.31
496.877	86.31
497.094	97.31
497.312	85.31
497.529	97.31
497.746	101.31
497.963	104.31
498.181	101.31
498.398	91.31
498.615	100.31
498.832	99.31
499.049	92.31
499.267	99.31
499.484	97.31
499.701	98.31
499.918	101.31
500.135	93.31
500.352	83.31
500.569	84.31
500.786	89.31
501.003	97.31
501.22	101.31
501.437	96.31
501.654	99.31
501.871	98.31
502.088	93.31
502.305	93.31
502.522	86.31
502.739	100.31
502.956	86.31
503.172	91.31
503.389	98.31
503.606	96.31
503.823	105.31
504.04	95.31
504.256	100.31
504.473	99.31
504.69	83.31
504.907	93.31
505.123	95.31
505.34	81.31
505.557	91.31
505.773	78.31
505.99	93.31
506.207	99.31
506.423	77.31
506.64	78.31
506.856	95.31
507.073	87.31
507.289	91.31
507.506	86.31
507.722	94.31
507.939	93.31
508.155	89.31
508.372	90.31
508.588	84.31
508.805	69.31
509.021	93.31
509.238	78.31
509.454	89.31
509.67	90.31
509.887	91.31
510.103	97.31
510.319	86.31
510.536	91.31
510.752	85.31
510.968	85.31
511.184	90.31
511.401	89.31
511.617	94.31
511.833	74.31
512.049	88.31
512.265	87.31
512.481	80.31
512.698	87.31
512.914	91.31
513.13	94.31
513.346	89.31
513.562	91.31
513.778	86.31
513.994	83.31
514.21	90.31
514.426	83.31
514.642	83.31
514.858	101.31
515.074	82.31
515.29	87.31
515.506	89.31
515.721	85.31
515.937	83.31
516.153	89.31
516.369	92.31
516.585	93.31
516.801	87.31
517.016	101.31
517.232	91.31
517.448	109.31
517.664	87.31
517.879	83.31
518.095	99.31
