Data from 1600_4_HRD10591_00039.txt Node
Date: Mon Jan 19 13:56:30 EST 2026
User: Yrep
Spectrometer: HR+D1059
Trigger mode: 1
Integration Time (sec): 1.000000E-1
Scans to average: 1
Electric dark correction enabled: true
Nonlinearity correction enabled: false
Boxcar width: 0
XAxis mode: Wavelengths
Number of Pixels in Spectrum: 2048
>>>>>Begin Spectral Data<<<<<
223.165	-0.88
223.4	-0.88
223.635	-0.88
223.869	-16.88
224.104	-21.88
224.338	-4.88
224.573	-27.88
224.808	-4.88
225.042	-12.88
225.277	-13.88
225.511	7.12
225.746	-3.88
225.98	4.12
226.215	15.12
226.449	37.12
226.683	11.12
226.918	21.12
227.152	12.12
227.387	42.12
227.621	55.12
227.856	55.12
228.09	48.12
228.324	58.12
228.559	51.12
228.793	67.12
229.027	61.12
229.262	74.12
229.496	72.12
229.73	63.12
229.964	70.12
230.199	83.12
230.433	75.12
230.667	84.12
230.901	73.12
231.136	86.12
231.37	67.12
231.604	69.12
231.838	94.12
232.072	78.12
232.306	75.12
232.541	77.12
232.775	83.12
233.009	78.12
233.243	73.12
233.477	65.12
233.711	88.12
233.945	84.12
234.179	77.12
234.413	79.12
234.647	81.12
234.881	78.12
235.115	66.12
235.349	73.12
235.583	74.12
235.817	75.12
236.051	79.12
236.285	68.12
236.519	78.12
236.753	73.12
236.987	78.12
237.221	67.12
237.455	81.12
237.689	76.12
237.922	85.12
238.156	93.12
238.39	68.12
238.624	76.12
238.858	85.12
239.091	85.12
239.325	77.12
239.559	66.12
239.793	85.12
240.027	76.12
240.26	103.12
240.494	92.12
240.728	75.12
240.961	80.12
241.195	83.12
241.429	86.12
241.662	79.12
241.896	69.12
242.13	78.12
242.363	63.12
242.597	91.12
242.83	81.12
243.064	80.12
243.298	73.12
243.531	78.12
243.765	76.12
243.998	79.12
244.232	79.12
244.465	83.12
244.699	80.12
244.932	98.12
245.166	83.12
245.399	76.12
245.633	86.12
245.866	81.12
246.099	68.12
246.333	71.12
246.566	67.12
246.8	60.12
247.033	67.12
247.266	87.12
247.5	95.12
247.733	68.12
247.966	75.12
248.2	83.12
248.433	69.12
248.666	90.12
248.899	74.12
249.133	75.12
249.366	77.12
249.599	90.12
249.832	84.12
250.066	89.12
250.299	76.12
250.532	81.12
250.765	68.12
250.998	83.12
251.231	69.12
251.465	85.12
251.698	81.12
251.931	86.12
252.164	96.12
252.397	83.12
252.63	92.12
252.863	82.12
253.096	82.12
253.329	86.12
253.562	84.12
253.795	84.12
254.028	97.12
254.261	86.12
254.494	76.12
254.727	94.12
254.96	85.12
255.193	76.12
255.426	88.12
255.659	76.12
255.892	73.12
256.124	85.12
256.357	75.12
256.59	79.12
256.823	85.12
257.056	88.12
257.289	80.12
257.521	85.12
257.754	74.12
257.987	72.12
258.22	81.12
258.452	93.12
258.685	82.12
258.918	73.12
259.151	87.12
259.383	93.12
259.616	93.12
259.849	89.12
260.081	93.12
260.314	77.12
260.547	83.12
260.779	76.12
261.012	82.12
261.244	86.12
261.477	65.12
261.71	69.12
261.942	86.12
262.175	83.12
262.407	82.12
262.64	90.12
262.872	90.12
263.105	94.12
263.337	96.12
263.57	74.12
263.802	78.12
264.035	89.12
264.267	98.12
264.499	97.12
264.732	88.12
264.964	91.12
265.197	84.12
265.429	78.12
265.661	87.12
265.894	90.12
266.126	101.12
266.358	68.12
266.591	89.12
266.823	91.12
267.055	76.12
267.287	72.12
267.52	84.12
267.752	65.12
267.984	84.12
268.216	75.12
268.448	92.12
268.681	99.12
268.913	78.12
269.145	81.12
269.377	72.12
269.609	77.12
269.841	80.12
270.073	72.12
270.306	99.12
270.538	87.12
270.77	82.12
271.002	80.12
271.234	92.12
271.466	80.12
271.698	83.12
271.93	87.12
272.162	85.12
272.394	86.12
272.626	83.12
272.858	85.12
273.09	83.12
273.322	86.12
273.553	81.12
273.785	73.12
274.017	80.12
274.249	81.12
274.481	87.12
274.713	103.12
274.945	93.12
275.176	74.12
275.408	82.12
275.64	80.12
275.872	87.12
276.104	87.12
276.335	89.12
276.567	62.12
276.799	83.12
277.031	95.12
277.262	83.12
277.494	90.12
277.726	101.12
277.957	72.12
278.189	88.12
278.421	91.12
278.652	95.12
278.884	105.12
279.115	87.12
279.347	82.12
279.579	105.12
279.81	75.12
280.042	80.12
280.273	69.12
280.505	97.12
280.736	89.12
280.968	90.12
281.199	92.12
281.431	99.12
281.662	89.12
281.894	73.12
282.125	91.12
282.356	77.12
282.588	84.12
282.819	88.12
283.051	82.12
283.282	83.12
283.513	86.12
283.745	83.12
283.976	89.12
284.207	87.12
284.439	94.12
284.67	88.12
284.901	89.12
285.132	107.12
285.364	97.12
285.595	83.12
285.826	86.12
286.057	86.12
286.288	85.12
286.52	91.12
286.751	91.12
286.982	92.12
287.213	95.12
287.444	87.12
287.675	85.12
287.906	93.12
288.138	82.12
288.369	91.12
288.6	88.12
288.831	78.12
289.062	98.12
289.293	101.12
289.524	85.12
289.755	83.12
289.986	83.12
290.217	96.12
290.448	82.12
290.679	83.12
290.91	86.12
291.141	85.12
291.371	103.12
291.602	75.12
291.833	92.12
292.064	86.12
292.295	72.12
292.526	91.12
292.757	86.12
292.987	96.12
293.218	80.12
293.449	87.12
293.68	90.12
293.91	97.12
294.141	88.12
294.372	85.12
294.603	82.12
294.833	87.12
295.064	82.12
295.295	100.12
295.525	87.12
295.756	87.12
295.987	82.12
296.217	98.12
296.448	88.12
296.679	84.12
296.909	80.12
297.14	87.12
297.37	94.12
297.601	90.12
297.831	93.12
298.062	95.12
298.292	109.12
298.523	90.12
298.753	100.12
298.984	94.12
299.214	97.12
299.445	81.12
299.675	91.12
299.905	91.12
300.136	72.12
300.366	83.12
300.597	87.12
300.827	99.12
301.057	103.12
301.288	84.12
301.518	87.12
301.748	95.12
301.979	104.12
302.209	93.12
302.439	88.12
302.669	87.12
302.9	73.12
303.13	99.12
303.36	87.12
303.59	94.12
303.82	97.12
304.051	96.12
304.281	91.12
304.511	89.12
304.741	86.12
304.971	86.12
305.201	88.12
305.431	71.12
305.661	83.12
305.891	85.12
306.121	83.12
306.352	83.12
306.582	91.12
306.812	82.12
307.042	85.12
307.272	90.12
307.502	84.12
307.731	86.12
307.961	96.12
308.191	92.12
308.421	77.12
308.651	87.12
308.881	84.12
309.111	85.12
309.341	99.12
309.571	105.12
309.8	91.12
310.03	84.12
310.26	83.12
310.49	77.12
310.72	98.12
310.949	97.12
311.179	81.12
311.409	96.12
311.639	90.12
311.868	92.12
312.098	99.12
312.328	86.12
312.557	75.12
312.787	87.12
313.017	95.12
313.246	86.12
313.476	75.12
313.706	71.12
313.935	81.12
314.165	91.12
314.394	82.12
314.624	82.12
314.853	98.12
315.083	83.12
315.312	88.12
315.542	65.12
315.771	91.12
316.001	88.12
316.23	93.12
316.46	88.12
316.689	83.12
316.919	84.12
317.148	101.12
317.377	91.12
317.607	88.12
317.836	91.12
318.065	94.12
318.295	92.12
318.524	92.12
318.753	83.12
318.983	87.12
319.212	81.12
319.441	70.12
319.67	92.12
319.9	85.12
320.129	87.12
320.358	70.12
320.587	96.12
320.816	93.12
321.046	91.12
321.275	79.12
321.504	69.12
321.733	83.12
321.962	62.12
322.191	75.12
322.42	84.12
322.649	77.12
322.878	93.12
323.108	87.12
323.337	87.12
323.566	88.12
323.795	89.12
324.024	78.12
324.253	87.12
324.482	93.12
324.71	88.12
324.939	89.12
325.168	78.12
325.397	91.12
325.626	106.12
325.855	80.12
326.084	100.12
326.313	87.12
326.542	90.12
326.77	84.12
326.999	89.12
327.228	73.12
327.457	74.12
327.686	87.12
327.914	88.12
328.143	77.12
328.372	78.12
328.6	93.12
328.829	81.12
329.058	91.12
329.287	95.12
329.515	84.12
329.744	89.12
329.972	74.12
330.201	85.12
330.43	77.12
330.658	81.12
330.887	93.12
331.115	83.12
331.344	87.12
331.572	95.12
331.801	83.12
332.03	83.12
332.258	89.12
332.486	77.12
332.715	73.12
332.943	93.12
333.172	96.12
333.4	81.12
333.629	75.12
333.857	99.12
334.085	84.12
334.314	67.12
334.542	92.12
334.771	73.12
334.999	99.12
335.227	92.12
335.455	85.12
335.684	93.12
335.912	88.12
336.14	83.12
336.369	81.12
336.597	90.12
336.825	79.12
337.053	90.12
337.281	84.12
337.51	96.12
337.738	96.12
337.966	85.12
338.194	89.12
338.422	98.12
338.65	87.12
338.878	76.12
339.106	87.12
339.334	84.12
339.562	77.12
339.79	82.12
340.018	96.12
340.246	91.12
340.474	87.12
340.702	96.12
340.93	79.12
341.158	93.12
341.386	77.12
341.614	87.12
341.842	84.12
342.07	88.12
342.298	77.12
342.526	90.12
342.754	102.12
342.981	91.12
343.209	76.12
343.437	93.12
343.665	93.12
343.893	92.12
344.12	105.12
344.348	103.12
344.576	84.12
344.804	91.12
345.031	79.12
345.259	86.12
345.487	89.12
345.714	73.12
345.942	87.12
346.17	77.12
346.397	97.12
346.625	87.12
346.853	93.12
347.08	81.12
347.308	78.12
347.535	85.12
347.763	81.12
347.99	80.12
348.218	93.12
348.445	75.12
348.673	75.12
348.9	92.12
349.128	85.12
349.355	90.12
349.583	87.12
349.81	89.12
350.037	99.12
350.265	103.12
350.492	82.12
350.72	96.12
350.947	79.12
351.174	90.12
351.402	89.12
351.629	77.12
351.856	95.12
352.083	90.12
352.311	91.12
352.538	92.12
352.765	93.12
352.992	90.12
353.22	78.12
353.447	70.12
353.674	78.12
353.901	98.12
354.128	80.12
354.355	88.12
354.583	89.12
354.81	76.12
355.037	96.12
355.264	75.12
355.491	85.12
355.718	80.12
355.945	85.12
356.172	93.12
356.399	100.12
356.626	91.12
356.853	91.12
357.08	88.12
357.307	91.12
357.534	84.12
357.761	71.12
357.988	101.12
358.215	95.12
358.441	86.12
358.668	90.12
358.895	108.12
359.122	73.12
359.349	87.12
359.576	75.12
359.802	84.12
360.029	94.12
360.256	93.12
360.483	98.12
360.709	93.12
360.936	90.12
361.163	65.12
361.39	78.12
361.616	88.12
361.843	96.12
362.07	89.12
362.296	85.12
362.523	76.12
362.749	83.12
362.976	88.12
363.203	96.12
363.429	101.12
363.656	92.12
363.882	75.12
364.109	102.12
364.335	104.12
364.562	100.12
364.788	98.12
365.015	92.12
365.241	105.12
365.468	95.12
365.694	84.12
365.92	82.12
366.147	89.12
366.373	83.12
366.599	95.12
366.826	66.12
367.052	77.12
367.278	86.12
367.505	81.12
367.731	93.12
367.957	81.12
368.184	92.12
368.41	96.12
368.636	82.12
368.862	80.12
369.089	92.12
369.315	89.12
369.541	88.12
369.767	85.12
369.993	75.12
370.219	83.12
370.445	99.12
370.672	97.12
370.898	98.12
371.124	85.12
371.35	82.12
371.576	80.12
371.802	87.12
372.028	87.12
372.254	79.12
372.48	101.12
372.706	97.12
372.932	97.12
373.158	99.12
373.384	92.12
373.61	117.12
373.835	102.12
374.061	91.12
374.287	95.12
374.513	104.12
374.739	110.12
374.965	107.12
375.191	81.12
375.416	88.12
375.642	72.12
375.868	95.12
376.094	67.12
376.319	83.12
376.545	79.12
376.771	95.12
376.997	79.12
377.222	76.12
377.448	93.12
377.674	75.12
377.899	84.12
378.125	81.12
378.35	90.12
378.576	90.12
378.802	96.12
379.027	92.12
379.253	87.12
379.478	95.12
379.704	97.12
379.929	97.12
380.155	90.12
380.38	85.12
380.606	83.12
380.831	97.12
381.057	84.12
381.282	101.12
381.507	96.12
381.733	90.12
381.958	105.12
382.184	88.12
382.409	92.12
382.634	104.12
382.86	100.12
383.085	92.12
383.31	96.12
383.535	112.12
383.761	107.12
383.986	107.12
384.211	90.12
384.436	89.12
384.662	78.12
384.887	95.12
385.112	76.12
385.337	89.12
385.562	89.12
385.787	94.12
386.013	108.12
386.238	97.12
386.463	92.12
386.688	92.12
386.913	75.12
387.138	87.12
387.363	82.12
387.588	88.12
387.813	69.12
388.038	99.12
388.263	100.12
388.488	81.12
388.713	102.12
388.938	84.12
389.163	102.12
389.387	78.12
389.612	105.12
389.837	89.12
390.062	90.12
390.287	92.12
390.512	93.12
390.736	82.12
390.961	81.12
391.186	91.12
391.411	87.12
391.636	87.12
391.86	83.12
392.085	83.12
392.31	85.12
392.534	99.12
392.759	95.12
392.984	118.12
393.208	180.12
393.433	275.12
393.658	211.12
393.882	111.12
394.107	100.12
394.331	105.12
394.556	102.12
394.78	85.12
395.005	92.12
395.229	74.12
395.454	71.12
395.678	95.12
395.903	108.12
396.127	121.12
396.352	131.12
396.576	137.12
396.801	184.12
397.025	203.12
397.249	131.12
397.474	100.12
397.698	81.12
397.922	93.12
398.147	84.12
398.371	73.12
398.595	78.12
398.82	69.12
399.044	89.12
399.268	99.12
399.492	86.12
399.717	90.12
399.941	85.12
400.165	84.12
400.389	71.12
400.613	81.12
400.837	89.12
401.062	90.12
401.286	82.12
401.51	89.12
401.734	68.12
401.958	79.12
402.182	79.12
402.406	90.12
402.63	93.12
402.854	83.12
403.078	77.12
403.302	89.12
403.526	94.12
403.75	79.12
403.974	87.12
404.198	76.12
404.422	105.12
404.645	88.12
404.869	95.12
405.093	101.12
405.317	88.12
405.541	94.12
405.765	81.12
405.988	73.12
406.212	88.12
406.436	86.12
406.66	86.12
406.883	99.12
407.107	87.12
407.331	97.12
407.555	103.12
407.778	87.12
408.002	94.12
408.226	87.12
408.449	83.12
408.673	95.12
408.896	74.12
409.12	95.12
409.344	78.12
409.567	91.12
409.791	92.12
410.014	87.12
410.238	87.12
410.461	74.12
410.685	95.12
410.908	101.12
411.132	83.12
411.355	92.12
411.578	91.12
411.802	87.12
412.025	69.12
412.249	63.12
412.472	76.12
412.695	82.12
412.919	99.12
413.142	90.12
413.365	76.12
413.589	91.12
413.812	75.12
414.035	89.12
414.258	87.12
414.482	71.12
414.705	94.12
414.928	90.12
415.151	77.12
415.374	75.12
415.597	83.12
415.821	70.12
416.044	79.12
416.267	79.12
416.49	80.12
416.713	71.12
416.936	87.12
417.159	81.12
417.382	100.12
417.605	81.12
417.828	94.12
418.051	85.12
418.274	101.12
418.497	89.12
418.72	89.12
418.943	77.12
419.166	86.12
419.389	82.12
419.611	93.12
419.834	82.12
420.057	83.12
420.28	85.12
420.503	89.12
420.726	81.12
420.948	83.12
421.171	93.12
421.394	88.12
421.617	99.12
421.839	96.12
422.062	104.12
422.285	116.12
422.507	149.12
422.73	241.12
422.953	209.12
423.175	112.12
423.398	89.12
423.621	96.12
423.843	85.12
424.066	83.12
424.288	84.12
424.511	91.12
424.733	94.12
424.956	91.12
425.178	103.12
425.401	89.12
425.623	99.12
425.846	76.12
426.068	100.12
426.291	90.12
426.513	77.12
426.735	85.12
426.958	84.12
427.18	86.12
427.402	88.12
427.625	72.12
427.847	76.12
428.069	95.12
428.292	107.12
428.514	99.12
428.736	101.12
428.958	84.12
429.181	103.12
429.403	89.12
429.625	92.12
429.847	86.12
430.069	99.12
430.292	115.12
430.514	111.12
430.736	113.12
430.958	92.12
431.18	87.12
431.402	92.12
431.624	84.12
431.846	92.12
432.068	99.12
432.29	87.12
432.512	90.12
432.734	95.12
432.956	77.12
433.178	84.12
433.4	78.12
433.622	100.12
433.844	83.12
434.066	87.12
434.287	77.12
434.509	71.12
434.731	81.12
434.953	76.12
435.175	72.12
435.397	82.12
435.618	78.12
435.84	82.12
436.062	83.12
436.284	78.12
436.505	79.12
436.727	86.12
436.949	76.12
437.17	83.12
437.392	96.12
437.614	83.12
437.835	81.12
438.057	88.12
438.278	90.12
438.5	97.12
438.721	81.12
438.943	82.12
439.165	96.12
439.386	92.12
439.608	78.12
439.829	99.12
440.05	92.12
440.272	91.12
440.493	102.12
440.715	77.12
440.936	75.12
441.158	86.12
441.379	85.12
441.6	63.12
441.822	101.12
442.043	87.12
442.264	85.12
442.486	89.12
442.707	110.12
442.928	93.12
443.149	86.12
443.371	99.12
443.592	127.12
443.813	123.12
444.034	85.12
444.255	89.12
444.476	97.12
444.698	80.12
444.919	79.12
445.14	172.12
445.361	140.12
445.582	139.12
445.803	132.12
446.024	96.12
446.245	90.12
446.466	83.12
446.687	68.12
446.908	76.12
447.129	86.12
447.35	67.12
447.571	82.12
447.792	83.12
448.013	76.12
448.234	77.12
448.455	89.12
448.675	100.12
448.896	97.12
449.117	92.12
449.338	77.12
449.559	71.12
449.779	84.12
450	93.12
450.221	78.12
450.442	75.12
450.662	85.12
450.883	81.12
451.104	95.12
451.324	84.12
451.545	95.12
451.766	76.12
451.986	74.12
452.207	82.12
452.428	90.12
452.648	95.12
452.869	99.12
453.089	81.12
453.31	85.12
453.53	95.12
453.751	69.12
453.971	84.12
454.192	89.12
454.412	77.12
454.633	83.12
454.853	81.12
455.073	84.12
455.294	85.12
455.514	91.12
455.734	75.12
455.955	88.12
456.175	81.12
456.395	100.12
456.616	70.12
456.836	73.12
457.056	83.12
457.276	77.12
457.497	79.12
457.717	90.12
457.937	93.12
458.157	90.12
458.377	95.12
458.598	78.12
458.818	88.12
459.038	85.12
459.258	89.12
459.478	82.12
459.698	77.12
459.918	90.12
460.138	74.12
460.358	87.12
460.578	75.12
460.798	86.12
461.018	85.12
461.238	91.12
461.458	82.12
461.678	94.12
461.898	78.12
462.118	91.12
462.338	97.12
462.558	77.12
462.777	90.12
462.997	77.12
463.217	85.12
463.437	99.12
463.657	88.12
463.876	93.12
464.096	77.12
464.316	82.12
464.536	88.12
464.755	85.12
464.975	80.12
465.195	81.12
465.414	77.12
465.634	85.12
465.854	87.12
466.073	80.12
466.293	85.12
466.512	73.12
466.732	91.12
466.951	79.12
467.171	73.12
467.391	101.12
467.61	79.12
467.829	74.12
468.049	95.12
468.268	93.12
468.488	87.12
468.707	82.12
468.927	80.12
469.146	74.12
469.365	85.12
469.585	87.12
469.804	79.12
470.023	74.12
470.243	80.12
470.462	88.12
470.681	78.12
470.901	92.12
471.12	89.12
471.339	96.12
471.558	77.12
471.777	90.12
471.997	83.12
472.216	81.12
472.435	88.12
472.654	76.12
472.873	74.12
473.092	71.12
473.311	87.12
473.53	64.12
473.749	80.12
473.968	92.12
474.187	83.12
474.406	72.12
474.625	87.12
474.844	84.12
475.063	92.12
475.282	89.12
475.501	77.12
475.72	72.12
475.939	81.12
476.158	97.12
476.377	79.12
476.596	91.12
476.814	77.12
477.033	83.12
477.252	80.12
477.471	87.12
477.69	78.12
477.908	88.12
478.127	80.12
478.346	77.12
478.564	95.12
478.783	88.12
479.002	88.12
479.22	75.12
479.439	91.12
479.658	78.12
479.876	98.12
480.095	73.12
480.313	87.12
480.532	87.12
480.751	88.12
480.969	83.12
481.188	83.12
481.406	95.12
481.624	90.12
481.843	93.12
482.061	92.12
482.28	88.12
482.498	88.12
482.717	96.12
482.935	89.12
483.153	79.12
483.372	110.12
483.59	90.12
483.808	99.12
484.027	94.12
484.245	85.12
484.463	77.12
484.681	84.12
484.9	75.12
485.118	96.12
485.336	91.12
485.554	87.12
485.772	85.12
485.99	88.12
486.209	85.12
486.427	92.12
486.645	75.12
486.863	79.12
487.081	96.12
487.299	83.12
487.517	103.12
487.735	91.12
487.953	103.12
488.171	99.12
488.389	95.12
488.607	77.12
488.825	83.12
489.043	107.12
489.261	90.12
489.479	86.12
489.696	93.12
489.914	90.12
490.132	91.12
490.35	89.12
490.568	87.12
490.786	75.12
491.003	89.12
491.221	74.12
491.439	75.12
491.657	80.12
491.874	103.12
492.092	84.12
492.31	96.12
492.527	90.12
492.745	82.12
492.963	93.12
493.18	93.12
493.398	75.12
493.615	78.12
493.833	91.12
494.05	90.12
494.268	95.12
494.485	75.12
494.703	79.12
494.92	79.12
495.138	89.12
495.355	95.12
495.573	104.12
495.79	88.12
496.008	84.12
496.225	97.12
496.442	78.12
496.66	105.12
496.877	83.12
497.094	100.12
497.312	67.12
497.529	82.12
497.746	81.12
497.963	81.12
498.181	88.12
498.398	97.12
498.615	89.12
498.832	90.12
499.049	79.12
499.267	90.12
499.484	86.12
499.701	85.12
499.918	87.12
500.135	103.12
500.352	78.12
500.569	92.12
500.786	86.12
501.003	84.12
501.22	93.12
501.437	97.12
501.654	103.12
501.871	96.12
502.088	89.12
502.305	86.12
502.522	75.12
502.739	98.12
502.956	81.12
503.172	92.12
503.389	96.12
503.606	85.12
503.823	100.12
504.04	93.12
504.256	81.12
504.473	88.12
504.69	97.12
504.907	103.12
505.123	88.12
505.34	85.12
505.557	91.12
505.773	92.12
505.99	101.12
506.207	87.12
506.423	94.12
506.64	79.12
506.856	69.12
507.073	78.12
507.289	94.12
507.506	93.12
507.722	83.12
507.939	91.12
508.155	90.12
508.372	98.12
508.588	83.12
508.805	97.12
509.021	88.12
509.238	92.12
509.454	80.12
509.67	86.12
509.887	88.12
510.103	85.12
510.319	90.12
510.536	91.12
510.752	83.12
510.968	94.12
511.184	100.12
511.401	95.12
511.617	100.12
511.833	85.12
512.049	69.12
512.265	96.12
512.481	95.12
512.698	73.12
512.914	97.12
513.13	100.12
513.346	91.12
513.562	87.12
513.778	86.12
513.994	101.12
514.21	89.12
514.426	85.12
514.642	82.12
514.858	105.12
515.074	95.12
515.29	76.12
515.506	93.12
515.721	93.12
515.937	84.12
516.153	85.12
516.369	85.12
516.585	91.12
516.801	85.12
517.016	94.12
517.232	82.12
517.448	122.12
517.664	92.12
517.879	80.12
518.095	102.12
518.311	102.12
518.527	105.12
518.742	96.12
