Data from 1600_4_HRD10591_00003.txt Node
Date: Mon Jan 19 13:56:12 EST 2026
User: Yrep
Spectrometer: HR+D1059
Trigger mode: 1
Integration Time (sec): 1.000000E-1
Scans to average: 1
Electric dark correction enabled: true
Nonlinearity correction enabled: false
Boxcar width: 0
XAxis mode: Wavelengths
Number of Pixels in Spectrum: 2048
>>>>>Begin Spectral Data<<<<<
223.165	-25.62
223.4	-25.62
223.635	-25.62
223.869	-15.62
224.104	-24.62
224.338	-23.62
224.573	-18.62
224.808	-11.62
225.042	-7.62
225.277	-5.62
225.511	-1.62
225.746	11.38
225.98	16.38
226.215	9.38
226.449	16.38
226.683	16.38
226.918	27.38
227.152	37.38
227.387	33.38
227.621	29.38
227.856	28.38
228.09	44.38
228.324	56.38
228.559	42.38
228.793	54.38
229.027	60.38
229.262	53.38
229.496	76.38
229.73	67.38
229.964	69.38
230.199	76.38
230.433	74.38
230.667	78.38
230.901	67.38
231.136	64.38
231.37	76.38
231.604	86.38
231.838	84.38
232.072	59.38
232.306	67.38
232.541	82.38
232.775	67.38
233.009	74.38
233.243	82.38
233.477	73.38
233.711	77.38
233.945	82.38
234.179	91.38
234.413	92.38
234.647	83.38
234.881	86.38
235.115	79.38
235.349	84.38
235.583	68.38
235.817	73.38
236.051	70.38
236.285	68.38
236.519	65.38
236.753	86.38
236.987	74.38
237.221	82.38
237.455	65.38
237.689	80.38
237.922	69.38
238.156	76.38
238.39	66.38
238.624	61.38
238.858	77.38
239.091	67.38
239.325	72.38
239.559	81.38
239.793	76.38
240.027	90.38
240.26	82.38
240.494	79.38
240.728	57.38
240.961	68.38
241.195	82.38
241.429	87.38
241.662	64.38
241.896	66.38
242.13	64.38
242.363	59.38
242.597	82.38
242.83	80.38
243.064	74.38
243.298	62.38
243.531	88.38
243.765	71.38
243.998	71.38
244.232	92.38
244.465	69.38
244.699	74.38
244.932	78.38
245.166	76.38
245.399	66.38
245.633	86.38
245.866	81.38
246.099	72.38
246.333	76.38
246.566	86.38
246.8	60.38
247.033	65.38
247.266	73.38
247.5	76.38
247.733	67.38
247.966	67.38
248.2	64.38
248.433	72.38
248.666	74.38
248.899	81.38
249.133	79.38
249.366	81.38
249.599	70.38
249.832	75.38
250.066	78.38
250.299	78.38
250.532	72.38
250.765	82.38
250.998	76.38
251.231	75.38
251.465	82.38
251.698	82.38
251.931	67.38
252.164	70.38
252.397	70.38
252.63	80.38
252.863	82.38
253.096	80.38
253.329	76.38
253.562	73.38
253.795	81.38
254.028	72.38
254.261	94.38
254.494	62.38
254.727	76.38
254.96	82.38
255.193	77.38
255.426	90.38
255.659	71.38
255.892	80.38
256.124	71.38
256.357	73.38
256.59	86.38
256.823	72.38
257.056	77.38
257.289	82.38
257.521	78.38
257.754	66.38
257.987	87.38
258.22	73.38
258.452	80.38
258.685	74.38
258.918	84.38
259.151	87.38
259.383	79.38
259.616	84.38
259.849	83.38
260.081	80.38
260.314	72.38
260.547	74.38
260.779	62.38
261.012	68.38
261.244	83.38
261.477	87.38
261.71	85.38
261.942	81.38
262.175	83.38
262.407	80.38
262.64	76.38
262.872	64.38
263.105	91.38
263.337	80.38
263.57	87.38
263.802	58.38
264.035	78.38
264.267	69.38
264.499	77.38
264.732	79.38
264.964	78.38
265.197	102.38
265.429	94.38
265.661	90.38
265.894	70.38
266.126	60.38
266.358	77.38
266.591	86.38
266.823	73.38
267.055	86.38
267.287	72.38
267.52	80.38
267.752	81.38
267.984	85.38
268.216	75.38
268.448	74.38
268.681	77.38
268.913	70.38
269.145	87.38
269.377	88.38
269.609	89.38
269.841	73.38
270.073	76.38
270.306	99.38
270.538	74.38
270.77	61.38
271.002	94.38
271.234	64.38
271.466	88.38
271.698	78.38
271.93	79.38
272.162	81.38
272.394	66.38
272.626	76.38
272.858	77.38
273.09	93.38
273.322	92.38
273.553	81.38
273.785	79.38
274.017	76.38
274.249	75.38
274.481	78.38
274.713	87.38
274.945	79.38
275.176	67.38
275.408	84.38
275.64	71.38
275.872	84.38
276.104	80.38
276.335	70.38
276.567	87.38
276.799	94.38
277.031	77.38
277.262	71.38
277.494	74.38
277.726	91.38
277.957	84.38
278.189	72.38
278.421	80.38
278.652	78.38
278.884	67.38
279.115	73.38
279.347	84.38
279.579	86.38
279.81	92.38
280.042	78.38
280.273	90.38
280.505	83.38
280.736	80.38
280.968	86.38
281.199	82.38
281.431	80.38
281.662	83.38
281.894	83.38
282.125	59.38
282.356	82.38
282.588	81.38
282.819	80.38
283.051	84.38
283.282	80.38
283.513	81.38
283.745	84.38
283.976	76.38
284.207	78.38
284.439	84.38
284.67	86.38
284.901	84.38
285.132	88.38
285.364	78.38
285.595	85.38
285.826	86.38
286.057	82.38
286.288	71.38
286.52	71.38
286.751	90.38
286.982	84.38
287.213	84.38
287.444	83.38
287.675	90.38
287.906	91.38
288.138	86.38
288.369	78.38
288.6	91.38
288.831	87.38
289.062	87.38
289.293	91.38
289.524	93.38
289.755	56.38
289.986	70.38
290.217	98.38
290.448	68.38
290.679	87.38
290.91	96.38
291.141	81.38
291.371	97.38
291.602	91.38
291.833	86.38
292.064	76.38
292.295	69.38
292.526	84.38
292.757	71.38
292.987	87.38
293.218	78.38
293.449	62.38
293.68	87.38
293.91	78.38
294.141	74.38
294.372	87.38
294.603	83.38
294.833	74.38
295.064	81.38
295.295	90.38
295.525	83.38
295.756	100.38
295.987	88.38
296.217	88.38
296.448	87.38
296.679	78.38
296.909	83.38
297.14	80.38
297.37	81.38
297.601	86.38
297.831	79.38
298.062	100.38
298.292	95.38
298.523	82.38
298.753	92.38
298.984	83.38
299.214	83.38
299.445	75.38
299.675	77.38
299.905	79.38
300.136	88.38
300.366	86.38
300.597	98.38
300.827	97.38
301.057	98.38
301.288	80.38
301.518	90.38
301.748	100.38
301.979	93.38
302.209	99.38
302.439	82.38
302.669	75.38
302.9	84.38
303.13	81.38
303.36	88.38
303.59	92.38
303.82	77.38
304.051	88.38
304.281	77.38
304.511	70.38
304.741	75.38
304.971	76.38
305.201	83.38
305.431	77.38
305.661	89.38
305.891	79.38
306.121	80.38
306.352	79.38
306.582	84.38
306.812	87.38
307.042	80.38
307.272	86.38
307.502	95.38
307.731	79.38
307.961	98.38
308.191	82.38
308.421	83.38
308.651	87.38
308.881	93.38
309.111	82.38
309.341	89.38
309.571	70.38
309.8	80.38
310.03	80.38
310.26	94.38
310.49	84.38
310.72	88.38
310.949	73.38
311.179	76.38
311.409	99.38
311.639	82.38
311.868	86.38
312.098	75.38
312.328	81.38
312.557	85.38
312.787	74.38
313.017	85.38
313.246	78.38
313.476	92.38
313.706	92.38
313.935	78.38
314.165	69.38
314.394	76.38
314.624	83.38
314.853	94.38
315.083	92.38
315.312	85.38
315.542	87.38
315.771	82.38
316.001	82.38
316.23	84.38
316.46	86.38
316.689	71.38
316.919	87.38
317.148	83.38
317.377	69.38
317.607	83.38
317.836	68.38
318.065	87.38
318.295	86.38
318.524	82.38
318.753	84.38
318.983	95.38
319.212	97.38
319.441	86.38
319.67	78.38
319.9	83.38
320.129	74.38
320.358	88.38
320.587	89.38
320.816	95.38
321.046	71.38
321.275	78.38
321.504	83.38
321.733	69.38
321.962	78.38
322.191	72.38
322.42	83.38
322.649	87.38
322.878	80.38
323.108	106.38
323.337	78.38
323.566	76.38
323.795	87.38
324.024	86.38
324.253	64.38
324.482	92.38
324.71	82.38
324.939	80.38
325.168	85.38
325.397	78.38
325.626	94.38
325.855	84.38
326.084	77.38
326.313	83.38
326.542	93.38
326.77	80.38
326.999	66.38
327.228	80.38
327.457	78.38
327.686	82.38
327.914	100.38
328.143	91.38
328.372	91.38
328.6	77.38
328.829	83.38
329.058	77.38
329.287	86.38
329.515	71.38
329.744	80.38
329.972	80.38
330.201	84.38
330.43	79.38
330.658	80.38
330.887	83.38
331.115	79.38
331.344	88.38
331.572	83.38
331.801	73.38
332.03	82.38
332.258	77.38
332.486	111.38
332.715	90.38
332.943	82.38
333.172	83.38
333.4	94.38
333.629	94.38
333.857	83.38
334.085	94.38
334.314	82.38
334.542	77.38
334.771	90.38
334.999	90.38
335.227	78.38
335.455	82.38
335.684	80.38
335.912	91.38
336.14	78.38
336.369	85.38
336.597	87.38
336.825	78.38
337.053	86.38
337.281	75.38
337.51	96.38
337.738	88.38
337.966	85.38
338.194	78.38
338.422	68.38
338.65	86.38
338.878	67.38
339.106	88.38
339.334	94.38
339.562	86.38
339.79	77.38
340.018	84.38
340.246	70.38
340.474	79.38
340.702	81.38
340.93	93.38
341.158	90.38
341.386	76.38
341.614	78.38
341.842	82.38
342.07	84.38
342.298	90.38
342.526	67.38
342.754	84.38
342.981	76.38
343.209	77.38
343.437	95.38
343.665	85.38
343.893	73.38
344.12	76.38
344.348	91.38
344.576	100.38
344.804	92.38
345.031	81.38
345.259	75.38
345.487	89.38
345.714	66.38
345.942	75.38
346.17	86.38
346.397	90.38
346.625	82.38
346.853	92.38
347.08	77.38
347.308	88.38
347.535	78.38
347.763	84.38
347.99	79.38
348.218	83.38
348.445	80.38
348.673	73.38
348.9	81.38
349.128	91.38
349.355	67.38
349.583	89.38
349.81	62.38
350.037	78.38
350.265	62.38
350.492	75.38
350.72	70.38
350.947	87.38
351.174	91.38
351.402	86.38
351.629	73.38
351.856	71.38
352.083	84.38
352.311	79.38
352.538	78.38
352.765	77.38
352.992	76.38
353.22	62.38
353.447	72.38
353.674	83.38
353.901	83.38
354.128	77.38
354.355	91.38
354.583	79.38
354.81	67.38
355.037	80.38
355.264	82.38
355.491	85.38
355.718	82.38
355.945	76.38
356.172	87.38
356.399	70.38
356.626	85.38
356.853	98.38
357.08	82.38
357.307	81.38
357.534	79.38
357.761	90.38
357.988	85.38
358.215	86.38
358.441	91.38
358.668	90.38
358.895	88.38
359.122	56.38
359.349	83.38
359.576	71.38
359.802	83.38
360.029	65.38
360.256	67.38
360.483	84.38
360.709	84.38
360.936	93.38
361.163	79.38
361.39	76.38
361.616	87.38
361.843	82.38
362.07	72.38
362.296	82.38
362.523	70.38
362.749	83.38
362.976	62.38
363.203	94.38
363.429	94.38
363.656	75.38
363.882	86.38
364.109	79.38
364.335	83.38
364.562	97.38
364.788	81.38
365.015	85.38
365.241	91.38
365.468	69.38
365.694	90.38
365.92	89.38
366.147	85.38
366.373	86.38
366.599	76.38
366.826	83.38
367.052	85.38
367.278	80.38
367.505	73.38
367.731	89.38
367.957	81.38
368.184	78.38
368.41	77.38
368.636	82.38
368.862	76.38
369.089	81.38
369.315	74.38
369.541	77.38
369.767	84.38
369.993	84.38
370.219	91.38
370.445	66.38
370.672	82.38
370.898	87.38
371.124	83.38
371.35	84.38
371.576	84.38
371.802	61.38
372.028	67.38
372.254	83.38
372.48	87.38
372.706	68.38
372.932	91.38
373.158	88.38
373.384	78.38
373.61	80.38
373.835	80.38
374.061	91.38
374.287	87.38
374.513	77.38
374.739	85.38
374.965	97.38
375.191	97.38
375.416	87.38
375.642	88.38
375.868	97.38
376.094	84.38
376.319	78.38
376.545	86.38
376.771	75.38
376.997	93.38
377.222	78.38
377.448	77.38
377.674	73.38
377.899	84.38
378.125	85.38
378.35	82.38
378.576	99.38
378.802	84.38
379.027	76.38
379.253	77.38
379.478	71.38
379.704	76.38
379.929	76.38
380.155	85.38
380.38	80.38
380.606	91.38
380.831	94.38
381.057	100.38
381.282	82.38
381.507	84.38
381.733	85.38
381.958	84.38
382.184	83.38
382.409	77.38
382.634	95.38
382.86	86.38
383.085	77.38
383.31	91.38
383.535	89.38
383.761	100.38
383.986	90.38
384.211	81.38
384.436	78.38
384.662	75.38
384.887	81.38
385.112	69.38
385.337	80.38
385.562	74.38
385.787	84.38
386.013	91.38
386.238	94.38
386.463	78.38
386.688	84.38
386.913	84.38
387.138	84.38
387.363	82.38
387.588	80.38
387.813	97.38
388.038	94.38
388.263	78.38
388.488	70.38
388.713	83.38
388.938	81.38
389.163	86.38
389.387	73.38
389.612	65.38
389.837	79.38
390.062	69.38
390.287	87.38
390.512	83.38
390.736	88.38
390.961	80.38
391.186	86.38
391.411	79.38
391.636	67.38
391.86	74.38
392.085	76.38
392.31	86.38
392.534	77.38
392.759	84.38
392.984	94.38
393.208	114.38
393.433	109.38
393.658	113.38
393.882	92.38
394.107	98.38
394.331	100.38
394.556	85.38
394.78	85.38
395.005	75.38
395.229	70.38
395.454	76.38
395.678	72.38
395.903	87.38
396.127	93.38
396.352	100.38
396.576	93.38
396.801	106.38
397.025	119.38
397.249	86.38
397.474	86.38
397.698	79.38
397.922	92.38
398.147	80.38
398.371	73.38
398.595	70.38
398.82	75.38
399.044	58.38
399.268	76.38
399.492	86.38
399.717	83.38
399.941	81.38
400.165	79.38
400.389	76.38
400.613	86.38
400.837	81.38
401.062	94.38
401.286	80.38
401.51	89.38
401.734	95.38
401.958	78.38
402.182	80.38
402.406	82.38
402.63	74.38
402.854	82.38
403.078	65.38
403.302	76.38
403.526	92.38
403.75	79.38
403.974	82.38
404.198	78.38
404.422	95.38
404.645	93.38
404.869	86.38
405.093	79.38
405.317	71.38
405.541	74.38
405.765	89.38
405.988	86.38
406.212	82.38
406.436	70.38
406.66	82.38
406.883	73.38
407.107	86.38
407.331	76.38
407.555	73.38
407.778	92.38
408.002	89.38
408.226	87.38
408.449	66.38
408.673	93.38
408.896	81.38
409.12	72.38
409.344	87.38
409.567	79.38
409.791	79.38
410.014	82.38
410.238	78.38
410.461	73.38
410.685	82.38
410.908	80.38
411.132	97.38
411.355	62.38
411.578	93.38
411.802	90.38
412.025	95.38
412.249	99.38
412.472	79.38
412.695	80.38
412.919	78.38
413.142	67.38
413.365	80.38
413.589	66.38
413.812	82.38
414.035	90.38
414.258	94.38
414.482	86.38
414.705	80.38
414.928	103.38
415.151	70.38
415.374	80.38
415.597	80.38
415.821	76.38
416.044	83.38
416.267	94.38
416.49	86.38
416.713	77.38
416.936	79.38
417.159	81.38
417.382	86.38
417.605	65.38
417.828	81.38
418.051	80.38
418.274	74.38
418.497	87.38
418.72	78.38
418.943	73.38
419.166	86.38
419.389	80.38
419.611	81.38
419.834	71.38
420.057	81.38
420.28	85.38
420.503	65.38
420.726	84.38
420.948	76.38
421.171	76.38
421.394	81.38
421.617	79.38
421.839	90.38
422.062	74.38
422.285	96.38
422.507	107.38
422.73	133.38
422.953	134.38
423.175	93.38
423.398	80.38
423.621	101.38
423.843	86.38
424.066	71.38
424.288	90.38
424.511	87.38
424.733	89.38
424.956	83.38
425.178	86.38
425.401	73.38
425.623	90.38
425.846	83.38
426.068	66.38
426.291	71.38
426.513	73.38
426.735	98.38
426.958	76.38
427.18	87.38
427.402	75.38
427.625	76.38
427.847	75.38
428.069	84.38
428.292	83.38
428.514	83.38
428.736	89.38
428.958	85.38
429.181	93.38
429.403	83.38
429.625	82.38
429.847	90.38
430.069	87.38
430.292	106.38
430.514	107.38
430.736	89.38
430.958	82.38
431.18	84.38
431.402	72.38
431.624	78.38
431.846	76.38
432.068	83.38
432.29	79.38
432.512	85.38
432.734	71.38
432.956	75.38
433.178	88.38
433.4	73.38
433.622	72.38
433.844	78.38
434.066	76.38
434.287	77.38
434.509	66.38
434.731	68.38
434.953	75.38
435.175	83.38
435.397	79.38
435.618	86.38
435.84	81.38
436.062	91.38
436.284	70.38
436.505	61.38
436.727	81.38
436.949	70.38
437.17	81.38
437.392	86.38
437.614	78.38
437.835	72.38
438.057	71.38
438.278	78.38
438.5	83.38
438.721	84.38
438.943	66.38
439.165	74.38
439.386	76.38
439.608	81.38
439.829	70.38
440.05	71.38
440.272	84.38
440.493	70.38
440.715	81.38
440.936	80.38
441.158	86.38
441.379	76.38
441.6	82.38
441.822	88.38
442.043	82.38
442.264	76.38
442.486	78.38
442.707	100.38
442.928	86.38
443.149	83.38
443.371	84.38
443.592	106.38
443.813	101.38
444.034	89.38
444.255	103.38
444.476	88.38
444.698	85.38
444.919	78.38
445.14	178.38
445.361	123.38
445.582	100.38
445.803	99.38
446.024	78.38
446.245	94.38
446.466	71.38
446.687	80.38
446.908	71.38
447.129	72.38
447.35	81.38
447.571	70.38
447.792	74.38
448.013	88.38
448.234	77.38
448.455	77.38
448.675	62.38
448.896	81.38
449.117	80.38
449.338	70.38
449.559	66.38
449.779	76.38
450	73.38
450.221	82.38
450.442	88.38
450.662	80.38
450.883	71.38
451.104	85.38
451.324	87.38
451.545	89.38
451.766	79.38
451.986	76.38
452.207	97.38
452.428	84.38
452.648	88.38
452.869	75.38
453.089	95.38
453.31	84.38
453.53	87.38
453.751	71.38
453.971	77.38
454.192	76.38
454.412	56.38
454.633	78.38
454.853	71.38
455.073	79.38
455.294	76.38
455.514	86.38
455.734	91.38
455.955	80.38
456.175	80.38
456.395	84.38
456.616	77.38
456.836	81.38
457.056	71.38
457.276	83.38
457.497	66.38
457.717	68.38
457.937	74.38
458.157	85.38
458.377	69.38
458.598	89.38
458.818	92.38
459.038	88.38
459.258	74.38
459.478	83.38
459.698	75.38
459.918	94.38
460.138	76.38
460.358	69.38
460.578	89.38
460.798	80.38
461.018	86.38
461.238	76.38
461.458	76.38
461.678	62.38
461.898	71.38
462.118	92.38
462.338	83.38
462.558	67.38
462.777	84.38
462.997	87.38
463.217	88.38
463.437	78.38
463.657	88.38
463.876	71.38
464.096	78.38
464.316	74.38
464.536	76.38
464.755	80.38
464.975	80.38
465.195	77.38
465.414	79.38
465.634	90.38
465.854	79.38
466.073	78.38
466.293	74.38
466.512	75.38
466.732	67.38
466.951	80.38
467.171	71.38
467.391	76.38
467.61	83.38
467.829	81.38
468.049	81.38
468.268	71.38
468.488	90.38
468.707	74.38
468.927	66.38
469.146	76.38
469.365	74.38
469.585	69.38
469.804	80.38
470.023	84.38
470.243	80.38
470.462	80.38
470.681	70.38
470.901	73.38
471.12	70.38
471.339	87.38
471.558	87.38
471.777	84.38
471.997	83.38
472.216	73.38
472.435	82.38
472.654	73.38
472.873	89.38
473.092	81.38
473.311	71.38
473.53	69.38
473.749	68.38
473.968	85.38
474.187	69.38
474.406	77.38
474.625	67.38
474.844	86.38
475.063	79.38
475.282	72.38
475.501	79.38
475.72	74.38
475.939	72.38
476.158	73.38
476.377	84.38
476.596	77.38
476.814	74.38
477.033	80.38
477.252	88.38
477.471	81.38
477.69	87.38
477.908	76.38
478.127	87.38
478.346	71.38
478.564	77.38
478.783	80.38
479.002	82.38
479.22	80.38
479.439	68.38
479.658	73.38
479.876	73.38
480.095	83.38
480.313	77.38
480.532	98.38
480.751	82.38
480.969	90.38
481.188	88.38
481.406	76.38
481.624	81.38
481.843	88.38
482.061	83.38
482.28	66.38
482.498	72.38
482.717	87.38
482.935	91.38
483.153	101.38
483.372	77.38
483.59	82.38
483.808	66.38
484.027	66.38
484.245	80.38
484.463	71.38
484.681	80.38
484.9	91.38
485.118	77.38
485.336	91.38
485.554	82.38
485.772	76.38
485.99	86.38
486.209	78.38
486.427	85.38
486.645	92.38
486.863	70.38
487.081	78.38
487.299	85.38
487.517	80.38
487.735	78.38
487.953	99.38
488.171	86.38
488.389	62.38
488.607	72.38
488.825	69.38
489.043	98.38
489.261	96.38
489.479	83.38
489.696	85.38
489.914	77.38
490.132	80.38
490.35	78.38
490.568	78.38
490.786	82.38
491.003	78.38
491.221	77.38
491.439	79.38
491.657	83.38
491.874	77.38
492.092	74.38
492.31	72.38
492.527	94.38
492.745	76.38
492.963	88.38
493.18	69.38
493.398	82.38
493.615	84.38
493.833	84.38
494.05	65.38
494.268	93.38
494.485	87.38
494.703	79.38
494.92	88.38
495.138	78.38
495.355	78.38
495.573	83.38
495.79	79.38
496.008	86.38
496.225	77.38
496.442	72.38
496.66	82.38
496.877	67.38
497.094	86.38
497.312	90.38
497.529	72.38
497.746	78.38
497.963	90.38
498.181	86.38
498.398	78.38
498.615	86.38
498.832	88.38
499.049	75.38
499.267	73.38
499.484	87.38
499.701	74.38
499.918	80.38
500.135	81.38
500.352	77.38
500.569	72.38
500.786	93.38
501.003	95.38
501.22	88.38
501.437	87.38
501.654	76.38
501.871	93.38
502.088	86.38
502.305	92.38
502.522	84.38
502.739	88.38
502.956	83.38
503.172	92.38
503.389	93.38
503.606	77.38
503.823	81.38
504.04	71.38
504.256	85.38
504.473	77.38
504.69	75.38
504.907	77.38
505.123	74.38
505.34	86.38
505.557	78.38
505.773	96.38
505.99	91.38
506.207	88.38
506.423	96.38
506.64	94.38
506.856	81.38
507.073	71.38
507.289	69.38
507.506	88.38
507.722	79.38
507.939	83.38
508.155	70.38
508.372	79.38
508.588	74.38
508.805	91.38
509.021	82.38
509.238	89.38
509.454	79.38
509.67	83.38
509.887	85.38
510.103	83.38
510.319	91.38
510.536	86.38
510.752	76.38
510.968	90.38
511.184	87.38
511.401	85.38
511.617	93.38
511.833	77.38
512.049	72.38
512.265	78.38
512.481	86.38
512.698	75.38
512.914	70.38
513.13	86.38
513.346	63.38
513.562	85.38
513.778	77.38
513.994	72.38
514.21	93.38
514.426	80.38
514.642	83.38
514.858	87.38
515.074	87.38
515.29	81.38
515.506	73.38
515.721	72.38
515.937	81.38
516.153	82.38
516.369	87.38
516.585	94.38
516.801	95.38
517.016	75.38
517.232	75.38
517.448	87.38
517.664	100.38
517.879	92.38
518.095	80.38
518.311	79.38
518.527	110.38
518.742	83.38
518.958	86.38
519.173	84.38
519.389	72.38
519.605	88.38
519.82	95.38
