Data from 1600_4_HRD10591_00011.txt Node
Date: Mon Jan 19 13:56:16 EST 2026
User: Yrep
Spectrometer: HR+D1059
Trigger mode: 1
Integration Time (sec): 1.000000E-1
Scans to average: 1
Electric dark correction enabled: true
Nonlinearity correction enabled: false
Boxcar width: 0
XAxis mode: Wavelengths
Number of Pixels in Spectrum: 2048
>>>>>Begin Spectral Data<<<<<
223.165	-8
223.4	-8
223.635	-8
223.869	-22
224.104	-13
224.338	-12
224.573	-21
224.808	-14
225.042	-4
225.277	2
225.511	2
225.746	-6
225.98	-1
226.215	14
226.449	6
226.683	16
226.918	21
227.152	40
227.387	34
227.621	20
227.856	36
228.09	55
228.324	53
228.559	54
228.793	57
229.027	55
229.262	56
229.496	63
229.73	58
229.964	64
230.199	64
230.433	73
230.667	64
230.901	68
231.136	66
231.37	83
231.604	65
231.838	76
232.072	83
232.306	75
232.541	77
232.775	81
233.009	95
233.243	66
233.477	85
233.711	75
233.945	86
234.179	69
234.413	88
234.647	61
234.881	78
235.115	66
235.349	64
235.583	72
235.817	66
236.051	77
236.285	72
236.519	74
236.753	60
236.987	76
237.221	76
237.455	65
237.689	74
237.922	83
238.156	84
238.39	63
238.624	68
238.858	72
239.091	58
239.325	60
239.559	83
239.793	70
240.027	74
240.26	58
240.494	73
240.728	69
240.961	70
241.195	75
241.429	74
241.662	76
241.896	65
242.13	60
242.363	76
242.597	74
242.83	68
243.064	68
243.298	75
243.531	76
243.765	75
243.998	70
244.232	78
244.465	69
244.699	88
244.932	66
245.166	74
245.399	74
245.633	64
245.866	78
246.099	77
246.333	67
246.566	59
246.8	86
247.033	80
247.266	76
247.5	77
247.733	57
247.966	70
248.2	71
248.433	74
248.666	57
248.899	84
249.133	76
249.366	81
249.599	85
249.832	70
250.066	87
250.299	84
250.532	82
250.765	65
250.998	61
251.231	71
251.465	66
251.698	74
251.931	69
252.164	77
252.397	71
252.63	80
252.863	68
253.096	82
253.329	86
253.562	80
253.795	73
254.028	80
254.261	71
254.494	77
254.727	85
254.96	86
255.193	75
255.426	74
255.659	74
255.892	79
256.124	60
256.357	85
256.59	83
256.823	83
257.056	70
257.289	86
257.521	88
257.754	68
257.987	75
258.22	74
258.452	80
258.685	81
258.918	62
259.151	84
259.383	71
259.616	59
259.849	69
260.081	80
260.314	76
260.547	76
260.779	82
261.012	77
261.244	74
261.477	92
261.71	73
261.942	66
262.175	64
262.407	62
262.64	76
262.872	86
263.105	79
263.337	88
263.57	74
263.802	59
264.035	74
264.267	70
264.499	80
264.732	66
264.964	75
265.197	74
265.429	80
265.661	83
265.894	80
266.126	70
266.358	87
266.591	78
266.823	86
267.055	81
267.287	77
267.52	89
267.752	76
267.984	72
268.216	81
268.448	70
268.681	82
268.913	68
269.145	86
269.377	67
269.609	78
269.841	81
270.073	79
270.306	78
270.538	77
270.77	79
271.002	74
271.234	77
271.466	83
271.698	82
271.93	76
272.162	83
272.394	84
272.626	83
272.858	78
273.09	78
273.322	58
273.553	73
273.785	86
274.017	89
274.249	80
274.481	76
274.713	68
274.945	80
275.176	69
275.408	86
275.64	75
275.872	71
276.104	64
276.335	70
276.567	78
276.799	83
277.031	88
277.262	84
277.494	78
277.726	81
277.957	73
278.189	74
278.421	90
278.652	79
278.884	74
279.115	74
279.347	80
279.579	71
279.81	85
280.042	80
280.273	76
280.505	92
280.736	65
280.968	82
281.199	83
281.431	75
281.662	84
281.894	84
282.125	70
282.356	83
282.588	77
282.819	88
283.051	78
283.282	72
283.513	86
283.745	71
283.976	76
284.207	80
284.439	65
284.67	82
284.901	84
285.132	81
285.364	81
285.595	82
285.826	83
286.057	71
286.288	70
286.52	89
286.751	96
286.982	73
287.213	77
287.444	86
287.675	81
287.906	78
288.138	84
288.369	104
288.6	91
288.831	81
289.062	90
289.293	80
289.524	75
289.755	81
289.986	79
290.217	99
290.448	81
290.679	93
290.91	83
291.141	81
291.371	76
291.602	91
291.833	77
292.064	80
292.295	79
292.526	69
292.757	79
292.987	77
293.218	80
293.449	83
293.68	85
293.91	77
294.141	92
294.372	84
294.603	78
294.833	88
295.064	90
295.295	79
295.525	79
295.756	84
295.987	83
296.217	88
296.448	83
296.679	79
296.909	86
297.14	83
297.37	83
297.601	91
297.831	91
298.062	75
298.292	79
298.523	74
298.753	67
298.984	73
299.214	80
299.445	69
299.675	85
299.905	88
300.136	84
300.366	92
300.597	92
300.827	81
301.057	61
301.288	77
301.518	93
301.748	86
301.979	107
302.209	83
302.439	85
302.669	87
302.9	84
303.13	86
303.36	92
303.59	66
303.82	72
304.051	81
304.281	102
304.511	93
304.741	79
304.971	96
305.201	78
305.431	80
305.661	82
305.891	70
306.121	74
306.352	73
306.582	93
306.812	84
307.042	68
307.272	89
307.502	89
307.731	90
307.961	83
308.191	72
308.421	74
308.651	80
308.881	86
309.111	84
309.341	77
309.571	93
309.8	104
310.03	82
310.26	70
310.49	74
310.72	82
310.949	86
311.179	76
311.409	92
311.639	88
311.868	74
312.098	79
312.328	88
312.557	81
312.787	91
313.017	74
313.246	85
313.476	86
313.706	70
313.935	70
314.165	83
314.394	85
314.624	83
314.853	84
315.083	81
315.312	82
315.542	83
315.771	94
316.001	83
316.23	76
316.46	91
316.689	85
316.919	78
317.148	82
317.377	91
317.607	82
317.836	99
318.065	79
318.295	76
318.524	88
318.753	58
318.983	88
319.212	72
319.441	78
319.67	77
319.9	78
320.129	82
320.358	81
320.587	82
320.816	77
321.046	79
321.275	76
321.504	75
321.733	92
321.962	94
322.191	95
322.42	97
322.649	84
322.878	79
323.108	76
323.337	91
323.566	97
323.795	78
324.024	81
324.253	73
324.482	93
324.71	80
324.939	86
325.168	67
325.397	96
325.626	75
325.855	94
326.084	81
326.313	89
326.542	80
326.77	85
326.999	80
327.228	93
327.457	70
327.686	80
327.914	85
328.143	69
328.372	81
328.6	66
328.829	89
329.058	86
329.287	70
329.515	80
329.744	83
329.972	82
330.201	75
330.43	74
330.658	84
330.887	80
331.115	64
331.344	84
331.572	66
331.801	83
332.03	71
332.258	74
332.486	65
332.715	74
332.943	76
333.172	102
333.4	83
333.629	76
333.857	82
334.085	75
334.314	88
334.542	97
334.771	79
334.999	67
335.227	69
335.455	66
335.684	84
335.912	78
336.14	82
336.369	90
336.597	82
336.825	86
337.053	68
337.281	75
337.51	84
337.738	86
337.966	77
338.194	74
338.422	78
338.65	95
338.878	90
339.106	88
339.334	75
339.562	79
339.79	89
340.018	82
340.246	80
340.474	84
340.702	79
340.93	81
341.158	95
341.386	90
341.614	84
341.842	83
342.07	84
342.298	89
342.526	89
342.754	81
342.981	89
343.209	82
343.437	104
343.665	87
343.893	97
344.12	90
344.348	80
344.576	96
344.804	76
345.031	97
345.259	85
345.487	87
345.714	66
345.942	80
346.17	84
346.397	90
346.625	100
346.853	86
347.08	85
347.308	77
347.535	80
347.763	82
347.99	75
348.218	78
348.445	84
348.673	87
348.9	79
349.128	70
349.355	76
349.583	80
349.81	69
350.037	92
350.265	85
350.492	76
350.72	92
350.947	77
351.174	80
351.402	85
351.629	80
351.856	81
352.083	71
352.311	83
352.538	88
352.765	82
352.992	78
353.22	82
353.447	80
353.674	80
353.901	80
354.128	86
354.355	80
354.583	63
354.81	81
355.037	68
355.264	86
355.491	81
355.718	73
355.945	85
356.172	85
356.399	91
356.626	81
356.853	78
357.08	82
357.307	86
357.534	85
357.761	81
357.988	87
358.215	97
358.441	84
358.668	74
358.895	77
359.122	84
359.349	94
359.576	88
359.802	59
360.029	63
360.256	85
360.483	92
360.709	76
360.936	84
361.163	78
361.39	71
361.616	67
361.843	90
362.07	89
362.296	77
362.523	94
362.749	88
362.976	88
363.203	104
363.429	72
363.656	99
363.882	86
364.109	78
364.335	76
364.562	88
364.788	84
365.015	82
365.241	82
365.468	92
365.694	85
365.92	84
366.147	81
366.373	73
366.599	80
366.826	88
367.052	90
367.278	90
367.505	82
367.731	89
367.957	75
368.184	92
368.41	75
368.636	93
368.862	85
369.089	82
369.315	81
369.541	82
369.767	72
369.993	76
370.219	78
370.445	84
370.672	78
370.898	70
371.124	72
371.35	91
371.576	90
371.802	74
372.028	94
372.254	94
372.48	67
372.706	65
372.932	77
373.158	92
373.384	83
373.61	101
373.835	91
374.061	76
374.287	88
374.513	76
374.739	101
374.965	93
375.191	97
375.416	94
375.642	85
375.868	92
376.094	78
376.319	79
376.545	90
376.771	83
376.997	88
377.222	97
377.448	79
377.674	69
377.899	67
378.125	66
378.35	78
378.576	83
378.802	90
379.027	83
379.253	78
379.478	67
379.704	86
379.929	80
380.155	74
380.38	79
380.606	74
380.831	70
381.057	88
381.282	77
381.507	82
381.733	89
381.958	94
382.184	103
382.409	84
382.634	76
382.86	90
383.085	92
383.31	95
383.535	91
383.761	89
383.986	96
384.211	89
384.436	93
384.662	85
384.887	84
385.112	84
385.337	67
385.562	92
385.787	86
386.013	101
386.238	106
386.463	76
386.688	104
386.913	75
387.138	81
387.363	91
387.588	91
387.813	89
388.038	87
388.263	80
388.488	77
388.713	76
388.938	85
389.163	85
389.387	78
389.612	67
389.837	83
390.062	106
390.287	84
390.512	94
390.736	83
390.961	73
391.186	78
391.411	86
391.636	82
391.86	95
392.085	81
392.31	82
392.534	95
392.759	102
392.984	110
393.208	129
393.433	180
393.658	137
393.882	98
394.107	90
394.331	105
394.556	108
394.78	74
395.005	109
395.229	88
395.454	82
395.678	98
395.903	103
396.127	100
396.352	110
396.576	106
396.801	134
397.025	160
397.249	108
397.474	92
397.698	75
397.922	80
398.147	72
398.371	97
398.595	78
398.82	85
399.044	78
399.268	69
399.492	73
399.717	82
399.941	76
400.165	74
400.389	79
400.613	75
400.837	78
401.062	83
401.286	89
401.51	85
401.734	89
401.958	80
402.182	78
402.406	80
402.63	89
402.854	84
403.078	77
403.302	91
403.526	95
403.75	76
403.974	85
404.198	85
404.422	93
404.645	107
404.869	85
405.093	90
405.317	65
405.541	87
405.765	76
405.988	81
406.212	75
406.436	74
406.66	93
406.883	82
407.107	82
407.331	80
407.555	84
407.778	78
408.002	88
408.226	86
408.449	79
408.673	75
408.896	81
409.12	83
409.344	70
409.567	84
409.791	88
410.014	80
410.238	83
410.461	76
410.685	82
410.908	77
411.132	75
411.355	77
411.578	84
411.802	94
412.025	75
412.249	73
412.472	87
412.695	82
412.919	76
413.142	84
413.365	80
413.589	71
413.812	80
414.035	75
414.258	83
414.482	81
414.705	79
414.928	78
415.151	87
415.374	76
415.597	87
415.821	76
416.044	76
416.267	83
416.49	75
416.713	87
416.936	91
417.159	76
417.382	75
417.605	80
417.828	81
418.051	77
418.274	85
418.497	80
418.72	75
418.943	82
419.166	79
419.389	78
419.611	79
419.834	92
420.057	92
420.28	86
420.503	80
420.726	74
420.948	79
421.171	81
421.394	88
421.617	86
421.839	86
422.062	83
422.285	100
422.507	155
422.73	233
422.953	219
423.175	123
423.398	112
423.621	80
423.843	79
424.066	76
424.288	75
424.511	78
424.733	92
424.956	87
425.178	70
425.401	72
425.623	71
425.846	69
426.068	76
426.291	70
426.513	84
426.735	61
426.958	91
427.18	98
427.402	81
427.625	91
427.847	81
428.069	87
428.292	92
428.514	99
428.736	101
428.958	90
429.181	93
429.403	91
429.625	68
429.847	93
430.069	104
430.292	112
430.514	104
430.736	116
430.958	127
431.18	93
431.402	93
431.624	91
431.846	92
432.068	109
432.29	74
432.512	84
432.734	84
432.956	71
433.178	75
433.4	91
433.622	90
433.844	70
434.066	74
434.287	79
434.509	81
434.731	64
434.953	68
435.175	93
435.397	74
435.618	81
435.84	83
436.062	91
436.284	80
436.505	75
436.727	77
436.949	80
437.17	87
437.392	85
437.614	73
437.835	89
438.057	88
438.278	92
438.5	88
438.721	81
438.943	83
439.165	84
439.386	76
439.608	90
439.829	75
440.05	82
440.272	78
440.493	89
440.715	83
440.936	90
441.158	72
441.379	78
441.6	80
441.822	84
442.043	88
442.264	86
442.486	89
442.707	98
442.928	88
443.149	88
443.371	79
443.592	131
443.813	108
444.034	83
444.255	80
444.476	76
444.698	70
444.919	80
445.14	148
445.361	116
445.582	152
445.803	136
446.024	80
446.245	85
446.466	83
446.687	75
446.908	78
447.129	84
447.35	74
447.571	77
447.792	81
448.013	72
448.234	65
448.455	84
448.675	76
448.896	58
449.117	82
449.338	80
449.559	75
449.779	91
450	75
450.221	83
450.442	71
450.662	81
450.883	74
451.104	76
451.324	83
451.545	59
451.766	68
451.986	92
452.207	69
452.428	78
452.648	88
452.869	80
453.089	81
453.31	83
453.53	89
453.751	93
453.971	81
454.192	90
454.412	84
454.633	76
454.853	76
455.073	89
455.294	76
455.514	70
455.734	70
455.955	82
456.175	91
456.395	74
456.616	88
456.836	75
457.056	71
457.276	85
457.497	77
457.717	88
457.937	84
458.157	85
458.377	88
458.598	95
458.818	89
459.038	86
459.258	78
459.478	64
459.698	59
459.918	77
460.138	76
460.358	81
460.578	80
460.798	104
461.018	90
461.238	64
461.458	95
461.678	83
461.898	94
462.118	80
462.338	76
462.558	78
462.777	80
462.997	87
463.217	81
463.437	82
463.657	76
463.876	76
464.096	79
464.316	92
464.536	96
464.755	84
464.975	90
465.195	105
465.414	86
465.634	76
465.854	89
466.073	77
466.293	75
466.512	84
466.732	73
466.951	82
467.171	94
467.391	72
467.61	69
467.829	71
468.049	73
468.268	87
468.488	77
468.707	75
468.927	83
469.146	91
469.365	84
469.585	80
469.804	76
470.023	73
470.243	64
470.462	92
470.681	69
470.901	75
471.12	86
471.339	90
471.558	80
471.777	70
471.997	75
472.216	74
472.435	76
472.654	79
472.873	92
473.092	83
473.311	86
473.53	96
473.749	70
473.968	74
474.187	76
474.406	74
474.625	61
474.844	77
475.063	77
475.282	81
475.501	74
475.72	88
475.939	88
476.158	81
476.377	92
476.596	73
476.814	88
477.033	78
477.252	80
477.471	79
477.69	88
477.908	68
478.127	80
478.346	80
478.564	86
478.783	83
479.002	75
479.22	94
479.439	73
479.658	88
479.876	84
480.095	76
480.313	86
480.532	75
480.751	76
480.969	71
481.188	76
481.406	83
481.624	84
481.843	70
482.061	89
482.28	76
482.498	73
482.717	82
482.935	70
483.153	89
483.372	76
483.59	77
483.808	72
484.027	74
484.245	85
484.463	91
484.681	98
484.9	86
485.118	80
485.336	84
485.554	77
485.772	83
485.99	95
486.209	90
486.427	84
486.645	90
486.863	88
487.081	85
487.299	82
487.517	96
487.735	81
487.953	102
488.171	101
488.389	73
488.607	92
488.825	73
489.043	69
489.261	82
489.479	86
489.696	76
489.914	78
490.132	96
490.35	84
490.568	82
490.786	63
491.003	90
491.221	76
491.439	84
491.657	82
491.874	100
492.092	85
492.31	100
492.527	68
492.745	73
492.963	81
493.18	76
493.398	61
493.615	65
493.833	87
494.05	89
494.268	84
494.485	83
494.703	80
494.92	68
495.138	73
495.355	85
495.573	90
495.79	77
496.008	77
496.225	94
496.442	95
496.66	87
496.877	80
497.094	75
497.312	68
497.529	81
497.746	72
497.963	88
498.181	86
498.398	97
498.615	92
498.832	96
499.049	97
499.267	86
499.484	85
499.701	78
499.918	77
500.135	88
500.352	83
500.569	76
500.786	78
501.003	84
501.22	68
501.437	90
501.654	79
501.871	74
502.088	86
502.305	97
502.522	76
502.739	89
502.956	88
503.172	69
503.389	84
503.606	71
503.823	84
504.04	74
504.256	89
504.473	91
504.69	80
504.907	86
505.123	81
505.34	74
505.557	69
505.773	84
505.99	83
506.207	71
506.423	79
506.64	89
506.856	75
507.073	76
507.289	81
507.506	75
507.722	70
507.939	82
508.155	73
508.372	78
508.588	81
508.805	84
509.021	74
509.238	92
509.454	72
509.67	77
509.887	79
510.103	73
510.319	82
510.536	83
510.752	78
510.968	79
511.184	84
511.401	89
511.617	77
511.833	84
512.049	79
512.265	83
512.481	87
512.698	83
512.914	67
513.13	74
513.346	71
513.562	82
513.778	71
513.994	84
514.21	73
514.426	74
514.642	77
514.858	75
515.074	82
515.29	94
515.506	98
515.721	72
515.937	86
516.153	72
516.369	77
516.585	82
516.801	90
517.016	80
517.232	98
517.448	101
517.664	92
517.879	78
518.095	104
518.311	90
518.527	115
518.742	95
518.958	91
519.173	100
519.389	89
519.605	90
519.82	82
520.036	94
520.251	73
520.467	74
520.682	76
520.898	83
521.113	90
521.329	75
521.544	70
521.76	88
521.975	64
522.19	85
522.406	90
522.621	84
522.836	76
523.052	95
523.267	88
523.482	75
523.698	82
523.913	92
524.128	78
524.343	90
524.559	84
524.774	90
524.989	90
525.204	93
525.419	86
525.634	99
525.849	99
526.064	84
526.28	128
526.495	126
526.71	134
526.925	122
527.14	124
527.355	148
527.57	96
527.785	95
527.999	79
528.214	106
528.429	79
528.644	69
528.859	81
529.074	96
529.289	81
529.503	92
529.718	89
529.933	75
530.148	85
530.363	78
530.577	75
530.792	89
531.007	68
531.221	79
531.436	83
531.651	89
531.865	82
532.08	77
532.295	83
532.509	95
532.724	91
532.938	93
533.153	89
533.367	80
533.582	86
533.796	87
534.011	88
534.225	79
534.44	78
534.654	84
534.868	82
535.083	106
535.297	84
535.511	83
535.726	91
535.94	92
536.154	86
536.369	91
536.583	84
536.797	84
537.011	82
537.225	88
537.44	88
537.654	93
537.868	76
538.082	92
538.296	78
538.51	85
538.724	73
538.938	78
539.153	72
539.367	78
539.581	78
539.795	93
540.009	90
540.222	82
540.436	90
540.65	79
540.864	83
541.078	86
541.292	74
541.506	85
541.72	85
541.934	71
542.147	91
542.361	91
542.575	89
542.789	86
543.002	97
543.216	88
543.43	87
543.644	86
543.857	86
544.071	86
544.285	92
544.498	91
544.712	81
544.925	96
545.139	82
545.352	76
545.566	84
545.779	92
545.993	82
546.206	91
546.42	81
546.633	77
546.847	89
547.06	105
547.274	80
547.487	86
547.7	102
547.914	90
548.127	87
548.34	114
548.554	116
548.767	114
548.98	102
549.193	108
549.407	111
549.62	120
549.833	110
550.046	109
550.259	124
550.473	122
550.686	125
550.899	134
551.112	145
551.325	147
551.538	139
551.751	134
551.964	133
552.177	134
552.39	144
552.603	124
552.816	121
553.029	145
553.242	122
553.455	134
553.667	156
553.88	142
554.093	144
554.306	154
554.519	148
554.732	143
554.944	139
555.157	141
555.37	141
555.583	136
555.795	131
556.008	106
556.221	118
556.433	109
556.646	112
556.859	105
557.071	124
557.284	125
557.496	106
557.709	90
557.921	113
558.134	90
558.346	111
558.559	122
558.771	112
558.984	154
559.196	184
559.409	131
559.621	146
559.833	137
560.046	140
560.258	118
560.47	123
560.683	97
560.895	88
561.107	90
561.32	94
561.532	93
561.744	95
561.956	93
562.168	92
562.381	88
562.593	84
562.805	80
563.017	92
563.229	81
563.441	90
563.653	96
563.865	78
564.077	81
564.289	84
564.501	73
564.713	83
564.925	77
565.137	88
565.349	93
565.561	96
565.773	85
565.985	91
566.197	72
566.408	93
566.62	91
566.832	89
567.044	89
567.255	91
567.467	75
567.679	88
567.891	95
568.102	85
568.314	88
568.526	86
568.737	91
568.949	91
569.161	97
569.372	96
569.584	85
569.795	90
570.007	92
570.218	73
570.43	82
570.641	85
570.853	91
571.064	83
571.276	89
571.487	100
571.698	94
571.91	93
572.121	81
572.333	84
572.544	79
572.755	86
572.966	88
573.178	98
573.389	86
573.6	79
573.811	81
574.023	70
574.234	88
574.445	83
574.656	80
574.867	92
575.078	86
575.289	71
575.501	88
575.712	82
575.923	88
576.134	82
576.345	78
576.556	82
576.767	90
576.978	82
577.188	76
577.399	76
577.61	81
577.821	97
578.032	70
578.243	106
578.454	80
578.665	92
578.875	87
579.086	85
579.297	76
579.508	69
579.718	82
579.929	74
580.14	86
580.35	96
580.561	93
580.772	93
580.982	79
581.193	84
581.403	82
581.614	82
581.825	84
582.035	85
582.246	82
582.456	85
582.667	90
582.877	82
583.087	81
583.298	92
583.508	93
583.719	88
583.929	81
584.139	77
584.35	85
584.56	82
584.77	88
584.981	87
585.191	89
585.401	76
585.611	75
585.821	108
586.032	133
586.242	80
586.452	85
586.662	89
586.872	69
587.082	94
587.292	78
587.502	91
587.713	99
587.923	82
588.133	93
588.343	89
588.553	102
588.762	117
