Data from 1600_4_HRD10591_00021.txt Node
Date: Mon Jan 19 13:56:21 EST 2026
User: Yrep
Spectrometer: HR+D1059
Trigger mode: 1
Integration Time (sec): 1.000000E-1
Scans to average: 1
Electric dark correction enabled: true
Nonlinearity correction enabled: false
Boxcar width: 0
XAxis mode: Wavelengths
Number of Pixels in Spectrum: 2048
>>>>>Begin Spectral Data<<<<<
223.165	-11.44
223.4	-11.44
223.635	-11.44
223.869	-18.44
224.104	-10.44
224.338	-15.44
224.573	-12.44
224.808	-16.44
225.042	-17.44
225.277	-8.44
225.511	-13.44
225.746	-3.44
225.98	8.56
226.215	3.56
226.449	7.56
226.683	24.56
226.918	39.56
227.152	43.56
227.387	31.56
227.621	33.56
227.856	34.56
228.09	44.56
228.324	36.56
228.559	49.56
228.793	46.56
229.027	44.56
229.262	59.56
229.496	80.56
229.73	59.56
229.964	71.56
230.199	73.56
230.433	73.56
230.667	70.56
230.901	67.56
231.136	78.56
231.37	74.56
231.604	76.56
231.838	63.56
232.072	75.56
232.306	79.56
232.541	80.56
232.775	85.56
233.009	79.56
233.243	76.56
233.477	59.56
233.711	65.56
233.945	77.56
234.179	66.56
234.413	72.56
234.647	74.56
234.881	87.56
235.115	77.56
235.349	69.56
235.583	72.56
235.817	63.56
236.051	73.56
236.285	77.56
236.519	64.56
236.753	79.56
236.987	91.56
237.221	79.56
237.455	65.56
237.689	69.56
237.922	77.56
238.156	68.56
238.39	73.56
238.624	76.56
238.858	68.56
239.091	78.56
239.325	59.56
239.559	65.56
239.793	68.56
240.027	77.56
240.26	77.56
240.494	83.56
240.728	51.56
240.961	82.56
241.195	69.56
241.429	82.56
241.662	75.56
241.896	83.56
242.13	67.56
242.363	60.56
242.597	70.56
242.83	67.56
243.064	69.56
243.298	81.56
243.531	85.56
243.765	62.56
243.998	66.56
244.232	67.56
244.465	81.56
244.699	69.56
244.932	86.56
245.166	56.56
245.399	80.56
245.633	86.56
245.866	81.56
246.099	77.56
246.333	74.56
246.566	80.56
246.8	73.56
247.033	73.56
247.266	84.56
247.5	64.56
247.733	75.56
247.966	67.56
248.2	64.56
248.433	69.56
248.666	79.56
248.899	53.56
249.133	87.56
249.366	77.56
249.599	78.56
249.832	67.56
250.066	63.56
250.299	76.56
250.532	59.56
250.765	75.56
250.998	67.56
251.231	85.56
251.465	72.56
251.698	89.56
251.931	80.56
252.164	82.56
252.397	83.56
252.63	73.56
252.863	75.56
253.096	74.56
253.329	82.56
253.562	77.56
253.795	73.56
254.028	78.56
254.261	64.56
254.494	74.56
254.727	88.56
254.96	71.56
255.193	81.56
255.426	89.56
255.659	67.56
255.892	84.56
256.124	65.56
256.357	81.56
256.59	87.56
256.823	79.56
257.056	74.56
257.289	75.56
257.521	82.56
257.754	67.56
257.987	86.56
258.22	82.56
258.452	55.56
258.685	80.56
258.918	68.56
259.151	90.56
259.383	88.56
259.616	69.56
259.849	84.56
260.081	65.56
260.314	79.56
260.547	63.56
260.779	74.56
261.012	75.56
261.244	66.56
261.477	79.56
261.71	77.56
261.942	67.56
262.175	87.56
262.407	74.56
262.64	65.56
262.872	89.56
263.105	71.56
263.337	81.56
263.57	70.56
263.802	86.56
264.035	76.56
264.267	83.56
264.499	57.56
264.732	75.56
264.964	75.56
265.197	78.56
265.429	73.56
265.661	84.56
265.894	90.56
266.126	87.56
266.358	83.56
266.591	67.56
266.823	85.56
267.055	71.56
267.287	79.56
267.52	66.56
267.752	91.56
267.984	68.56
268.216	75.56
268.448	78.56
268.681	78.56
268.913	72.56
269.145	76.56
269.377	75.56
269.609	65.56
269.841	88.56
270.073	66.56
270.306	85.56
270.538	88.56
270.77	80.56
271.002	65.56
271.234	80.56
271.466	88.56
271.698	75.56
271.93	79.56
272.162	96.56
272.394	84.56
272.626	75.56
272.858	84.56
273.09	88.56
273.322	69.56
273.553	75.56
273.785	64.56
274.017	80.56
274.249	97.56
274.481	73.56
274.713	77.56
274.945	92.56
275.176	78.56
275.408	87.56
275.64	75.56
275.872	68.56
276.104	84.56
276.335	87.56
276.567	76.56
276.799	82.56
277.031	88.56
277.262	74.56
277.494	91.56
277.726	85.56
277.957	83.56
278.189	74.56
278.421	84.56
278.652	72.56
278.884	77.56
279.115	92.56
279.347	73.56
279.579	95.56
279.81	81.56
280.042	80.56
280.273	80.56
280.505	72.56
280.736	80.56
280.968	84.56
281.199	73.56
281.431	62.56
281.662	89.56
281.894	79.56
282.125	76.56
282.356	75.56
282.588	89.56
282.819	79.56
283.051	83.56
283.282	76.56
283.513	88.56
283.745	83.56
283.976	77.56
284.207	84.56
284.439	80.56
284.67	87.56
284.901	75.56
285.132	80.56
285.364	83.56
285.595	80.56
285.826	85.56
286.057	87.56
286.288	74.56
286.52	73.56
286.751	76.56
286.982	90.56
287.213	88.56
287.444	91.56
287.675	65.56
287.906	83.56
288.138	87.56
288.369	90.56
288.6	73.56
288.831	82.56
289.062	93.56
289.293	75.56
289.524	87.56
289.755	74.56
289.986	84.56
290.217	81.56
290.448	67.56
290.679	85.56
290.91	72.56
291.141	85.56
291.371	70.56
291.602	81.56
291.833	84.56
292.064	89.56
292.295	80.56
292.526	88.56
292.757	75.56
292.987	81.56
293.218	77.56
293.449	70.56
293.68	69.56
293.91	87.56
294.141	76.56
294.372	83.56
294.603	77.56
294.833	89.56
295.064	91.56
295.295	79.56
295.525	85.56
295.756	71.56
295.987	81.56
296.217	61.56
296.448	73.56
296.679	72.56
296.909	84.56
297.14	83.56
297.37	87.56
297.601	86.56
297.831	80.56
298.062	79.56
298.292	100.56
298.523	73.56
298.753	72.56
298.984	74.56
299.214	73.56
299.445	89.56
299.675	78.56
299.905	75.56
300.136	76.56
300.366	83.56
300.597	69.56
300.827	79.56
301.057	79.56
301.288	80.56
301.518	73.56
301.748	85.56
301.979	83.56
302.209	80.56
302.439	73.56
302.669	97.56
302.9	88.56
303.13	74.56
303.36	83.56
303.59	83.56
303.82	70.56
304.051	88.56
304.281	85.56
304.511	81.56
304.741	77.56
304.971	67.56
305.201	84.56
305.431	72.56
305.661	75.56
305.891	90.56
306.121	78.56
306.352	88.56
306.582	77.56
306.812	84.56
307.042	85.56
307.272	76.56
307.502	93.56
307.731	97.56
307.961	86.56
308.191	72.56
308.421	76.56
308.651	89.56
308.881	80.56
309.111	88.56
309.341	73.56
309.571	94.56
309.8	96.56
310.03	74.56
310.26	81.56
310.49	92.56
310.72	90.56
310.949	76.56
311.179	76.56
311.409	89.56
311.639	85.56
311.868	75.56
312.098	63.56
312.328	91.56
312.557	93.56
312.787	81.56
313.017	73.56
313.246	75.56
313.476	89.56
313.706	84.56
313.935	80.56
314.165	80.56
314.394	82.56
314.624	91.56
314.853	99.56
315.083	69.56
315.312	69.56
315.542	85.56
315.771	75.56
316.001	68.56
316.23	81.56
316.46	86.56
316.689	91.56
316.919	86.56
317.148	86.56
317.377	96.56
317.607	81.56
317.836	71.56
318.065	74.56
318.295	80.56
318.524	87.56
318.753	83.56
318.983	75.56
319.212	84.56
319.441	70.56
319.67	79.56
319.9	79.56
320.129	79.56
320.358	82.56
320.587	69.56
320.816	77.56
321.046	71.56
321.275	79.56
321.504	89.56
321.733	66.56
321.962	79.56
322.191	77.56
322.42	74.56
322.649	82.56
322.878	70.56
323.108	84.56
323.337	88.56
323.566	94.56
323.795	80.56
324.024	92.56
324.253	83.56
324.482	75.56
324.71	87.56
324.939	95.56
325.168	82.56
325.397	80.56
325.626	88.56
325.855	91.56
326.084	82.56
326.313	83.56
326.542	80.56
326.77	80.56
326.999	91.56
327.228	84.56
327.457	70.56
327.686	80.56
327.914	87.56
328.143	59.56
328.372	83.56
328.6	75.56
328.829	70.56
329.058	84.56
329.287	75.56
329.515	83.56
329.744	73.56
329.972	69.56
330.201	65.56
330.43	77.56
330.658	81.56
330.887	81.56
331.115	77.56
331.344	86.56
331.572	80.56
331.801	82.56
332.03	74.56
332.258	78.56
332.486	76.56
332.715	90.56
332.943	73.56
333.172	71.56
333.4	83.56
333.629	72.56
333.857	84.56
334.085	78.56
334.314	82.56
334.542	88.56
334.771	78.56
334.999	79.56
335.227	78.56
335.455	73.56
335.684	91.56
335.912	80.56
336.14	83.56
336.369	84.56
336.597	83.56
336.825	85.56
337.053	94.56
337.281	93.56
337.51	83.56
337.738	79.56
337.966	86.56
338.194	52.56
338.422	65.56
338.65	80.56
338.878	91.56
339.106	87.56
339.334	79.56
339.562	85.56
339.79	77.56
340.018	74.56
340.246	80.56
340.474	79.56
340.702	74.56
340.93	76.56
341.158	88.56
341.386	95.56
341.614	70.56
341.842	71.56
342.07	84.56
342.298	65.56
342.526	82.56
342.754	86.56
342.981	87.56
343.209	70.56
343.437	89.56
343.665	81.56
343.893	76.56
344.12	91.56
344.348	82.56
344.576	75.56
344.804	63.56
345.031	74.56
345.259	87.56
345.487	100.56
345.714	71.56
345.942	85.56
346.17	87.56
346.397	78.56
346.625	73.56
346.853	63.56
347.08	79.56
347.308	81.56
347.535	88.56
347.763	76.56
347.99	75.56
348.218	87.56
348.445	90.56
348.673	88.56
348.9	75.56
349.128	90.56
349.355	82.56
349.583	82.56
349.81	78.56
350.037	83.56
350.265	76.56
350.492	76.56
350.72	79.56
350.947	73.56
351.174	81.56
351.402	83.56
351.629	73.56
351.856	71.56
352.083	75.56
352.311	81.56
352.538	84.56
352.765	79.56
352.992	81.56
353.22	81.56
353.447	93.56
353.674	83.56
353.901	100.56
354.128	81.56
354.355	67.56
354.583	73.56
354.81	71.56
355.037	79.56
355.264	72.56
355.491	83.56
355.718	91.56
355.945	82.56
356.172	82.56
356.399	79.56
356.626	87.56
356.853	87.56
357.08	75.56
357.307	94.56
357.534	88.56
357.761	77.56
357.988	80.56
358.215	94.56
358.441	88.56
358.668	69.56
358.895	83.56
359.122	78.56
359.349	76.56
359.576	91.56
359.802	63.56
360.029	83.56
360.256	89.56
360.483	83.56
360.709	75.56
360.936	75.56
361.163	79.56
361.39	80.56
361.616	71.56
361.843	82.56
362.07	85.56
362.296	70.56
362.523	74.56
362.749	70.56
362.976	88.56
363.203	85.56
363.429	75.56
363.656	76.56
363.882	75.56
364.109	97.56
364.335	97.56
364.562	86.56
364.788	80.56
365.015	84.56
365.241	83.56
365.468	75.56
365.694	83.56
365.92	89.56
366.147	93.56
366.373	89.56
366.599	82.56
366.826	66.56
367.052	75.56
367.278	80.56
367.505	82.56
367.731	78.56
367.957	80.56
368.184	75.56
368.41	89.56
368.636	84.56
368.862	84.56
369.089	69.56
369.315	69.56
369.541	87.56
369.767	61.56
369.993	78.56
370.219	84.56
370.445	83.56
370.672	75.56
370.898	95.56
371.124	85.56
371.35	68.56
371.576	78.56
371.802	79.56
372.028	88.56
372.254	85.56
372.48	96.56
372.706	71.56
372.932	79.56
373.158	83.56
373.384	90.56
373.61	86.56
373.835	84.56
374.061	76.56
374.287	78.56
374.513	89.56
374.739	87.56
374.965	97.56
375.191	95.56
375.416	69.56
375.642	89.56
375.868	81.56
376.094	93.56
376.319	91.56
376.545	88.56
376.771	82.56
376.997	76.56
377.222	78.56
377.448	70.56
377.674	75.56
377.899	80.56
378.125	80.56
378.35	92.56
378.576	88.56
378.802	79.56
379.027	77.56
379.253	73.56
379.478	80.56
379.704	84.56
379.929	87.56
380.155	79.56
380.38	96.56
380.606	79.56
380.831	77.56
381.057	110.56
381.282	88.56
381.507	90.56
381.733	92.56
381.958	90.56
382.184	91.56
382.409	91.56
382.634	92.56
382.86	83.56
383.085	74.56
383.31	99.56
383.535	82.56
383.761	106.56
383.986	94.56
384.211	75.56
384.436	87.56
384.662	87.56
384.887	75.56
385.112	81.56
385.337	80.56
385.562	71.56
385.787	88.56
386.013	73.56
386.238	95.56
386.463	89.56
386.688	94.56
386.913	80.56
387.138	72.56
387.363	89.56
387.588	97.56
387.813	74.56
388.038	81.56
388.263	75.56
388.488	92.56
388.713	81.56
388.938	74.56
389.163	82.56
389.387	78.56
389.612	89.56
389.837	68.56
390.062	71.56
390.287	89.56
390.512	86.56
390.736	71.56
390.961	65.56
391.186	80.56
391.411	88.56
391.636	86.56
391.86	92.56
392.085	75.56
392.31	74.56
392.534	81.56
392.759	93.56
392.984	99.56
393.208	129.56
393.433	169.56
393.658	126.56
393.882	101.56
394.107	93.56
394.331	98.56
394.556	95.56
394.78	73.56
395.005	75.56
395.229	91.56
395.454	91.56
395.678	90.56
395.903	107.56
396.127	105.56
396.352	93.56
396.576	107.56
396.801	152.56
397.025	143.56
397.249	103.56
397.474	77.56
397.698	79.56
397.922	90.56
398.147	80.56
398.371	79.56
398.595	74.56
398.82	72.56
399.044	73.56
399.268	76.56
399.492	84.56
399.717	78.56
399.941	86.56
400.165	85.56
400.389	85.56
400.613	72.56
400.837	69.56
401.062	82.56
401.286	78.56
401.51	84.56
401.734	87.56
401.958	70.56
402.182	83.56
402.406	68.56
402.63	85.56
402.854	76.56
403.078	88.56
403.302	93.56
403.526	81.56
403.75	63.56
403.974	80.56
404.198	76.56
404.422	79.56
404.645	73.56
404.869	85.56
405.093	81.56
405.317	79.56
405.541	87.56
405.765	93.56
405.988	69.56
406.212	81.56
406.436	88.56
406.66	90.56
406.883	75.56
407.107	80.56
407.331	78.56
407.555	71.56
407.778	87.56
408.002	107.56
408.226	90.56
408.449	78.56
408.673	78.56
408.896	69.56
409.12	73.56
409.344	87.56
409.567	75.56
409.791	77.56
410.014	91.56
410.238	83.56
410.461	83.56
410.685	78.56
410.908	75.56
411.132	75.56
411.355	65.56
411.578	75.56
411.802	65.56
412.025	73.56
412.249	73.56
412.472	83.56
412.695	59.56
412.919	81.56
413.142	80.56
413.365	88.56
413.589	84.56
413.812	66.56
414.035	79.56
414.258	82.56
414.482	78.56
414.705	90.56
414.928	72.56
415.151	76.56
415.374	71.56
415.597	61.56
415.821	81.56
416.044	85.56
416.267	75.56
416.49	63.56
416.713	77.56
416.936	77.56
417.159	79.56
417.382	87.56
417.605	76.56
417.828	86.56
418.051	89.56
418.274	79.56
418.497	66.56
418.72	85.56
418.943	69.56
419.166	76.56
419.389	70.56
419.611	75.56
419.834	88.56
420.057	78.56
420.28	75.56
420.503	67.56
420.726	77.56
420.948	84.56
421.171	88.56
421.394	85.56
421.617	87.56
421.839	75.56
422.062	81.56
422.285	89.56
422.507	124.56
422.73	202.56
422.953	168.56
423.175	107.56
423.398	85.56
423.621	80.56
423.843	84.56
424.066	77.56
424.288	76.56
424.511	72.56
424.733	81.56
424.956	82.56
425.178	73.56
425.401	70.56
425.623	68.56
425.846	78.56
426.068	59.56
426.291	81.56
426.513	70.56
426.735	80.56
426.958	75.56
427.18	92.56
427.402	72.56
427.625	70.56
427.847	82.56
428.069	64.56
428.292	91.56
428.514	103.56
428.736	77.56
428.958	78.56
429.181	108.56
429.403	81.56
429.625	75.56
429.847	79.56
430.069	96.56
430.292	100.56
430.514	107.56
430.736	96.56
430.958	83.56
431.18	88.56
431.402	84.56
431.624	85.56
431.846	88.56
432.068	94.56
432.29	83.56
432.512	86.56
432.734	87.56
432.956	72.56
433.178	78.56
433.4	69.56
433.622	86.56
433.844	80.56
434.066	87.56
434.287	89.56
434.509	104.56
434.731	74.56
434.953	76.56
435.175	76.56
435.397	72.56
435.618	79.56
435.84	75.56
436.062	59.56
436.284	77.56
436.505	67.56
436.727	83.56
436.949	84.56
437.17	74.56
437.392	72.56
437.614	63.56
437.835	70.56
438.057	64.56
438.278	79.56
438.5	85.56
438.721	76.56
438.943	84.56
439.165	84.56
439.386	80.56
439.608	87.56
439.829	65.56
440.05	91.56
440.272	87.56
440.493	82.56
440.715	81.56
440.936	87.56
441.158	90.56
441.379	82.56
441.6	54.56
441.822	75.56
442.043	82.56
442.264	70.56
442.486	93.56
442.707	95.56
442.928	100.56
443.149	77.56
443.371	93.56
443.592	114.56
443.813	128.56
444.034	87.56
444.255	71.56
444.476	82.56
444.698	91.56
444.919	81.56
445.14	146.56
445.361	130.56
445.582	113.56
445.803	105.56
446.024	90.56
446.245	83.56
446.466	73.56
446.687	70.56
446.908	78.56
447.129	75.56
447.35	81.56
447.571	77.56
447.792	85.56
448.013	84.56
448.234	76.56
448.455	70.56
448.675	65.56
448.896	70.56
449.117	74.56
449.338	84.56
449.559	75.56
449.779	72.56
450	66.56
450.221	68.56
450.442	80.56
450.662	58.56
450.883	81.56
451.104	70.56
451.324	74.56
451.545	79.56
451.766	79.56
451.986	72.56
452.207	77.56
452.428	78.56
452.648	79.56
452.869	68.56
453.089	67.56
453.31	67.56
453.53	73.56
453.751	77.56
453.971	82.56
454.192	76.56
454.412	82.56
454.633	77.56
454.853	92.56
455.073	71.56
455.294	75.56
455.514	93.56
455.734	82.56
455.955	77.56
456.175	81.56
456.395	83.56
456.616	73.56
456.836	70.56
457.056	69.56
457.276	71.56
457.497	65.56
457.717	80.56
457.937	80.56
458.157	100.56
458.377	66.56
458.598	74.56
458.818	81.56
459.038	70.56
459.258	96.56
459.478	70.56
459.698	82.56
459.918	83.56
460.138	72.56
460.358	85.56
460.578	83.56
460.798	83.56
461.018	88.56
461.238	75.56
461.458	78.56
461.678	76.56
461.898	90.56
462.118	77.56
462.338	82.56
462.558	64.56
462.777	73.56
462.997	71.56
463.217	80.56
463.437	76.56
463.657	78.56
463.876	77.56
464.096	81.56
464.316	69.56
464.536	69.56
464.755	64.56
464.975	76.56
465.195	93.56
465.414	89.56
465.634	80.56
465.854	78.56
466.073	93.56
466.293	79.56
466.512	68.56
466.732	77.56
466.951	86.56
467.171	72.56
467.391	84.56
467.61	83.56
467.829	77.56
468.049	85.56
468.268	84.56
468.488	76.56
468.707	70.56
468.927	80.56
469.146	82.56
469.365	74.56
469.585	79.56
469.804	80.56
470.023	80.56
470.243	76.56
470.462	77.56
470.681	78.56
470.901	83.56
471.12	76.56
471.339	78.56
471.558	79.56
471.777	77.56
471.997	82.56
472.216	81.56
472.435	87.56
472.654	81.56
472.873	72.56
473.092	70.56
473.311	92.56
473.53	64.56
473.749	77.56
473.968	81.56
474.187	89.56
474.406	80.56
474.625	78.56
474.844	79.56
475.063	78.56
475.282	74.56
475.501	53.56
475.72	81.56
475.939	83.56
476.158	88.56
476.377	73.56
476.596	76.56
476.814	92.56
477.033	64.56
477.252	72.56
477.471	74.56
477.69	75.56
477.908	65.56
478.127	77.56
478.346	89.56
478.564	91.56
478.783	67.56
479.002	77.56
479.22	73.56
479.439	76.56
479.658	85.56
479.876	84.56
480.095	72.56
480.313	80.56
480.532	78.56
480.751	67.56
480.969	81.56
481.188	77.56
481.406	87.56
481.624	77.56
481.843	82.56
482.061	83.56
482.28	84.56
482.498	92.56
482.717	95.56
482.935	92.56
483.153	81.56
483.372	82.56
483.59	70.56
483.808	65.56
484.027	88.56
484.245	80.56
484.463	93.56
484.681	82.56
484.9	73.56
485.118	71.56
485.336	84.56
485.554	84.56
485.772	68.56
485.99	73.56
486.209	79.56
486.427	73.56
486.645	75.56
486.863	70.56
487.081	73.56
487.299	86.56
487.517	78.56
487.735	78.56
487.953	95.56
488.171	93.56
488.389	82.56
488.607	71.56
488.825	84.56
489.043	83.56
489.261	80.56
489.479	70.56
489.696	84.56
489.914	65.56
490.132	92.56
490.35	90.56
490.568	69.56
490.786	85.56
491.003	83.56
491.221	70.56
491.439	66.56
491.657	80.56
491.874	85.56
492.092	82.56
492.31	93.56
492.527	65.56
492.745	70.56
492.963	87.56
493.18	104.56
493.398	71.56
493.615	83.56
493.833	83.56
494.05	77.56
494.268	74.56
494.485	76.56
494.703	80.56
494.92	89.56
495.138	65.56
495.355	80.56
495.573	65.56
495.79	80.56
496.008	87.56
496.225	80.56
496.442	83.56
496.66	84.56
496.877	81.56
497.094	64.56
497.312	76.56
497.529	68.56
497.746	88.56
497.963	77.56
498.181	73.56
498.398	83.56
498.615	103.56
498.832	80.56
499.049	79.56
499.267	93.56
499.484	85.56
499.701	88.56
499.918	81.56
500.135	89.56
500.352	89.56
500.569	78.56
500.786	65.56
501.003	81.56
501.22	77.56
501.437	78.56
501.654	94.56
501.871	85.56
502.088	75.56
502.305	80.56
502.522	80.56
502.739	85.56
502.956	70.56
503.172	76.56
503.389	76.56
503.606	74.56
503.823	85.56
504.04	91.56
504.256	97.56
504.473	93.56
504.69	86.56
504.907	70.56
505.123	77.56
505.34	84.56
505.557	79.56
505.773	89.56
505.99	86.56
506.207	66.56
506.423	69.56
506.64	76.56
506.856	72.56
507.073	67.56
507.289	79.56
507.506	74.56
507.722	78.56
507.939	79.56
508.155	79.56
508.372	68.56
508.588	99.56
508.805	76.56
509.021	85.56
509.238	90.56
509.454	73.56
509.67	84.56
509.887	84.56
510.103	81.56
510.319	80.56
510.536	77.56
510.752	77.56
510.968	85.56
511.184	78.56
511.401	89.56
511.617	79.56
511.833	79.56
512.049	73.56
512.265	62.56
512.481	59.56
512.698	72.56
512.914	73.56
513.13	90.56
513.346	92.56
513.562	77.56
513.778	84.56
513.994	80.56
514.21	75.56
514.426	77.56
514.642	75.56
514.858	90.56
515.074	75.56
515.29	80.56
515.506	84.56
515.721	76.56
515.937	84.56
516.153	91.56
516.369	85.56
516.585	79.56
516.801	93.56
517.016	94.56
517.232	84.56
517.448	97.56
517.664	91.56
517.879	82.56
518.095	85.56
518.311	93.56
518.527	93.56
518.742	96.56
518.958	88.56
519.173	111.56
519.389	95.56
519.605	77.56
519.82	83.56
