Data from 1600_4_HRD10591_00048.txt Node
Date: Mon Jan 19 13:56:34 EST 2026
User: Yrep
Spectrometer: HR+D1059
Trigger mode: 1
Integration Time (sec): 1.000000E-1
Scans to average: 1
Electric dark correction enabled: true
Nonlinearity correction enabled: false
Boxcar width: 0
XAxis mode: Wavelengths
Number of Pixels in Spectrum: 2048
>>>>>Begin Spectral Data<<<<<
223.165	-15.19
223.4	-15.19
223.635	-15.19
223.869	-9.19
224.104	-17.19
224.338	-27.19
224.573	-7.19
224.808	-8.19
225.042	-16.19
225.277	-0.19
225.511	-6.19
225.746	1.81
225.98	2.81
226.215	15.81
226.449	2.81
226.683	22.81
226.918	32.81
227.152	27.81
227.387	35.81
227.621	42.81
227.856	54.81
228.09	46.81
228.324	60.81
228.559	42.81
228.793	60.81
229.027	60.81
229.262	40.81
229.496	64.81
229.73	59.81
229.964	66.81
230.199	78.81
230.433	73.81
230.667	70.81
230.901	79.81
231.136	104.81
231.37	73.81
231.604	70.81
231.838	82.81
232.072	74.81
232.306	84.81
232.541	81.81
232.775	84.81
233.009	84.81
233.243	82.81
233.477	78.81
233.711	81.81
233.945	65.81
234.179	97.81
234.413	79.81
234.647	80.81
234.881	75.81
235.115	80.81
235.349	90.81
235.583	86.81
235.817	85.81
236.051	79.81
236.285	84.81
236.519	80.81
236.753	80.81
236.987	85.81
237.221	82.81
237.455	85.81
237.689	72.81
237.922	84.81
238.156	79.81
238.39	77.81
238.624	68.81
238.858	84.81
239.091	64.81
239.325	88.81
239.559	78.81
239.793	82.81
240.027	79.81
240.26	86.81
240.494	73.81
240.728	79.81
240.961	82.81
241.195	72.81
241.429	90.81
241.662	74.81
241.896	81.81
242.13	87.81
242.363	66.81
242.597	68.81
242.83	76.81
243.064	73.81
243.298	75.81
243.531	74.81
243.765	74.81
243.998	79.81
244.232	87.81
244.465	82.81
244.699	72.81
244.932	70.81
245.166	82.81
245.399	78.81
245.633	78.81
245.866	89.81
246.099	76.81
246.333	86.81
246.566	77.81
246.8	78.81
247.033	81.81
247.266	68.81
247.5	73.81
247.733	73.81
247.966	70.81
248.2	75.81
248.433	81.81
248.666	78.81
248.899	73.81
249.133	76.81
249.366	75.81
249.599	74.81
249.832	84.81
250.066	80.81
250.299	87.81
250.532	80.81
250.765	82.81
250.998	78.81
251.231	64.81
251.465	80.81
251.698	80.81
251.931	79.81
252.164	72.81
252.397	88.81
252.63	81.81
252.863	86.81
253.096	82.81
253.329	89.81
253.562	81.81
253.795	85.81
254.028	95.81
254.261	87.81
254.494	70.81
254.727	86.81
254.96	81.81
255.193	71.81
255.426	71.81
255.659	86.81
255.892	85.81
256.124	80.81
256.357	98.81
256.59	85.81
256.823	87.81
257.056	75.81
257.289	86.81
257.521	94.81
257.754	91.81
257.987	72.81
258.22	80.81
258.452	79.81
258.685	83.81
258.918	88.81
259.151	73.81
259.383	78.81
259.616	92.81
259.849	76.81
260.081	82.81
260.314	78.81
260.547	98.81
260.779	88.81
261.012	93.81
261.244	68.81
261.477	88.81
261.71	82.81
261.942	88.81
262.175	88.81
262.407	96.81
262.64	87.81
262.872	101.81
263.105	84.81
263.337	90.81
263.57	82.81
263.802	87.81
264.035	81.81
264.267	82.81
264.499	89.81
264.732	89.81
264.964	95.81
265.197	88.81
265.429	73.81
265.661	80.81
265.894	92.81
266.126	81.81
266.358	102.81
266.591	86.81
266.823	88.81
267.055	75.81
267.287	90.81
267.52	85.81
267.752	88.81
267.984	80.81
268.216	86.81
268.448	75.81
268.681	95.81
268.913	71.81
269.145	86.81
269.377	82.81
269.609	83.81
269.841	75.81
270.073	86.81
270.306	78.81
270.538	96.81
270.77	79.81
271.002	81.81
271.234	88.81
271.466	79.81
271.698	84.81
271.93	87.81
272.162	89.81
272.394	79.81
272.626	94.81
272.858	90.81
273.09	89.81
273.322	75.81
273.553	87.81
273.785	81.81
274.017	73.81
274.249	87.81
274.481	77.81
274.713	76.81
274.945	84.81
275.176	73.81
275.408	84.81
275.64	79.81
275.872	75.81
276.104	99.81
276.335	84.81
276.567	90.81
276.799	80.81
277.031	82.81
277.262	78.81
277.494	79.81
277.726	78.81
277.957	82.81
278.189	88.81
278.421	80.81
278.652	71.81
278.884	89.81
279.115	88.81
279.347	79.81
279.579	88.81
279.81	97.81
280.042	74.81
280.273	91.81
280.505	87.81
280.736	96.81
280.968	93.81
281.199	89.81
281.431	89.81
281.662	90.81
281.894	92.81
282.125	86.81
282.356	85.81
282.588	83.81
282.819	87.81
283.051	71.81
283.282	74.81
283.513	85.81
283.745	84.81
283.976	94.81
284.207	84.81
284.439	84.81
284.67	90.81
284.901	92.81
285.132	101.81
285.364	87.81
285.595	81.81
285.826	85.81
286.057	98.81
286.288	86.81
286.52	93.81
286.751	92.81
286.982	100.81
287.213	92.81
287.444	87.81
287.675	83.81
287.906	86.81
288.138	84.81
288.369	81.81
288.6	84.81
288.831	82.81
289.062	81.81
289.293	94.81
289.524	100.81
289.755	81.81
289.986	82.81
290.217	100.81
290.448	82.81
290.679	89.81
290.91	71.81
291.141	77.81
291.371	94.81
291.602	80.81
291.833	71.81
292.064	81.81
292.295	97.81
292.526	85.81
292.757	89.81
292.987	85.81
293.218	83.81
293.449	85.81
293.68	71.81
293.91	93.81
294.141	92.81
294.372	74.81
294.603	84.81
294.833	85.81
295.064	82.81
295.295	86.81
295.525	74.81
295.756	96.81
295.987	97.81
296.217	79.81
296.448	102.81
296.679	90.81
296.909	76.81
297.14	89.81
297.37	80.81
297.601	78.81
297.831	75.81
298.062	84.81
298.292	97.81
298.523	88.81
298.753	81.81
298.984	76.81
299.214	84.81
299.445	86.81
299.675	83.81
299.905	75.81
300.136	75.81
300.366	78.81
300.597	80.81
300.827	80.81
301.057	78.81
301.288	72.81
301.518	72.81
301.748	93.81
301.979	108.81
302.209	97.81
302.439	86.81
302.669	72.81
302.9	81.81
303.13	76.81
303.36	84.81
303.59	88.81
303.82	84.81
304.051	96.81
304.281	80.81
304.511	82.81
304.741	77.81
304.971	95.81
305.201	88.81
305.431	80.81
305.661	94.81
305.891	87.81
306.121	81.81
306.352	100.81
306.582	78.81
306.812	71.81
307.042	96.81
307.272	87.81
307.502	79.81
307.731	80.81
307.961	77.81
308.191	69.81
308.421	80.81
308.651	88.81
308.881	88.81
309.111	81.81
309.341	90.81
309.571	97.81
309.8	80.81
310.03	90.81
310.26	73.81
310.49	81.81
310.72	92.81
310.949	81.81
311.179	86.81
311.409	90.81
311.639	90.81
311.868	85.81
312.098	94.81
312.328	97.81
312.557	88.81
312.787	93.81
313.017	82.81
313.246	82.81
313.476	74.81
313.706	80.81
313.935	83.81
314.165	81.81
314.394	87.81
314.624	86.81
314.853	83.81
315.083	95.81
315.312	86.81
315.542	74.81
315.771	71.81
316.001	97.81
316.23	100.81
316.46	77.81
316.689	79.81
316.919	88.81
317.148	96.81
317.377	95.81
317.607	67.81
317.836	80.81
318.065	96.81
318.295	80.81
318.524	87.81
318.753	85.81
318.983	87.81
319.212	85.81
319.441	78.81
319.67	94.81
319.9	72.81
320.129	82.81
320.358	87.81
320.587	71.81
320.816	87.81
321.046	80.81
321.275	95.81
321.504	88.81
321.733	81.81
321.962	83.81
322.191	89.81
322.42	94.81
322.649	104.81
322.878	92.81
323.108	89.81
323.337	82.81
323.566	91.81
323.795	76.81
324.024	85.81
324.253	82.81
324.482	97.81
324.71	91.81
324.939	96.81
325.168	86.81
325.397	97.81
325.626	92.81
325.855	96.81
326.084	84.81
326.313	97.81
326.542	72.81
326.77	68.81
326.999	82.81
327.228	72.81
327.457	83.81
327.686	95.81
327.914	92.81
328.143	93.81
328.372	65.81
328.6	92.81
328.829	80.81
329.058	86.81
329.287	84.81
329.515	89.81
329.744	80.81
329.972	84.81
330.201	83.81
330.43	69.81
330.658	91.81
330.887	85.81
331.115	77.81
331.344	69.81
331.572	82.81
331.801	78.81
332.03	70.81
332.258	96.81
332.486	80.81
332.715	85.81
332.943	82.81
333.172	81.81
333.4	80.81
333.629	93.81
333.857	92.81
334.085	86.81
334.314	87.81
334.542	84.81
334.771	92.81
334.999	97.81
335.227	100.81
335.455	100.81
335.684	80.81
335.912	87.81
336.14	80.81
336.369	76.81
336.597	91.81
336.825	94.81
337.053	84.81
337.281	82.81
337.51	97.81
337.738	74.81
337.966	78.81
338.194	81.81
338.422	72.81
338.65	93.81
338.878	78.81
339.106	85.81
339.334	80.81
339.562	78.81
339.79	96.81
340.018	87.81
340.246	84.81
340.474	89.81
340.702	96.81
340.93	86.81
341.158	87.81
341.386	87.81
341.614	86.81
341.842	92.81
342.07	94.81
342.298	94.81
342.526	77.81
342.754	84.81
342.981	90.81
343.209	71.81
343.437	103.81
343.665	86.81
343.893	96.81
344.12	89.81
344.348	97.81
344.576	86.81
344.804	85.81
345.031	75.81
345.259	74.81
345.487	71.81
345.714	90.81
345.942	93.81
346.17	90.81
346.397	85.81
346.625	94.81
346.853	85.81
347.08	81.81
347.308	90.81
347.535	88.81
347.763	81.81
347.99	93.81
348.218	92.81
348.445	92.81
348.673	78.81
348.9	89.81
349.128	81.81
349.355	90.81
349.583	72.81
349.81	75.81
350.037	85.81
350.265	93.81
350.492	85.81
350.72	81.81
350.947	94.81
351.174	84.81
351.402	85.81
351.629	77.81
351.856	79.81
352.083	94.81
352.311	92.81
352.538	74.81
352.765	110.81
352.992	90.81
353.22	91.81
353.447	87.81
353.674	82.81
353.901	98.81
354.128	82.81
354.355	90.81
354.583	64.81
354.81	82.81
355.037	75.81
355.264	89.81
355.491	88.81
355.718	81.81
355.945	89.81
356.172	91.81
356.399	92.81
356.626	78.81
356.853	85.81
357.08	100.81
357.307	78.81
357.534	84.81
357.761	74.81
357.988	94.81
358.215	102.81
358.441	96.81
358.668	78.81
358.895	85.81
359.122	71.81
359.349	85.81
359.576	79.81
359.802	89.81
360.029	79.81
360.256	85.81
360.483	88.81
360.709	85.81
360.936	95.81
361.163	95.81
361.39	87.81
361.616	85.81
361.843	88.81
362.07	84.81
362.296	92.81
362.523	96.81
362.749	81.81
362.976	79.81
363.203	87.81
363.429	91.81
363.656	87.81
363.882	78.81
364.109	91.81
364.335	86.81
364.562	90.81
364.788	75.81
365.015	86.81
365.241	101.81
365.468	78.81
365.694	82.81
365.92	79.81
366.147	77.81
366.373	77.81
366.599	75.81
366.826	71.81
367.052	64.81
367.278	71.81
367.505	84.81
367.731	84.81
367.957	71.81
368.184	90.81
368.41	101.81
368.636	81.81
368.862	85.81
369.089	96.81
369.315	82.81
369.541	78.81
369.767	82.81
369.993	72.81
370.219	70.81
370.445	85.81
370.672	84.81
370.898	66.81
371.124	73.81
371.35	93.81
371.576	73.81
371.802	86.81
372.028	95.81
372.254	78.81
372.48	80.81
372.706	90.81
372.932	97.81
373.158	84.81
373.384	92.81
373.61	95.81
373.835	97.81
374.061	84.81
374.287	76.81
374.513	89.81
374.739	94.81
374.965	93.81
375.191	101.81
375.416	77.81
375.642	101.81
375.868	97.81
376.094	85.81
376.319	94.81
376.545	82.81
376.771	83.81
376.997	84.81
377.222	99.81
377.448	78.81
377.674	77.81
377.899	80.81
378.125	89.81
378.35	81.81
378.576	74.81
378.802	86.81
379.027	81.81
379.253	72.81
379.478	72.81
379.704	73.81
379.929	76.81
380.155	90.81
380.38	102.81
380.606	95.81
380.831	88.81
381.057	85.81
381.282	88.81
381.507	87.81
381.733	79.81
381.958	86.81
382.184	84.81
382.409	70.81
382.634	93.81
382.86	80.81
383.085	87.81
383.31	97.81
383.535	89.81
383.761	99.81
383.986	72.81
384.211	74.81
384.436	79.81
384.662	73.81
384.887	84.81
385.112	94.81
385.337	78.81
385.562	82.81
385.787	75.81
386.013	98.81
386.238	86.81
386.463	82.81
386.688	97.81
386.913	87.81
387.138	92.81
387.363	89.81
387.588	75.81
387.813	88.81
388.038	74.81
388.263	74.81
388.488	89.81
388.713	64.81
388.938	88.81
389.163	80.81
389.387	74.81
389.612	75.81
389.837	85.81
390.062	77.81
390.287	79.81
390.512	90.81
390.736	73.81
390.961	74.81
391.186	88.81
391.411	74.81
391.636	78.81
391.86	78.81
392.085	94.81
392.31	76.81
392.534	87.81
392.759	88.81
392.984	85.81
393.208	118.81
393.433	158.81
393.658	138.81
393.882	102.81
394.107	80.81
394.331	82.81
394.556	101.81
394.78	78.81
395.005	83.81
395.229	82.81
395.454	89.81
395.678	88.81
395.903	86.81
396.127	88.81
396.352	87.81
396.576	99.81
396.801	111.81
397.025	141.81
397.249	108.81
397.474	94.81
397.698	69.81
397.922	87.81
398.147	88.81
398.371	70.81
398.595	87.81
398.82	88.81
399.044	75.81
399.268	86.81
399.492	79.81
399.717	76.81
399.941	86.81
400.165	82.81
400.389	75.81
400.613	85.81
400.837	80.81
401.062	81.81
401.286	66.81
401.51	81.81
401.734	70.81
401.958	92.81
402.182	80.81
402.406	70.81
402.63	78.81
402.854	68.81
403.078	83.81
403.302	83.81
403.526	83.81
403.75	82.81
403.974	78.81
404.198	83.81
404.422	70.81
404.645	70.81
404.869	84.81
405.093	89.81
405.317	88.81
405.541	72.81
405.765	66.81
405.988	84.81
406.212	84.81
406.436	80.81
406.66	85.81
406.883	90.81
407.107	81.81
407.331	66.81
407.555	74.81
407.778	86.81
408.002	74.81
408.226	82.81
408.449	80.81
408.673	76.81
408.896	94.81
409.12	75.81
409.344	84.81
409.567	84.81
409.791	74.81
410.014	89.81
410.238	86.81
410.461	78.81
410.685	84.81
410.908	85.81
411.132	88.81
411.355	66.81
411.578	89.81
411.802	73.81
412.025	78.81
412.249	71.81
412.472	77.81
412.695	92.81
412.919	85.81
413.142	85.81
413.365	78.81
413.589	83.81
413.812	79.81
414.035	84.81
414.258	89.81
414.482	84.81
414.705	93.81
414.928	75.81
415.151	81.81
415.374	73.81
415.597	80.81
415.821	96.81
416.044	72.81
416.267	88.81
416.49	75.81
416.713	61.81
416.936	65.81
417.159	83.81
417.382	77.81
417.605	93.81
417.828	74.81
418.051	89.81
418.274	85.81
418.497	89.81
418.72	85.81
418.943	82.81
419.166	69.81
419.389	85.81
419.611	82.81
419.834	70.81
420.057	78.81
420.28	80.81
420.503	73.81
420.726	74.81
420.948	81.81
421.171	83.81
421.394	93.81
421.617	79.81
421.839	88.81
422.062	71.81
422.285	84.81
422.507	90.81
422.73	106.81
422.953	106.81
423.175	92.81
423.398	94.81
423.621	88.81
423.843	90.81
424.066	75.81
424.288	80.81
424.511	96.81
424.733	84.81
424.956	83.81
425.178	88.81
425.401	82.81
425.623	68.81
425.846	86.81
426.068	86.81
426.291	83.81
426.513	86.81
426.735	81.81
426.958	63.81
427.18	74.81
427.402	76.81
427.625	92.81
427.847	71.81
428.069	72.81
428.292	84.81
428.514	89.81
428.736	78.81
428.958	66.81
429.181	82.81
429.403	88.81
429.625	90.81
429.847	71.81
430.069	83.81
430.292	102.81
430.514	95.81
430.736	95.81
430.958	86.81
431.18	80.81
431.402	67.81
431.624	84.81
431.846	80.81
432.068	83.81
432.29	66.81
432.512	82.81
432.734	76.81
432.956	83.81
433.178	88.81
433.4	79.81
433.622	88.81
433.844	78.81
434.066	77.81
434.287	74.81
434.509	80.81
434.731	75.81
434.953	80.81
435.175	84.81
435.397	73.81
435.618	81.81
435.84	74.81
436.062	92.81
436.284	80.81
436.505	74.81
436.727	86.81
436.949	71.81
437.17	88.81
437.392	89.81
437.614	87.81
437.835	78.81
438.057	78.81
438.278	74.81
438.5	80.81
438.721	70.81
438.943	68.81
439.165	72.81
439.386	77.81
439.608	102.81
439.829	65.81
440.05	75.81
440.272	66.81
440.493	70.81
440.715	79.81
440.936	80.81
441.158	85.81
441.379	87.81
441.6	91.81
441.822	93.81
442.043	82.81
442.264	84.81
442.486	74.81
442.707	74.81
442.928	79.81
443.149	86.81
443.371	76.81
443.592	91.81
443.813	97.81
444.034	78.81
444.255	80.81
444.476	79.81
444.698	94.81
444.919	81.81
445.14	156.81
445.361	118.81
445.582	102.81
445.803	80.81
446.024	75.81
446.245	98.81
446.466	84.81
446.687	92.81
446.908	85.81
447.129	78.81
447.35	66.81
447.571	80.81
447.792	70.81
448.013	80.81
448.234	64.81
448.455	75.81
448.675	79.81
448.896	83.81
449.117	86.81
449.338	71.81
449.559	92.81
449.779	83.81
450	84.81
450.221	72.81
450.442	78.81
450.662	66.81
450.883	88.81
451.104	72.81
451.324	76.81
451.545	82.81
451.766	67.81
451.986	92.81
452.207	82.81
452.428	71.81
452.648	79.81
452.869	88.81
453.089	57.81
453.31	78.81
453.53	78.81
453.751	88.81
453.971	87.81
454.192	81.81
454.412	81.81
454.633	73.81
454.853	78.81
455.073	72.81
455.294	84.81
455.514	75.81
455.734	84.81
455.955	77.81
456.175	71.81
456.395	89.81
456.616	92.81
456.836	83.81
457.056	78.81
457.276	64.81
457.497	68.81
457.717	84.81
457.937	95.81
458.157	75.81
458.377	77.81
458.598	78.81
458.818	90.81
459.038	82.81
459.258	72.81
459.478	90.81
459.698	61.81
459.918	76.81
460.138	74.81
460.358	78.81
460.578	78.81
460.798	73.81
461.018	86.81
461.238	71.81
461.458	78.81
461.678	72.81
461.898	89.81
462.118	82.81
462.338	86.81
462.558	75.81
462.777	92.81
462.997	85.81
463.217	76.81
463.437	93.81
463.657	73.81
463.876	78.81
464.096	87.81
464.316	70.81
464.536	80.81
464.755	57.81
464.975	84.81
465.195	80.81
465.414	88.81
465.634	88.81
465.854	83.81
466.073	69.81
466.293	80.81
466.512	75.81
466.732	84.81
466.951	82.81
467.171	77.81
467.391	81.81
467.61	61.81
467.829	84.81
468.049	71.81
468.268	89.81
468.488	86.81
468.707	89.81
468.927	83.81
469.146	74.81
469.365	74.81
469.585	97.81
469.804	78.81
470.023	79.81
470.243	87.81
470.462	86.81
470.681	97.81
470.901	78.81
471.12	88.81
471.339	98.81
471.558	80.81
471.777	72.81
471.997	76.81
472.216	96.81
472.435	80.81
472.654	74.81
472.873	84.81
473.092	81.81
473.311	85.81
473.53	81.81
473.749	76.81
473.968	74.81
474.187	81.81
474.406	79.81
474.625	86.81
474.844	73.81
475.063	73.81
475.282	88.81
475.501	80.81
475.72	85.81
475.939	91.81
476.158	76.81
476.377	83.81
476.596	76.81
476.814	81.81
477.033	77.81
477.252	82.81
477.471	84.81
477.69	78.81
477.908	86.81
478.127	86.81
478.346	82.81
478.564	89.81
478.783	81.81
479.002	77.81
479.22	84.81
479.439	82.81
479.658	76.81
479.876	83.81
480.095	72.81
480.313	76.81
480.532	87.81
480.751	76.81
480.969	78.81
481.188	83.81
481.406	78.81
481.624	66.81
481.843	85.81
482.061	90.81
482.28	69.81
482.498	93.81
482.717	84.81
482.935	86.81
483.153	96.81
483.372	77.81
483.59	81.81
483.808	100.81
484.027	82.81
484.245	85.81
484.463	82.81
484.681	92.81
484.9	93.81
485.118	86.81
485.336	82.81
485.554	85.81
485.772	81.81
485.99	85.81
486.209	91.81
486.427	89.81
486.645	74.81
486.863	72.81
487.081	90.81
487.299	82.81
487.517	78.81
487.735	89.81
487.953	104.81
488.171	97.81
488.389	87.81
488.607	85.81
488.825	74.81
489.043	96.81
489.261	84.81
489.479	65.81
489.696	70.81
489.914	86.81
490.132	89.81
490.35	89.81
490.568	75.81
490.786	82.81
491.003	80.81
491.221	78.81
491.439	88.81
491.657	82.81
491.874	88.81
492.092	89.81
492.31	89.81
492.527	73.81
492.745	79.81
492.963	96.81
493.18	106.81
493.398	95.81
493.615	89.81
493.833	76.81
494.05	62.81
494.268	81.81
494.485	90.81
494.703	87.81
494.92	92.81
495.138	80.81
495.355	85.81
495.573	91.81
495.79	73.81
496.008	92.81
496.225	96.81
496.442	91.81
496.66	80.81
496.877	84.81
497.094	66.81
497.312	92.81
497.529	94.81
497.746	84.81
497.963	74.81
498.181	90.81
498.398	84.81
498.615	86.81
498.832	93.81
499.049	91.81
499.267	84.81
499.484	87.81
499.701	78.81
499.918	82.81
500.135	87.81
500.352	89.81
500.569	65.81
500.786	78.81
501.003	73.81
501.22	78.81
501.437	90.81
501.654	79.81
501.871	68.81
502.088	74.81
502.305	94.81
502.522	84.81
502.739	92.81
502.956	75.81
503.172	86.81
503.389	96.81
503.606	78.81
503.823	92.81
504.04	88.81
504.256	93.81
504.473	88.81
504.69	72.81
504.907	89.81
505.123	84.81
505.34	82.81
505.557	83.81
505.773	94.81
505.99	99.81
506.207	83.81
506.423	101.81
506.64	79.81
506.856	80.81
507.073	72.81
507.289	81.81
507.506	84.81
507.722	84.81
507.939	93.81
508.155	86.81
508.372	75.81
508.588	74.81
508.805	73.81
509.021	78.81
509.238	83.81
509.454	78.81
509.67	80.81
509.887	80.81
510.103	97.81
510.319	87.81
510.536	64.81
510.752	86.81
510.968	74.81
511.184	79.81
511.401	89.81
511.617	78.81
511.833	84.81
512.049	80.81
512.265	81.81
512.481	80.81
512.698	72.81
512.914	91.81
513.13	84.81
513.346	80.81
513.562	87.81
513.778	75.81
513.994	102.81
514.21	90.81
514.426	87.81
514.642	83.81
514.858	95.81
515.074	90.81
515.29	80.81
515.506	84.81
515.721	77.81
515.937	91.81
516.153	92.81
516.369	93.81
516.585	88.81
516.801	82.81
517.016	74.81
517.232	86.81
517.448	84.81
517.664	84.81
517.879	82.81
518.095	87.81
518.311	98.81
518.527	84.81
518.742	78.81
518.958	85.81
519.173	92.81
519.389	72.81
519.605	89.81
519.82	88.81
