Data from 1600_4_HRD10591_00022.txt Node
Date: Mon Jan 19 13:56:21 EST 2026
User: Yrep
Spectrometer: HR+D1059
Trigger mode: 1
Integration Time (sec): 1.000000E-1
Scans to average: 1
Electric dark correction enabled: true
Nonlinearity correction enabled: false
Boxcar width: 0
XAxis mode: Wavelengths
Number of Pixels in Spectrum: 2048
>>>>>Begin Spectral Data<<<<<
223.165	-10.31
223.4	-10.31
223.635	-10.31
223.869	-14.31
224.104	-22.31
224.338	-12.31
224.573	-3.31
224.808	-6.31
225.042	-16.31
225.277	-9.31
225.511	-11.31
225.746	12.69
225.98	7.69
226.215	10.69
226.449	12.69
226.683	14.69
226.918	23.69
227.152	23.69
227.387	35.69
227.621	43.69
227.856	36.69
228.09	64.69
228.324	54.69
228.559	63.69
228.793	52.69
229.027	59.69
229.262	71.69
229.496	76.69
229.73	74.69
229.964	71.69
230.199	82.69
230.433	72.69
230.667	72.69
230.901	91.69
231.136	74.69
231.37	82.69
231.604	90.69
231.838	83.69
232.072	80.69
232.306	87.69
232.541	82.69
232.775	84.69
233.009	83.69
233.243	86.69
233.477	76.69
233.711	85.69
233.945	97.69
234.179	88.69
234.413	94.69
234.647	89.69
234.881	90.69
235.115	84.69
235.349	87.69
235.583	74.69
235.817	78.69
236.051	75.69
236.285	83.69
236.519	84.69
236.753	67.69
236.987	85.69
237.221	84.69
237.455	73.69
237.689	82.69
237.922	88.69
238.156	84.69
238.39	73.69
238.624	90.69
238.858	75.69
239.091	66.69
239.325	84.69
239.559	80.69
239.793	76.69
240.027	94.69
240.26	83.69
240.494	76.69
240.728	90.69
240.961	87.69
241.195	90.69
241.429	76.69
241.662	76.69
241.896	73.69
242.13	66.69
242.363	77.69
242.597	71.69
242.83	83.69
243.064	70.69
243.298	79.69
243.531	86.69
243.765	82.69
243.998	92.69
244.232	90.69
244.465	84.69
244.699	73.69
244.932	82.69
245.166	88.69
245.399	87.69
245.633	87.69
245.866	80.69
246.099	75.69
246.333	80.69
246.566	83.69
246.8	73.69
247.033	87.69
247.266	70.69
247.5	77.69
247.733	75.69
247.966	74.69
248.2	79.69
248.433	68.69
248.666	65.69
248.899	79.69
249.133	83.69
249.366	85.69
249.599	80.69
249.832	80.69
250.066	83.69
250.299	92.69
250.532	72.69
250.765	84.69
250.998	83.69
251.231	96.69
251.465	78.69
251.698	71.69
251.931	72.69
252.164	72.69
252.397	83.69
252.63	86.69
252.863	74.69
253.096	84.69
253.329	88.69
253.562	94.69
253.795	83.69
254.028	90.69
254.261	75.69
254.494	90.69
254.727	86.69
254.96	82.69
255.193	88.69
255.426	89.69
255.659	83.69
255.892	86.69
256.124	93.69
256.357	86.69
256.59	80.69
256.823	88.69
257.056	71.69
257.289	93.69
257.521	82.69
257.754	74.69
257.987	74.69
258.22	88.69
258.452	83.69
258.685	91.69
258.918	79.69
259.151	92.69
259.383	76.69
259.616	90.69
259.849	84.69
260.081	81.69
260.314	106.69
260.547	84.69
260.779	89.69
261.012	89.69
261.244	71.69
261.477	85.69
261.71	88.69
261.942	84.69
262.175	86.69
262.407	89.69
262.64	78.69
262.872	85.69
263.105	98.69
263.337	89.69
263.57	73.69
263.802	91.69
264.035	61.69
264.267	80.69
264.499	80.69
264.732	102.69
264.964	87.69
265.197	94.69
265.429	77.69
265.661	77.69
265.894	69.69
266.126	91.69
266.358	76.69
266.591	88.69
266.823	82.69
267.055	82.69
267.287	79.69
267.52	77.69
267.752	82.69
267.984	97.69
268.216	83.69
268.448	83.69
268.681	90.69
268.913	102.69
269.145	83.69
269.377	76.69
269.609	66.69
269.841	70.69
270.073	70.69
270.306	82.69
270.538	87.69
270.77	76.69
271.002	73.69
271.234	99.69
271.466	93.69
271.698	80.69
271.93	85.69
272.162	75.69
272.394	85.69
272.626	90.69
272.858	85.69
273.09	71.69
273.322	96.69
273.553	94.69
273.785	79.69
274.017	82.69
274.249	76.69
274.481	90.69
274.713	88.69
274.945	96.69
275.176	85.69
275.408	81.69
275.64	87.69
275.872	94.69
276.104	97.69
276.335	86.69
276.567	80.69
276.799	93.69
277.031	94.69
277.262	81.69
277.494	86.69
277.726	74.69
277.957	79.69
278.189	82.69
278.421	75.69
278.652	68.69
278.884	89.69
279.115	85.69
279.347	87.69
279.579	90.69
279.81	94.69
280.042	96.69
280.273	86.69
280.505	87.69
280.736	94.69
280.968	83.69
281.199	86.69
281.431	87.69
281.662	77.69
281.894	77.69
282.125	84.69
282.356	79.69
282.588	98.69
282.819	91.69
283.051	74.69
283.282	72.69
283.513	89.69
283.745	94.69
283.976	88.69
284.207	94.69
284.439	91.69
284.67	92.69
284.901	72.69
285.132	97.69
285.364	94.69
285.595	91.69
285.826	80.69
286.057	88.69
286.288	88.69
286.52	79.69
286.751	72.69
286.982	92.69
287.213	84.69
287.444	79.69
287.675	84.69
287.906	91.69
288.138	82.69
288.369	87.69
288.6	80.69
288.831	78.69
289.062	71.69
289.293	86.69
289.524	84.69
289.755	92.69
289.986	85.69
290.217	80.69
290.448	80.69
290.679	92.69
290.91	81.69
291.141	75.69
291.371	94.69
291.602	97.69
291.833	84.69
292.064	108.69
292.295	98.69
292.526	94.69
292.757	90.69
292.987	87.69
293.218	91.69
293.449	88.69
293.68	90.69
293.91	88.69
294.141	87.69
294.372	82.69
294.603	84.69
294.833	87.69
295.064	70.69
295.295	90.69
295.525	100.69
295.756	85.69
295.987	80.69
296.217	86.69
296.448	77.69
296.679	89.69
296.909	93.69
297.14	70.69
297.37	85.69
297.601	82.69
297.831	96.69
298.062	96.69
298.292	83.69
298.523	97.69
298.753	86.69
298.984	94.69
299.214	94.69
299.445	83.69
299.675	97.69
299.905	76.69
300.136	89.69
300.366	88.69
300.597	81.69
300.827	89.69
301.057	82.69
301.288	73.69
301.518	74.69
301.748	76.69
301.979	95.69
302.209	94.69
302.439	74.69
302.669	84.69
302.9	84.69
303.13	88.69
303.36	74.69
303.59	94.69
303.82	94.69
304.051	88.69
304.281	88.69
304.511	105.69
304.741	83.69
304.971	91.69
305.201	93.69
305.431	71.69
305.661	82.69
305.891	82.69
306.121	79.69
306.352	85.69
306.582	88.69
306.812	100.69
307.042	84.69
307.272	101.69
307.502	80.69
307.731	90.69
307.961	88.69
308.191	89.69
308.421	86.69
308.651	88.69
308.881	88.69
309.111	76.69
309.341	98.69
309.571	91.69
309.8	92.69
310.03	84.69
310.26	85.69
310.49	84.69
310.72	91.69
310.949	90.69
311.179	98.69
311.409	82.69
311.639	98.69
311.868	92.69
312.098	86.69
312.328	70.69
312.557	79.69
312.787	96.69
313.017	114.69
313.246	105.69
313.476	91.69
313.706	84.69
313.935	89.69
314.165	82.69
314.394	92.69
314.624	98.69
314.853	87.69
315.083	94.69
315.312	94.69
315.542	88.69
315.771	94.69
316.001	86.69
316.23	92.69
316.46	77.69
316.689	86.69
316.919	94.69
317.148	77.69
317.377	94.69
317.607	84.69
317.836	88.69
318.065	83.69
318.295	79.69
318.524	92.69
318.753	83.69
318.983	87.69
319.212	88.69
319.441	89.69
319.67	91.69
319.9	96.69
320.129	77.69
320.358	91.69
320.587	78.69
320.816	75.69
321.046	66.69
321.275	95.69
321.504	93.69
321.733	78.69
321.962	90.69
322.191	87.69
322.42	94.69
322.649	92.69
322.878	78.69
323.108	89.69
323.337	87.69
323.566	96.69
323.795	87.69
324.024	92.69
324.253	84.69
324.482	82.69
324.71	85.69
324.939	94.69
325.168	87.69
325.397	78.69
325.626	92.69
325.855	86.69
326.084	82.69
326.313	80.69
326.542	76.69
326.77	98.69
326.999	77.69
327.228	78.69
327.457	84.69
327.686	96.69
327.914	88.69
328.143	83.69
328.372	88.69
328.6	89.69
328.829	86.69
329.058	77.69
329.287	91.69
329.515	82.69
329.744	92.69
329.972	75.69
330.201	87.69
330.43	72.69
330.658	82.69
330.887	90.69
331.115	84.69
331.344	90.69
331.572	94.69
331.801	89.69
332.03	90.69
332.258	90.69
332.486	99.69
332.715	73.69
332.943	79.69
333.172	99.69
333.4	79.69
333.629	87.69
333.857	92.69
334.085	90.69
334.314	70.69
334.542	80.69
334.771	96.69
334.999	75.69
335.227	94.69
335.455	90.69
335.684	88.69
335.912	100.69
336.14	87.69
336.369	85.69
336.597	97.69
336.825	76.69
337.053	89.69
337.281	92.69
337.51	83.69
337.738	88.69
337.966	79.69
338.194	97.69
338.422	70.69
338.65	94.69
338.878	79.69
339.106	78.69
339.334	82.69
339.562	98.69
339.79	79.69
340.018	81.69
340.246	89.69
340.474	87.69
340.702	77.69
340.93	71.69
341.158	87.69
341.386	87.69
341.614	80.69
341.842	87.69
342.07	86.69
342.298	86.69
342.526	90.69
342.754	100.69
342.981	79.69
343.209	75.69
343.437	98.69
343.665	94.69
343.893	92.69
344.12	77.69
344.348	81.69
344.576	103.69
344.804	74.69
345.031	74.69
345.259	79.69
345.487	88.69
345.714	86.69
345.942	68.69
346.17	81.69
346.397	87.69
346.625	85.69
346.853	83.69
347.08	75.69
347.308	78.69
347.535	88.69
347.763	82.69
347.99	80.69
348.218	75.69
348.445	84.69
348.673	92.69
348.9	75.69
349.128	84.69
349.355	88.69
349.583	90.69
349.81	84.69
350.037	77.69
350.265	86.69
350.492	88.69
350.72	93.69
350.947	91.69
351.174	81.69
351.402	86.69
351.629	96.69
351.856	90.69
352.083	86.69
352.311	92.69
352.538	86.69
352.765	100.69
352.992	77.69
353.22	88.69
353.447	94.69
353.674	105.69
353.901	81.69
354.128	89.69
354.355	73.69
354.583	82.69
354.81	83.69
355.037	76.69
355.264	92.69
355.491	75.69
355.718	68.69
355.945	102.69
356.172	95.69
356.399	91.69
356.626	79.69
356.853	102.69
357.08	81.69
357.307	85.69
357.534	89.69
357.761	79.69
357.988	82.69
358.215	77.69
358.441	86.69
358.668	82.69
358.895	101.69
359.122	89.69
359.349	76.69
359.576	86.69
359.802	93.69
360.029	97.69
360.256	86.69
360.483	77.69
360.709	85.69
360.936	95.69
361.163	92.69
361.39	85.69
361.616	86.69
361.843	81.69
362.07	95.69
362.296	75.69
362.523	88.69
362.749	86.69
362.976	98.69
363.203	92.69
363.429	88.69
363.656	93.69
363.882	76.69
364.109	82.69
364.335	81.69
364.562	106.69
364.788	101.69
365.015	84.69
365.241	84.69
365.468	84.69
365.694	89.69
365.92	76.69
366.147	87.69
366.373	86.69
366.599	86.69
366.826	87.69
367.052	86.69
367.278	74.69
367.505	82.69
367.731	96.69
367.957	84.69
368.184	82.69
368.41	82.69
368.636	92.69
368.862	92.69
369.089	99.69
369.315	77.69
369.541	97.69
369.767	89.69
369.993	94.69
370.219	94.69
370.445	83.69
370.672	66.69
370.898	75.69
371.124	90.69
371.35	86.69
371.576	86.69
371.802	86.69
372.028	89.69
372.254	93.69
372.48	89.69
372.706	83.69
372.932	91.69
373.158	73.69
373.384	90.69
373.61	100.69
373.835	79.69
374.061	86.69
374.287	90.69
374.513	82.69
374.739	91.69
374.965	72.69
375.191	78.69
375.416	93.69
375.642	85.69
375.868	103.69
376.094	79.69
376.319	103.69
376.545	77.69
376.771	70.69
376.997	81.69
377.222	84.69
377.448	64.69
377.674	66.69
377.899	70.69
378.125	80.69
378.35	79.69
378.576	90.69
378.802	66.69
379.027	68.69
379.253	86.69
379.478	89.69
379.704	91.69
379.929	81.69
380.155	83.69
380.38	95.69
380.606	98.69
380.831	97.69
381.057	97.69
381.282	84.69
381.507	86.69
381.733	74.69
381.958	96.69
382.184	79.69
382.409	84.69
382.634	89.69
382.86	84.69
383.085	105.69
383.31	102.69
383.535	79.69
383.761	83.69
383.986	97.69
384.211	84.69
384.436	74.69
384.662	95.69
384.887	91.69
385.112	81.69
385.337	75.69
385.562	87.69
385.787	91.69
386.013	94.69
386.238	79.69
386.463	82.69
386.688	95.69
386.913	98.69
387.138	95.69
387.363	76.69
387.588	71.69
387.813	84.69
388.038	91.69
388.263	91.69
388.488	98.69
388.713	88.69
388.938	77.69
389.163	83.69
389.387	86.69
389.612	78.69
389.837	97.69
390.062	82.69
390.287	99.69
390.512	85.69
390.736	92.69
390.961	83.69
391.186	83.69
391.411	76.69
391.636	86.69
391.86	87.69
392.085	75.69
392.31	86.69
392.534	90.69
392.759	83.69
392.984	104.69
393.208	124.69
393.433	129.69
393.658	120.69
393.882	87.69
394.107	94.69
394.331	103.69
394.556	95.69
394.78	98.69
395.005	88.69
395.229	109.69
395.454	72.69
395.678	75.69
395.903	107.69
396.127	114.69
396.352	102.69
396.576	95.69
396.801	120.69
397.025	122.69
397.249	91.69
397.474	92.69
397.698	90.69
397.922	97.69
398.147	86.69
398.371	95.69
398.595	80.69
398.82	88.69
399.044	83.69
399.268	89.69
399.492	74.69
399.717	84.69
399.941	82.69
400.165	76.69
400.389	80.69
400.613	78.69
400.837	87.69
401.062	87.69
401.286	79.69
401.51	80.69
401.734	84.69
401.958	87.69
402.182	82.69
402.406	79.69
402.63	82.69
402.854	75.69
403.078	74.69
403.302	85.69
403.526	85.69
403.75	84.69
403.974	88.69
404.198	90.69
404.422	98.69
404.645	84.69
404.869	82.69
405.093	80.69
405.317	91.69
405.541	92.69
405.765	76.69
405.988	85.69
406.212	94.69
406.436	76.69
406.66	84.69
406.883	76.69
407.107	75.69
407.331	79.69
407.555	86.69
407.778	90.69
408.002	89.69
408.226	81.69
408.449	80.69
408.673	89.69
408.896	82.69
409.12	88.69
409.344	80.69
409.567	82.69
409.791	77.69
410.014	74.69
410.238	91.69
410.461	78.69
410.685	90.69
410.908	79.69
411.132	80.69
411.355	72.69
411.578	66.69
411.802	83.69
412.025	96.69
412.249	88.69
412.472	82.69
412.695	91.69
412.919	70.69
413.142	94.69
413.365	97.69
413.589	88.69
413.812	78.69
414.035	92.69
414.258	90.69
414.482	86.69
414.705	79.69
414.928	73.69
415.151	90.69
415.374	76.69
415.597	89.69
415.821	80.69
416.044	83.69
416.267	87.69
416.49	84.69
416.713	87.69
416.936	84.69
417.159	83.69
417.382	90.69
417.605	96.69
417.828	73.69
418.051	86.69
418.274	82.69
418.497	84.69
418.72	76.69
418.943	71.69
419.166	84.69
419.389	91.69
419.611	88.69
419.834	82.69
420.057	79.69
420.28	84.69
420.503	93.69
420.726	80.69
420.948	72.69
421.171	88.69
421.394	87.69
421.617	72.69
421.839	82.69
422.062	79.69
422.285	104.69
422.507	122.69
422.73	166.69
422.953	141.69
423.175	110.69
423.398	82.69
423.621	92.69
423.843	84.69
424.066	87.69
424.288	84.69
424.511	91.69
424.733	91.69
424.956	84.69
425.178	80.69
425.401	79.69
425.623	84.69
425.846	83.69
426.068	84.69
426.291	87.69
426.513	97.69
426.735	82.69
426.958	78.69
427.18	74.69
427.402	74.69
427.625	77.69
427.847	84.69
428.069	106.69
428.292	86.69
428.514	102.69
428.736	94.69
428.958	88.69
429.181	84.69
429.403	88.69
429.625	81.69
429.847	93.69
430.069	96.69
430.292	110.69
430.514	103.69
430.736	90.69
430.958	98.69
431.18	97.69
431.402	89.69
431.624	95.69
431.846	84.69
432.068	76.69
432.29	82.69
432.512	75.69
432.734	95.69
432.956	92.69
433.178	74.69
433.4	72.69
433.622	90.69
433.844	84.69
434.066	77.69
434.287	86.69
434.509	90.69
434.731	94.69
434.953	81.69
435.175	84.69
435.397	74.69
435.618	91.69
435.84	85.69
436.062	76.69
436.284	86.69
436.505	84.69
436.727	78.69
436.949	88.69
437.17	76.69
437.392	70.69
437.614	79.69
437.835	80.69
438.057	77.69
438.278	86.69
438.5	98.69
438.721	99.69
438.943	94.69
439.165	88.69
439.386	96.69
439.608	86.69
439.829	89.69
440.05	75.69
440.272	106.69
440.493	92.69
440.715	98.69
440.936	95.69
441.158	78.69
441.379	65.69
441.6	88.69
441.822	84.69
442.043	94.69
442.264	91.69
442.486	83.69
442.707	96.69
442.928	83.69
443.149	83.69
443.371	105.69
443.592	123.69
443.813	105.69
444.034	79.69
444.255	84.69
444.476	77.69
444.698	99.69
444.919	90.69
445.14	139.69
445.361	118.69
445.582	130.69
445.803	107.69
446.024	85.69
446.245	84.69
446.466	89.69
446.687	83.69
446.908	77.69
447.129	77.69
447.35	78.69
447.571	80.69
447.792	84.69
448.013	90.69
448.234	74.69
448.455	77.69
448.675	90.69
448.896	75.69
449.117	80.69
449.338	85.69
449.559	76.69
449.779	85.69
450	100.69
450.221	85.69
450.442	80.69
450.662	88.69
450.883	82.69
451.104	78.69
451.324	71.69
451.545	86.69
451.766	89.69
451.986	88.69
452.207	91.69
452.428	83.69
452.648	84.69
452.869	87.69
453.089	85.69
453.31	65.69
453.53	90.69
453.751	87.69
453.971	95.69
454.192	83.69
454.412	84.69
454.633	90.69
454.853	98.69
455.073	96.69
455.294	89.69
455.514	94.69
455.734	74.69
455.955	78.69
456.175	72.69
456.395	72.69
456.616	86.69
456.836	78.69
457.056	92.69
457.276	71.69
457.497	77.69
457.717	86.69
457.937	73.69
458.157	100.69
458.377	82.69
458.598	90.69
458.818	86.69
459.038	66.69
459.258	80.69
459.478	84.69
459.698	92.69
459.918	90.69
460.138	87.69
460.358	77.69
460.578	88.69
460.798	93.69
461.018	89.69
461.238	58.69
461.458	72.69
461.678	69.69
461.898	99.69
462.118	77.69
462.338	82.69
462.558	91.69
462.777	92.69
462.997	93.69
463.217	85.69
463.437	85.69
463.657	92.69
463.876	83.69
464.096	79.69
464.316	73.69
464.536	93.69
464.755	75.69
464.975	96.69
465.195	77.69
465.414	74.69
465.634	87.69
465.854	78.69
466.073	83.69
466.293	94.69
466.512	87.69
466.732	95.69
466.951	81.69
467.171	88.69
467.391	87.69
467.61	82.69
467.829	70.69
468.049	89.69
468.268	88.69
468.488	78.69
468.707	82.69
468.927	88.69
469.146	93.69
469.365	91.69
469.585	89.69
469.804	94.69
470.023	93.69
470.243	86.69
470.462	84.69
470.681	86.69
470.901	87.69
471.12	93.69
471.339	98.69
471.558	75.69
471.777	79.69
471.997	88.69
472.216	76.69
472.435	88.69
472.654	106.69
472.873	87.69
473.092	84.69
473.311	93.69
473.53	85.69
473.749	77.69
473.968	80.69
474.187	96.69
474.406	76.69
474.625	90.69
474.844	77.69
475.063	89.69
475.282	80.69
475.501	90.69
475.72	82.69
475.939	79.69
476.158	80.69
476.377	88.69
476.596	86.69
476.814	97.69
477.033	85.69
477.252	86.69
477.471	79.69
477.69	91.69
477.908	95.69
478.127	90.69
478.346	92.69
478.564	81.69
478.783	86.69
479.002	70.69
479.22	85.69
479.439	89.69
479.658	82.69
479.876	97.69
480.095	86.69
480.313	84.69
480.532	91.69
480.751	81.69
480.969	76.69
481.188	77.69
481.406	99.69
481.624	93.69
481.843	83.69
482.061	105.69
482.28	85.69
482.498	86.69
482.717	86.69
482.935	76.69
483.153	85.69
483.372	94.69
483.59	88.69
483.808	76.69
484.027	83.69
484.245	87.69
484.463	93.69
484.681	82.69
484.9	83.69
485.118	75.69
485.336	84.69
485.554	87.69
485.772	92.69
485.99	82.69
486.209	83.69
486.427	82.69
486.645	98.69
486.863	80.69
487.081	89.69
487.299	88.69
487.517	97.69
487.735	92.69
487.953	93.69
488.171	85.69
488.389	68.69
488.607	80.69
488.825	80.69
489.043	75.69
489.261	75.69
489.479	87.69
489.696	83.69
489.914	83.69
490.132	81.69
490.35	92.69
490.568	79.69
490.786	89.69
491.003	83.69
491.221	83.69
491.439	86.69
491.657	94.69
491.874	90.69
492.092	92.69
492.31	88.69
492.527	81.69
492.745	107.69
492.963	89.69
493.18	79.69
493.398	92.69
493.615	86.69
493.833	78.69
494.05	95.69
494.268	91.69
494.485	80.69
494.703	97.69
494.92	78.69
495.138	102.69
495.355	78.69
495.573	82.69
495.79	93.69
496.008	91.69
496.225	72.69
496.442	92.69
496.66	91.69
496.877	78.69
497.094	84.69
497.312	93.69
497.529	94.69
497.746	87.69
497.963	90.69
498.181	85.69
498.398	82.69
498.615	86.69
498.832	91.69
499.049	77.69
499.267	87.69
499.484	83.69
499.701	77.69
499.918	90.69
500.135	88.69
500.352	96.69
500.569	78.69
500.786	84.69
501.003	76.69
501.22	98.69
501.437	82.69
501.654	82.69
501.871	76.69
502.088	96.69
502.305	84.69
502.522	82.69
502.739	85.69
502.956	89.69
503.172	88.69
503.389	98.69
503.606	88.69
503.823	88.69
504.04	106.69
504.256	87.69
504.473	85.69
504.69	82.69
504.907	94.69
505.123	77.69
505.34	82.69
505.557	101.69
505.773	95.69
505.99	99.69
506.207	96.69
506.423	89.69
506.64	80.69
506.856	97.69
507.073	82.69
507.289	95.69
507.506	81.69
507.722	94.69
507.939	84.69
508.155	82.69
508.372	90.69
508.588	102.69
508.805	84.69
509.021	83.69
509.238	100.69
509.454	78.69
509.67	90.69
509.887	84.69
510.103	84.69
510.319	72.69
510.536	91.69
510.752	86.69
510.968	93.69
511.184	69.69
511.401	88.69
511.617	94.69
511.833	91.69
512.049	90.69
512.265	79.69
512.481	101.69
512.698	90.69
512.914	91.69
513.13	91.69
513.346	98.69
513.562	102.69
513.778	91.69
513.994	102.69
514.21	92.69
514.426	83.69
514.642	81.69
514.858	91.69
515.074	80.69
515.29	93.69
515.506	82.69
515.721	94.69
515.937	80.69
516.153	84.69
516.369	94.69
516.585	78.69
516.801	70.69
517.016	79.69
517.232	87.69
517.448	100.69
517.664	102.69
517.879	88.69
518.095	99.69
518.311	85.69
518.527	100.69
518.742	85.69
518.958	90.69
519.173	83.69
519.389	97.69
