Data from 1600_4_HRD10591_00042.txt Node
Date: Mon Jan 19 13:56:31 EST 2026
User: Yrep
Spectrometer: HR+D1059
Trigger mode: 1
Integration Time (sec): 1.000000E-1
Scans to average: 1
Electric dark correction enabled: true
Nonlinearity correction enabled: false
Boxcar width: 0
XAxis mode: Wavelengths
Number of Pixels in Spectrum: 2048
>>>>>Begin Spectral Data<<<<<
223.165	-3.56
223.4	-3.56
223.635	-3.56
223.869	-32.56
224.104	-19.56
224.338	-13.56
224.573	-19.56
224.808	-5.56
225.042	-11.56
225.277	-2.56
225.511	-6.56
225.746	2.44
225.98	9.44
226.215	3.44
226.449	1.44
226.683	24.44
226.918	37.44
227.152	36.44
227.387	32.44
227.621	36.44
227.856	35.44
228.09	55.44
228.324	50.44
228.559	68.44
228.793	51.44
229.027	68.44
229.262	60.44
229.496	52.44
229.73	69.44
229.964	73.44
230.199	71.44
230.433	87.44
230.667	63.44
230.901	78.44
231.136	79.44
231.37	84.44
231.604	71.44
231.838	88.44
232.072	84.44
232.306	69.44
232.541	83.44
232.775	81.44
233.009	77.44
233.243	86.44
233.477	79.44
233.711	92.44
233.945	68.44
234.179	77.44
234.413	72.44
234.647	74.44
234.881	79.44
235.115	69.44
235.349	75.44
235.583	69.44
235.817	84.44
236.051	74.44
236.285	73.44
236.519	80.44
236.753	70.44
236.987	73.44
237.221	80.44
237.455	83.44
237.689	64.44
237.922	69.44
238.156	77.44
238.39	80.44
238.624	69.44
238.858	67.44
239.091	74.44
239.325	71.44
239.559	83.44
239.793	82.44
240.027	80.44
240.26	71.44
240.494	62.44
240.728	69.44
240.961	75.44
241.195	68.44
241.429	72.44
241.662	83.44
241.896	68.44
242.13	72.44
242.363	75.44
242.597	70.44
242.83	78.44
243.064	80.44
243.298	93.44
243.531	84.44
243.765	79.44
243.998	88.44
244.232	86.44
244.465	66.44
244.699	81.44
244.932	85.44
245.166	81.44
245.399	80.44
245.633	79.44
245.866	79.44
246.099	63.44
246.333	89.44
246.566	67.44
246.8	81.44
247.033	77.44
247.266	84.44
247.5	72.44
247.733	75.44
247.966	93.44
248.2	67.44
248.433	69.44
248.666	85.44
248.899	82.44
249.133	67.44
249.366	66.44
249.599	82.44
249.832	80.44
250.066	84.44
250.299	79.44
250.532	77.44
250.765	85.44
250.998	77.44
251.231	73.44
251.465	88.44
251.698	87.44
251.931	70.44
252.164	82.44
252.397	81.44
252.63	95.44
252.863	77.44
253.096	82.44
253.329	82.44
253.562	86.44
253.795	86.44
254.028	72.44
254.261	89.44
254.494	72.44
254.727	80.44
254.96	81.44
255.193	66.44
255.426	72.44
255.659	88.44
255.892	71.44
256.124	70.44
256.357	87.44
256.59	63.44
256.823	76.44
257.056	77.44
257.289	69.44
257.521	89.44
257.754	79.44
257.987	76.44
258.22	78.44
258.452	85.44
258.685	72.44
258.918	86.44
259.151	78.44
259.383	92.44
259.616	81.44
259.849	85.44
260.081	64.44
260.314	82.44
260.547	87.44
260.779	62.44
261.012	82.44
261.244	85.44
261.477	87.44
261.71	58.44
261.942	81.44
262.175	84.44
262.407	81.44
262.64	86.44
262.872	74.44
263.105	86.44
263.337	79.44
263.57	69.44
263.802	79.44
264.035	78.44
264.267	80.44
264.499	73.44
264.732	73.44
264.964	69.44
265.197	71.44
265.429	81.44
265.661	74.44
265.894	82.44
266.126	74.44
266.358	65.44
266.591	68.44
266.823	77.44
267.055	69.44
267.287	79.44
267.52	70.44
267.752	81.44
267.984	87.44
268.216	74.44
268.448	74.44
268.681	77.44
268.913	78.44
269.145	65.44
269.377	82.44
269.609	68.44
269.841	79.44
270.073	97.44
270.306	73.44
270.538	85.44
270.77	91.44
271.002	86.44
271.234	77.44
271.466	78.44
271.698	84.44
271.93	74.44
272.162	98.44
272.394	97.44
272.626	89.44
272.858	75.44
273.09	65.44
273.322	89.44
273.553	76.44
273.785	79.44
274.017	91.44
274.249	83.44
274.481	96.44
274.713	81.44
274.945	79.44
275.176	85.44
275.408	80.44
275.64	75.44
275.872	84.44
276.104	81.44
276.335	92.44
276.567	74.44
276.799	89.44
277.031	87.44
277.262	93.44
277.494	73.44
277.726	101.44
277.957	73.44
278.189	87.44
278.421	99.44
278.652	85.44
278.884	83.44
279.115	75.44
279.347	85.44
279.579	79.44
279.81	73.44
280.042	85.44
280.273	67.44
280.505	88.44
280.736	101.44
280.968	83.44
281.199	88.44
281.431	94.44
281.662	94.44
281.894	90.44
282.125	82.44
282.356	86.44
282.588	90.44
282.819	90.44
283.051	77.44
283.282	78.44
283.513	87.44
283.745	89.44
283.976	84.44
284.207	90.44
284.439	90.44
284.67	80.44
284.901	96.44
285.132	88.44
285.364	89.44
285.595	79.44
285.826	74.44
286.057	93.44
286.288	61.44
286.52	69.44
286.751	82.44
286.982	82.44
287.213	78.44
287.444	76.44
287.675	94.44
287.906	101.44
288.138	92.44
288.369	84.44
288.6	82.44
288.831	81.44
289.062	78.44
289.293	85.44
289.524	78.44
289.755	74.44
289.986	71.44
290.217	77.44
290.448	96.44
290.679	80.44
290.91	97.44
291.141	82.44
291.371	77.44
291.602	76.44
291.833	92.44
292.064	83.44
292.295	91.44
292.526	87.44
292.757	82.44
292.987	82.44
293.218	93.44
293.449	96.44
293.68	79.44
293.91	73.44
294.141	80.44
294.372	86.44
294.603	80.44
294.833	95.44
295.064	78.44
295.295	97.44
295.525	74.44
295.756	94.44
295.987	88.44
296.217	80.44
296.448	79.44
296.679	82.44
296.909	92.44
297.14	82.44
297.37	85.44
297.601	63.44
297.831	73.44
298.062	96.44
298.292	90.44
298.523	67.44
298.753	85.44
298.984	82.44
299.214	73.44
299.445	94.44
299.675	78.44
299.905	92.44
300.136	87.44
300.366	89.44
300.597	79.44
300.827	80.44
301.057	82.44
301.288	80.44
301.518	83.44
301.748	74.44
301.979	92.44
302.209	89.44
302.439	93.44
302.669	88.44
302.9	74.44
303.13	84.44
303.36	84.44
303.59	84.44
303.82	81.44
304.051	104.44
304.281	94.44
304.511	85.44
304.741	85.44
304.971	68.44
305.201	86.44
305.431	91.44
305.661	80.44
305.891	68.44
306.121	80.44
306.352	94.44
306.582	87.44
306.812	84.44
307.042	70.44
307.272	89.44
307.502	84.44
307.731	76.44
307.961	80.44
308.191	86.44
308.421	77.44
308.651	91.44
308.881	84.44
309.111	85.44
309.341	80.44
309.571	94.44
309.8	95.44
310.03	97.44
310.26	81.44
310.49	83.44
310.72	86.44
310.949	96.44
311.179	84.44
311.409	85.44
311.639	87.44
311.868	88.44
312.098	94.44
312.328	80.44
312.557	80.44
312.787	89.44
313.017	88.44
313.246	83.44
313.476	73.44
313.706	70.44
313.935	78.44
314.165	66.44
314.394	79.44
314.624	68.44
314.853	95.44
315.083	81.44
315.312	79.44
315.542	87.44
315.771	77.44
316.001	77.44
316.23	85.44
316.46	80.44
316.689	72.44
316.919	98.44
317.148	89.44
317.377	81.44
317.607	90.44
317.836	82.44
318.065	84.44
318.295	71.44
318.524	86.44
318.753	87.44
318.983	82.44
319.212	86.44
319.441	87.44
319.67	80.44
319.9	69.44
320.129	85.44
320.358	94.44
320.587	83.44
320.816	80.44
321.046	81.44
321.275	92.44
321.504	90.44
321.733	79.44
321.962	87.44
322.191	83.44
322.42	84.44
322.649	88.44
322.878	85.44
323.108	87.44
323.337	82.44
323.566	85.44
323.795	81.44
324.024	96.44
324.253	73.44
324.482	88.44
324.71	71.44
324.939	78.44
325.168	82.44
325.397	75.44
325.626	76.44
325.855	84.44
326.084	68.44
326.313	96.44
326.542	91.44
326.77	86.44
326.999	60.44
327.228	93.44
327.457	78.44
327.686	74.44
327.914	85.44
328.143	76.44
328.372	82.44
328.6	100.44
328.829	96.44
329.058	92.44
329.287	78.44
329.515	92.44
329.744	80.44
329.972	81.44
330.201	71.44
330.43	85.44
330.658	86.44
330.887	84.44
331.115	80.44
331.344	90.44
331.572	78.44
331.801	90.44
332.03	83.44
332.258	91.44
332.486	82.44
332.715	77.44
332.943	85.44
333.172	98.44
333.4	96.44
333.629	86.44
333.857	73.44
334.085	97.44
334.314	73.44
334.542	89.44
334.771	86.44
334.999	65.44
335.227	83.44
335.455	98.44
335.684	82.44
335.912	80.44
336.14	84.44
336.369	69.44
336.597	84.44
336.825	86.44
337.053	93.44
337.281	82.44
337.51	73.44
337.738	78.44
337.966	100.44
338.194	86.44
338.422	92.44
338.65	78.44
338.878	90.44
339.106	86.44
339.334	86.44
339.562	72.44
339.79	92.44
340.018	87.44
340.246	75.44
340.474	57.44
340.702	92.44
340.93	87.44
341.158	77.44
341.386	89.44
341.614	75.44
341.842	65.44
342.07	72.44
342.298	88.44
342.526	86.44
342.754	74.44
342.981	94.44
343.209	94.44
343.437	80.44
343.665	91.44
343.893	89.44
344.12	80.44
344.348	87.44
344.576	66.44
344.804	86.44
345.031	82.44
345.259	96.44
345.487	72.44
345.714	94.44
345.942	85.44
346.17	93.44
346.397	93.44
346.625	85.44
346.853	85.44
347.08	92.44
347.308	79.44
347.535	85.44
347.763	89.44
347.99	81.44
348.218	84.44
348.445	94.44
348.673	89.44
348.9	93.44
349.128	86.44
349.355	74.44
349.583	73.44
349.81	86.44
350.037	76.44
350.265	81.44
350.492	81.44
350.72	75.44
350.947	75.44
351.174	80.44
351.402	73.44
351.629	78.44
351.856	86.44
352.083	84.44
352.311	85.44
352.538	92.44
352.765	71.44
352.992	84.44
353.22	85.44
353.447	82.44
353.674	90.44
353.901	102.44
354.128	78.44
354.355	78.44
354.583	73.44
354.81	73.44
355.037	81.44
355.264	65.44
355.491	88.44
355.718	89.44
355.945	86.44
356.172	80.44
356.399	99.44
356.626	78.44
356.853	86.44
357.08	85.44
357.307	69.44
357.534	81.44
357.761	92.44
357.988	84.44
358.215	89.44
358.441	92.44
358.668	88.44
358.895	82.44
359.122	96.44
359.349	79.44
359.576	76.44
359.802	81.44
360.029	80.44
360.256	83.44
360.483	78.44
360.709	84.44
360.936	75.44
361.163	88.44
361.39	86.44
361.616	87.44
361.843	93.44
362.07	84.44
362.296	81.44
362.523	67.44
362.749	84.44
362.976	82.44
363.203	86.44
363.429	72.44
363.656	80.44
363.882	85.44
364.109	97.44
364.335	94.44
364.562	85.44
364.788	95.44
365.015	75.44
365.241	81.44
365.468	81.44
365.694	88.44
365.92	71.44
366.147	71.44
366.373	78.44
366.599	82.44
366.826	87.44
367.052	74.44
367.278	83.44
367.505	78.44
367.731	97.44
367.957	82.44
368.184	85.44
368.41	82.44
368.636	89.44
368.862	87.44
369.089	84.44
369.315	73.44
369.541	86.44
369.767	74.44
369.993	75.44
370.219	84.44
370.445	77.44
370.672	70.44
370.898	79.44
371.124	86.44
371.35	87.44
371.576	96.44
371.802	73.44
372.028	89.44
372.254	87.44
372.48	86.44
372.706	82.44
372.932	81.44
373.158	91.44
373.384	75.44
373.61	95.44
373.835	78.44
374.061	84.44
374.287	88.44
374.513	84.44
374.739	93.44
374.965	105.44
375.191	83.44
375.416	73.44
375.642	78.44
375.868	88.44
376.094	86.44
376.319	84.44
376.545	80.44
376.771	82.44
376.997	82.44
377.222	94.44
377.448	89.44
377.674	85.44
377.899	80.44
378.125	85.44
378.35	77.44
378.576	79.44
378.802	93.44
379.027	85.44
379.253	80.44
379.478	86.44
379.704	84.44
379.929	82.44
380.155	82.44
380.38	81.44
380.606	92.44
380.831	86.44
381.057	87.44
381.282	90.44
381.507	78.44
381.733	93.44
381.958	88.44
382.184	88.44
382.409	87.44
382.634	84.44
382.86	70.44
383.085	87.44
383.31	97.44
383.535	97.44
383.761	102.44
383.986	80.44
384.211	83.44
384.436	73.44
384.662	88.44
384.887	86.44
385.112	84.44
385.337	69.44
385.562	86.44
385.787	75.44
386.013	94.44
386.238	74.44
386.463	76.44
386.688	85.44
386.913	77.44
387.138	67.44
387.363	85.44
387.588	89.44
387.813	74.44
388.038	94.44
388.263	76.44
388.488	73.44
388.713	74.44
388.938	82.44
389.163	88.44
389.387	70.44
389.612	76.44
389.837	83.44
390.062	81.44
390.287	84.44
390.512	72.44
390.736	75.44
390.961	90.44
391.186	81.44
391.411	81.44
391.636	85.44
391.86	87.44
392.085	87.44
392.31	88.44
392.534	83.44
392.759	86.44
392.984	93.44
393.208	110.44
393.433	144.44
393.658	112.44
393.882	87.44
394.107	94.44
394.331	88.44
394.556	88.44
394.78	91.44
395.005	84.44
395.229	78.44
395.454	77.44
395.678	72.44
395.903	78.44
396.127	80.44
396.352	91.44
396.576	100.44
396.801	117.44
397.025	116.44
397.249	110.44
397.474	81.44
397.698	81.44
397.922	84.44
398.147	80.44
398.371	86.44
398.595	85.44
398.82	80.44
399.044	72.44
399.268	79.44
399.492	82.44
399.717	77.44
399.941	76.44
400.165	84.44
400.389	78.44
400.613	82.44
400.837	87.44
401.062	71.44
401.286	88.44
401.51	100.44
401.734	80.44
401.958	85.44
402.182	97.44
402.406	87.44
402.63	78.44
402.854	84.44
403.078	84.44
403.302	74.44
403.526	80.44
403.75	80.44
403.974	84.44
404.198	86.44
404.422	72.44
404.645	80.44
404.869	93.44
405.093	98.44
405.317	81.44
405.541	75.44
405.765	84.44
405.988	89.44
406.212	86.44
406.436	74.44
406.66	75.44
406.883	75.44
407.107	86.44
407.331	89.44
407.555	84.44
407.778	82.44
408.002	82.44
408.226	87.44
408.449	61.44
408.673	62.44
408.896	63.44
409.12	71.44
409.344	73.44
409.567	84.44
409.791	88.44
410.014	71.44
410.238	86.44
410.461	96.44
410.685	90.44
410.908	84.44
411.132	72.44
411.355	76.44
411.578	85.44
411.802	79.44
412.025	72.44
412.249	82.44
412.472	69.44
412.695	79.44
412.919	76.44
413.142	80.44
413.365	81.44
413.589	84.44
413.812	76.44
414.035	77.44
414.258	73.44
414.482	68.44
414.705	97.44
414.928	73.44
415.151	79.44
415.374	80.44
415.597	78.44
415.821	78.44
416.044	78.44
416.267	85.44
416.49	91.44
416.713	81.44
416.936	78.44
417.159	99.44
417.382	84.44
417.605	85.44
417.828	83.44
418.051	87.44
418.274	88.44
418.497	78.44
418.72	75.44
418.943	94.44
419.166	71.44
419.389	88.44
419.611	94.44
419.834	94.44
420.057	84.44
420.28	73.44
420.503	72.44
420.726	78.44
420.948	84.44
421.171	74.44
421.394	73.44
421.617	90.44
421.839	88.44
422.062	79.44
422.285	82.44
422.507	102.44
422.73	123.44
422.953	112.44
423.175	86.44
423.398	92.44
423.621	79.44
423.843	80.44
424.066	86.44
424.288	78.44
424.511	74.44
424.733	86.44
424.956	78.44
425.178	74.44
425.401	79.44
425.623	68.44
425.846	76.44
426.068	80.44
426.291	82.44
426.513	84.44
426.735	94.44
426.958	79.44
427.18	78.44
427.402	78.44
427.625	82.44
427.847	74.44
428.069	80.44
428.292	85.44
428.514	84.44
428.736	86.44
428.958	65.44
429.181	90.44
429.403	77.44
429.625	84.44
429.847	77.44
430.069	80.44
430.292	98.44
430.514	87.44
430.736	96.44
430.958	74.44
431.18	82.44
431.402	89.44
431.624	79.44
431.846	75.44
432.068	84.44
432.29	85.44
432.512	80.44
432.734	74.44
432.956	84.44
433.178	91.44
433.4	83.44
433.622	83.44
433.844	80.44
434.066	76.44
434.287	67.44
434.509	91.44
434.731	93.44
434.953	80.44
435.175	78.44
435.397	92.44
435.618	77.44
435.84	73.44
436.062	86.44
436.284	83.44
436.505	77.44
436.727	84.44
436.949	81.44
437.17	78.44
437.392	62.44
437.614	90.44
437.835	69.44
438.057	90.44
438.278	84.44
438.5	89.44
438.721	68.44
438.943	58.44
439.165	72.44
439.386	87.44
439.608	81.44
439.829	81.44
440.05	91.44
440.272	81.44
440.493	87.44
440.715	85.44
440.936	78.44
441.158	79.44
441.379	81.44
441.6	71.44
441.822	78.44
442.043	92.44
442.264	79.44
442.486	80.44
442.707	87.44
442.928	73.44
443.149	88.44
443.371	96.44
443.592	103.44
443.813	90.44
444.034	80.44
444.255	81.44
444.476	85.44
444.698	85.44
444.919	90.44
445.14	147.44
445.361	121.44
445.582	116.44
445.803	94.44
446.024	78.44
446.245	73.44
446.466	66.44
446.687	82.44
446.908	79.44
447.129	73.44
447.35	79.44
447.571	62.44
447.792	96.44
448.013	74.44
448.234	94.44
448.455	82.44
448.675	73.44
448.896	70.44
449.117	77.44
449.338	68.44
449.559	92.44
449.779	75.44
450	69.44
450.221	73.44
450.442	70.44
450.662	80.44
450.883	86.44
451.104	87.44
451.324	69.44
451.545	84.44
451.766	79.44
451.986	85.44
452.207	81.44
452.428	71.44
452.648	82.44
452.869	75.44
453.089	68.44
453.31	92.44
453.53	92.44
453.751	91.44
453.971	78.44
454.192	76.44
454.412	91.44
454.633	71.44
454.853	88.44
455.073	83.44
455.294	80.44
455.514	78.44
455.734	75.44
455.955	87.44
456.175	80.44
456.395	78.44
456.616	84.44
456.836	73.44
457.056	75.44
457.276	84.44
457.497	88.44
457.717	88.44
457.937	80.44
458.157	86.44
458.377	92.44
458.598	96.44
458.818	87.44
459.038	88.44
459.258	89.44
459.478	85.44
459.698	81.44
459.918	82.44
460.138	86.44
460.358	90.44
460.578	77.44
460.798	77.44
461.018	81.44
461.238	76.44
461.458	96.44
461.678	76.44
461.898	83.44
462.118	81.44
462.338	78.44
462.558	77.44
462.777	72.44
462.997	83.44
463.217	70.44
463.437	86.44
463.657	82.44
463.876	71.44
464.096	86.44
464.316	74.44
464.536	82.44
464.755	81.44
464.975	81.44
465.195	64.44
465.414	56.44
465.634	84.44
465.854	82.44
466.073	82.44
466.293	82.44
466.512	81.44
466.732	68.44
466.951	86.44
467.171	85.44
467.391	73.44
467.61	67.44
467.829	75.44
468.049	78.44
468.268	87.44
468.488	75.44
468.707	72.44
468.927	84.44
469.146	95.44
469.365	88.44
469.585	81.44
469.804	80.44
470.023	75.44
470.243	92.44
470.462	73.44
470.681	77.44
470.901	81.44
471.12	75.44
471.339	74.44
471.558	84.44
471.777	80.44
471.997	84.44
472.216	93.44
472.435	82.44
472.654	82.44
472.873	82.44
473.092	85.44
473.311	70.44
473.53	87.44
473.749	100.44
473.968	89.44
474.187	82.44
474.406	78.44
474.625	72.44
474.844	73.44
475.063	86.44
475.282	76.44
475.501	80.44
475.72	100.44
475.939	96.44
476.158	79.44
476.377	65.44
476.596	73.44
476.814	84.44
477.033	72.44
477.252	75.44
477.471	77.44
477.69	89.44
477.908	69.44
478.127	98.44
478.346	83.44
478.564	85.44
478.783	93.44
479.002	75.44
479.22	74.44
479.439	81.44
479.658	65.44
479.876	90.44
480.095	79.44
480.313	96.44
480.532	77.44
480.751	85.44
480.969	78.44
481.188	74.44
481.406	97.44
481.624	84.44
481.843	93.44
482.061	95.44
482.28	90.44
482.498	85.44
482.717	84.44
482.935	81.44
483.153	71.44
483.372	63.44
483.59	75.44
483.808	74.44
484.027	81.44
484.245	66.44
484.463	91.44
484.681	85.44
484.9	93.44
485.118	87.44
485.336	72.44
485.554	90.44
485.772	84.44
485.99	79.44
486.209	92.44
486.427	77.44
486.645	62.44
486.863	58.44
487.081	92.44
487.299	72.44
487.517	69.44
487.735	76.44
487.953	92.44
488.171	101.44
488.389	69.44
488.607	86.44
488.825	87.44
489.043	82.44
489.261	80.44
489.479	74.44
489.696	72.44
489.914	85.44
490.132	86.44
490.35	89.44
490.568	79.44
490.786	81.44
491.003	77.44
491.221	92.44
491.439	83.44
491.657	91.44
491.874	84.44
492.092	86.44
492.31	72.44
492.527	78.44
492.745	80.44
492.963	79.44
493.18	80.44
493.398	73.44
493.615	83.44
493.833	78.44
494.05	72.44
494.268	93.44
494.485	84.44
494.703	72.44
494.92	94.44
495.138	68.44
495.355	87.44
495.573	85.44
495.79	83.44
496.008	80.44
496.225	97.44
496.442	80.44
496.66	84.44
496.877	82.44
497.094	87.44
497.312	84.44
497.529	84.44
497.746	92.44
497.963	80.44
498.181	88.44
498.398	81.44
498.615	80.44
498.832	73.44
499.049	88.44
499.267	87.44
499.484	84.44
499.701	96.44
499.918	73.44
500.135	80.44
500.352	84.44
500.569	75.44
500.786	84.44
501.003	84.44
501.22	80.44
501.437	88.44
501.654	88.44
501.871	73.44
502.088	84.44
502.305	89.44
502.522	82.44
502.739	94.44
502.956	86.44
503.172	80.44
503.389	82.44
503.606	74.44
503.823	85.44
504.04	85.44
504.256	96.44
504.473	83.44
504.69	70.44
504.907	73.44
505.123	84.44
505.34	86.44
505.557	92.44
505.773	84.44
505.99	88.44
506.207	78.44
506.423	79.44
506.64	84.44
506.856	86.44
507.073	85.44
507.289	94.44
507.506	75.44
507.722	87.44
507.939	90.44
508.155	74.44
508.372	80.44
508.588	82.44
508.805	89.44
509.021	96.44
509.238	82.44
509.454	76.44
509.67	82.44
509.887	91.44
510.103	88.44
510.319	70.44
510.536	72.44
510.752	66.44
510.968	98.44
511.184	82.44
511.401	81.44
511.617	73.44
511.833	63.44
512.049	72.44
512.265	86.44
512.481	91.44
512.698	87.44
512.914	80.44
513.13	85.44
513.346	74.44
513.562	100.44
513.778	88.44
513.994	76.44
514.21	83.44
514.426	93.44
514.642	84.44
514.858	89.44
515.074	88.44
515.29	76.44
515.506	88.44
515.721	84.44
515.937	73.44
516.153	74.44
516.369	80.44
516.585	73.44
516.801	68.44
517.016	86.44
517.232	87.44
517.448	85.44
517.664	89.44
517.879	82.44
518.095	82.44
518.311	86.44
518.527	98.44
518.742	80.44
518.958	74.44
519.173	71.44
519.389	89.44
519.605	81.44
519.82	74.44
520.036	70.44
