Data from 1600_4_HRD10591_00046.txt Node
Date: Mon Jan 19 13:56:33 EST 2026
User: Yrep
Spectrometer: HR+D1059
Trigger mode: 1
Integration Time (sec): 1.000000E-1
Scans to average: 1
Electric dark correction enabled: true
Nonlinearity correction enabled: false
Boxcar width: 0
XAxis mode: Wavelengths
Number of Pixels in Spectrum: 2048
>>>>>Begin Spectral Data<<<<<
223.165	-9.19
223.4	-9.19
223.635	-9.19
223.869	-13.19
224.104	-9.19
224.338	-7.19
224.573	-24.19
224.808	-24.19
225.042	-15.19
225.277	-14.19
225.511	-1.19
225.746	2.81
225.98	12.81
226.215	7.81
226.449	19.81
226.683	14.81
226.918	26.81
227.152	32.81
227.387	23.81
227.621	36.81
227.856	38.81
228.09	48.81
228.324	39.81
228.559	53.81
228.793	62.81
229.027	58.81
229.262	47.81
229.496	67.81
229.73	75.81
229.964	89.81
230.199	61.81
230.433	68.81
230.667	66.81
230.901	78.81
231.136	67.81
231.37	88.81
231.604	80.81
231.838	79.81
232.072	70.81
232.306	71.81
232.541	76.81
232.775	76.81
233.009	74.81
233.243	67.81
233.477	78.81
233.711	70.81
233.945	84.81
234.179	73.81
234.413	78.81
234.647	76.81
234.881	86.81
235.115	71.81
235.349	84.81
235.583	76.81
235.817	80.81
236.051	73.81
236.285	74.81
236.519	72.81
236.753	74.81
236.987	82.81
237.221	78.81
237.455	79.81
237.689	68.81
237.922	84.81
238.156	75.81
238.39	78.81
238.624	73.81
238.858	80.81
239.091	72.81
239.325	79.81
239.559	76.81
239.793	85.81
240.027	77.81
240.26	68.81
240.494	71.81
240.728	62.81
240.961	67.81
241.195	83.81
241.429	69.81
241.662	79.81
241.896	79.81
242.13	75.81
242.363	75.81
242.597	82.81
242.83	75.81
243.064	81.81
243.298	67.81
243.531	73.81
243.765	69.81
243.998	73.81
244.232	80.81
244.465	78.81
244.699	88.81
244.932	62.81
245.166	83.81
245.399	72.81
245.633	66.81
245.866	77.81
246.099	66.81
246.333	67.81
246.566	63.81
246.8	75.81
247.033	72.81
247.266	68.81
247.5	71.81
247.733	64.81
247.966	73.81
248.2	80.81
248.433	70.81
248.666	62.81
248.899	60.81
249.133	66.81
249.366	85.81
249.599	66.81
249.832	74.81
250.066	81.81
250.299	78.81
250.532	74.81
250.765	73.81
250.998	72.81
251.231	83.81
251.465	90.81
251.698	83.81
251.931	72.81
252.164	90.81
252.397	83.81
252.63	78.81
252.863	70.81
253.096	68.81
253.329	76.81
253.562	90.81
253.795	93.81
254.028	82.81
254.261	88.81
254.494	73.81
254.727	90.81
254.96	95.81
255.193	82.81
255.426	71.81
255.659	76.81
255.892	82.81
256.124	76.81
256.357	82.81
256.59	77.81
256.823	78.81
257.056	74.81
257.289	67.81
257.521	65.81
257.754	73.81
257.987	62.81
258.22	84.81
258.452	84.81
258.685	74.81
258.918	65.81
259.151	78.81
259.383	76.81
259.616	72.81
259.849	71.81
260.081	80.81
260.314	73.81
260.547	79.81
260.779	78.81
261.012	78.81
261.244	84.81
261.477	84.81
261.71	80.81
261.942	76.81
262.175	76.81
262.407	78.81
262.64	90.81
262.872	91.81
263.105	84.81
263.337	81.81
263.57	69.81
263.802	65.81
264.035	77.81
264.267	86.81
264.499	84.81
264.732	88.81
264.964	84.81
265.197	72.81
265.429	70.81
265.661	73.81
265.894	83.81
266.126	75.81
266.358	89.81
266.591	94.81
266.823	79.81
267.055	78.81
267.287	76.81
267.52	77.81
267.752	68.81
267.984	86.81
268.216	78.81
268.448	85.81
268.681	89.81
268.913	85.81
269.145	67.81
269.377	78.81
269.609	71.81
269.841	70.81
270.073	90.81
270.306	62.81
270.538	83.81
270.77	62.81
271.002	68.81
271.234	77.81
271.466	73.81
271.698	83.81
271.93	79.81
272.162	77.81
272.394	96.81
272.626	70.81
272.858	76.81
273.09	87.81
273.322	86.81
273.553	81.81
273.785	79.81
274.017	79.81
274.249	73.81
274.481	68.81
274.713	77.81
274.945	84.81
275.176	87.81
275.408	87.81
275.64	76.81
275.872	93.81
276.104	82.81
276.335	74.81
276.567	80.81
276.799	88.81
277.031	75.81
277.262	72.81
277.494	82.81
277.726	87.81
277.957	69.81
278.189	66.81
278.421	72.81
278.652	79.81
278.884	77.81
279.115	86.81
279.347	93.81
279.579	74.81
279.81	79.81
280.042	87.81
280.273	93.81
280.505	87.81
280.736	74.81
280.968	82.81
281.199	85.81
281.431	90.81
281.662	84.81
281.894	77.81
282.125	83.81
282.356	78.81
282.588	91.81
282.819	80.81
283.051	87.81
283.282	92.81
283.513	79.81
283.745	90.81
283.976	92.81
284.207	73.81
284.439	83.81
284.67	78.81
284.901	68.81
285.132	83.81
285.364	87.81
285.595	86.81
285.826	85.81
286.057	76.81
286.288	82.81
286.52	67.81
286.751	76.81
286.982	83.81
287.213	86.81
287.444	81.81
287.675	91.81
287.906	87.81
288.138	77.81
288.369	88.81
288.6	88.81
288.831	81.81
289.062	87.81
289.293	91.81
289.524	83.81
289.755	95.81
289.986	95.81
290.217	81.81
290.448	76.81
290.679	69.81
290.91	84.81
291.141	87.81
291.371	93.81
291.602	82.81
291.833	82.81
292.064	71.81
292.295	66.81
292.526	62.81
292.757	68.81
292.987	83.81
293.218	78.81
293.449	80.81
293.68	90.81
293.91	81.81
294.141	81.81
294.372	67.81
294.603	96.81
294.833	78.81
295.064	71.81
295.295	83.81
295.525	75.81
295.756	92.81
295.987	76.81
296.217	79.81
296.448	84.81
296.679	83.81
296.909	76.81
297.14	87.81
297.37	87.81
297.601	92.81
297.831	92.81
298.062	83.81
298.292	99.81
298.523	87.81
298.753	84.81
298.984	78.81
299.214	79.81
299.445	86.81
299.675	90.81
299.905	94.81
300.136	87.81
300.366	97.81
300.597	91.81
300.827	91.81
301.057	88.81
301.288	78.81
301.518	73.81
301.748	70.81
301.979	97.81
302.209	90.81
302.439	83.81
302.669	72.81
302.9	86.81
303.13	69.81
303.36	83.81
303.59	83.81
303.82	88.81
304.051	77.81
304.281	98.81
304.511	83.81
304.741	95.81
304.971	79.81
305.201	96.81
305.431	93.81
305.661	76.81
305.891	81.81
306.121	87.81
306.352	86.81
306.582	78.81
306.812	81.81
307.042	87.81
307.272	88.81
307.502	92.81
307.731	106.81
307.961	97.81
308.191	83.81
308.421	83.81
308.651	96.81
308.881	90.81
309.111	74.81
309.341	82.81
309.571	93.81
309.8	101.81
310.03	86.81
310.26	80.81
310.49	80.81
310.72	77.81
310.949	75.81
311.179	86.81
311.409	98.81
311.639	87.81
311.868	85.81
312.098	87.81
312.328	86.81
312.557	82.81
312.787	81.81
313.017	80.81
313.246	72.81
313.476	81.81
313.706	72.81
313.935	67.81
314.165	84.81
314.394	95.81
314.624	81.81
314.853	75.81
315.083	78.81
315.312	98.81
315.542	83.81
315.771	70.81
316.001	88.81
316.23	100.81
316.46	104.81
316.689	85.81
316.919	90.81
317.148	94.81
317.377	82.81
317.607	72.81
317.836	93.81
318.065	64.81
318.295	69.81
318.524	85.81
318.753	80.81
318.983	98.81
319.212	90.81
319.441	79.81
319.67	83.81
319.9	86.81
320.129	76.81
320.358	77.81
320.587	87.81
320.816	72.81
321.046	92.81
321.275	92.81
321.504	81.81
321.733	85.81
321.962	86.81
322.191	67.81
322.42	82.81
322.649	79.81
322.878	90.81
323.108	105.81
323.337	92.81
323.566	85.81
323.795	82.81
324.024	87.81
324.253	92.81
324.482	80.81
324.71	77.81
324.939	88.81
325.168	84.81
325.397	87.81
325.626	90.81
325.855	92.81
326.084	99.81
326.313	73.81
326.542	73.81
326.77	85.81
326.999	88.81
327.228	93.81
327.457	86.81
327.686	77.81
327.914	91.81
328.143	84.81
328.372	90.81
328.6	77.81
328.829	97.81
329.058	82.81
329.287	83.81
329.515	80.81
329.744	96.81
329.972	83.81
330.201	86.81
330.43	74.81
330.658	78.81
330.887	80.81
331.115	83.81
331.344	88.81
331.572	90.81
331.801	68.81
332.03	82.81
332.258	80.81
332.486	82.81
332.715	70.81
332.943	79.81
333.172	84.81
333.4	87.81
333.629	79.81
333.857	76.81
334.085	93.81
334.314	87.81
334.542	82.81
334.771	71.81
334.999	81.81
335.227	90.81
335.455	71.81
335.684	72.81
335.912	63.81
336.14	85.81
336.369	74.81
336.597	84.81
336.825	86.81
337.053	86.81
337.281	75.81
337.51	84.81
337.738	85.81
337.966	88.81
338.194	82.81
338.422	79.81
338.65	82.81
338.878	86.81
339.106	89.81
339.334	90.81
339.562	76.81
339.79	88.81
340.018	78.81
340.246	70.81
340.474	66.81
340.702	88.81
340.93	98.81
341.158	80.81
341.386	73.81
341.614	84.81
341.842	83.81
342.07	83.81
342.298	77.81
342.526	81.81
342.754	82.81
342.981	74.81
343.209	67.81
343.437	84.81
343.665	86.81
343.893	99.81
344.12	86.81
344.348	88.81
344.576	75.81
344.804	86.81
345.031	80.81
345.259	79.81
345.487	80.81
345.714	98.81
345.942	77.81
346.17	78.81
346.397	88.81
346.625	83.81
346.853	75.81
347.08	69.81
347.308	90.81
347.535	90.81
347.763	92.81
347.99	94.81
348.218	82.81
348.445	83.81
348.673	89.81
348.9	79.81
349.128	82.81
349.355	66.81
349.583	73.81
349.81	73.81
350.037	76.81
350.265	81.81
350.492	83.81
350.72	87.81
350.947	89.81
351.174	87.81
351.402	80.81
351.629	87.81
351.856	74.81
352.083	78.81
352.311	92.81
352.538	88.81
352.765	91.81
352.992	89.81
353.22	85.81
353.447	84.81
353.674	74.81
353.901	84.81
354.128	82.81
354.355	93.81
354.583	87.81
354.81	73.81
355.037	96.81
355.264	84.81
355.491	87.81
355.718	86.81
355.945	88.81
356.172	93.81
356.399	78.81
356.626	78.81
356.853	81.81
357.08	81.81
357.307	84.81
357.534	77.81
357.761	90.81
357.988	85.81
358.215	77.81
358.441	97.81
358.668	91.81
358.895	74.81
359.122	84.81
359.349	78.81
359.576	73.81
359.802	78.81
360.029	73.81
360.256	93.81
360.483	76.81
360.709	73.81
360.936	96.81
361.163	75.81
361.39	79.81
361.616	80.81
361.843	88.81
362.07	76.81
362.296	81.81
362.523	95.81
362.749	90.81
362.976	70.81
363.203	93.81
363.429	74.81
363.656	74.81
363.882	75.81
364.109	87.81
364.335	87.81
364.562	99.81
364.788	92.81
365.015	82.81
365.241	81.81
365.468	84.81
365.694	77.81
365.92	90.81
366.147	78.81
366.373	78.81
366.599	94.81
366.826	83.81
367.052	86.81
367.278	82.81
367.505	90.81
367.731	92.81
367.957	87.81
368.184	88.81
368.41	82.81
368.636	87.81
368.862	95.81
369.089	79.81
369.315	92.81
369.541	78.81
369.767	76.81
369.993	93.81
370.219	76.81
370.445	79.81
370.672	73.81
370.898	78.81
371.124	69.81
371.35	78.81
371.576	76.81
371.802	86.81
372.028	63.81
372.254	86.81
372.48	85.81
372.706	81.81
372.932	85.81
373.158	76.81
373.384	94.81
373.61	86.81
373.835	85.81
374.061	71.81
374.287	80.81
374.513	82.81
374.739	94.81
374.965	80.81
375.191	81.81
375.416	88.81
375.642	87.81
375.868	87.81
376.094	80.81
376.319	81.81
376.545	93.81
376.771	76.81
376.997	90.81
377.222	84.81
377.448	88.81
377.674	84.81
377.899	88.81
378.125	67.81
378.35	68.81
378.576	63.81
378.802	78.81
379.027	84.81
379.253	85.81
379.478	88.81
379.704	86.81
379.929	71.81
380.155	79.81
380.38	78.81
380.606	72.81
380.831	86.81
381.057	91.81
381.282	71.81
381.507	88.81
381.733	98.81
381.958	80.81
382.184	90.81
382.409	83.81
382.634	92.81
382.86	77.81
383.085	79.81
383.31	83.81
383.535	98.81
383.761	86.81
383.986	94.81
384.211	87.81
384.436	88.81
384.662	93.81
384.887	86.81
385.112	78.81
385.337	68.81
385.562	88.81
385.787	90.81
386.013	88.81
386.238	79.81
386.463	86.81
386.688	97.81
386.913	76.81
387.138	88.81
387.363	78.81
387.588	79.81
387.813	76.81
388.038	69.81
388.263	85.81
388.488	68.81
388.713	90.81
388.938	98.81
389.163	92.81
389.387	73.81
389.612	92.81
389.837	82.81
390.062	82.81
390.287	78.81
390.512	91.81
390.736	76.81
390.961	71.81
391.186	84.81
391.411	80.81
391.636	78.81
391.86	81.81
392.085	87.81
392.31	65.81
392.534	66.81
392.759	85.81
392.984	101.81
393.208	122.81
393.433	147.81
393.658	122.81
393.882	78.81
394.107	88.81
394.331	75.81
394.556	86.81
394.78	87.81
395.005	78.81
395.229	88.81
395.454	84.81
395.678	93.81
395.903	77.81
396.127	87.81
396.352	91.81
396.576	95.81
396.801	109.81
397.025	108.81
397.249	104.81
397.474	78.81
397.698	73.81
397.922	81.81
398.147	87.81
398.371	94.81
398.595	78.81
398.82	59.81
399.044	78.81
399.268	94.81
399.492	81.81
399.717	85.81
399.941	93.81
400.165	88.81
400.389	80.81
400.613	71.81
400.837	80.81
401.062	82.81
401.286	72.81
401.51	76.81
401.734	82.81
401.958	91.81
402.182	81.81
402.406	80.81
402.63	84.81
402.854	67.81
403.078	80.81
403.302	92.81
403.526	86.81
403.75	73.81
403.974	82.81
404.198	73.81
404.422	87.81
404.645	78.81
404.869	88.81
405.093	73.81
405.317	76.81
405.541	82.81
405.765	78.81
405.988	78.81
406.212	82.81
406.436	68.81
406.66	86.81
406.883	75.81
407.107	85.81
407.331	73.81
407.555	90.81
407.778	77.81
408.002	79.81
408.226	73.81
408.449	84.81
408.673	80.81
408.896	72.81
409.12	65.81
409.344	66.81
409.567	76.81
409.791	84.81
410.014	92.81
410.238	80.81
410.461	82.81
410.685	85.81
410.908	83.81
411.132	65.81
411.355	80.81
411.578	85.81
411.802	68.81
412.025	67.81
412.249	95.81
412.472	79.81
412.695	75.81
412.919	61.81
413.142	80.81
413.365	98.81
413.589	74.81
413.812	78.81
414.035	68.81
414.258	82.81
414.482	81.81
414.705	82.81
414.928	72.81
415.151	73.81
415.374	69.81
415.597	57.81
415.821	90.81
416.044	76.81
416.267	95.81
416.49	90.81
416.713	82.81
416.936	84.81
417.159	84.81
417.382	84.81
417.605	66.81
417.828	76.81
418.051	60.81
418.274	85.81
418.497	88.81
418.72	82.81
418.943	71.81
419.166	79.81
419.389	81.81
419.611	84.81
419.834	78.81
420.057	78.81
420.28	83.81
420.503	66.81
420.726	67.81
420.948	74.81
421.171	78.81
421.394	73.81
421.617	69.81
421.839	79.81
422.062	66.81
422.285	92.81
422.507	110.81
422.73	114.81
422.953	115.81
423.175	73.81
423.398	87.81
423.621	89.81
423.843	102.81
424.066	75.81
424.288	78.81
424.511	86.81
424.733	83.81
424.956	84.81
425.178	79.81
425.401	76.81
425.623	78.81
425.846	65.81
426.068	87.81
426.291	80.81
426.513	72.81
426.735	87.81
426.958	94.81
427.18	71.81
427.402	79.81
427.625	83.81
427.847	76.81
428.069	71.81
428.292	85.81
428.514	76.81
428.736	71.81
428.958	87.81
429.181	90.81
429.403	86.81
429.625	91.81
429.847	75.81
430.069	87.81
430.292	96.81
430.514	91.81
430.736	89.81
430.958	87.81
431.18	69.81
431.402	73.81
431.624	80.81
431.846	74.81
432.068	90.81
432.29	88.81
432.512	78.81
432.734	92.81
432.956	81.81
433.178	87.81
433.4	71.81
433.622	86.81
433.844	68.81
434.066	83.81
434.287	68.81
434.509	85.81
434.731	84.81
434.953	64.81
435.175	75.81
435.397	74.81
435.618	76.81
435.84	77.81
436.062	83.81
436.284	71.81
436.505	68.81
436.727	86.81
436.949	74.81
437.17	92.81
437.392	73.81
437.614	81.81
437.835	64.81
438.057	69.81
438.278	70.81
438.5	86.81
438.721	72.81
438.943	82.81
439.165	67.81
439.386	67.81
439.608	73.81
439.829	75.81
440.05	81.81
440.272	68.81
440.493	83.81
440.715	71.81
440.936	78.81
441.158	89.81
441.379	75.81
441.6	78.81
441.822	80.81
442.043	72.81
442.264	75.81
442.486	96.81
442.707	77.81
442.928	67.81
443.149	78.81
443.371	75.81
443.592	94.81
443.813	102.81
444.034	82.81
444.255	78.81
444.476	72.81
444.698	93.81
444.919	86.81
445.14	161.81
445.361	129.81
445.582	114.81
445.803	95.81
446.024	77.81
446.245	76.81
446.466	78.81
446.687	75.81
446.908	77.81
447.129	84.81
447.35	78.81
447.571	79.81
447.792	68.81
448.013	78.81
448.234	83.81
448.455	64.81
448.675	71.81
448.896	71.81
449.117	69.81
449.338	67.81
449.559	77.81
449.779	75.81
450	77.81
450.221	83.81
450.442	76.81
450.662	81.81
450.883	79.81
451.104	86.81
451.324	72.81
451.545	63.81
451.766	73.81
451.986	66.81
452.207	69.81
452.428	76.81
452.648	90.81
452.869	82.81
453.089	72.81
453.31	76.81
453.53	81.81
453.751	72.81
453.971	79.81
454.192	74.81
454.412	71.81
454.633	73.81
454.853	69.81
455.073	62.81
455.294	64.81
455.514	81.81
455.734	74.81
455.955	78.81
456.175	82.81
456.395	87.81
456.616	78.81
456.836	88.81
457.056	81.81
457.276	70.81
457.497	72.81
457.717	80.81
457.937	78.81
458.157	72.81
458.377	78.81
458.598	83.81
458.818	80.81
459.038	79.81
459.258	76.81
459.478	82.81
459.698	83.81
459.918	81.81
460.138	92.81
460.358	66.81
460.578	70.81
460.798	62.81
461.018	92.81
461.238	79.81
461.458	83.81
461.678	79.81
461.898	80.81
462.118	82.81
462.338	78.81
462.558	73.81
462.777	78.81
462.997	90.81
463.217	75.81
463.437	85.81
463.657	79.81
463.876	71.81
464.096	89.81
464.316	87.81
464.536	73.81
464.755	80.81
464.975	78.81
465.195	75.81
465.414	73.81
465.634	79.81
465.854	77.81
466.073	75.81
466.293	86.81
466.512	80.81
466.732	85.81
466.951	63.81
467.171	70.81
467.391	77.81
467.61	87.81
467.829	66.81
468.049	79.81
468.268	86.81
468.488	65.81
468.707	71.81
468.927	70.81
469.146	91.81
469.365	65.81
469.585	82.81
469.804	68.81
470.023	82.81
470.243	80.81
470.462	75.81
470.681	65.81
470.901	90.81
471.12	73.81
471.339	81.81
471.558	75.81
471.777	76.81
471.997	72.81
472.216	73.81
472.435	83.81
472.654	81.81
472.873	87.81
473.092	79.81
473.311	76.81
473.53	80.81
473.749	75.81
473.968	78.81
474.187	84.81
474.406	83.81
474.625	65.81
474.844	73.81
475.063	84.81
475.282	83.81
475.501	78.81
475.72	77.81
475.939	74.81
476.158	68.81
476.377	93.81
476.596	64.81
476.814	81.81
477.033	83.81
477.252	84.81
477.471	79.81
477.69	77.81
477.908	86.81
478.127	78.81
478.346	86.81
478.564	85.81
478.783	82.81
479.002	76.81
479.22	74.81
479.439	76.81
479.658	86.81
479.876	75.81
480.095	78.81
480.313	91.81
480.532	82.81
480.751	82.81
480.969	92.81
481.188	71.81
481.406	63.81
481.624	89.81
481.843	76.81
482.061	84.81
482.28	90.81
482.498	83.81
482.717	90.81
482.935	91.81
483.153	70.81
483.372	79.81
483.59	70.81
483.808	74.81
484.027	86.81
484.245	78.81
484.463	76.81
484.681	73.81
484.9	74.81
485.118	72.81
485.336	76.81
485.554	75.81
485.772	73.81
485.99	72.81
486.209	76.81
486.427	84.81
486.645	77.81
486.863	76.81
487.081	84.81
487.299	71.81
487.517	84.81
487.735	71.81
487.953	74.81
488.171	90.81
488.389	92.81
488.607	87.81
488.825	84.81
489.043	77.81
489.261	92.81
489.479	78.81
489.696	78.81
489.914	84.81
490.132	78.81
490.35	71.81
490.568	75.81
490.786	74.81
491.003	75.81
491.221	78.81
491.439	91.81
491.657	96.81
491.874	84.81
492.092	90.81
492.31	78.81
492.527	70.81
492.745	74.81
492.963	80.81
493.18	74.81
493.398	68.81
493.615	79.81
493.833	69.81
494.05	77.81
494.268	69.81
494.485	82.81
494.703	84.81
494.92	77.81
495.138	91.81
495.355	97.81
495.573	70.81
495.79	66.81
496.008	85.81
496.225	86.81
496.442	78.81
496.66	82.81
496.877	85.81
497.094	89.81
497.312	84.81
497.529	74.81
497.746	84.81
497.963	81.81
498.181	81.81
498.398	72.81
498.615	86.81
498.832	82.81
499.049	71.81
499.267	88.81
499.484	64.81
499.701	73.81
499.918	86.81
500.135	80.81
500.352	91.81
500.569	63.81
500.786	75.81
501.003	86.81
501.22	90.81
501.437	76.81
501.654	84.81
501.871	81.81
502.088	77.81
502.305	80.81
502.522	76.81
502.739	88.81
502.956	70.81
503.172	85.81
503.389	72.81
503.606	90.81
503.823	77.81
504.04	78.81
504.256	94.81
504.473	92.81
504.69	91.81
504.907	92.81
505.123	76.81
505.34	82.81
505.557	83.81
505.773	94.81
505.99	86.81
506.207	78.81
506.423	83.81
506.64	78.81
506.856	86.81
507.073	72.81
507.289	81.81
507.506	80.81
507.722	82.81
507.939	88.81
508.155	82.81
508.372	84.81
508.588	79.81
508.805	77.81
509.021	81.81
509.238	79.81
509.454	66.81
509.67	80.81
509.887	67.81
510.103	70.81
510.319	81.81
510.536	91.81
510.752	73.81
510.968	67.81
511.184	84.81
511.401	84.81
511.617	92.81
511.833	89.81
512.049	95.81
512.265	89.81
512.481	78.81
512.698	94.81
512.914	91.81
513.13	80.81
513.346	82.81
513.562	84.81
513.778	80.81
513.994	90.81
514.21	82.81
514.426	86.81
514.642	71.81
514.858	74.81
515.074	85.81
515.29	63.81
515.506	94.81
515.721	80.81
515.937	73.81
516.153	82.81
516.369	90.81
516.585	67.81
516.801	79.81
517.016	82.81
517.232	68.81
517.448	77.81
517.664	102.81
517.879	79.81
518.095	88.81
518.311	79.81
518.527	78.81
518.742	91.81
518.958	74.81
519.173	85.81
519.389	79.81
519.605	80.81
519.82	78.81
520.036	90.81
