Data from 1600_4_HRD10591_00009.txt Node
Date: Mon Jan 19 13:56:15 EST 2026
User: Yrep
Spectrometer: HR+D1059
Trigger mode: 1
Integration Time (sec): 1.000000E-1
Scans to average: 1
Electric dark correction enabled: true
Nonlinearity correction enabled: false
Boxcar width: 0
XAxis mode: Wavelengths
Number of Pixels in Spectrum: 2048
>>>>>Begin Spectral Data<<<<<
223.165	-16.25
223.4	-16.25
223.635	-16.25
223.869	-23.25
224.104	-24.25
224.338	-16.25
224.573	-15.25
224.808	-10.25
225.042	-16.25
225.277	-5.25
225.511	-4.25
225.746	16.75
225.98	13.75
226.215	17.75
226.449	21.75
226.683	25.75
226.918	10.75
227.152	24.75
227.387	44.75
227.621	39.75
227.856	16.75
228.09	53.75
228.324	40.75
228.559	63.75
228.793	71.75
229.027	66.75
229.262	60.75
229.496	69.75
229.73	65.75
229.964	75.75
230.199	72.75
230.433	67.75
230.667	75.75
230.901	72.75
231.136	79.75
231.37	86.75
231.604	91.75
231.838	94.75
232.072	70.75
232.306	82.75
232.541	83.75
232.775	76.75
233.009	86.75
233.243	72.75
233.477	89.75
233.711	81.75
233.945	83.75
234.179	66.75
234.413	71.75
234.647	66.75
234.881	93.75
235.115	89.75
235.349	83.75
235.583	69.75
235.817	68.75
236.051	76.75
236.285	70.75
236.519	79.75
236.753	73.75
236.987	71.75
237.221	75.75
237.455	82.75
237.689	58.75
237.922	79.75
238.156	79.75
238.39	78.75
238.624	82.75
238.858	75.75
239.091	75.75
239.325	77.75
239.559	65.75
239.793	74.75
240.027	75.75
240.26	71.75
240.494	74.75
240.728	71.75
240.961	71.75
241.195	79.75
241.429	72.75
241.662	70.75
241.896	86.75
242.13	68.75
242.363	84.75
242.597	83.75
242.83	73.75
243.064	72.75
243.298	77.75
243.531	67.75
243.765	69.75
243.998	80.75
244.232	82.75
244.465	79.75
244.699	82.75
244.932	68.75
245.166	79.75
245.399	83.75
245.633	81.75
245.866	76.75
246.099	82.75
246.333	96.75
246.566	81.75
246.8	69.75
247.033	95.75
247.266	80.75
247.5	66.75
247.733	73.75
247.966	77.75
248.2	87.75
248.433	67.75
248.666	83.75
248.899	81.75
249.133	75.75
249.366	72.75
249.599	83.75
249.832	83.75
250.066	91.75
250.299	81.75
250.532	81.75
250.765	85.75
250.998	72.75
251.231	80.75
251.465	77.75
251.698	83.75
251.931	76.75
252.164	80.75
252.397	84.75
252.63	88.75
252.863	87.75
253.096	86.75
253.329	83.75
253.562	81.75
253.795	74.75
254.028	84.75
254.261	84.75
254.494	68.75
254.727	80.75
254.96	81.75
255.193	80.75
255.426	71.75
255.659	75.75
255.892	77.75
256.124	84.75
256.357	69.75
256.59	76.75
256.823	65.75
257.056	71.75
257.289	81.75
257.521	78.75
257.754	88.75
257.987	86.75
258.22	95.75
258.452	72.75
258.685	79.75
258.918	83.75
259.151	79.75
259.383	80.75
259.616	92.75
259.849	76.75
260.081	80.75
260.314	85.75
260.547	69.75
260.779	65.75
261.012	93.75
261.244	63.75
261.477	75.75
261.71	75.75
261.942	73.75
262.175	90.75
262.407	79.75
262.64	86.75
262.872	67.75
263.105	71.75
263.337	80.75
263.57	85.75
263.802	82.75
264.035	89.75
264.267	73.75
264.499	74.75
264.732	74.75
264.964	73.75
265.197	98.75
265.429	84.75
265.661	88.75
265.894	71.75
266.126	73.75
266.358	70.75
266.591	85.75
266.823	79.75
267.055	82.75
267.287	96.75
267.52	99.75
267.752	81.75
267.984	79.75
268.216	71.75
268.448	78.75
268.681	72.75
268.913	72.75
269.145	73.75
269.377	89.75
269.609	66.75
269.841	83.75
270.073	89.75
270.306	86.75
270.538	73.75
270.77	81.75
271.002	89.75
271.234	93.75
271.466	73.75
271.698	76.75
271.93	76.75
272.162	84.75
272.394	74.75
272.626	79.75
272.858	79.75
273.09	77.75
273.322	82.75
273.553	83.75
273.785	91.75
274.017	79.75
274.249	84.75
274.481	65.75
274.713	80.75
274.945	97.75
275.176	63.75
275.408	81.75
275.64	87.75
275.872	88.75
276.104	85.75
276.335	84.75
276.567	70.75
276.799	77.75
277.031	83.75
277.262	104.75
277.494	92.75
277.726	82.75
277.957	82.75
278.189	90.75
278.421	95.75
278.652	74.75
278.884	78.75
279.115	79.75
279.347	74.75
279.579	79.75
279.81	89.75
280.042	83.75
280.273	85.75
280.505	84.75
280.736	73.75
280.968	79.75
281.199	82.75
281.431	82.75
281.662	80.75
281.894	75.75
282.125	90.75
282.356	87.75
282.588	71.75
282.819	78.75
283.051	85.75
283.282	81.75
283.513	93.75
283.745	69.75
283.976	92.75
284.207	85.75
284.439	79.75
284.67	87.75
284.901	80.75
285.132	81.75
285.364	95.75
285.595	79.75
285.826	86.75
286.057	77.75
286.288	86.75
286.52	81.75
286.751	86.75
286.982	77.75
287.213	88.75
287.444	77.75
287.675	90.75
287.906	89.75
288.138	78.75
288.369	93.75
288.6	75.75
288.831	78.75
289.062	95.75
289.293	93.75
289.524	71.75
289.755	75.75
289.986	78.75
290.217	77.75
290.448	72.75
290.679	92.75
290.91	80.75
291.141	84.75
291.371	99.75
291.602	85.75
291.833	90.75
292.064	84.75
292.295	80.75
292.526	95.75
292.757	77.75
292.987	78.75
293.218	85.75
293.449	88.75
293.68	88.75
293.91	82.75
294.141	74.75
294.372	91.75
294.603	76.75
294.833	93.75
295.064	72.75
295.295	67.75
295.525	83.75
295.756	88.75
295.987	86.75
296.217	81.75
296.448	83.75
296.679	89.75
296.909	66.75
297.14	98.75
297.37	85.75
297.601	86.75
297.831	72.75
298.062	88.75
298.292	94.75
298.523	71.75
298.753	74.75
298.984	84.75
299.214	88.75
299.445	97.75
299.675	88.75
299.905	84.75
300.136	81.75
300.366	75.75
300.597	78.75
300.827	79.75
301.057	81.75
301.288	81.75
301.518	94.75
301.748	86.75
301.979	80.75
302.209	84.75
302.439	83.75
302.669	85.75
302.9	78.75
303.13	91.75
303.36	73.75
303.59	71.75
303.82	81.75
304.051	83.75
304.281	71.75
304.511	91.75
304.741	85.75
304.971	73.75
305.201	86.75
305.431	92.75
305.661	84.75
305.891	97.75
306.121	73.75
306.352	87.75
306.582	92.75
306.812	93.75
307.042	67.75
307.272	78.75
307.502	80.75
307.731	81.75
307.961	100.75
308.191	83.75
308.421	95.75
308.651	84.75
308.881	87.75
309.111	79.75
309.341	82.75
309.571	87.75
309.8	91.75
310.03	81.75
310.26	68.75
310.49	87.75
310.72	77.75
310.949	72.75
311.179	72.75
311.409	79.75
311.639	66.75
311.868	93.75
312.098	83.75
312.328	83.75
312.557	87.75
312.787	83.75
313.017	74.75
313.246	94.75
313.476	90.75
313.706	79.75
313.935	73.75
314.165	85.75
314.394	71.75
314.624	79.75
314.853	83.75
315.083	85.75
315.312	81.75
315.542	76.75
315.771	90.75
316.001	92.75
316.23	85.75
316.46	81.75
316.689	86.75
316.919	91.75
317.148	75.75
317.377	86.75
317.607	91.75
317.836	82.75
318.065	74.75
318.295	78.75
318.524	77.75
318.753	102.75
318.983	88.75
319.212	78.75
319.441	84.75
319.67	85.75
319.9	81.75
320.129	80.75
320.358	87.75
320.587	86.75
320.816	90.75
321.046	83.75
321.275	86.75
321.504	91.75
321.733	73.75
321.962	80.75
322.191	80.75
322.42	83.75
322.649	87.75
322.878	85.75
323.108	87.75
323.337	69.75
323.566	83.75
323.795	80.75
324.024	93.75
324.253	97.75
324.482	95.75
324.71	92.75
324.939	77.75
325.168	73.75
325.397	83.75
325.626	95.75
325.855	76.75
326.084	69.75
326.313	96.75
326.542	81.75
326.77	79.75
326.999	89.75
327.228	83.75
327.457	83.75
327.686	73.75
327.914	97.75
328.143	86.75
328.372	83.75
328.6	92.75
328.829	108.75
329.058	92.75
329.287	82.75
329.515	86.75
329.744	85.75
329.972	85.75
330.201	91.75
330.43	87.75
330.658	70.75
330.887	75.75
331.115	85.75
331.344	76.75
331.572	78.75
331.801	70.75
332.03	89.75
332.258	86.75
332.486	96.75
332.715	91.75
332.943	84.75
333.172	83.75
333.4	96.75
333.629	91.75
333.857	107.75
334.085	78.75
334.314	86.75
334.542	87.75
334.771	68.75
334.999	88.75
335.227	93.75
335.455	77.75
335.684	94.75
335.912	75.75
336.14	93.75
336.369	77.75
336.597	86.75
336.825	79.75
337.053	78.75
337.281	91.75
337.51	88.75
337.738	93.75
337.966	84.75
338.194	81.75
338.422	82.75
338.65	84.75
338.878	80.75
339.106	76.75
339.334	84.75
339.562	93.75
339.79	86.75
340.018	83.75
340.246	83.75
340.474	94.75
340.702	82.75
340.93	89.75
341.158	75.75
341.386	80.75
341.614	87.75
341.842	87.75
342.07	80.75
342.298	96.75
342.526	90.75
342.754	95.75
342.981	82.75
343.209	79.75
343.437	101.75
343.665	80.75
343.893	82.75
344.12	91.75
344.348	79.75
344.576	73.75
344.804	80.75
345.031	80.75
345.259	80.75
345.487	91.75
345.714	83.75
345.942	79.75
346.17	79.75
346.397	80.75
346.625	91.75
346.853	84.75
347.08	81.75
347.308	95.75
347.535	96.75
347.763	74.75
347.99	81.75
348.218	89.75
348.445	96.75
348.673	77.75
348.9	96.75
349.128	95.75
349.355	89.75
349.583	81.75
349.81	64.75
350.037	79.75
350.265	82.75
350.492	84.75
350.72	73.75
350.947	84.75
351.174	85.75
351.402	81.75
351.629	86.75
351.856	86.75
352.083	77.75
352.311	85.75
352.538	75.75
352.765	83.75
352.992	93.75
353.22	79.75
353.447	75.75
353.674	95.75
353.901	81.75
354.128	73.75
354.355	73.75
354.583	75.75
354.81	84.75
355.037	81.75
355.264	90.75
355.491	97.75
355.718	88.75
355.945	92.75
356.172	84.75
356.399	89.75
356.626	98.75
356.853	95.75
357.08	98.75
357.307	81.75
357.534	94.75
357.761	95.75
357.988	99.75
358.215	86.75
358.441	89.75
358.668	88.75
358.895	85.75
359.122	85.75
359.349	92.75
359.576	95.75
359.802	93.75
360.029	69.75
360.256	79.75
360.483	93.75
360.709	87.75
360.936	85.75
361.163	81.75
361.39	90.75
361.616	84.75
361.843	87.75
362.07	88.75
362.296	95.75
362.523	88.75
362.749	77.75
362.976	96.75
363.203	101.75
363.429	90.75
363.656	92.75
363.882	91.75
364.109	96.75
364.335	94.75
364.562	96.75
364.788	89.75
365.015	73.75
365.241	99.75
365.468	79.75
365.694	68.75
365.92	85.75
366.147	85.75
366.373	80.75
366.599	81.75
366.826	87.75
367.052	81.75
367.278	90.75
367.505	85.75
367.731	92.75
367.957	102.75
368.184	85.75
368.41	100.75
368.636	89.75
368.862	86.75
369.089	80.75
369.315	86.75
369.541	80.75
369.767	99.75
369.993	80.75
370.219	81.75
370.445	92.75
370.672	87.75
370.898	97.75
371.124	99.75
371.35	83.75
371.576	88.75
371.802	93.75
372.028	105.75
372.254	93.75
372.48	82.75
372.706	81.75
372.932	99.75
373.158	91.75
373.384	100.75
373.61	112.75
373.835	111.75
374.061	90.75
374.287	87.75
374.513	107.75
374.739	91.75
374.965	98.75
375.191	95.75
375.416	88.75
375.642	97.75
375.868	92.75
376.094	85.75
376.319	81.75
376.545	87.75
376.771	83.75
376.997	93.75
377.222	81.75
377.448	82.75
377.674	84.75
377.899	98.75
378.125	87.75
378.35	89.75
378.576	83.75
378.802	83.75
379.027	75.75
379.253	83.75
379.478	94.75
379.704	77.75
379.929	86.75
380.155	87.75
380.38	86.75
380.606	87.75
380.831	97.75
381.057	82.75
381.282	92.75
381.507	78.75
381.733	98.75
381.958	92.75
382.184	103.75
382.409	103.75
382.634	105.75
382.86	99.75
383.085	94.75
383.31	102.75
383.535	86.75
383.761	105.75
383.986	120.75
384.211	88.75
384.436	90.75
384.662	86.75
384.887	90.75
385.112	77.75
385.337	83.75
385.562	96.75
385.787	83.75
386.013	101.75
386.238	84.75
386.463	85.75
386.688	101.75
386.913	73.75
387.138	88.75
387.363	86.75
387.588	92.75
387.813	83.75
388.038	93.75
388.263	101.75
388.488	95.75
388.713	86.75
388.938	91.75
389.163	77.75
389.387	85.75
389.612	66.75
389.837	96.75
390.062	89.75
390.287	83.75
390.512	79.75
390.736	95.75
390.961	74.75
391.186	101.75
391.411	78.75
391.636	87.75
391.86	87.75
392.085	90.75
392.31	88.75
392.534	106.75
392.759	102.75
392.984	114.75
393.208	167.75
393.433	223.75
393.658	177.75
393.882	112.75
394.107	98.75
394.331	100.75
394.556	103.75
394.78	92.75
395.005	80.75
395.229	76.75
395.454	91.75
395.678	96.75
395.903	83.75
396.127	107.75
396.352	119.75
396.576	120.75
396.801	153.75
397.025	168.75
397.249	107.75
397.474	87.75
397.698	93.75
397.922	84.75
398.147	95.75
398.371	78.75
398.595	92.75
398.82	89.75
399.044	80.75
399.268	77.75
399.492	71.75
399.717	79.75
399.941	85.75
400.165	80.75
400.389	73.75
400.613	73.75
400.837	82.75
401.062	81.75
401.286	81.75
401.51	92.75
401.734	93.75
401.958	72.75
402.182	85.75
402.406	87.75
402.63	91.75
402.854	74.75
403.078	79.75
403.302	99.75
403.526	88.75
403.75	84.75
403.974	79.75
404.198	86.75
404.422	93.75
404.645	104.75
404.869	99.75
405.093	82.75
405.317	87.75
405.541	81.75
405.765	92.75
405.988	79.75
406.212	88.75
406.436	84.75
406.66	90.75
406.883	85.75
407.107	69.75
407.331	87.75
407.555	79.75
407.778	83.75
408.002	87.75
408.226	83.75
408.449	83.75
408.673	82.75
408.896	87.75
409.12	79.75
409.344	87.75
409.567	85.75
409.791	90.75
410.014	88.75
410.238	86.75
410.461	78.75
410.685	88.75
410.908	74.75
411.132	90.75
411.355	88.75
411.578	95.75
411.802	84.75
412.025	102.75
412.249	81.75
412.472	76.75
412.695	79.75
412.919	83.75
413.142	89.75
413.365	80.75
413.589	92.75
413.812	84.75
414.035	91.75
414.258	85.75
414.482	79.75
414.705	79.75
414.928	76.75
415.151	85.75
415.374	80.75
415.597	83.75
415.821	88.75
416.044	76.75
416.267	89.75
416.49	79.75
416.713	93.75
416.936	87.75
417.159	83.75
417.382	86.75
417.605	81.75
417.828	81.75
418.051	88.75
418.274	81.75
418.497	91.75
418.72	83.75
418.943	84.75
419.166	79.75
419.389	71.75
419.611	77.75
419.834	74.75
420.057	72.75
420.28	93.75
420.503	86.75
420.726	84.75
420.948	87.75
421.171	86.75
421.394	87.75
421.617	78.75
421.839	101.75
422.062	85.75
422.285	107.75
422.507	164.75
422.73	239.75
422.953	227.75
423.175	113.75
423.398	99.75
423.621	82.75
423.843	86.75
424.066	78.75
424.288	76.75
424.511	70.75
424.733	79.75
424.956	92.75
425.178	80.75
425.401	74.75
425.623	79.75
425.846	79.75
426.068	98.75
426.291	79.75
426.513	91.75
426.735	83.75
426.958	74.75
427.18	100.75
427.402	91.75
427.625	92.75
427.847	73.75
428.069	87.75
428.292	111.75
428.514	110.75
428.736	75.75
428.958	97.75
429.181	104.75
429.403	90.75
429.625	87.75
429.847	113.75
430.069	132.75
430.292	122.75
430.514	119.75
430.736	93.75
430.958	94.75
431.18	105.75
431.402	77.75
431.624	87.75
431.846	97.75
432.068	101.75
432.29	92.75
432.512	86.75
432.734	86.75
432.956	79.75
433.178	79.75
433.4	75.75
433.622	73.75
433.844	72.75
434.066	85.75
434.287	93.75
434.509	72.75
434.731	98.75
434.953	85.75
435.175	93.75
435.397	89.75
435.618	93.75
435.84	85.75
436.062	96.75
436.284	87.75
436.505	87.75
436.727	72.75
436.949	73.75
437.17	95.75
437.392	75.75
437.614	93.75
437.835	89.75
438.057	75.75
438.278	94.75
438.5	97.75
438.721	92.75
438.943	86.75
439.165	76.75
439.386	89.75
439.608	79.75
439.829	88.75
440.05	89.75
440.272	87.75
440.493	86.75
440.715	103.75
440.936	92.75
441.158	100.75
441.379	80.75
441.6	77.75
441.822	84.75
442.043	65.75
442.264	80.75
442.486	102.75
442.707	118.75
442.928	89.75
443.149	87.75
443.371	105.75
443.592	118.75
443.813	138.75
444.034	105.75
444.255	84.75
444.476	96.75
444.698	81.75
444.919	82.75
445.14	149.75
445.361	129.75
445.582	158.75
445.803	135.75
446.024	77.75
446.245	88.75
446.466	87.75
446.687	82.75
446.908	83.75
447.129	95.75
447.35	80.75
447.571	81.75
447.792	83.75
448.013	75.75
448.234	76.75
448.455	91.75
448.675	86.75
448.896	79.75
449.117	96.75
449.338	91.75
449.559	78.75
449.779	94.75
450	94.75
450.221	83.75
450.442	94.75
450.662	90.75
450.883	95.75
451.104	80.75
451.324	87.75
451.545	87.75
451.766	77.75
451.986	78.75
452.207	76.75
452.428	88.75
452.648	79.75
452.869	92.75
453.089	79.75
453.31	78.75
453.53	90.75
453.751	71.75
453.971	94.75
454.192	68.75
454.412	83.75
454.633	91.75
454.853	85.75
455.073	81.75
455.294	81.75
455.514	82.75
455.734	74.75
455.955	83.75
456.175	81.75
456.395	86.75
456.616	90.75
456.836	77.75
457.056	80.75
457.276	80.75
457.497	77.75
457.717	82.75
457.937	92.75
458.157	92.75
458.377	99.75
458.598	107.75
458.818	81.75
459.038	88.75
459.258	88.75
459.478	81.75
459.698	75.75
459.918	78.75
460.138	85.75
460.358	68.75
460.578	113.75
460.798	101.75
461.018	95.75
461.238	81.75
461.458	71.75
461.678	71.75
461.898	85.75
462.118	83.75
462.338	84.75
462.558	83.75
462.777	85.75
462.997	79.75
463.217	77.75
463.437	87.75
463.657	72.75
463.876	73.75
464.096	94.75
464.316	80.75
464.536	86.75
464.755	103.75
464.975	90.75
465.195	91.75
465.414	88.75
465.634	87.75
465.854	91.75
466.073	91.75
466.293	90.75
466.512	70.75
466.732	73.75
466.951	79.75
467.171	83.75
467.391	82.75
467.61	92.75
467.829	77.75
468.049	82.75
468.268	80.75
468.488	87.75
468.707	91.75
468.927	79.75
469.146	93.75
469.365	82.75
469.585	93.75
469.804	78.75
470.023	76.75
470.243	87.75
470.462	85.75
470.681	95.75
470.901	88.75
471.12	80.75
471.339	81.75
471.558	86.75
471.777	73.75
471.997	86.75
472.216	72.75
472.435	95.75
472.654	89.75
472.873	86.75
473.092	79.75
473.311	95.75
473.53	77.75
473.749	79.75
473.968	99.75
474.187	74.75
474.406	88.75
474.625	81.75
474.844	77.75
475.063	80.75
475.282	76.75
475.501	96.75
475.72	80.75
475.939	81.75
476.158	84.75
476.377	83.75
476.596	88.75
476.814	80.75
477.033	93.75
477.252	95.75
477.471	72.75
477.69	95.75
477.908	87.75
478.127	85.75
478.346	81.75
478.564	95.75
478.783	72.75
479.002	85.75
479.22	90.75
479.439	93.75
479.658	92.75
479.876	91.75
480.095	99.75
480.313	86.75
480.532	82.75
480.751	80.75
480.969	94.75
481.188	86.75
481.406	92.75
481.624	79.75
481.843	87.75
482.061	81.75
482.28	88.75
482.498	80.75
482.717	86.75
482.935	87.75
483.153	91.75
483.372	92.75
483.59	87.75
483.808	89.75
484.027	86.75
484.245	103.75
484.463	86.75
484.681	87.75
484.9	82.75
485.118	79.75
485.336	97.75
485.554	82.75
485.772	100.75
485.99	85.75
486.209	80.75
486.427	88.75
486.645	93.75
486.863	85.75
487.081	80.75
487.299	96.75
487.517	87.75
487.735	91.75
487.953	91.75
488.171	92.75
488.389	89.75
488.607	93.75
488.825	76.75
489.043	92.75
489.261	89.75
489.479	86.75
489.696	96.75
489.914	92.75
490.132	86.75
490.35	76.75
490.568	87.75
490.786	88.75
491.003	88.75
491.221	85.75
491.439	84.75
491.657	87.75
491.874	82.75
492.092	74.75
492.31	78.75
492.527	84.75
492.745	80.75
492.963	82.75
493.18	96.75
493.398	93.75
493.615	80.75
493.833	87.75
494.05	81.75
494.268	84.75
494.485	92.75
494.703	94.75
494.92	96.75
495.138	83.75
495.355	83.75
495.573	96.75
495.79	91.75
496.008	80.75
496.225	75.75
496.442	84.75
496.66	77.75
496.877	85.75
497.094	86.75
497.312	77.75
497.529	85.75
497.746	80.75
497.963	87.75
498.181	87.75
498.398	96.75
498.615	92.75
498.832	101.75
499.049	89.75
499.267	81.75
499.484	97.75
499.701	86.75
499.918	92.75
500.135	91.75
500.352	88.75
500.569	95.75
500.786	86.75
501.003	89.75
501.22	88.75
501.437	101.75
501.654	79.75
501.871	77.75
502.088	68.75
502.305	98.75
502.522	98.75
502.739	74.75
502.956	88.75
503.172	82.75
503.389	82.75
503.606	94.75
503.823	99.75
504.04	91.75
504.256	97.75
504.473	97.75
504.69	90.75
504.907	96.75
505.123	93.75
505.34	77.75
505.557	83.75
505.773	81.75
505.99	88.75
506.207	86.75
506.423	74.75
506.64	92.75
506.856	94.75
507.073	83.75
507.289	87.75
507.506	79.75
507.722	76.75
507.939	86.75
508.155	92.75
508.372	89.75
508.588	92.75
508.805	81.75
509.021	80.75
509.238	88.75
509.454	85.75
509.67	89.75
509.887	89.75
510.103	87.75
510.319	80.75
510.536	93.75
510.752	103.75
510.968	91.75
511.184	89.75
511.401	87.75
511.617	94.75
511.833	81.75
512.049	85.75
512.265	97.75
512.481	78.75
512.698	89.75
512.914	92.75
513.13	91.75
513.346	81.75
513.562	92.75
513.778	94.75
513.994	92.75
514.21	102.75
514.426	101.75
514.642	89.75
514.858	91.75
515.074	96.75
515.29	88.75
515.506	88.75
515.721	80.75
515.937	91.75
516.153	79.75
516.369	77.75
516.585	93.75
516.801	95.75
517.016	87.75
517.232	83.75
517.448	118.75
517.664	93.75
517.879	93.75
518.095	81.75
518.311	103.75
518.527	116.75
518.742	99.75
518.958	102.75
