Data from 1600_4_HRD10591_00015.txt Node
Date: Mon Jan 19 13:56:18 EST 2026
User: Yrep
Spectrometer: HR+D1059
Trigger mode: 1
Integration Time (sec): 1.000000E-1
Scans to average: 1
Electric dark correction enabled: true
Nonlinearity correction enabled: false
Boxcar width: 0
XAxis mode: Wavelengths
Number of Pixels in Spectrum: 2048
>>>>>Begin Spectral Data<<<<<
223.165	-8.12
223.4	-8.12
223.635	-8.12
223.869	-11.12
224.104	-31.12
224.338	-9.12
224.573	-3.12
224.808	-16.12
225.042	-9.12
225.277	-2.12
225.511	-5.12
225.746	-1.12
225.98	7.88
226.215	5.88
226.449	5.88
226.683	11.88
226.918	27.88
227.152	36.88
227.387	47.88
227.621	27.88
227.856	47.88
228.09	32.88
228.324	59.88
228.559	47.88
228.793	62.88
229.027	63.88
229.262	59.88
229.496	78.88
229.73	64.88
229.964	68.88
230.199	65.88
230.433	77.88
230.667	81.88
230.901	69.88
231.136	64.88
231.37	84.88
231.604	69.88
231.838	78.88
232.072	76.88
232.306	85.88
232.541	90.88
232.775	79.88
233.009	84.88
233.243	87.88
233.477	69.88
233.711	79.88
233.945	91.88
234.179	82.88
234.413	72.88
234.647	87.88
234.881	81.88
235.115	71.88
235.349	71.88
235.583	75.88
235.817	72.88
236.051	83.88
236.285	80.88
236.519	77.88
236.753	79.88
236.987	68.88
237.221	66.88
237.455	71.88
237.689	70.88
237.922	75.88
238.156	74.88
238.39	78.88
238.624	63.88
238.858	70.88
239.091	78.88
239.325	73.88
239.559	77.88
239.793	76.88
240.027	82.88
240.26	77.88
240.494	82.88
240.728	76.88
240.961	80.88
241.195	86.88
241.429	81.88
241.662	64.88
241.896	78.88
242.13	72.88
242.363	87.88
242.597	84.88
242.83	76.88
243.064	69.88
243.298	65.88
243.531	63.88
243.765	57.88
243.998	77.88
244.232	74.88
244.465	72.88
244.699	81.88
244.932	72.88
245.166	73.88
245.399	65.88
245.633	82.88
245.866	75.88
246.099	88.88
246.333	82.88
246.566	80.88
246.8	66.88
247.033	82.88
247.266	62.88
247.5	64.88
247.733	78.88
247.966	68.88
248.2	78.88
248.433	65.88
248.666	88.88
248.899	67.88
249.133	83.88
249.366	88.88
249.599	72.88
249.832	86.88
250.066	82.88
250.299	76.88
250.532	74.88
250.765	64.88
250.998	62.88
251.231	87.88
251.465	73.88
251.698	67.88
251.931	82.88
252.164	70.88
252.397	85.88
252.63	92.88
252.863	80.88
253.096	84.88
253.329	80.88
253.562	88.88
253.795	79.88
254.028	72.88
254.261	75.88
254.494	78.88
254.727	88.88
254.96	75.88
255.193	86.88
255.426	81.88
255.659	74.88
255.892	73.88
256.124	72.88
256.357	76.88
256.59	79.88
256.823	73.88
257.056	78.88
257.289	88.88
257.521	85.88
257.754	86.88
257.987	84.88
258.22	86.88
258.452	78.88
258.685	79.88
258.918	67.88
259.151	84.88
259.383	91.88
259.616	77.88
259.849	76.88
260.081	67.88
260.314	81.88
260.547	77.88
260.779	84.88
261.012	72.88
261.244	62.88
261.477	87.88
261.71	65.88
261.942	92.88
262.175	65.88
262.407	72.88
262.64	78.88
262.872	71.88
263.105	78.88
263.337	92.88
263.57	83.88
263.802	73.88
264.035	82.88
264.267	84.88
264.499	76.88
264.732	78.88
264.964	83.88
265.197	71.88
265.429	76.88
265.661	82.88
265.894	81.88
266.126	81.88
266.358	82.88
266.591	84.88
266.823	84.88
267.055	91.88
267.287	73.88
267.52	88.88
267.752	76.88
267.984	86.88
268.216	84.88
268.448	87.88
268.681	82.88
268.913	77.88
269.145	94.88
269.377	82.88
269.609	70.88
269.841	84.88
270.073	88.88
270.306	76.88
270.538	99.88
270.77	82.88
271.002	88.88
271.234	72.88
271.466	88.88
271.698	82.88
271.93	67.88
272.162	85.88
272.394	89.88
272.626	84.88
272.858	71.88
273.09	76.88
273.322	77.88
273.553	80.88
273.785	98.88
274.017	80.88
274.249	86.88
274.481	88.88
274.713	95.88
274.945	71.88
275.176	67.88
275.408	90.88
275.64	84.88
275.872	69.88
276.104	94.88
276.335	74.88
276.567	69.88
276.799	81.88
277.031	90.88
277.262	85.88
277.494	74.88
277.726	73.88
277.957	70.88
278.189	86.88
278.421	82.88
278.652	76.88
278.884	75.88
279.115	90.88
279.347	86.88
279.579	78.88
279.81	76.88
280.042	102.88
280.273	87.88
280.505	94.88
280.736	81.88
280.968	81.88
281.199	73.88
281.431	84.88
281.662	79.88
281.894	84.88
282.125	81.88
282.356	73.88
282.588	87.88
282.819	82.88
283.051	80.88
283.282	74.88
283.513	71.88
283.745	67.88
283.976	75.88
284.207	78.88
284.439	90.88
284.67	80.88
284.901	83.88
285.132	87.88
285.364	77.88
285.595	82.88
285.826	94.88
286.057	88.88
286.288	86.88
286.52	78.88
286.751	79.88
286.982	93.88
287.213	79.88
287.444	82.88
287.675	80.88
287.906	76.88
288.138	90.88
288.369	95.88
288.6	102.88
288.831	72.88
289.062	83.88
289.293	78.88
289.524	74.88
289.755	78.88
289.986	80.88
290.217	76.88
290.448	66.88
290.679	80.88
290.91	86.88
291.141	84.88
291.371	84.88
291.602	59.88
291.833	79.88
292.064	68.88
292.295	78.88
292.526	87.88
292.757	62.88
292.987	82.88
293.218	70.88
293.449	89.88
293.68	88.88
293.91	85.88
294.141	97.88
294.372	74.88
294.603	90.88
294.833	79.88
295.064	78.88
295.295	87.88
295.525	78.88
295.756	85.88
295.987	83.88
296.217	87.88
296.448	76.88
296.679	80.88
296.909	93.88
297.14	86.88
297.37	78.88
297.601	100.88
297.831	71.88
298.062	83.88
298.292	83.88
298.523	80.88
298.753	98.88
298.984	93.88
299.214	71.88
299.445	86.88
299.675	85.88
299.905	93.88
300.136	98.88
300.366	82.88
300.597	71.88
300.827	95.88
301.057	90.88
301.288	84.88
301.518	76.88
301.748	91.88
301.979	96.88
302.209	95.88
302.439	79.88
302.669	72.88
302.9	79.88
303.13	84.88
303.36	82.88
303.59	76.88
303.82	85.88
304.051	80.88
304.281	82.88
304.511	84.88
304.741	79.88
304.971	74.88
305.201	77.88
305.431	78.88
305.661	86.88
305.891	79.88
306.121	78.88
306.352	73.88
306.582	89.88
306.812	81.88
307.042	88.88
307.272	93.88
307.502	88.88
307.731	102.88
307.961	76.88
308.191	82.88
308.421	93.88
308.651	80.88
308.881	74.88
309.111	86.88
309.341	91.88
309.571	95.88
309.8	84.88
310.03	94.88
310.26	88.88
310.49	77.88
310.72	77.88
310.949	73.88
311.179	92.88
311.409	98.88
311.639	91.88
311.868	69.88
312.098	90.88
312.328	72.88
312.557	98.88
312.787	87.88
313.017	90.88
313.246	91.88
313.476	79.88
313.706	90.88
313.935	80.88
314.165	78.88
314.394	74.88
314.624	78.88
314.853	84.88
315.083	81.88
315.312	92.88
315.542	79.88
315.771	91.88
316.001	97.88
316.23	87.88
316.46	81.88
316.689	80.88
316.919	73.88
317.148	84.88
317.377	88.88
317.607	86.88
317.836	80.88
318.065	99.88
318.295	98.88
318.524	80.88
318.753	83.88
318.983	71.88
319.212	83.88
319.441	81.88
319.67	95.88
319.9	77.88
320.129	97.88
320.358	68.88
320.587	86.88
320.816	83.88
321.046	79.88
321.275	97.88
321.504	78.88
321.733	86.88
321.962	82.88
322.191	97.88
322.42	98.88
322.649	85.88
322.878	78.88
323.108	82.88
323.337	83.88
323.566	85.88
323.795	79.88
324.024	86.88
324.253	76.88
324.482	89.88
324.71	79.88
324.939	90.88
325.168	84.88
325.397	86.88
325.626	72.88
325.855	73.88
326.084	76.88
326.313	94.88
326.542	82.88
326.77	81.88
326.999	84.88
327.228	87.88
327.457	91.88
327.686	80.88
327.914	90.88
328.143	75.88
328.372	78.88
328.6	86.88
328.829	83.88
329.058	100.88
329.287	81.88
329.515	86.88
329.744	98.88
329.972	95.88
330.201	90.88
330.43	90.88
330.658	87.88
330.887	76.88
331.115	84.88
331.344	81.88
331.572	73.88
331.801	80.88
332.03	76.88
332.258	78.88
332.486	91.88
332.715	70.88
332.943	84.88
333.172	92.88
333.4	90.88
333.629	87.88
333.857	72.88
334.085	86.88
334.314	80.88
334.542	95.88
334.771	80.88
334.999	82.88
335.227	75.88
335.455	84.88
335.684	86.88
335.912	79.88
336.14	85.88
336.369	79.88
336.597	89.88
336.825	73.88
337.053	66.88
337.281	75.88
337.51	83.88
337.738	94.88
337.966	84.88
338.194	82.88
338.422	95.88
338.65	90.88
338.878	88.88
339.106	87.88
339.334	71.88
339.562	72.88
339.79	79.88
340.018	72.88
340.246	79.88
340.474	87.88
340.702	87.88
340.93	85.88
341.158	78.88
341.386	74.88
341.614	83.88
341.842	76.88
342.07	85.88
342.298	77.88
342.526	83.88
342.754	92.88
342.981	82.88
343.209	81.88
343.437	91.88
343.665	98.88
343.893	79.88
344.12	94.88
344.348	85.88
344.576	74.88
344.804	66.88
345.031	69.88
345.259	85.88
345.487	82.88
345.714	91.88
345.942	90.88
346.17	95.88
346.397	84.88
346.625	74.88
346.853	82.88
347.08	77.88
347.308	83.88
347.535	93.88
347.763	92.88
347.99	79.88
348.218	96.88
348.445	86.88
348.673	86.88
348.9	79.88
349.128	91.88
349.355	76.88
349.583	88.88
349.81	88.88
350.037	92.88
350.265	75.88
350.492	94.88
350.72	84.88
350.947	79.88
351.174	92.88
351.402	85.88
351.629	90.88
351.856	80.88
352.083	86.88
352.311	82.88
352.538	77.88
352.765	78.88
352.992	78.88
353.22	94.88
353.447	86.88
353.674	88.88
353.901	93.88
354.128	79.88
354.355	72.88
354.583	79.88
354.81	88.88
355.037	91.88
355.264	91.88
355.491	90.88
355.718	79.88
355.945	82.88
356.172	102.88
356.399	94.88
356.626	96.88
356.853	92.88
357.08	98.88
357.307	90.88
357.534	86.88
357.761	78.88
357.988	90.88
358.215	89.88
358.441	81.88
358.668	85.88
358.895	76.88
359.122	96.88
359.349	90.88
359.576	93.88
359.802	84.88
360.029	82.88
360.256	94.88
360.483	81.88
360.709	83.88
360.936	92.88
361.163	97.88
361.39	87.88
361.616	76.88
361.843	80.88
362.07	82.88
362.296	82.88
362.523	76.88
362.749	84.88
362.976	87.88
363.203	113.88
363.429	89.88
363.656	86.88
363.882	84.88
364.109	88.88
364.335	83.88
364.562	91.88
364.788	97.88
365.015	83.88
365.241	78.88
365.468	87.88
365.694	85.88
365.92	65.88
366.147	85.88
366.373	79.88
366.599	75.88
366.826	85.88
367.052	92.88
367.278	86.88
367.505	85.88
367.731	78.88
367.957	80.88
368.184	79.88
368.41	67.88
368.636	90.88
368.862	89.88
369.089	83.88
369.315	95.88
369.541	87.88
369.767	81.88
369.993	78.88
370.219	82.88
370.445	91.88
370.672	86.88
370.898	92.88
371.124	87.88
371.35	92.88
371.576	94.88
371.802	87.88
372.028	94.88
372.254	102.88
372.48	90.88
372.706	85.88
372.932	77.88
373.158	99.88
373.384	90.88
373.61	114.88
373.835	100.88
374.061	95.88
374.287	88.88
374.513	90.88
374.739	96.88
374.965	99.88
375.191	87.88
375.416	86.88
375.642	85.88
375.868	95.88
376.094	82.88
376.319	71.88
376.545	84.88
376.771	87.88
376.997	86.88
377.222	84.88
377.448	81.88
377.674	81.88
377.899	75.88
378.125	79.88
378.35	85.88
378.576	77.88
378.802	85.88
379.027	82.88
379.253	86.88
379.478	84.88
379.704	71.88
379.929	85.88
380.155	85.88
380.38	92.88
380.606	87.88
380.831	86.88
381.057	82.88
381.282	74.88
381.507	71.88
381.733	93.88
381.958	92.88
382.184	103.88
382.409	96.88
382.634	103.88
382.86	107.88
383.085	90.88
383.31	104.88
383.535	101.88
383.761	104.88
383.986	125.88
384.211	95.88
384.436	79.88
384.662	74.88
384.887	89.88
385.112	88.88
385.337	78.88
385.562	79.88
385.787	91.88
386.013	100.88
386.238	87.88
386.463	99.88
386.688	88.88
386.913	94.88
387.138	82.88
387.363	77.88
387.588	110.88
387.813	90.88
388.038	90.88
388.263	90.88
388.488	86.88
388.713	90.88
388.938	93.88
389.163	88.88
389.387	82.88
389.612	98.88
389.837	70.88
390.062	92.88
390.287	80.88
390.512	86.88
390.736	91.88
390.961	90.88
391.186	77.88
391.411	75.88
391.636	68.88
391.86	82.88
392.085	91.88
392.31	99.88
392.534	91.88
392.759	101.88
392.984	141.88
393.208	193.88
393.433	274.88
393.658	222.88
393.882	112.88
394.107	96.88
394.331	122.88
394.556	133.88
394.78	99.88
395.005	101.88
395.229	87.88
395.454	87.88
395.678	85.88
395.903	114.88
396.127	123.88
396.352	143.88
396.576	134.88
396.801	202.88
397.025	231.88
397.249	129.88
397.474	87.88
397.698	84.88
397.922	92.88
398.147	89.88
398.371	69.88
398.595	79.88
398.82	90.88
399.044	79.88
399.268	79.88
399.492	86.88
399.717	74.88
399.941	84.88
400.165	88.88
400.389	89.88
400.613	81.88
400.837	83.88
401.062	82.88
401.286	90.88
401.51	63.88
401.734	80.88
401.958	78.88
402.182	83.88
402.406	73.88
402.63	77.88
402.854	83.88
403.078	72.88
403.302	90.88
403.526	71.88
403.75	80.88
403.974	83.88
404.198	86.88
404.422	98.88
404.645	103.88
404.869	79.88
405.093	80.88
405.317	76.88
405.541	83.88
405.765	70.88
405.988	74.88
406.212	77.88
406.436	82.88
406.66	91.88
406.883	61.88
407.107	101.88
407.331	94.88
407.555	76.88
407.778	90.88
408.002	90.88
408.226	83.88
408.449	92.88
408.673	78.88
408.896	84.88
409.12	91.88
409.344	88.88
409.567	80.88
409.791	98.88
410.014	76.88
410.238	88.88
410.461	80.88
410.685	80.88
410.908	68.88
411.132	82.88
411.355	82.88
411.578	81.88
411.802	75.88
412.025	83.88
412.249	84.88
412.472	95.88
412.695	86.88
412.919	78.88
413.142	82.88
413.365	93.88
413.589	74.88
413.812	74.88
414.035	83.88
414.258	72.88
414.482	91.88
414.705	80.88
414.928	87.88
415.151	85.88
415.374	82.88
415.597	76.88
415.821	73.88
416.044	77.88
416.267	82.88
416.49	90.88
416.713	64.88
416.936	78.88
417.159	101.88
417.382	78.88
417.605	69.88
417.828	81.88
418.051	80.88
418.274	69.88
418.497	78.88
418.72	86.88
418.943	82.88
419.166	80.88
419.389	74.88
419.611	79.88
419.834	73.88
420.057	80.88
420.28	67.88
420.503	94.88
420.726	86.88
420.948	84.88
421.171	84.88
421.394	81.88
421.617	99.88
421.839	90.88
422.062	84.88
422.285	113.88
422.507	167.88
422.73	276.88
422.953	256.88
423.175	128.88
423.398	89.88
423.621	70.88
423.843	80.88
424.066	80.88
424.288	70.88
424.511	98.88
424.733	80.88
424.956	90.88
425.178	92.88
425.401	85.88
425.623	82.88
425.846	91.88
426.068	90.88
426.291	90.88
426.513	88.88
426.735	99.88
426.958	87.88
427.18	101.88
427.402	90.88
427.625	91.88
427.847	99.88
428.069	96.88
428.292	101.88
428.514	116.88
428.736	86.88
428.958	118.88
429.181	98.88
429.403	72.88
429.625	92.88
429.847	98.88
430.069	109.88
430.292	142.88
430.514	113.88
430.736	108.88
430.958	118.88
431.18	80.88
431.402	72.88
431.624	90.88
431.846	106.88
432.068	103.88
432.29	80.88
432.512	92.88
432.734	95.88
432.956	82.88
433.178	87.88
433.4	63.88
433.622	79.88
433.844	78.88
434.066	71.88
434.287	82.88
434.509	78.88
434.731	86.88
434.953	80.88
435.175	92.88
435.397	84.88
435.618	63.88
435.84	82.88
436.062	80.88
436.284	79.88
436.505	75.88
436.727	83.88
436.949	76.88
437.17	79.88
437.392	83.88
437.614	100.88
437.835	80.88
438.057	79.88
438.278	92.88
438.5	99.88
438.721	89.88
438.943	84.88
439.165	85.88
439.386	80.88
439.608	99.88
439.829	76.88
440.05	83.88
440.272	91.88
440.493	90.88
440.715	84.88
440.936	92.88
441.158	65.88
441.379	78.88
441.6	82.88
441.822	76.88
442.043	75.88
442.264	85.88
442.486	95.88
442.707	118.88
442.928	87.88
443.149	82.88
443.371	121.88
443.592	156.88
443.813	129.88
444.034	84.88
444.255	96.88
444.476	83.88
444.698	80.88
444.919	86.88
445.14	127.88
445.361	150.88
445.582	174.88
445.803	172.88
446.024	99.88
446.245	84.88
446.466	75.88
446.687	78.88
446.908	82.88
447.129	72.88
447.35	80.88
447.571	89.88
447.792	82.88
448.013	61.88
448.234	90.88
448.455	84.88
448.675	82.88
448.896	80.88
449.117	78.88
449.338	78.88
449.559	80.88
449.779	80.88
450	88.88
450.221	67.88
450.442	71.88
450.662	81.88
450.883	87.88
451.104	70.88
451.324	84.88
451.545	82.88
451.766	80.88
451.986	75.88
452.207	77.88
452.428	70.88
452.648	92.88
452.869	84.88
453.089	85.88
453.31	83.88
453.53	81.88
453.751	86.88
453.971	85.88
454.192	82.88
454.412	93.88
454.633	94.88
454.853	75.88
455.073	93.88
455.294	97.88
455.514	88.88
455.734	78.88
455.955	79.88
456.175	70.88
456.395	74.88
456.616	91.88
456.836	86.88
457.056	88.88
457.276	78.88
457.497	78.88
457.717	94.88
457.937	88.88
458.157	79.88
458.377	91.88
458.598	93.88
458.818	101.88
459.038	85.88
459.258	99.88
459.478	70.88
459.698	82.88
459.918	66.88
460.138	78.88
460.358	83.88
460.578	92.88
460.798	84.88
461.018	88.88
461.238	91.88
461.458	76.88
461.678	78.88
461.898	87.88
462.118	68.88
462.338	66.88
462.558	78.88
462.777	96.88
462.997	79.88
463.217	81.88
463.437	72.88
463.657	88.88
463.876	75.88
464.096	86.88
464.316	72.88
464.536	78.88
464.755	83.88
464.975	90.88
465.195	92.88
465.414	86.88
465.634	80.88
465.854	88.88
466.073	97.88
466.293	78.88
466.512	72.88
466.732	87.88
466.951	79.88
467.171	77.88
467.391	92.88
467.61	66.88
467.829	74.88
468.049	62.88
468.268	80.88
468.488	95.88
468.707	77.88
468.927	77.88
469.146	73.88
469.365	84.88
469.585	87.88
469.804	83.88
470.023	85.88
470.243	86.88
470.462	78.88
470.681	81.88
470.901	81.88
471.12	82.88
471.339	68.88
471.558	72.88
471.777	83.88
471.997	84.88
472.216	86.88
472.435	75.88
472.654	81.88
472.873	86.88
473.092	69.88
473.311	85.88
473.53	79.88
473.749	71.88
473.968	96.88
474.187	80.88
474.406	88.88
474.625	82.88
474.844	86.88
475.063	73.88
475.282	76.88
475.501	87.88
475.72	92.88
475.939	87.88
476.158	79.88
476.377	84.88
476.596	74.88
476.814	90.88
477.033	95.88
477.252	82.88
477.471	86.88
477.69	95.88
477.908	78.88
478.127	69.88
478.346	96.88
478.564	74.88
478.783	94.88
479.002	68.88
479.22	81.88
479.439	74.88
479.658	82.88
479.876	83.88
480.095	72.88
480.313	76.88
480.532	82.88
480.751	88.88
480.969	87.88
481.188	67.88
481.406	83.88
481.624	97.88
481.843	98.88
482.061	76.88
482.28	72.88
482.498	72.88
482.717	92.88
482.935	93.88
483.153	90.88
483.372	74.88
483.59	95.88
483.808	85.88
484.027	78.88
484.245	82.88
484.463	87.88
484.681	92.88
484.9	90.88
485.118	82.88
485.336	79.88
485.554	80.88
485.772	86.88
485.99	88.88
486.209	79.88
486.427	79.88
486.645	93.88
486.863	90.88
487.081	87.88
487.299	76.88
487.517	79.88
487.735	89.88
487.953	98.88
488.171	103.88
488.389	93.88
488.607	82.88
488.825	86.88
489.043	91.88
489.261	87.88
489.479	85.88
489.696	81.88
489.914	86.88
490.132	76.88
490.35	78.88
490.568	86.88
490.786	86.88
491.003	75.88
491.221	77.88
491.439	90.88
491.657	113.88
491.874	78.88
492.092	82.88
492.31	89.88
492.527	74.88
492.745	87.88
492.963	87.88
493.18	105.88
493.398	88.88
493.615	79.88
493.833	72.88
494.05	76.88
494.268	87.88
494.485	79.88
494.703	81.88
494.92	79.88
495.138	69.88
495.355	78.88
495.573	76.88
495.79	87.88
496.008	87.88
496.225	77.88
496.442	87.88
496.66	80.88
496.877	79.88
497.094	78.88
497.312	94.88
497.529	83.88
497.746	87.88
497.963	92.88
498.181	87.88
498.398	84.88
498.615	81.88
498.832	106.88
499.049	98.88
499.267	98.88
499.484	80.88
499.701	75.88
499.918	71.88
500.135	72.88
500.352	99.88
500.569	86.88
500.786	96.88
501.003	84.88
501.22	93.88
501.437	78.88
501.654	88.88
501.871	88.88
502.088	92.88
502.305	89.88
502.522	87.88
502.739	93.88
502.956	93.88
503.172	78.88
503.389	82.88
503.606	93.88
503.823	86.88
504.04	94.88
504.256	94.88
504.473	88.88
504.69	90.88
504.907	84.88
505.123	82.88
505.34	101.88
505.557	74.88
505.773	78.88
505.99	90.88
506.207	86.88
506.423	107.88
506.64	88.88
506.856	76.88
507.073	82.88
507.289	72.88
507.506	91.88
507.722	81.88
507.939	89.88
508.155	90.88
508.372	83.88
508.588	89.88
508.805	80.88
509.021	90.88
509.238	86.88
509.454	84.88
509.67	83.88
509.887	70.88
510.103	91.88
510.319	70.88
510.536	72.88
510.752	86.88
510.968	93.88
511.184	94.88
511.401	79.88
511.617	82.88
511.833	66.88
512.049	95.88
512.265	77.88
512.481	98.88
512.698	95.88
512.914	96.88
513.13	92.88
513.346	90.88
513.562	87.88
513.778	92.88
513.994	72.88
514.21	94.88
514.426	72.88
514.642	77.88
514.858	85.88
515.074	92.88
515.29	90.88
515.506	83.88
515.721	94.88
515.937	87.88
516.153	88.88
516.369	92.88
516.585	73.88
516.801	106.88
517.016	87.88
517.232	84.88
517.448	122.88
517.664	100.88
517.879	86.88
518.095	98.88
518.311	92.88
518.527	125.88
518.742	103.88
518.958	106.88
519.173	118.88
519.389	91.88
