Data from 1600_4_HRD10591_00031.txt Node
Date: Mon Jan 19 13:56:26 EST 2026
User: Yrep
Spectrometer: HR+D1059
Trigger mode: 1
Integration Time (sec): 1.000000E-1
Scans to average: 1
Electric dark correction enabled: true
Nonlinearity correction enabled: false
Boxcar width: 0
XAxis mode: Wavelengths
Number of Pixels in Spectrum: 2048
>>>>>Begin Spectral Data<<<<<
223.165	-28.19
223.4	-28.19
223.635	-28.19
223.869	-23.19
224.104	-17.19
224.338	-40.19
224.573	-11.19
224.808	-13.19
225.042	6.81
225.277	-8.19
225.511	-5.19
225.746	14.81
225.98	8.81
226.215	18.81
226.449	23.81
226.683	14.81
226.918	30.81
227.152	27.81
227.387	38.81
227.621	29.81
227.856	39.81
228.09	47.81
228.324	39.81
228.559	56.81
228.793	58.81
229.027	57.81
229.262	56.81
229.496	71.81
229.73	77.81
229.964	73.81
230.199	67.81
230.433	62.81
230.667	64.81
230.901	67.81
231.136	73.81
231.37	86.81
231.604	78.81
231.838	78.81
232.072	81.81
232.306	76.81
232.541	83.81
232.775	71.81
233.009	69.81
233.243	79.81
233.477	88.81
233.711	81.81
233.945	72.81
234.179	73.81
234.413	82.81
234.647	87.81
234.881	76.81
235.115	70.81
235.349	77.81
235.583	75.81
235.817	71.81
236.051	74.81
236.285	81.81
236.519	73.81
236.753	63.81
236.987	78.81
237.221	77.81
237.455	71.81
237.689	76.81
237.922	62.81
238.156	62.81
238.39	88.81
238.624	66.81
238.858	64.81
239.091	73.81
239.325	68.81
239.559	82.81
239.793	82.81
240.027	67.81
240.26	83.81
240.494	71.81
240.728	82.81
240.961	62.81
241.195	68.81
241.429	70.81
241.662	80.81
241.896	67.81
242.13	68.81
242.363	62.81
242.597	80.81
242.83	58.81
243.064	60.81
243.298	66.81
243.531	54.81
243.765	69.81
243.998	55.81
244.232	79.81
244.465	80.81
244.699	84.81
244.932	70.81
245.166	80.81
245.399	70.81
245.633	80.81
245.866	65.81
246.099	72.81
246.333	71.81
246.566	83.81
246.8	92.81
247.033	86.81
247.266	71.81
247.5	70.81
247.733	72.81
247.966	81.81
248.2	76.81
248.433	68.81
248.666	71.81
248.899	80.81
249.133	72.81
249.366	81.81
249.599	68.81
249.832	75.81
250.066	78.81
250.299	70.81
250.532	68.81
250.765	86.81
250.998	82.81
251.231	86.81
251.465	85.81
251.698	84.81
251.931	72.81
252.164	79.81
252.397	86.81
252.63	81.81
252.863	82.81
253.096	84.81
253.329	82.81
253.562	82.81
253.795	80.81
254.028	78.81
254.261	82.81
254.494	73.81
254.727	72.81
254.96	87.81
255.193	83.81
255.426	68.81
255.659	71.81
255.892	88.81
256.124	74.81
256.357	74.81
256.59	88.81
256.823	82.81
257.056	68.81
257.289	78.81
257.521	66.81
257.754	71.81
257.987	85.81
258.22	82.81
258.452	68.81
258.685	68.81
258.918	90.81
259.151	71.81
259.383	66.81
259.616	94.81
259.849	71.81
260.081	71.81
260.314	86.81
260.547	79.81
260.779	79.81
261.012	75.81
261.244	76.81
261.477	81.81
261.71	84.81
261.942	83.81
262.175	79.81
262.407	78.81
262.64	82.81
262.872	64.81
263.105	92.81
263.337	80.81
263.57	93.81
263.802	74.81
264.035	70.81
264.267	68.81
264.499	75.81
264.732	86.81
264.964	92.81
265.197	90.81
265.429	74.81
265.661	79.81
265.894	85.81
266.126	79.81
266.358	79.81
266.591	80.81
266.823	74.81
267.055	80.81
267.287	72.81
267.52	82.81
267.752	76.81
267.984	84.81
268.216	91.81
268.448	75.81
268.681	84.81
268.913	87.81
269.145	69.81
269.377	97.81
269.609	72.81
269.841	84.81
270.073	79.81
270.306	88.81
270.538	83.81
270.77	77.81
271.002	73.81
271.234	84.81
271.466	68.81
271.698	86.81
271.93	81.81
272.162	79.81
272.394	83.81
272.626	62.81
272.858	82.81
273.09	70.81
273.322	81.81
273.553	72.81
273.785	90.81
274.017	74.81
274.249	72.81
274.481	85.81
274.713	62.81
274.945	74.81
275.176	68.81
275.408	82.81
275.64	92.81
275.872	99.81
276.104	80.81
276.335	84.81
276.567	78.81
276.799	76.81
277.031	82.81
277.262	65.81
277.494	88.81
277.726	76.81
277.957	79.81
278.189	70.81
278.421	81.81
278.652	82.81
278.884	82.81
279.115	78.81
279.347	82.81
279.579	80.81
279.81	78.81
280.042	86.81
280.273	73.81
280.505	82.81
280.736	84.81
280.968	89.81
281.199	99.81
281.431	94.81
281.662	75.81
281.894	71.81
282.125	104.81
282.356	89.81
282.588	64.81
282.819	69.81
283.051	70.81
283.282	95.81
283.513	80.81
283.745	77.81
283.976	79.81
284.207	91.81
284.439	96.81
284.67	80.81
284.901	78.81
285.132	76.81
285.364	91.81
285.595	93.81
285.826	82.81
286.057	78.81
286.288	83.81
286.52	84.81
286.751	88.81
286.982	81.81
287.213	90.81
287.444	86.81
287.675	77.81
287.906	93.81
288.138	78.81
288.369	72.81
288.6	90.81
288.831	79.81
289.062	78.81
289.293	80.81
289.524	80.81
289.755	72.81
289.986	79.81
290.217	78.81
290.448	79.81
290.679	77.81
290.91	83.81
291.141	72.81
291.371	84.81
291.602	73.81
291.833	93.81
292.064	87.81
292.295	93.81
292.526	90.81
292.757	83.81
292.987	86.81
293.218	75.81
293.449	90.81
293.68	79.81
293.91	88.81
294.141	82.81
294.372	89.81
294.603	92.81
294.833	94.81
295.064	89.81
295.295	76.81
295.525	82.81
295.756	91.81
295.987	82.81
296.217	94.81
296.448	92.81
296.679	93.81
296.909	80.81
297.14	84.81
297.37	63.81
297.601	99.81
297.831	70.81
298.062	93.81
298.292	97.81
298.523	91.81
298.753	86.81
298.984	88.81
299.214	79.81
299.445	82.81
299.675	80.81
299.905	95.81
300.136	79.81
300.366	91.81
300.597	98.81
300.827	85.81
301.057	66.81
301.288	79.81
301.518	86.81
301.748	73.81
301.979	116.81
302.209	90.81
302.439	93.81
302.669	83.81
302.9	87.81
303.13	93.81
303.36	87.81
303.59	68.81
303.82	84.81
304.051	75.81
304.281	82.81
304.511	87.81
304.741	100.81
304.971	89.81
305.201	80.81
305.431	88.81
305.661	71.81
305.891	75.81
306.121	88.81
306.352	77.81
306.582	91.81
306.812	76.81
307.042	81.81
307.272	91.81
307.502	99.81
307.731	82.81
307.961	70.81
308.191	80.81
308.421	81.81
308.651	78.81
308.881	85.81
309.111	83.81
309.341	73.81
309.571	100.81
309.8	91.81
310.03	107.81
310.26	74.81
310.49	90.81
310.72	89.81
310.949	93.81
311.179	76.81
311.409	92.81
311.639	75.81
311.868	99.81
312.098	82.81
312.328	75.81
312.557	86.81
312.787	83.81
313.017	88.81
313.246	93.81
313.476	90.81
313.706	81.81
313.935	79.81
314.165	88.81
314.394	83.81
314.624	78.81
314.853	82.81
315.083	78.81
315.312	84.81
315.542	82.81
315.771	103.81
316.001	79.81
316.23	81.81
316.46	67.81
316.689	74.81
316.919	96.81
317.148	93.81
317.377	84.81
317.607	80.81
317.836	91.81
318.065	85.81
318.295	92.81
318.524	82.81
318.753	76.81
318.983	70.81
319.212	87.81
319.441	82.81
319.67	92.81
319.9	80.81
320.129	82.81
320.358	76.81
320.587	80.81
320.816	75.81
321.046	71.81
321.275	88.81
321.504	76.81
321.733	67.81
321.962	88.81
322.191	97.81
322.42	91.81
322.649	104.81
322.878	84.81
323.108	82.81
323.337	80.81
323.566	97.81
323.795	69.81
324.024	88.81
324.253	85.81
324.482	78.81
324.71	74.81
324.939	85.81
325.168	98.81
325.397	80.81
325.626	101.81
325.855	79.81
326.084	92.81
326.313	103.81
326.542	80.81
326.77	80.81
326.999	77.81
327.228	72.81
327.457	74.81
327.686	79.81
327.914	97.81
328.143	89.81
328.372	90.81
328.6	87.81
328.829	78.81
329.058	76.81
329.287	77.81
329.515	94.81
329.744	73.81
329.972	84.81
330.201	95.81
330.43	106.81
330.658	98.81
330.887	95.81
331.115	76.81
331.344	71.81
331.572	75.81
331.801	91.81
332.03	88.81
332.258	83.81
332.486	73.81
332.715	87.81
332.943	91.81
333.172	79.81
333.4	78.81
333.629	90.81
333.857	91.81
334.085	71.81
334.314	89.81
334.542	80.81
334.771	81.81
334.999	76.81
335.227	98.81
335.455	73.81
335.684	86.81
335.912	76.81
336.14	80.81
336.369	74.81
336.597	90.81
336.825	79.81
337.053	90.81
337.281	91.81
337.51	78.81
337.738	90.81
337.966	90.81
338.194	86.81
338.422	80.81
338.65	77.81
338.878	90.81
339.106	78.81
339.334	83.81
339.562	79.81
339.79	85.81
340.018	87.81
340.246	92.81
340.474	77.81
340.702	85.81
340.93	95.81
341.158	78.81
341.386	82.81
341.614	86.81
341.842	93.81
342.07	84.81
342.298	85.81
342.526	93.81
342.754	84.81
342.981	78.81
343.209	91.81
343.437	80.81
343.665	96.81
343.893	82.81
344.12	81.81
344.348	99.81
344.576	80.81
344.804	91.81
345.031	92.81
345.259	72.81
345.487	79.81
345.714	88.81
345.942	80.81
346.17	85.81
346.397	94.81
346.625	83.81
346.853	87.81
347.08	76.81
347.308	73.81
347.535	76.81
347.763	86.81
347.99	82.81
348.218	90.81
348.445	72.81
348.673	81.81
348.9	90.81
349.128	77.81
349.355	90.81
349.583	82.81
349.81	96.81
350.037	87.81
350.265	65.81
350.492	94.81
350.72	88.81
350.947	87.81
351.174	87.81
351.402	86.81
351.629	89.81
351.856	74.81
352.083	79.81
352.311	95.81
352.538	88.81
352.765	85.81
352.992	84.81
353.22	82.81
353.447	93.81
353.674	87.81
353.901	98.81
354.128	71.81
354.355	78.81
354.583	68.81
354.81	84.81
355.037	74.81
355.264	86.81
355.491	78.81
355.718	82.81
355.945	101.81
356.172	88.81
356.399	82.81
356.626	77.81
356.853	89.81
357.08	83.81
357.307	80.81
357.534	92.81
357.761	89.81
357.988	85.81
358.215	82.81
358.441	78.81
358.668	94.81
358.895	84.81
359.122	73.81
359.349	88.81
359.576	87.81
359.802	73.81
360.029	88.81
360.256	86.81
360.483	91.81
360.709	74.81
360.936	91.81
361.163	83.81
361.39	95.81
361.616	74.81
361.843	84.81
362.07	82.81
362.296	89.81
362.523	91.81
362.749	67.81
362.976	84.81
363.203	93.81
363.429	98.81
363.656	81.81
363.882	78.81
364.109	95.81
364.335	88.81
364.562	72.81
364.788	81.81
365.015	85.81
365.241	87.81
365.468	83.81
365.694	81.81
365.92	87.81
366.147	82.81
366.373	87.81
366.599	72.81
366.826	91.81
367.052	67.81
367.278	79.81
367.505	80.81
367.731	84.81
367.957	72.81
368.184	108.81
368.41	94.81
368.636	84.81
368.862	86.81
369.089	80.81
369.315	95.81
369.541	103.81
369.767	76.81
369.993	84.81
370.219	85.81
370.445	87.81
370.672	85.81
370.898	82.81
371.124	85.81
371.35	86.81
371.576	75.81
371.802	85.81
372.028	82.81
372.254	91.81
372.48	78.81
372.706	76.81
372.932	78.81
373.158	80.81
373.384	81.81
373.61	106.81
373.835	90.81
374.061	90.81
374.287	87.81
374.513	87.81
374.739	106.81
374.965	79.81
375.191	81.81
375.416	92.81
375.642	87.81
375.868	82.81
376.094	84.81
376.319	93.81
376.545	91.81
376.771	86.81
376.997	84.81
377.222	78.81
377.448	93.81
377.674	87.81
377.899	72.81
378.125	73.81
378.35	84.81
378.576	90.81
378.802	73.81
379.027	95.81
379.253	85.81
379.478	76.81
379.704	90.81
379.929	71.81
380.155	84.81
380.38	86.81
380.606	88.81
380.831	87.81
381.057	80.81
381.282	76.81
381.507	93.81
381.733	86.81
381.958	82.81
382.184	85.81
382.409	98.81
382.634	85.81
382.86	78.81
383.085	95.81
383.31	85.81
383.535	96.81
383.761	95.81
383.986	86.81
384.211	95.81
384.436	95.81
384.662	92.81
384.887	76.81
385.112	73.81
385.337	88.81
385.562	78.81
385.787	96.81
386.013	90.81
386.238	75.81
386.463	75.81
386.688	105.81
386.913	77.81
387.138	78.81
387.363	79.81
387.588	100.81
387.813	99.81
388.038	75.81
388.263	85.81
388.488	90.81
388.713	87.81
388.938	68.81
389.163	85.81
389.387	82.81
389.612	84.81
389.837	86.81
390.062	86.81
390.287	84.81
390.512	92.81
390.736	83.81
390.961	84.81
391.186	87.81
391.411	73.81
391.636	72.81
391.86	81.81
392.085	88.81
392.31	81.81
392.534	80.81
392.759	92.81
392.984	97.81
393.208	135.81
393.433	154.81
393.658	132.81
393.882	78.81
394.107	82.81
394.331	91.81
394.556	86.81
394.78	86.81
395.005	90.81
395.229	71.81
395.454	71.81
395.678	84.81
395.903	86.81
396.127	95.81
396.352	90.81
396.576	107.81
396.801	131.81
397.025	149.81
397.249	106.81
397.474	96.81
397.698	90.81
397.922	80.81
398.147	80.81
398.371	78.81
398.595	81.81
398.82	73.81
399.044	83.81
399.268	88.81
399.492	86.81
399.717	80.81
399.941	84.81
400.165	96.81
400.389	95.81
400.613	83.81
400.837	80.81
401.062	84.81
401.286	77.81
401.51	94.81
401.734	87.81
401.958	71.81
402.182	79.81
402.406	96.81
402.63	75.81
402.854	84.81
403.078	84.81
403.302	82.81
403.526	84.81
403.75	79.81
403.974	73.81
404.198	94.81
404.422	99.81
404.645	81.81
404.869	85.81
405.093	82.81
405.317	60.81
405.541	70.81
405.765	78.81
405.988	83.81
406.212	88.81
406.436	76.81
406.66	84.81
406.883	70.81
407.107	75.81
407.331	83.81
407.555	84.81
407.778	83.81
408.002	77.81
408.226	64.81
408.449	73.81
408.673	74.81
408.896	84.81
409.12	65.81
409.344	90.81
409.567	94.81
409.791	74.81
410.014	67.81
410.238	86.81
410.461	67.81
410.685	76.81
410.908	61.81
411.132	76.81
411.355	79.81
411.578	84.81
411.802	76.81
412.025	73.81
412.249	83.81
412.472	94.81
412.695	87.81
412.919	82.81
413.142	82.81
413.365	86.81
413.589	77.81
413.812	80.81
414.035	70.81
414.258	89.81
414.482	68.81
414.705	87.81
414.928	83.81
415.151	82.81
415.374	82.81
415.597	101.81
415.821	87.81
416.044	90.81
416.267	91.81
416.49	75.81
416.713	80.81
416.936	80.81
417.159	81.81
417.382	77.81
417.605	64.81
417.828	72.81
418.051	77.81
418.274	77.81
418.497	86.81
418.72	87.81
418.943	76.81
419.166	95.81
419.389	77.81
419.611	79.81
419.834	74.81
420.057	89.81
420.28	71.81
420.503	87.81
420.726	90.81
420.948	93.81
421.171	83.81
421.394	88.81
421.617	85.81
421.839	80.81
422.062	87.81
422.285	89.81
422.507	109.81
422.73	152.81
422.953	134.81
423.175	79.81
423.398	74.81
423.621	93.81
423.843	55.81
424.066	78.81
424.288	101.81
424.511	86.81
424.733	72.81
424.956	77.81
425.178	73.81
425.401	83.81
425.623	70.81
425.846	72.81
426.068	81.81
426.291	95.81
426.513	69.81
426.735	83.81
426.958	82.81
427.18	76.81
427.402	81.81
427.625	77.81
427.847	64.81
428.069	95.81
428.292	79.81
428.514	97.81
428.736	84.81
428.958	97.81
429.181	82.81
429.403	88.81
429.625	73.81
429.847	88.81
430.069	99.81
430.292	101.81
430.514	98.81
430.736	99.81
430.958	102.81
431.18	79.81
431.402	67.81
431.624	68.81
431.846	102.81
432.068	84.81
432.29	71.81
432.512	96.81
432.734	78.81
432.956	88.81
433.178	85.81
433.4	77.81
433.622	58.81
433.844	78.81
434.066	78.81
434.287	75.81
434.509	84.81
434.731	88.81
434.953	86.81
435.175	59.81
435.397	80.81
435.618	70.81
435.84	76.81
436.062	100.81
436.284	83.81
436.505	84.81
436.727	85.81
436.949	91.81
437.17	78.81
437.392	74.81
437.614	62.81
437.835	78.81
438.057	71.81
438.278	91.81
438.5	86.81
438.721	80.81
438.943	81.81
439.165	91.81
439.386	74.81
439.608	82.81
439.829	75.81
440.05	89.81
440.272	71.81
440.493	75.81
440.715	82.81
440.936	76.81
441.158	83.81
441.379	82.81
441.6	81.81
441.822	92.81
442.043	83.81
442.264	71.81
442.486	85.81
442.707	94.81
442.928	76.81
443.149	85.81
443.371	96.81
443.592	99.81
443.813	98.81
444.034	76.81
444.255	79.81
444.476	79.81
444.698	88.81
444.919	83.81
445.14	147.81
445.361	128.81
445.582	106.81
445.803	114.81
446.024	97.81
446.245	88.81
446.466	88.81
446.687	84.81
446.908	71.81
447.129	78.81
447.35	92.81
447.571	86.81
447.792	93.81
448.013	74.81
448.234	82.81
448.455	84.81
448.675	69.81
448.896	66.81
449.117	88.81
449.338	77.81
449.559	77.81
449.779	82.81
450	80.81
450.221	65.81
450.442	74.81
450.662	94.81
450.883	84.81
451.104	81.81
451.324	77.81
451.545	91.81
451.766	88.81
451.986	70.81
452.207	80.81
452.428	75.81
452.648	74.81
452.869	96.81
453.089	80.81
453.31	69.81
453.53	74.81
453.751	69.81
453.971	79.81
454.192	73.81
454.412	60.81
454.633	83.81
454.853	78.81
455.073	80.81
455.294	82.81
455.514	80.81
455.734	71.81
455.955	79.81
456.175	79.81
456.395	85.81
456.616	78.81
456.836	79.81
457.056	82.81
457.276	89.81
457.497	85.81
457.717	81.81
457.937	76.81
458.157	72.81
458.377	80.81
458.598	78.81
458.818	82.81
459.038	86.81
459.258	85.81
459.478	81.81
459.698	82.81
459.918	91.81
460.138	80.81
460.358	75.81
460.578	74.81
460.798	75.81
461.018	94.81
461.238	77.81
461.458	83.81
461.678	78.81
461.898	73.81
462.118	72.81
462.338	70.81
462.558	65.81
462.777	86.81
462.997	72.81
463.217	73.81
463.437	66.81
463.657	88.81
463.876	73.81
464.096	76.81
464.316	77.81
464.536	76.81
464.755	78.81
464.975	82.81
465.195	84.81
465.414	70.81
465.634	70.81
465.854	87.81
466.073	77.81
466.293	82.81
466.512	85.81
466.732	90.81
466.951	87.81
467.171	92.81
467.391	84.81
467.61	73.81
467.829	70.81
468.049	81.81
468.268	75.81
468.488	66.81
468.707	81.81
468.927	88.81
469.146	82.81
469.365	79.81
469.585	83.81
469.804	84.81
470.023	72.81
470.243	72.81
470.462	82.81
470.681	77.81
470.901	78.81
471.12	83.81
471.339	79.81
471.558	83.81
471.777	87.81
471.997	78.81
472.216	76.81
472.435	80.81
472.654	78.81
472.873	80.81
473.092	81.81
473.311	76.81
473.53	91.81
473.749	82.81
473.968	80.81
474.187	73.81
474.406	77.81
474.625	82.81
474.844	87.81
475.063	77.81
475.282	84.81
475.501	70.81
475.72	79.81
475.939	79.81
476.158	76.81
476.377	66.81
476.596	77.81
476.814	70.81
477.033	79.81
477.252	80.81
477.471	82.81
477.69	81.81
477.908	77.81
478.127	69.81
478.346	77.81
478.564	78.81
478.783	79.81
479.002	79.81
479.22	73.81
479.439	75.81
479.658	81.81
479.876	68.81
480.095	69.81
480.313	67.81
480.532	76.81
480.751	61.81
480.969	88.81
481.188	83.81
481.406	85.81
481.624	86.81
481.843	83.81
482.061	76.81
482.28	77.81
482.498	89.81
482.717	81.81
482.935	75.81
483.153	84.81
483.372	79.81
483.59	64.81
483.808	78.81
484.027	77.81
484.245	84.81
484.463	81.81
484.681	84.81
484.9	80.81
485.118	73.81
485.336	91.81
485.554	77.81
485.772	97.81
485.99	80.81
486.209	74.81
486.427	72.81
486.645	86.81
486.863	88.81
487.081	94.81
487.299	78.81
487.517	84.81
487.735	83.81
487.953	92.81
488.171	93.81
488.389	66.81
488.607	75.81
488.825	78.81
489.043	79.81
489.261	83.81
489.479	66.81
489.696	76.81
489.914	74.81
490.132	93.81
490.35	88.81
490.568	80.81
490.786	76.81
491.003	84.81
491.221	83.81
491.439	88.81
491.657	85.81
491.874	66.81
492.092	63.81
492.31	76.81
492.527	71.81
492.745	87.81
492.963	78.81
493.18	83.81
493.398	88.81
493.615	87.81
493.833	79.81
494.05	64.81
494.268	83.81
494.485	80.81
494.703	77.81
494.92	67.81
495.138	77.81
495.355	101.81
495.573	79.81
495.79	73.81
496.008	71.81
496.225	78.81
496.442	69.81
496.66	80.81
496.877	84.81
497.094	92.81
497.312	78.81
497.529	78.81
497.746	82.81
497.963	92.81
498.181	80.81
498.398	88.81
498.615	81.81
498.832	85.81
499.049	81.81
499.267	70.81
499.484	83.81
499.701	98.81
499.918	85.81
500.135	92.81
500.352	83.81
500.569	84.81
500.786	86.81
501.003	78.81
501.22	76.81
501.437	92.81
501.654	93.81
501.871	82.81
502.088	84.81
502.305	96.81
502.522	82.81
502.739	97.81
502.956	83.81
503.172	70.81
503.389	77.81
503.606	87.81
503.823	72.81
504.04	93.81
504.256	85.81
504.473	89.81
504.69	84.81
504.907	87.81
505.123	94.81
505.34	78.81
505.557	78.81
505.773	85.81
505.99	99.81
506.207	89.81
506.423	82.81
506.64	96.81
506.856	91.81
507.073	87.81
507.289	77.81
507.506	89.81
507.722	79.81
507.939	80.81
508.155	79.81
508.372	83.81
508.588	84.81
508.805	82.81
509.021	83.81
509.238	78.81
509.454	82.81
509.67	81.81
509.887	88.81
510.103	73.81
510.319	70.81
510.536	80.81
510.752	69.81
510.968	72.81
511.184	82.81
511.401	80.81
511.617	80.81
511.833	85.81
512.049	76.81
512.265	81.81
512.481	85.81
512.698	76.81
512.914	77.81
513.13	93.81
513.346	73.81
513.562	78.81
513.778	95.81
513.994	95.81
514.21	98.81
514.426	84.81
514.642	85.81
514.858	90.81
515.074	86.81
515.29	75.81
515.506	87.81
515.721	79.81
515.937	82.81
516.153	82.81
516.369	86.81
516.585	74.81
516.801	80.81
517.016	71.81
517.232	88.81
517.448	94.81
517.664	85.81
517.879	95.81
518.095	90.81
518.311	81.81
518.527	96.81
518.742	90.81
518.958	91.81
519.173	95.81
519.389	82.81
519.605	90.81
519.82	109.81
