Data from 1600_4_HRD10591_00049.txt Node
Date: Mon Jan 19 13:56:35 EST 2026
User: Yrep
Spectrometer: HR+D1059
Trigger mode: 1
Integration Time (sec): 1.000000E-1
Scans to average: 1
Electric dark correction enabled: true
Nonlinearity correction enabled: false
Boxcar width: 0
XAxis mode: Wavelengths
Number of Pixels in Spectrum: 2048
>>>>>Begin Spectral Data<<<<<
223.165	-24.69
223.4	-24.69
223.635	-24.69
223.869	-25.69
224.104	-25.69
224.338	-14.69
224.573	-5.69
224.808	-8.69
225.042	-15.69
225.277	-11.69
225.511	7.31
225.746	0.31
225.98	6.31
226.215	21.31
226.449	16.31
226.683	20.31
226.918	28.31
227.152	32.31
227.387	24.31
227.621	34.31
227.856	49.31
228.09	55.31
228.324	55.31
228.559	68.31
228.793	51.31
229.027	62.31
229.262	73.31
229.496	70.31
229.73	60.31
229.964	67.31
230.199	89.31
230.433	75.31
230.667	76.31
230.901	74.31
231.136	71.31
231.37	70.31
231.604	83.31
231.838	78.31
232.072	79.31
232.306	78.31
232.541	67.31
232.775	69.31
233.009	67.31
233.243	75.31
233.477	72.31
233.711	86.31
233.945	66.31
234.179	91.31
234.413	74.31
234.647	73.31
234.881	79.31
235.115	72.31
235.349	84.31
235.583	92.31
235.817	73.31
236.051	78.31
236.285	91.31
236.519	66.31
236.753	71.31
236.987	84.31
237.221	73.31
237.455	57.31
237.689	77.31
237.922	61.31
238.156	67.31
238.39	75.31
238.624	76.31
238.858	78.31
239.091	59.31
239.325	72.31
239.559	73.31
239.793	84.31
240.027	81.31
240.26	58.31
240.494	69.31
240.728	71.31
240.961	79.31
241.195	69.31
241.429	77.31
241.662	68.31
241.896	78.31
242.13	60.31
242.363	72.31
242.597	68.31
242.83	74.31
243.064	75.31
243.298	78.31
243.531	63.31
243.765	72.31
243.998	83.31
244.232	67.31
244.465	83.31
244.699	70.31
244.932	63.31
245.166	72.31
245.399	71.31
245.633	72.31
245.866	80.31
246.099	63.31
246.333	61.31
246.566	84.31
246.8	68.31
247.033	88.31
247.266	75.31
247.5	66.31
247.733	83.31
247.966	77.31
248.2	83.31
248.433	75.31
248.666	74.31
248.899	75.31
249.133	80.31
249.366	85.31
249.599	84.31
249.832	75.31
250.066	80.31
250.299	74.31
250.532	68.31
250.765	80.31
250.998	73.31
251.231	90.31
251.465	70.31
251.698	86.31
251.931	81.31
252.164	75.31
252.397	82.31
252.63	77.31
252.863	79.31
253.096	78.31
253.329	64.31
253.562	79.31
253.795	78.31
254.028	68.31
254.261	84.31
254.494	64.31
254.727	86.31
254.96	74.31
255.193	69.31
255.426	73.31
255.659	77.31
255.892	83.31
256.124	81.31
256.357	85.31
256.59	84.31
256.823	74.31
257.056	81.31
257.289	88.31
257.521	73.31
257.754	82.31
257.987	88.31
258.22	76.31
258.452	72.31
258.685	84.31
258.918	72.31
259.151	67.31
259.383	84.31
259.616	83.31
259.849	93.31
260.081	82.31
260.314	77.31
260.547	77.31
260.779	94.31
261.012	67.31
261.244	61.31
261.477	83.31
261.71	70.31
261.942	78.31
262.175	79.31
262.407	69.31
262.64	76.31
262.872	78.31
263.105	78.31
263.337	67.31
263.57	76.31
263.802	78.31
264.035	76.31
264.267	64.31
264.499	66.31
264.732	90.31
264.964	85.31
265.197	71.31
265.429	75.31
265.661	84.31
265.894	79.31
266.126	83.31
266.358	75.31
266.591	77.31
266.823	88.31
267.055	85.31
267.287	87.31
267.52	68.31
267.752	76.31
267.984	82.31
268.216	90.31
268.448	87.31
268.681	90.31
268.913	90.31
269.145	92.31
269.377	74.31
269.609	86.31
269.841	73.31
270.073	83.31
270.306	82.31
270.538	90.31
270.77	76.31
271.002	78.31
271.234	91.31
271.466	78.31
271.698	76.31
271.93	82.31
272.162	68.31
272.394	86.31
272.626	78.31
272.858	91.31
273.09	78.31
273.322	82.31
273.553	81.31
273.785	85.31
274.017	82.31
274.249	87.31
274.481	78.31
274.713	81.31
274.945	76.31
275.176	77.31
275.408	83.31
275.64	74.31
275.872	87.31
276.104	80.31
276.335	81.31
276.567	83.31
276.799	76.31
277.031	67.31
277.262	84.31
277.494	93.31
277.726	81.31
277.957	74.31
278.189	80.31
278.421	69.31
278.652	86.31
278.884	87.31
279.115	95.31
279.347	76.31
279.579	86.31
279.81	97.31
280.042	84.31
280.273	91.31
280.505	94.31
280.736	85.31
280.968	72.31
281.199	87.31
281.431	91.31
281.662	82.31
281.894	92.31
282.125	79.31
282.356	74.31
282.588	72.31
282.819	90.31
283.051	64.31
283.282	83.31
283.513	85.31
283.745	87.31
283.976	86.31
284.207	78.31
284.439	72.31
284.67	92.31
284.901	75.31
285.132	86.31
285.364	85.31
285.595	71.31
285.826	75.31
286.057	82.31
286.288	67.31
286.52	74.31
286.751	78.31
286.982	80.31
287.213	75.31
287.444	89.31
287.675	77.31
287.906	90.31
288.138	77.31
288.369	95.31
288.6	95.31
288.831	81.31
289.062	84.31
289.293	88.31
289.524	83.31
289.755	80.31
289.986	75.31
290.217	87.31
290.448	71.31
290.679	69.31
290.91	88.31
291.141	92.31
291.371	70.31
291.602	88.31
291.833	82.31
292.064	71.31
292.295	85.31
292.526	64.31
292.757	82.31
292.987	99.31
293.218	83.31
293.449	84.31
293.68	87.31
293.91	84.31
294.141	79.31
294.372	88.31
294.603	76.31
294.833	78.31
295.064	82.31
295.295	79.31
295.525	69.31
295.756	60.31
295.987	86.31
296.217	87.31
296.448	87.31
296.679	94.31
296.909	88.31
297.14	101.31
297.37	94.31
297.601	82.31
297.831	86.31
298.062	91.31
298.292	78.31
298.523	72.31
298.753	73.31
298.984	78.31
299.214	83.31
299.445	71.31
299.675	86.31
299.905	80.31
300.136	85.31
300.366	88.31
300.597	82.31
300.827	82.31
301.057	94.31
301.288	79.31
301.518	90.31
301.748	58.31
301.979	100.31
302.209	91.31
302.439	89.31
302.669	85.31
302.9	78.31
303.13	71.31
303.36	66.31
303.59	70.31
303.82	92.31
304.051	82.31
304.281	87.31
304.511	81.31
304.741	94.31
304.971	68.31
305.201	88.31
305.431	86.31
305.661	66.31
305.891	84.31
306.121	79.31
306.352	92.31
306.582	76.31
306.812	84.31
307.042	79.31
307.272	94.31
307.502	82.31
307.731	92.31
307.961	76.31
308.191	73.31
308.421	92.31
308.651	94.31
308.881	75.31
309.111	93.31
309.341	86.31
309.571	91.31
309.8	81.31
310.03	75.31
310.26	81.31
310.49	94.31
310.72	91.31
310.949	77.31
311.179	73.31
311.409	78.31
311.639	77.31
311.868	93.31
312.098	84.31
312.328	85.31
312.557	84.31
312.787	78.31
313.017	99.31
313.246	84.31
313.476	90.31
313.706	82.31
313.935	81.31
314.165	83.31
314.394	83.31
314.624	92.31
314.853	99.31
315.083	83.31
315.312	98.31
315.542	79.31
315.771	98.31
316.001	86.31
316.23	78.31
316.46	80.31
316.689	89.31
316.919	77.31
317.148	92.31
317.377	78.31
317.607	89.31
317.836	91.31
318.065	80.31
318.295	80.31
318.524	91.31
318.753	96.31
318.983	76.31
319.212	89.31
319.441	76.31
319.67	87.31
319.9	82.31
320.129	84.31
320.358	88.31
320.587	96.31
320.816	82.31
321.046	91.31
321.275	88.31
321.504	80.31
321.733	91.31
321.962	78.31
322.191	72.31
322.42	75.31
322.649	82.31
322.878	90.31
323.108	84.31
323.337	82.31
323.566	72.31
323.795	93.31
324.024	91.31
324.253	84.31
324.482	78.31
324.71	87.31
324.939	74.31
325.168	70.31
325.397	78.31
325.626	70.31
325.855	94.31
326.084	78.31
326.313	58.31
326.542	64.31
326.77	63.31
326.999	80.31
327.228	96.31
327.457	81.31
327.686	79.31
327.914	75.31
328.143	82.31
328.372	75.31
328.6	87.31
328.829	77.31
329.058	86.31
329.287	84.31
329.515	84.31
329.744	94.31
329.972	78.31
330.201	83.31
330.43	78.31
330.658	76.31
330.887	79.31
331.115	78.31
331.344	87.31
331.572	86.31
331.801	92.31
332.03	90.31
332.258	85.31
332.486	80.31
332.715	76.31
332.943	93.31
333.172	74.31
333.4	84.31
333.629	99.31
333.857	87.31
334.085	98.31
334.314	88.31
334.542	86.31
334.771	80.31
334.999	75.31
335.227	84.31
335.455	96.31
335.684	81.31
335.912	73.31
336.14	78.31
336.369	87.31
336.597	66.31
336.825	87.31
337.053	87.31
337.281	72.31
337.51	87.31
337.738	90.31
337.966	85.31
338.194	83.31
338.422	72.31
338.65	81.31
338.878	81.31
339.106	76.31
339.334	90.31
339.562	82.31
339.79	78.31
340.018	71.31
340.246	85.31
340.474	79.31
340.702	82.31
340.93	74.31
341.158	82.31
341.386	90.31
341.614	89.31
341.842	79.31
342.07	73.31
342.298	83.31
342.526	68.31
342.754	76.31
342.981	93.31
343.209	82.31
343.437	99.31
343.665	82.31
343.893	78.31
344.12	69.31
344.348	89.31
344.576	84.31
344.804	84.31
345.031	75.31
345.259	70.31
345.487	77.31
345.714	79.31
345.942	86.31
346.17	92.31
346.397	77.31
346.625	94.31
346.853	63.31
347.08	92.31
347.308	76.31
347.535	84.31
347.763	102.31
347.99	93.31
348.218	84.31
348.445	92.31
348.673	76.31
348.9	68.31
349.128	86.31
349.355	79.31
349.583	82.31
349.81	80.31
350.037	86.31
350.265	77.31
350.492	87.31
350.72	73.31
350.947	92.31
351.174	80.31
351.402	71.31
351.629	89.31
351.856	84.31
352.083	77.31
352.311	73.31
352.538	88.31
352.765	67.31
352.992	88.31
353.22	82.31
353.447	86.31
353.674	73.31
353.901	82.31
354.128	78.31
354.355	75.31
354.583	86.31
354.81	83.31
355.037	84.31
355.264	78.31
355.491	68.31
355.718	73.31
355.945	83.31
356.172	86.31
356.399	83.31
356.626	92.31
356.853	89.31
357.08	77.31
357.307	79.31
357.534	76.31
357.761	75.31
357.988	101.31
358.215	90.31
358.441	84.31
358.668	84.31
358.895	87.31
359.122	85.31
359.349	82.31
359.576	82.31
359.802	91.31
360.029	82.31
360.256	80.31
360.483	81.31
360.709	86.31
360.936	85.31
361.163	95.31
361.39	84.31
361.616	82.31
361.843	84.31
362.07	76.31
362.296	80.31
362.523	67.31
362.749	84.31
362.976	83.31
363.203	82.31
363.429	93.31
363.656	86.31
363.882	76.31
364.109	89.31
364.335	86.31
364.562	99.31
364.788	78.31
365.015	70.31
365.241	82.31
365.468	83.31
365.694	76.31
365.92	78.31
366.147	82.31
366.373	77.31
366.599	71.31
366.826	93.31
367.052	76.31
367.278	79.31
367.505	90.31
367.731	97.31
367.957	76.31
368.184	73.31
368.41	82.31
368.636	82.31
368.862	84.31
369.089	87.31
369.315	67.31
369.541	81.31
369.767	64.31
369.993	73.31
370.219	71.31
370.445	66.31
370.672	80.31
370.898	87.31
371.124	87.31
371.35	97.31
371.576	73.31
371.802	75.31
372.028	97.31
372.254	94.31
372.48	90.31
372.706	94.31
372.932	101.31
373.158	101.31
373.384	87.31
373.61	100.31
373.835	86.31
374.061	94.31
374.287	90.31
374.513	92.31
374.739	95.31
374.965	95.31
375.191	83.31
375.416	91.31
375.642	77.31
375.868	96.31
376.094	87.31
376.319	79.31
376.545	74.31
376.771	86.31
376.997	88.31
377.222	79.31
377.448	74.31
377.674	86.31
377.899	72.31
378.125	70.31
378.35	78.31
378.576	82.31
378.802	79.31
379.027	90.31
379.253	76.31
379.478	87.31
379.704	78.31
379.929	90.31
380.155	74.31
380.38	83.31
380.606	90.31
380.831	94.31
381.057	104.31
381.282	99.31
381.507	71.31
381.733	98.31
381.958	78.31
382.184	82.31
382.409	81.31
382.634	85.31
382.86	88.31
383.085	80.31
383.31	90.31
383.535	90.31
383.761	95.31
383.986	94.31
384.211	83.31
384.436	87.31
384.662	83.31
384.887	105.31
385.112	91.31
385.337	74.31
385.562	82.31
385.787	83.31
386.013	74.31
386.238	86.31
386.463	78.31
386.688	108.31
386.913	94.31
387.138	82.31
387.363	90.31
387.588	109.31
387.813	85.31
388.038	96.31
388.263	85.31
388.488	81.31
388.713	93.31
388.938	77.31
389.163	78.31
389.387	97.31
389.612	82.31
389.837	75.31
390.062	88.31
390.287	71.31
390.512	90.31
390.736	84.31
390.961	82.31
391.186	91.31
391.411	96.31
391.636	80.31
391.86	86.31
392.085	80.31
392.31	72.31
392.534	86.31
392.759	90.31
392.984	122.31
393.208	178.31
393.433	277.31
393.658	200.31
393.882	112.31
394.107	94.31
394.331	121.31
394.556	96.31
394.78	106.31
395.005	78.31
395.229	89.31
395.454	78.31
395.678	82.31
395.903	93.31
396.127	120.31
396.352	139.31
396.576	136.31
396.801	182.31
397.025	234.31
397.249	130.31
397.474	104.31
397.698	84.31
397.922	97.31
398.147	90.31
398.371	84.31
398.595	76.31
398.82	89.31
399.044	84.31
399.268	85.31
399.492	77.31
399.717	81.31
399.941	86.31
400.165	92.31
400.389	77.31
400.613	82.31
400.837	91.31
401.062	94.31
401.286	84.31
401.51	84.31
401.734	79.31
401.958	62.31
402.182	63.31
402.406	85.31
402.63	64.31
402.854	74.31
403.078	78.31
403.302	90.31
403.526	76.31
403.75	83.31
403.974	81.31
404.198	75.31
404.422	86.31
404.645	63.31
404.869	66.31
405.093	75.31
405.317	86.31
405.541	73.31
405.765	70.31
405.988	67.31
406.212	93.31
406.436	87.31
406.66	90.31
406.883	80.31
407.107	78.31
407.331	70.31
407.555	87.31
407.778	90.31
408.002	91.31
408.226	71.31
408.449	80.31
408.673	74.31
408.896	82.31
409.12	67.31
409.344	65.31
409.567	86.31
409.791	78.31
410.014	78.31
410.238	76.31
410.461	82.31
410.685	83.31
410.908	98.31
411.132	91.31
411.355	76.31
411.578	70.31
411.802	73.31
412.025	67.31
412.249	76.31
412.472	77.31
412.695	76.31
412.919	78.31
413.142	68.31
413.365	80.31
413.589	72.31
413.812	78.31
414.035	79.31
414.258	81.31
414.482	79.31
414.705	74.31
414.928	88.31
415.151	105.31
415.374	71.31
415.597	78.31
415.821	76.31
416.044	67.31
416.267	74.31
416.49	80.31
416.713	82.31
416.936	81.31
417.159	76.31
417.382	69.31
417.605	77.31
417.828	83.31
418.051	91.31
418.274	88.31
418.497	78.31
418.72	76.31
418.943	97.31
419.166	66.31
419.389	65.31
419.611	82.31
419.834	72.31
420.057	81.31
420.28	67.31
420.503	90.31
420.726	76.31
420.948	94.31
421.171	88.31
421.394	83.31
421.617	71.31
421.839	74.31
422.062	97.31
422.285	87.31
422.507	123.31
422.73	186.31
422.953	164.31
423.175	94.31
423.398	92.31
423.621	85.31
423.843	86.31
424.066	88.31
424.288	99.31
424.511	84.31
424.733	83.31
424.956	68.31
425.178	83.31
425.401	81.31
425.623	80.31
425.846	69.31
426.068	87.31
426.291	93.31
426.513	93.31
426.735	81.31
426.958	95.31
427.18	77.31
427.402	87.31
427.625	77.31
427.847	81.31
428.069	76.31
428.292	106.31
428.514	96.31
428.736	78.31
428.958	96.31
429.181	76.31
429.403	94.31
429.625	70.31
429.847	90.31
430.069	106.31
430.292	112.31
430.514	116.31
430.736	90.31
430.958	98.31
431.18	90.31
431.402	76.31
431.624	83.31
431.846	85.31
432.068	86.31
432.29	83.31
432.512	78.31
432.734	82.31
432.956	74.31
433.178	88.31
433.4	84.31
433.622	90.31
433.844	85.31
434.066	73.31
434.287	86.31
434.509	80.31
434.731	79.31
434.953	85.31
435.175	60.31
435.397	77.31
435.618	70.31
435.84	85.31
436.062	85.31
436.284	79.31
436.505	74.31
436.727	86.31
436.949	91.31
437.17	80.31
437.392	82.31
437.614	79.31
437.835	78.31
438.057	74.31
438.278	71.31
438.5	79.31
438.721	80.31
438.943	72.31
439.165	83.31
439.386	83.31
439.608	80.31
439.829	87.31
440.05	85.31
440.272	79.31
440.493	84.31
440.715	83.31
440.936	76.31
441.158	72.31
441.379	82.31
441.6	85.31
441.822	95.31
442.043	91.31
442.264	94.31
442.486	91.31
442.707	88.31
442.928	91.31
443.149	88.31
443.371	95.31
443.592	92.31
443.813	112.31
444.034	97.31
444.255	72.31
444.476	78.31
444.698	77.31
444.919	84.31
445.14	167.31
445.361	133.31
445.582	115.31
445.803	120.31
446.024	86.31
446.245	83.31
446.466	78.31
446.687	63.31
446.908	72.31
447.129	69.31
447.35	74.31
447.571	86.31
447.792	74.31
448.013	71.31
448.234	93.31
448.455	83.31
448.675	80.31
448.896	80.31
449.117	83.31
449.338	72.31
449.559	90.31
449.779	72.31
450	59.31
450.221	74.31
450.442	83.31
450.662	81.31
450.883	87.31
451.104	74.31
451.324	71.31
451.545	75.31
451.766	78.31
451.986	76.31
452.207	72.31
452.428	76.31
452.648	93.31
452.869	90.31
453.089	83.31
453.31	84.31
453.53	80.31
453.751	74.31
453.971	82.31
454.192	90.31
454.412	91.31
454.633	72.31
454.853	67.31
455.073	60.31
455.294	72.31
455.514	86.31
455.734	88.31
455.955	91.31
456.175	80.31
456.395	79.31
456.616	79.31
456.836	79.31
457.056	65.31
457.276	84.31
457.497	78.31
457.717	75.31
457.937	86.31
458.157	83.31
458.377	77.31
458.598	82.31
458.818	78.31
459.038	73.31
459.258	73.31
459.478	71.31
459.698	72.31
459.918	75.31
460.138	68.31
460.358	79.31
460.578	79.31
460.798	88.31
461.018	83.31
461.238	89.31
461.458	80.31
461.678	87.31
461.898	84.31
462.118	90.31
462.338	80.31
462.558	83.31
462.777	81.31
462.997	69.31
463.217	73.31
463.437	85.31
463.657	73.31
463.876	77.31
464.096	75.31
464.316	82.31
464.536	69.31
464.755	68.31
464.975	82.31
465.195	74.31
465.414	83.31
465.634	72.31
465.854	95.31
466.073	78.31
466.293	65.31
466.512	92.31
466.732	82.31
466.951	78.31
467.171	79.31
467.391	70.31
467.61	80.31
467.829	78.31
468.049	83.31
468.268	79.31
468.488	79.31
468.707	92.31
468.927	70.31
469.146	70.31
469.365	81.31
469.585	71.31
469.804	87.31
470.023	91.31
470.243	85.31
470.462	85.31
470.681	88.31
470.901	81.31
471.12	90.31
471.339	78.31
471.558	83.31
471.777	91.31
471.997	75.31
472.216	91.31
472.435	80.31
472.654	75.31
472.873	87.31
473.092	80.31
473.311	90.31
473.53	91.31
473.749	90.31
473.968	78.31
474.187	72.31
474.406	75.31
474.625	68.31
474.844	89.31
475.063	71.31
475.282	76.31
475.501	70.31
475.72	80.31
475.939	89.31
476.158	85.31
476.377	95.31
476.596	79.31
476.814	83.31
477.033	76.31
477.252	86.31
477.471	85.31
477.69	83.31
477.908	98.31
478.127	75.31
478.346	96.31
478.564	71.31
478.783	65.31
479.002	78.31
479.22	90.31
479.439	86.31
479.658	82.31
479.876	77.31
480.095	82.31
480.313	87.31
480.532	70.31
480.751	78.31
480.969	75.31
481.188	74.31
481.406	87.31
481.624	79.31
481.843	73.31
482.061	73.31
482.28	90.31
482.498	65.31
482.717	85.31
482.935	86.31
483.153	82.31
483.372	84.31
483.59	83.31
483.808	78.31
484.027	82.31
484.245	88.31
484.463	93.31
484.681	75.31
484.9	77.31
485.118	79.31
485.336	79.31
485.554	83.31
485.772	79.31
485.99	93.31
486.209	90.31
486.427	70.31
486.645	84.31
486.863	94.31
487.081	85.31
487.299	84.31
487.517	86.31
487.735	88.31
487.953	82.31
488.171	92.31
488.389	84.31
488.607	82.31
488.825	66.31
489.043	90.31
489.261	75.31
489.479	88.31
489.696	72.31
489.914	87.31
490.132	88.31
490.35	71.31
490.568	72.31
490.786	83.31
491.003	86.31
491.221	89.31
491.439	78.31
491.657	75.31
491.874	79.31
492.092	84.31
492.31	74.31
492.527	89.31
492.745	90.31
492.963	77.31
493.18	75.31
493.398	100.31
493.615	86.31
493.833	86.31
494.05	77.31
494.268	71.31
494.485	91.31
494.703	86.31
494.92	70.31
495.138	83.31
495.355	88.31
495.573	78.31
495.79	91.31
496.008	82.31
496.225	84.31
496.442	90.31
496.66	91.31
496.877	72.31
497.094	94.31
497.312	93.31
497.529	68.31
497.746	67.31
497.963	80.31
498.181	83.31
498.398	95.31
498.615	90.31
498.832	79.31
499.049	88.31
499.267	94.31
499.484	92.31
499.701	82.31
499.918	94.31
500.135	71.31
500.352	72.31
500.569	85.31
500.786	92.31
501.003	82.31
501.22	76.31
501.437	80.31
501.654	84.31
501.871	97.31
502.088	70.31
502.305	91.31
502.522	83.31
502.739	82.31
502.956	68.31
503.172	86.31
503.389	85.31
503.606	83.31
503.823	69.31
504.04	92.31
504.256	90.31
504.473	75.31
504.69	77.31
504.907	88.31
505.123	90.31
505.34	79.31
505.557	96.31
505.773	79.31
505.99	77.31
506.207	76.31
506.423	85.31
506.64	85.31
506.856	67.31
507.073	80.31
507.289	79.31
507.506	76.31
507.722	80.31
507.939	87.31
508.155	71.31
508.372	85.31
508.588	67.31
508.805	74.31
509.021	80.31
509.238	71.31
509.454	78.31
509.67	80.31
509.887	70.31
510.103	78.31
510.319	99.31
510.536	76.31
510.752	73.31
510.968	77.31
511.184	75.31
511.401	76.31
511.617	68.31
511.833	85.31
512.049	80.31
512.265	80.31
512.481	87.31
512.698	88.31
512.914	86.31
513.13	80.31
513.346	85.31
513.562	73.31
513.778	76.31
513.994	78.31
514.21	79.31
514.426	93.31
514.642	77.31
514.858	75.31
515.074	82.31
515.29	68.31
515.506	72.31
515.721	86.31
515.937	84.31
516.153	70.31
516.369	79.31
516.585	90.31
516.801	81.31
517.016	77.31
517.232	78.31
517.448	100.31
517.664	74.31
517.879	77.31
518.095	82.31
518.311	89.31
518.527	88.31
518.742	90.31
518.958	79.31
519.173	99.31
519.389	81.31
519.605	86.31
519.82	100.31
