Data from 1600_4_HRD10591_00017.txt Node
Date: Mon Jan 19 13:56:19 EST 2026
User: Yrep
Spectrometer: HR+D1059
Trigger mode: 1
Integration Time (sec): 1.000000E-1
Scans to average: 1
Electric dark correction enabled: true
Nonlinearity correction enabled: false
Boxcar width: 0
XAxis mode: Wavelengths
Number of Pixels in Spectrum: 2048
>>>>>Begin Spectral Data<<<<<
223.165	-14.56
223.4	-14.56
223.635	-14.56
223.869	-24.56
224.104	-21.56
224.338	-17.56
224.573	-11.56
224.808	-18.56
225.042	-13.56
225.277	-3.56
225.511	4.44
225.746	-0.56
225.98	2.44
226.215	13.44
226.449	9.44
226.683	31.44
226.918	23.44
227.152	41.44
227.387	45.44
227.621	30.44
227.856	30.44
228.09	34.44
228.324	50.44
228.559	59.44
228.793	56.44
229.027	54.44
229.262	52.44
229.496	70.44
229.73	70.44
229.964	67.44
230.199	84.44
230.433	61.44
230.667	77.44
230.901	76.44
231.136	80.44
231.37	73.44
231.604	71.44
231.838	77.44
232.072	84.44
232.306	82.44
232.541	88.44
232.775	70.44
233.009	80.44
233.243	91.44
233.477	85.44
233.711	77.44
233.945	81.44
234.179	82.44
234.413	79.44
234.647	83.44
234.881	85.44
235.115	81.44
235.349	72.44
235.583	77.44
235.817	71.44
236.051	76.44
236.285	81.44
236.519	76.44
236.753	74.44
236.987	72.44
237.221	84.44
237.455	80.44
237.689	75.44
237.922	62.44
238.156	82.44
238.39	58.44
238.624	70.44
238.858	69.44
239.091	71.44
239.325	76.44
239.559	78.44
239.793	76.44
240.027	73.44
240.26	89.44
240.494	66.44
240.728	81.44
240.961	64.44
241.195	85.44
241.429	83.44
241.662	77.44
241.896	60.44
242.13	89.44
242.363	80.44
242.597	75.44
242.83	73.44
243.064	70.44
243.298	69.44
243.531	58.44
243.765	72.44
243.998	71.44
244.232	81.44
244.465	77.44
244.699	65.44
244.932	84.44
245.166	77.44
245.399	85.44
245.633	65.44
245.866	70.44
246.099	77.44
246.333	65.44
246.566	79.44
246.8	77.44
247.033	78.44
247.266	93.44
247.5	77.44
247.733	71.44
247.966	77.44
248.2	73.44
248.433	70.44
248.666	81.44
248.899	85.44
249.133	75.44
249.366	80.44
249.599	81.44
249.832	70.44
250.066	80.44
250.299	85.44
250.532	81.44
250.765	82.44
250.998	83.44
251.231	64.44
251.465	77.44
251.698	59.44
251.931	70.44
252.164	80.44
252.397	79.44
252.63	76.44
252.863	77.44
253.096	63.44
253.329	74.44
253.562	74.44
253.795	77.44
254.028	83.44
254.261	79.44
254.494	79.44
254.727	80.44
254.96	86.44
255.193	74.44
255.426	73.44
255.659	86.44
255.892	81.44
256.124	66.44
256.357	64.44
256.59	87.44
256.823	75.44
257.056	71.44
257.289	71.44
257.521	85.44
257.754	84.44
257.987	65.44
258.22	73.44
258.452	77.44
258.685	82.44
258.918	63.44
259.151	76.44
259.383	67.44
259.616	83.44
259.849	87.44
260.081	64.44
260.314	77.44
260.547	85.44
260.779	82.44
261.012	71.44
261.244	69.44
261.477	63.44
261.71	69.44
261.942	70.44
262.175	67.44
262.407	77.44
262.64	65.44
262.872	75.44
263.105	78.44
263.337	85.44
263.57	82.44
263.802	70.44
264.035	74.44
264.267	63.44
264.499	69.44
264.732	69.44
264.964	83.44
265.197	81.44
265.429	91.44
265.661	86.44
265.894	79.44
266.126	86.44
266.358	70.44
266.591	95.44
266.823	75.44
267.055	82.44
267.287	81.44
267.52	75.44
267.752	77.44
267.984	68.44
268.216	69.44
268.448	69.44
268.681	78.44
268.913	71.44
269.145	85.44
269.377	75.44
269.609	60.44
269.841	75.44
270.073	80.44
270.306	81.44
270.538	73.44
270.77	77.44
271.002	83.44
271.234	79.44
271.466	82.44
271.698	70.44
271.93	72.44
272.162	77.44
272.394	92.44
272.626	54.44
272.858	87.44
273.09	90.44
273.322	83.44
273.553	98.44
273.785	79.44
274.017	70.44
274.249	85.44
274.481	83.44
274.713	67.44
274.945	74.44
275.176	74.44
275.408	86.44
275.64	88.44
275.872	77.44
276.104	73.44
276.335	88.44
276.567	96.44
276.799	77.44
277.031	89.44
277.262	89.44
277.494	77.44
277.726	77.44
277.957	88.44
278.189	78.44
278.421	78.44
278.652	85.44
278.884	78.44
279.115	69.44
279.347	87.44
279.579	73.44
279.81	81.44
280.042	87.44
280.273	94.44
280.505	86.44
280.736	93.44
280.968	71.44
281.199	68.44
281.431	82.44
281.662	87.44
281.894	98.44
282.125	85.44
282.356	83.44
282.588	77.44
282.819	79.44
283.051	68.44
283.282	73.44
283.513	67.44
283.745	67.44
283.976	76.44
284.207	94.44
284.439	87.44
284.67	76.44
284.901	83.44
285.132	93.44
285.364	71.44
285.595	85.44
285.826	69.44
286.057	88.44
286.288	82.44
286.52	85.44
286.751	80.44
286.982	89.44
287.213	93.44
287.444	68.44
287.675	91.44
287.906	77.44
288.138	103.44
288.369	89.44
288.6	87.44
288.831	78.44
289.062	89.44
289.293	89.44
289.524	81.44
289.755	83.44
289.986	84.44
290.217	73.44
290.448	80.44
290.679	78.44
290.91	65.44
291.141	79.44
291.371	79.44
291.602	72.44
291.833	77.44
292.064	81.44
292.295	93.44
292.526	92.44
292.757	80.44
292.987	79.44
293.218	73.44
293.449	82.44
293.68	77.44
293.91	69.44
294.141	91.44
294.372	90.44
294.603	87.44
294.833	83.44
295.064	68.44
295.295	84.44
295.525	93.44
295.756	74.44
295.987	81.44
296.217	83.44
296.448	79.44
296.679	90.44
296.909	83.44
297.14	82.44
297.37	82.44
297.601	75.44
297.831	78.44
298.062	78.44
298.292	81.44
298.523	105.44
298.753	73.44
298.984	91.44
299.214	85.44
299.445	85.44
299.675	86.44
299.905	83.44
300.136	81.44
300.366	59.44
300.597	86.44
300.827	73.44
301.057	84.44
301.288	83.44
301.518	81.44
301.748	75.44
301.979	86.44
302.209	93.44
302.439	73.44
302.669	65.44
302.9	72.44
303.13	81.44
303.36	86.44
303.59	91.44
303.82	79.44
304.051	102.44
304.281	59.44
304.511	88.44
304.741	74.44
304.971	93.44
305.201	77.44
305.431	90.44
305.661	79.44
305.891	77.44
306.121	86.44
306.352	87.44
306.582	91.44
306.812	93.44
307.042	82.44
307.272	89.44
307.502	77.44
307.731	92.44
307.961	92.44
308.191	84.44
308.421	73.44
308.651	96.44
308.881	75.44
309.111	97.44
309.341	93.44
309.571	94.44
309.8	89.44
310.03	71.44
310.26	80.44
310.49	77.44
310.72	71.44
310.949	79.44
311.179	85.44
311.409	91.44
311.639	85.44
311.868	86.44
312.098	92.44
312.328	69.44
312.557	79.44
312.787	93.44
313.017	101.44
313.246	77.44
313.476	82.44
313.706	71.44
313.935	85.44
314.165	79.44
314.394	75.44
314.624	67.44
314.853	77.44
315.083	82.44
315.312	68.44
315.542	96.44
315.771	98.44
316.001	76.44
316.23	77.44
316.46	91.44
316.689	74.44
316.919	71.44
317.148	82.44
317.377	69.44
317.607	77.44
317.836	82.44
318.065	84.44
318.295	93.44
318.524	77.44
318.753	96.44
318.983	93.44
319.212	91.44
319.441	66.44
319.67	89.44
319.9	87.44
320.129	87.44
320.358	80.44
320.587	85.44
320.816	83.44
321.046	72.44
321.275	86.44
321.504	90.44
321.733	89.44
321.962	84.44
322.191	79.44
322.42	75.44
322.649	71.44
322.878	78.44
323.108	71.44
323.337	71.44
323.566	86.44
323.795	82.44
324.024	86.44
324.253	77.44
324.482	77.44
324.71	90.44
324.939	83.44
325.168	77.44
325.397	75.44
325.626	78.44
325.855	81.44
326.084	90.44
326.313	87.44
326.542	89.44
326.77	85.44
326.999	92.44
327.228	87.44
327.457	92.44
327.686	75.44
327.914	66.44
328.143	84.44
328.372	78.44
328.6	80.44
328.829	73.44
329.058	78.44
329.287	94.44
329.515	67.44
329.744	76.44
329.972	77.44
330.201	81.44
330.43	84.44
330.658	77.44
330.887	81.44
331.115	70.44
331.344	66.44
331.572	89.44
331.801	85.44
332.03	82.44
332.258	84.44
332.486	87.44
332.715	76.44
332.943	70.44
333.172	71.44
333.4	74.44
333.629	84.44
333.857	89.44
334.085	84.44
334.314	89.44
334.542	79.44
334.771	87.44
334.999	75.44
335.227	83.44
335.455	78.44
335.684	83.44
335.912	84.44
336.14	86.44
336.369	71.44
336.597	83.44
336.825	73.44
337.053	77.44
337.281	86.44
337.51	89.44
337.738	79.44
337.966	85.44
338.194	75.44
338.422	86.44
338.65	100.44
338.878	82.44
339.106	76.44
339.334	82.44
339.562	93.44
339.79	91.44
340.018	80.44
340.246	87.44
340.474	74.44
340.702	78.44
340.93	82.44
341.158	82.44
341.386	57.44
341.614	70.44
341.842	94.44
342.07	73.44
342.298	77.44
342.526	82.44
342.754	74.44
342.981	71.44
343.209	85.44
343.437	85.44
343.665	87.44
343.893	83.44
344.12	76.44
344.348	74.44
344.576	91.44
344.804	85.44
345.031	97.44
345.259	65.44
345.487	98.44
345.714	85.44
345.942	74.44
346.17	92.44
346.397	71.44
346.625	76.44
346.853	83.44
347.08	76.44
347.308	76.44
347.535	65.44
347.763	83.44
347.99	86.44
348.218	78.44
348.445	89.44
348.673	91.44
348.9	78.44
349.128	74.44
349.355	82.44
349.583	74.44
349.81	80.44
350.037	92.44
350.265	101.44
350.492	77.44
350.72	69.44
350.947	87.44
351.174	100.44
351.402	87.44
351.629	85.44
351.856	78.44
352.083	63.44
352.311	76.44
352.538	84.44
352.765	59.44
352.992	77.44
353.22	90.44
353.447	83.44
353.674	88.44
353.901	93.44
354.128	71.44
354.355	73.44
354.583	91.44
354.81	83.44
355.037	87.44
355.264	81.44
355.491	86.44
355.718	82.44
355.945	85.44
356.172	84.44
356.399	91.44
356.626	98.44
356.853	96.44
357.08	88.44
357.307	81.44
357.534	71.44
357.761	71.44
357.988	89.44
358.215	85.44
358.441	83.44
358.668	99.44
358.895	83.44
359.122	92.44
359.349	82.44
359.576	77.44
359.802	86.44
360.029	74.44
360.256	84.44
360.483	71.44
360.709	81.44
360.936	83.44
361.163	84.44
361.39	76.44
361.616	69.44
361.843	78.44
362.07	92.44
362.296	94.44
362.523	88.44
362.749	78.44
362.976	81.44
363.203	97.44
363.429	86.44
363.656	77.44
363.882	82.44
364.109	82.44
364.335	100.44
364.562	87.44
364.788	69.44
365.015	95.44
365.241	75.44
365.468	81.44
365.694	85.44
365.92	75.44
366.147	84.44
366.373	78.44
366.599	75.44
366.826	73.44
367.052	94.44
367.278	81.44
367.505	86.44
367.731	95.44
367.957	83.44
368.184	69.44
368.41	69.44
368.636	90.44
368.862	87.44
369.089	77.44
369.315	73.44
369.541	83.44
369.767	75.44
369.993	78.44
370.219	70.44
370.445	82.44
370.672	77.44
370.898	82.44
371.124	81.44
371.35	88.44
371.576	77.44
371.802	81.44
372.028	95.44
372.254	91.44
372.48	73.44
372.706	75.44
372.932	77.44
373.158	77.44
373.384	95.44
373.61	78.44
373.835	83.44
374.061	86.44
374.287	93.44
374.513	91.44
374.739	102.44
374.965	91.44
375.191	83.44
375.416	83.44
375.642	81.44
375.868	86.44
376.094	86.44
376.319	82.44
376.545	81.44
376.771	86.44
376.997	82.44
377.222	76.44
377.448	79.44
377.674	78.44
377.899	71.44
378.125	85.44
378.35	91.44
378.576	79.44
378.802	81.44
379.027	76.44
379.253	78.44
379.478	100.44
379.704	84.44
379.929	75.44
380.155	82.44
380.38	85.44
380.606	82.44
380.831	70.44
381.057	78.44
381.282	99.44
381.507	88.44
381.733	81.44
381.958	85.44
382.184	101.44
382.409	92.44
382.634	84.44
382.86	99.44
383.085	93.44
383.31	96.44
383.535	96.44
383.761	99.44
383.986	112.44
384.211	84.44
384.436	82.44
384.662	73.44
384.887	73.44
385.112	99.44
385.337	76.44
385.562	75.44
385.787	69.44
386.013	91.44
386.238	79.44
386.463	82.44
386.688	97.44
386.913	66.44
387.138	70.44
387.363	78.44
387.588	86.44
387.813	77.44
388.038	89.44
388.263	75.44
388.488	90.44
388.713	93.44
388.938	89.44
389.163	83.44
389.387	79.44
389.612	83.44
389.837	83.44
390.062	88.44
390.287	73.44
390.512	79.44
390.736	84.44
390.961	68.44
391.186	75.44
391.411	72.44
391.636	62.44
391.86	91.44
392.085	87.44
392.31	73.44
392.534	95.44
392.759	93.44
392.984	116.44
393.208	134.44
393.433	171.44
393.658	129.44
393.882	88.44
394.107	105.44
394.331	98.44
394.556	119.44
394.78	81.44
395.005	79.44
395.229	90.44
395.454	79.44
395.678	85.44
395.903	103.44
396.127	100.44
396.352	112.44
396.576	124.44
396.801	135.44
397.025	147.44
397.249	97.44
397.474	92.44
397.698	95.44
397.922	100.44
398.147	75.44
398.371	84.44
398.595	89.44
398.82	89.44
399.044	75.44
399.268	81.44
399.492	69.44
399.717	85.44
399.941	92.44
400.165	89.44
400.389	74.44
400.613	76.44
400.837	86.44
401.062	79.44
401.286	80.44
401.51	85.44
401.734	85.44
401.958	79.44
402.182	81.44
402.406	103.44
402.63	85.44
402.854	79.44
403.078	98.44
403.302	85.44
403.526	81.44
403.75	89.44
403.974	69.44
404.198	100.44
404.422	92.44
404.645	96.44
404.869	95.44
405.093	85.44
405.317	80.44
405.541	89.44
405.765	85.44
405.988	73.44
406.212	82.44
406.436	87.44
406.66	89.44
406.883	87.44
407.107	77.44
407.331	90.44
407.555	83.44
407.778	86.44
408.002	91.44
408.226	89.44
408.449	83.44
408.673	67.44
408.896	96.44
409.12	81.44
409.344	78.44
409.567	82.44
409.791	76.44
410.014	99.44
410.238	85.44
410.461	80.44
410.685	81.44
410.908	81.44
411.132	67.44
411.355	76.44
411.578	87.44
411.802	74.44
412.025	86.44
412.249	87.44
412.472	79.44
412.695	83.44
412.919	78.44
413.142	93.44
413.365	81.44
413.589	80.44
413.812	79.44
414.035	85.44
414.258	79.44
414.482	84.44
414.705	85.44
414.928	83.44
415.151	71.44
415.374	64.44
415.597	81.44
415.821	73.44
416.044	77.44
416.267	70.44
416.49	82.44
416.713	71.44
416.936	88.44
417.159	73.44
417.382	61.44
417.605	75.44
417.828	63.44
418.051	83.44
418.274	99.44
418.497	89.44
418.72	75.44
418.943	89.44
419.166	81.44
419.389	83.44
419.611	79.44
419.834	71.44
420.057	89.44
420.28	83.44
420.503	86.44
420.726	91.44
420.948	94.44
421.171	91.44
421.394	65.44
421.617	89.44
421.839	82.44
422.062	94.44
422.285	95.44
422.507	154.44
422.73	229.44
422.953	211.44
423.175	103.44
423.398	77.44
423.621	83.44
423.843	65.44
424.066	78.44
424.288	73.44
424.511	84.44
424.733	97.44
424.956	98.44
425.178	77.44
425.401	77.44
425.623	86.44
425.846	78.44
426.068	82.44
426.291	80.44
426.513	81.44
426.735	88.44
426.958	77.44
427.18	79.44
427.402	92.44
427.625	85.44
427.847	77.44
428.069	74.44
428.292	83.44
428.514	96.44
428.736	105.44
428.958	102.44
429.181	105.44
429.403	91.44
429.625	88.44
429.847	73.44
430.069	102.44
430.292	119.44
430.514	100.44
430.736	95.44
430.958	111.44
431.18	100.44
431.402	88.44
431.624	87.44
431.846	105.44
432.068	97.44
432.29	91.44
432.512	95.44
432.734	100.44
432.956	91.44
433.178	79.44
433.4	75.44
433.622	88.44
433.844	86.44
434.066	85.44
434.287	83.44
434.509	83.44
434.731	88.44
434.953	85.44
435.175	80.44
435.397	82.44
435.618	87.44
435.84	71.44
436.062	84.44
436.284	83.44
436.505	90.44
436.727	85.44
436.949	71.44
437.17	84.44
437.392	93.44
437.614	81.44
437.835	81.44
438.057	79.44
438.278	90.44
438.5	89.44
438.721	73.44
438.943	78.44
439.165	89.44
439.386	80.44
439.608	84.44
439.829	83.44
440.05	88.44
440.272	74.44
440.493	79.44
440.715	88.44
440.936	93.44
441.158	81.44
441.379	91.44
441.6	75.44
441.822	82.44
442.043	85.44
442.264	73.44
442.486	90.44
442.707	105.44
442.928	91.44
443.149	80.44
443.371	92.44
443.592	129.44
443.813	109.44
444.034	88.44
444.255	100.44
444.476	87.44
444.698	93.44
444.919	86.44
445.14	138.44
445.361	134.44
445.582	141.44
445.803	122.44
446.024	80.44
446.245	87.44
446.466	83.44
446.687	75.44
446.908	92.44
447.129	78.44
447.35	91.44
447.571	85.44
447.792	87.44
448.013	86.44
448.234	86.44
448.455	77.44
448.675	77.44
448.896	91.44
449.117	81.44
449.338	78.44
449.559	85.44
449.779	81.44
450	74.44
450.221	78.44
450.442	82.44
450.662	93.44
450.883	83.44
451.104	84.44
451.324	81.44
451.545	79.44
451.766	85.44
451.986	93.44
452.207	91.44
452.428	76.44
452.648	81.44
452.869	90.44
453.089	81.44
453.31	79.44
453.53	90.44
453.751	92.44
453.971	75.44
454.192	74.44
454.412	74.44
454.633	76.44
454.853	96.44
455.073	86.44
455.294	94.44
455.514	78.44
455.734	85.44
455.955	72.44
456.175	82.44
456.395	87.44
456.616	90.44
456.836	85.44
457.056	84.44
457.276	84.44
457.497	79.44
457.717	82.44
457.937	85.44
458.157	90.44
458.377	88.44
458.598	98.44
458.818	82.44
459.038	71.44
459.258	90.44
459.478	83.44
459.698	71.44
459.918	93.44
460.138	77.44
460.358	75.44
460.578	102.44
460.798	89.44
461.018	111.44
461.238	83.44
461.458	83.44
461.678	89.44
461.898	89.44
462.118	91.44
462.338	81.44
462.558	72.44
462.777	77.44
462.997	78.44
463.217	80.44
463.437	76.44
463.657	81.44
463.876	91.44
464.096	64.44
464.316	73.44
464.536	62.44
464.755	68.44
464.975	80.44
465.195	79.44
465.414	77.44
465.634	78.44
465.854	90.44
466.073	85.44
466.293	79.44
466.512	87.44
466.732	75.44
466.951	75.44
467.171	92.44
467.391	88.44
467.61	94.44
467.829	82.44
468.049	81.44
468.268	70.44
468.488	77.44
468.707	86.44
468.927	93.44
469.146	80.44
469.365	72.44
469.585	86.44
469.804	84.44
470.023	67.44
470.243	71.44
470.462	83.44
470.681	94.44
470.901	88.44
471.12	72.44
471.339	81.44
471.558	76.44
471.777	75.44
471.997	87.44
472.216	79.44
472.435	71.44
472.654	81.44
472.873	81.44
473.092	78.44
473.311	79.44
473.53	81.44
473.749	78.44
473.968	69.44
474.187	103.44
474.406	68.44
474.625	92.44
474.844	77.44
475.063	86.44
475.282	72.44
475.501	89.44
475.72	95.44
475.939	84.44
476.158	82.44
476.377	80.44
476.596	89.44
476.814	74.44
477.033	89.44
477.252	70.44
477.471	82.44
477.69	82.44
477.908	91.44
478.127	78.44
478.346	86.44
478.564	80.44
478.783	82.44
479.002	80.44
479.22	92.44
479.439	89.44
479.658	86.44
479.876	76.44
480.095	84.44
480.313	77.44
480.532	76.44
480.751	82.44
480.969	92.44
481.188	89.44
481.406	100.44
481.624	83.44
481.843	77.44
482.061	81.44
482.28	71.44
482.498	73.44
482.717	77.44
482.935	78.44
483.153	87.44
483.372	89.44
483.59	95.44
483.808	75.44
484.027	81.44
484.245	79.44
484.463	90.44
484.681	83.44
484.9	94.44
485.118	75.44
485.336	91.44
485.554	90.44
485.772	79.44
485.99	86.44
486.209	84.44
486.427	71.44
486.645	72.44
486.863	83.44
487.081	85.44
487.299	101.44
487.517	77.44
487.735	96.44
487.953	115.44
488.171	90.44
488.389	95.44
488.607	82.44
488.825	87.44
489.043	84.44
489.261	78.44
489.479	92.44
489.696	92.44
489.914	88.44
490.132	85.44
490.35	87.44
490.568	78.44
490.786	91.44
491.003	89.44
491.221	96.44
491.439	99.44
491.657	81.44
491.874	87.44
492.092	94.44
492.31	83.44
492.527	91.44
492.745	75.44
492.963	75.44
493.18	77.44
493.398	80.44
493.615	79.44
493.833	67.44
494.05	80.44
494.268	95.44
494.485	89.44
494.703	101.44
494.92	86.44
495.138	77.44
495.355	81.44
495.573	89.44
495.79	81.44
496.008	95.44
496.225	86.44
496.442	85.44
496.66	82.44
496.877	82.44
497.094	93.44
497.312	71.44
497.529	86.44
497.746	100.44
497.963	76.44
498.181	74.44
498.398	69.44
498.615	93.44
498.832	93.44
499.049	87.44
499.267	86.44
499.484	78.44
499.701	92.44
499.918	87.44
500.135	84.44
500.352	81.44
500.569	91.44
500.786	80.44
501.003	93.44
501.22	81.44
501.437	86.44
501.654	84.44
501.871	74.44
502.088	79.44
502.305	83.44
502.522	82.44
502.739	90.44
502.956	74.44
503.172	89.44
503.389	82.44
503.606	92.44
503.823	73.44
504.04	90.44
504.256	102.44
504.473	93.44
504.69	77.44
504.907	96.44
505.123	82.44
505.34	88.44
505.557	89.44
505.773	67.44
505.99	67.44
506.207	85.44
506.423	78.44
506.64	85.44
506.856	85.44
507.073	74.44
507.289	78.44
507.506	71.44
507.722	88.44
507.939	100.44
508.155	80.44
508.372	81.44
508.588	76.44
508.805	87.44
509.021	85.44
509.238	94.44
509.454	82.44
509.67	71.44
509.887	73.44
510.103	84.44
510.319	82.44
510.536	78.44
510.752	76.44
510.968	78.44
511.184	84.44
511.401	81.44
511.617	77.44
511.833	82.44
512.049	85.44
512.265	91.44
512.481	75.44
512.698	79.44
512.914	82.44
513.13	93.44
513.346	77.44
513.562	73.44
513.778	89.44
513.994	81.44
514.21	93.44
514.426	84.44
514.642	86.44
514.858	81.44
515.074	85.44
515.29	74.44
515.506	93.44
515.721	85.44
515.937	86.44
516.153	77.44
516.369	82.44
516.585	91.44
516.801	83.44
517.016	89.44
517.232	85.44
517.448	96.44
517.664	97.44
517.879	74.44
518.095	88.44
518.311	92.44
518.527	110.44
518.742	101.44
518.958	97.44
519.173	91.44
519.389	82.44
