Data from 1600_4_HRD10591_00043.txt Node
Date: Mon Jan 19 13:56:32 EST 2026
User: Yrep
Spectrometer: HR+D1059
Trigger mode: 1
Integration Time (sec): 1.000000E-1
Scans to average: 1
Electric dark correction enabled: true
Nonlinearity correction enabled: false
Boxcar width: 0
XAxis mode: Wavelengths
Number of Pixels in Spectrum: 2048
>>>>>Begin Spectral Data<<<<<
223.165	-12.94
223.4	-12.94
223.635	-12.94
223.869	-27.94
224.104	-5.94
224.338	-9.94
224.573	-17.94
224.808	-17.94
225.042	-7.94
225.277	-9.94
225.511	-7.94
225.746	-1.94
225.98	5.06
226.215	15.06
226.449	25.06
226.683	17.06
226.918	25.06
227.152	33.06
227.387	35.06
227.621	34.06
227.856	52.06
228.09	55.06
228.324	53.06
228.559	63.06
228.793	58.06
229.027	68.06
229.262	55.06
229.496	69.06
229.73	63.06
229.964	81.06
230.199	70.06
230.433	79.06
230.667	74.06
230.901	73.06
231.136	89.06
231.37	77.06
231.604	83.06
231.838	67.06
232.072	84.06
232.306	68.06
232.541	74.06
232.775	75.06
233.009	66.06
233.243	77.06
233.477	64.06
233.711	70.06
233.945	98.06
234.179	64.06
234.413	69.06
234.647	80.06
234.881	85.06
235.115	91.06
235.349	93.06
235.583	87.06
235.817	76.06
236.051	82.06
236.285	69.06
236.519	71.06
236.753	79.06
236.987	86.06
237.221	68.06
237.455	67.06
237.689	80.06
237.922	86.06
238.156	63.06
238.39	89.06
238.624	67.06
238.858	54.06
239.091	83.06
239.325	86.06
239.559	78.06
239.793	65.06
240.027	75.06
240.26	69.06
240.494	83.06
240.728	69.06
240.961	75.06
241.195	69.06
241.429	78.06
241.662	69.06
241.896	80.06
242.13	77.06
242.363	68.06
242.597	61.06
242.83	90.06
243.064	89.06
243.298	70.06
243.531	65.06
243.765	82.06
243.998	69.06
244.232	90.06
244.465	82.06
244.699	58.06
244.932	81.06
245.166	63.06
245.399	81.06
245.633	61.06
245.866	77.06
246.099	86.06
246.333	63.06
246.566	90.06
246.8	69.06
247.033	75.06
247.266	77.06
247.5	78.06
247.733	65.06
247.966	73.06
248.2	67.06
248.433	67.06
248.666	75.06
248.899	78.06
249.133	73.06
249.366	69.06
249.599	69.06
249.832	72.06
250.066	83.06
250.299	71.06
250.532	67.06
250.765	70.06
250.998	78.06
251.231	63.06
251.465	61.06
251.698	74.06
251.931	94.06
252.164	85.06
252.397	59.06
252.63	78.06
252.863	76.06
253.096	75.06
253.329	95.06
253.562	81.06
253.795	81.06
254.028	93.06
254.261	81.06
254.494	66.06
254.727	81.06
254.96	79.06
255.193	70.06
255.426	70.06
255.659	78.06
255.892	78.06
256.124	66.06
256.357	72.06
256.59	80.06
256.823	93.06
257.056	86.06
257.289	70.06
257.521	93.06
257.754	74.06
257.987	67.06
258.22	67.06
258.452	81.06
258.685	85.06
258.918	81.06
259.151	68.06
259.383	79.06
259.616	67.06
259.849	81.06
260.081	77.06
260.314	79.06
260.547	84.06
260.779	69.06
261.012	71.06
261.244	73.06
261.477	73.06
261.71	69.06
261.942	71.06
262.175	74.06
262.407	81.06
262.64	78.06
262.872	74.06
263.105	81.06
263.337	67.06
263.57	70.06
263.802	73.06
264.035	81.06
264.267	79.06
264.499	83.06
264.732	83.06
264.964	83.06
265.197	75.06
265.429	73.06
265.661	78.06
265.894	91.06
266.126	73.06
266.358	81.06
266.591	69.06
266.823	70.06
267.055	78.06
267.287	85.06
267.52	74.06
267.752	71.06
267.984	83.06
268.216	89.06
268.448	94.06
268.681	94.06
268.913	78.06
269.145	89.06
269.377	77.06
269.609	82.06
269.841	85.06
270.073	79.06
270.306	55.06
270.538	79.06
270.77	94.06
271.002	87.06
271.234	78.06
271.466	73.06
271.698	91.06
271.93	86.06
272.162	72.06
272.394	74.06
272.626	74.06
272.858	82.06
273.09	78.06
273.322	85.06
273.553	90.06
273.785	83.06
274.017	63.06
274.249	79.06
274.481	82.06
274.713	73.06
274.945	94.06
275.176	68.06
275.408	84.06
275.64	74.06
275.872	85.06
276.104	83.06
276.335	88.06
276.567	77.06
276.799	96.06
277.031	88.06
277.262	76.06
277.494	73.06
277.726	80.06
277.957	80.06
278.189	76.06
278.421	78.06
278.652	69.06
278.884	82.06
279.115	79.06
279.347	88.06
279.579	90.06
279.81	77.06
280.042	83.06
280.273	88.06
280.505	83.06
280.736	82.06
280.968	87.06
281.199	85.06
281.431	74.06
281.662	73.06
281.894	79.06
282.125	79.06
282.356	84.06
282.588	94.06
282.819	89.06
283.051	73.06
283.282	75.06
283.513	82.06
283.745	80.06
283.976	82.06
284.207	77.06
284.439	93.06
284.67	88.06
284.901	91.06
285.132	80.06
285.364	79.06
285.595	98.06
285.826	80.06
286.057	71.06
286.288	73.06
286.52	86.06
286.751	84.06
286.982	81.06
287.213	84.06
287.444	77.06
287.675	80.06
287.906	91.06
288.138	81.06
288.369	75.06
288.6	76.06
288.831	89.06
289.062	80.06
289.293	81.06
289.524	91.06
289.755	77.06
289.986	84.06
290.217	69.06
290.448	81.06
290.679	79.06
290.91	82.06
291.141	83.06
291.371	91.06
291.602	85.06
291.833	71.06
292.064	65.06
292.295	86.06
292.526	84.06
292.757	83.06
292.987	79.06
293.218	72.06
293.449	81.06
293.68	70.06
293.91	74.06
294.141	77.06
294.372	80.06
294.603	83.06
294.833	82.06
295.064	78.06
295.295	78.06
295.525	77.06
295.756	88.06
295.987	79.06
296.217	78.06
296.448	74.06
296.679	71.06
296.909	86.06
297.14	86.06
297.37	64.06
297.601	83.06
297.831	86.06
298.062	93.06
298.292	84.06
298.523	89.06
298.753	80.06
298.984	77.06
299.214	86.06
299.445	80.06
299.675	91.06
299.905	83.06
300.136	94.06
300.366	83.06
300.597	85.06
300.827	80.06
301.057	77.06
301.288	70.06
301.518	73.06
301.748	83.06
301.979	88.06
302.209	95.06
302.439	62.06
302.669	92.06
302.9	91.06
303.13	70.06
303.36	73.06
303.59	77.06
303.82	86.06
304.051	94.06
304.281	86.06
304.511	93.06
304.741	95.06
304.971	99.06
305.201	78.06
305.431	81.06
305.661	81.06
305.891	81.06
306.121	65.06
306.352	85.06
306.582	82.06
306.812	91.06
307.042	74.06
307.272	80.06
307.502	74.06
307.731	75.06
307.961	77.06
308.191	82.06
308.421	93.06
308.651	85.06
308.881	76.06
309.111	84.06
309.341	88.06
309.571	80.06
309.8	73.06
310.03	80.06
310.26	76.06
310.49	86.06
310.72	84.06
310.949	77.06
311.179	65.06
311.409	85.06
311.639	78.06
311.868	68.06
312.098	76.06
312.328	78.06
312.557	71.06
312.787	88.06
313.017	89.06
313.246	83.06
313.476	82.06
313.706	74.06
313.935	70.06
314.165	88.06
314.394	85.06
314.624	83.06
314.853	80.06
315.083	87.06
315.312	81.06
315.542	76.06
315.771	74.06
316.001	84.06
316.23	68.06
316.46	70.06
316.689	68.06
316.919	96.06
317.148	92.06
317.377	90.06
317.607	100.06
317.836	77.06
318.065	76.06
318.295	101.06
318.524	70.06
318.753	82.06
318.983	75.06
319.212	68.06
319.441	86.06
319.67	87.06
319.9	95.06
320.129	91.06
320.358	78.06
320.587	91.06
320.816	85.06
321.046	83.06
321.275	77.06
321.504	86.06
321.733	77.06
321.962	73.06
322.191	80.06
322.42	84.06
322.649	83.06
322.878	89.06
323.108	81.06
323.337	87.06
323.566	85.06
323.795	78.06
324.024	75.06
324.253	88.06
324.482	81.06
324.71	81.06
324.939	85.06
325.168	70.06
325.397	83.06
325.626	95.06
325.855	85.06
326.084	85.06
326.313	72.06
326.542	77.06
326.77	85.06
326.999	85.06
327.228	89.06
327.457	79.06
327.686	85.06
327.914	86.06
328.143	82.06
328.372	75.06
328.6	81.06
328.829	80.06
329.058	74.06
329.287	77.06
329.515	92.06
329.744	79.06
329.972	83.06
330.201	78.06
330.43	77.06
330.658	79.06
330.887	78.06
331.115	75.06
331.344	79.06
331.572	68.06
331.801	66.06
332.03	72.06
332.258	71.06
332.486	94.06
332.715	87.06
332.943	64.06
333.172	81.06
333.4	77.06
333.629	86.06
333.857	87.06
334.085	74.06
334.314	89.06
334.542	99.06
334.771	73.06
334.999	85.06
335.227	82.06
335.455	72.06
335.684	91.06
335.912	73.06
336.14	76.06
336.369	76.06
336.597	82.06
336.825	74.06
337.053	75.06
337.281	71.06
337.51	77.06
337.738	92.06
337.966	72.06
338.194	75.06
338.422	70.06
338.65	91.06
338.878	79.06
339.106	77.06
339.334	83.06
339.562	69.06
339.79	79.06
340.018	82.06
340.246	80.06
340.474	83.06
340.702	88.06
340.93	82.06
341.158	81.06
341.386	75.06
341.614	82.06
341.842	81.06
342.07	82.06
342.298	70.06
342.526	80.06
342.754	90.06
342.981	89.06
343.209	87.06
343.437	88.06
343.665	65.06
343.893	90.06
344.12	99.06
344.348	81.06
344.576	68.06
344.804	86.06
345.031	67.06
345.259	72.06
345.487	72.06
345.714	80.06
345.942	83.06
346.17	66.06
346.397	75.06
346.625	74.06
346.853	88.06
347.08	85.06
347.308	80.06
347.535	80.06
347.763	69.06
347.99	85.06
348.218	85.06
348.445	79.06
348.673	85.06
348.9	75.06
349.128	78.06
349.355	97.06
349.583	83.06
349.81	65.06
350.037	70.06
350.265	85.06
350.492	94.06
350.72	79.06
350.947	92.06
351.174	80.06
351.402	74.06
351.629	81.06
351.856	98.06
352.083	70.06
352.311	77.06
352.538	91.06
352.765	67.06
352.992	101.06
353.22	86.06
353.447	75.06
353.674	83.06
353.901	74.06
354.128	74.06
354.355	88.06
354.583	90.06
354.81	85.06
355.037	76.06
355.264	81.06
355.491	78.06
355.718	83.06
355.945	89.06
356.172	64.06
356.399	77.06
356.626	75.06
356.853	79.06
357.08	82.06
357.307	87.06
357.534	71.06
357.761	79.06
357.988	72.06
358.215	83.06
358.441	68.06
358.668	75.06
358.895	87.06
359.122	83.06
359.349	87.06
359.576	79.06
359.802	77.06
360.029	73.06
360.256	76.06
360.483	85.06
360.709	71.06
360.936	76.06
361.163	97.06
361.39	87.06
361.616	77.06
361.843	89.06
362.07	75.06
362.296	77.06
362.523	76.06
362.749	91.06
362.976	89.06
363.203	81.06
363.429	101.06
363.656	67.06
363.882	75.06
364.109	85.06
364.335	81.06
364.562	78.06
364.788	76.06
365.015	91.06
365.241	76.06
365.468	89.06
365.694	69.06
365.92	75.06
366.147	78.06
366.373	85.06
366.599	85.06
366.826	74.06
367.052	69.06
367.278	85.06
367.505	84.06
367.731	79.06
367.957	78.06
368.184	72.06
368.41	82.06
368.636	81.06
368.862	69.06
369.089	88.06
369.315	88.06
369.541	79.06
369.767	76.06
369.993	80.06
370.219	81.06
370.445	73.06
370.672	82.06
370.898	85.06
371.124	74.06
371.35	72.06
371.576	85.06
371.802	87.06
372.028	87.06
372.254	69.06
372.48	88.06
372.706	77.06
372.932	91.06
373.158	81.06
373.384	84.06
373.61	96.06
373.835	103.06
374.061	77.06
374.287	81.06
374.513	79.06
374.739	75.06
374.965	89.06
375.191	90.06
375.416	79.06
375.642	72.06
375.868	78.06
376.094	73.06
376.319	91.06
376.545	84.06
376.771	73.06
376.997	77.06
377.222	74.06
377.448	83.06
377.674	69.06
377.899	75.06
378.125	79.06
378.35	76.06
378.576	84.06
378.802	81.06
379.027	86.06
379.253	103.06
379.478	94.06
379.704	87.06
379.929	78.06
380.155	79.06
380.38	82.06
380.606	84.06
380.831	74.06
381.057	84.06
381.282	86.06
381.507	92.06
381.733	87.06
381.958	96.06
382.184	79.06
382.409	77.06
382.634	91.06
382.86	72.06
383.085	93.06
383.31	87.06
383.535	77.06
383.761	80.06
383.986	89.06
384.211	84.06
384.436	91.06
384.662	73.06
384.887	78.06
385.112	62.06
385.337	70.06
385.562	83.06
385.787	84.06
386.013	81.06
386.238	73.06
386.463	69.06
386.688	97.06
386.913	68.06
387.138	78.06
387.363	73.06
387.588	81.06
387.813	93.06
388.038	77.06
388.263	74.06
388.488	90.06
388.713	74.06
388.938	74.06
389.163	79.06
389.387	85.06
389.612	78.06
389.837	73.06
390.062	89.06
390.287	78.06
390.512	77.06
390.736	70.06
390.961	77.06
391.186	77.06
391.411	82.06
391.636	75.06
391.86	77.06
392.085	87.06
392.31	71.06
392.534	66.06
392.759	75.06
392.984	102.06
393.208	130.06
393.433	172.06
393.658	146.06
393.882	101.06
394.107	81.06
394.331	78.06
394.556	92.06
394.78	90.06
395.005	98.06
395.229	84.06
395.454	86.06
395.678	77.06
395.903	97.06
396.127	99.06
396.352	105.06
396.576	113.06
396.801	147.06
397.025	155.06
397.249	109.06
397.474	81.06
397.698	74.06
397.922	80.06
398.147	75.06
398.371	85.06
398.595	84.06
398.82	76.06
399.044	81.06
399.268	75.06
399.492	85.06
399.717	81.06
399.941	77.06
400.165	82.06
400.389	74.06
400.613	63.06
400.837	75.06
401.062	62.06
401.286	75.06
401.51	79.06
401.734	85.06
401.958	67.06
402.182	75.06
402.406	75.06
402.63	71.06
402.854	80.06
403.078	86.06
403.302	75.06
403.526	84.06
403.75	80.06
403.974	83.06
404.198	82.06
404.422	83.06
404.645	94.06
404.869	86.06
405.093	81.06
405.317	89.06
405.541	75.06
405.765	84.06
405.988	74.06
406.212	76.06
406.436	71.06
406.66	77.06
406.883	81.06
407.107	56.06
407.331	77.06
407.555	83.06
407.778	82.06
408.002	79.06
408.226	87.06
408.449	79.06
408.673	63.06
408.896	82.06
409.12	80.06
409.344	68.06
409.567	70.06
409.791	83.06
410.014	84.06
410.238	85.06
410.461	89.06
410.685	67.06
410.908	79.06
411.132	62.06
411.355	77.06
411.578	70.06
411.802	79.06
412.025	81.06
412.249	71.06
412.472	82.06
412.695	65.06
412.919	61.06
413.142	76.06
413.365	78.06
413.589	82.06
413.812	70.06
414.035	84.06
414.258	66.06
414.482	71.06
414.705	66.06
414.928	79.06
415.151	58.06
415.374	81.06
415.597	85.06
415.821	87.06
416.044	85.06
416.267	88.06
416.49	77.06
416.713	71.06
416.936	79.06
417.159	77.06
417.382	77.06
417.605	66.06
417.828	81.06
418.051	70.06
418.274	82.06
418.497	86.06
418.72	83.06
418.943	85.06
419.166	59.06
419.389	86.06
419.611	59.06
419.834	72.06
420.057	77.06
420.28	61.06
420.503	70.06
420.726	78.06
420.948	67.06
421.171	58.06
421.394	73.06
421.617	77.06
421.839	78.06
422.062	92.06
422.285	97.06
422.507	119.06
422.73	149.06
422.953	127.06
423.175	95.06
423.398	71.06
423.621	81.06
423.843	87.06
424.066	75.06
424.288	75.06
424.511	73.06
424.733	84.06
424.956	69.06
425.178	82.06
425.401	77.06
425.623	75.06
425.846	76.06
426.068	79.06
426.291	86.06
426.513	77.06
426.735	90.06
426.958	77.06
427.18	75.06
427.402	73.06
427.625	82.06
427.847	67.06
428.069	71.06
428.292	83.06
428.514	80.06
428.736	77.06
428.958	78.06
429.181	86.06
429.403	73.06
429.625	70.06
429.847	82.06
430.069	90.06
430.292	100.06
430.514	91.06
430.736	77.06
430.958	90.06
431.18	77.06
431.402	89.06
431.624	61.06
431.846	99.06
432.068	73.06
432.29	91.06
432.512	77.06
432.734	82.06
432.956	78.06
433.178	78.06
433.4	70.06
433.622	75.06
433.844	61.06
434.066	71.06
434.287	80.06
434.509	86.06
434.731	88.06
434.953	81.06
435.175	64.06
435.397	78.06
435.618	71.06
435.84	79.06
436.062	80.06
436.284	86.06
436.505	62.06
436.727	82.06
436.949	77.06
437.17	75.06
437.392	77.06
437.614	73.06
437.835	76.06
438.057	84.06
438.278	69.06
438.5	75.06
438.721	89.06
438.943	76.06
439.165	75.06
439.386	82.06
439.608	91.06
439.829	79.06
440.05	80.06
440.272	71.06
440.493	67.06
440.715	65.06
440.936	74.06
441.158	76.06
441.379	71.06
441.6	81.06
441.822	77.06
442.043	65.06
442.264	78.06
442.486	83.06
442.707	81.06
442.928	75.06
443.149	83.06
443.371	97.06
443.592	90.06
443.813	90.06
444.034	89.06
444.255	79.06
444.476	83.06
444.698	79.06
444.919	81.06
445.14	151.06
445.361	139.06
445.582	101.06
445.803	98.06
446.024	93.06
446.245	91.06
446.466	75.06
446.687	82.06
446.908	75.06
447.129	86.06
447.35	67.06
447.571	81.06
447.792	78.06
448.013	77.06
448.234	77.06
448.455	66.06
448.675	89.06
448.896	78.06
449.117	78.06
449.338	69.06
449.559	82.06
449.779	91.06
450	82.06
450.221	73.06
450.442	74.06
450.662	83.06
450.883	83.06
451.104	79.06
451.324	65.06
451.545	70.06
451.766	73.06
451.986	87.06
452.207	89.06
452.428	75.06
452.648	83.06
452.869	85.06
453.089	74.06
453.31	83.06
453.53	73.06
453.751	77.06
453.971	77.06
454.192	70.06
454.412	72.06
454.633	75.06
454.853	81.06
455.073	66.06
455.294	74.06
455.514	80.06
455.734	79.06
455.955	77.06
456.175	81.06
456.395	77.06
456.616	78.06
456.836	78.06
457.056	80.06
457.276	67.06
457.497	74.06
457.717	80.06
457.937	63.06
458.157	64.06
458.377	79.06
458.598	86.06
458.818	78.06
459.038	80.06
459.258	83.06
459.478	73.06
459.698	83.06
459.918	87.06
460.138	71.06
460.358	83.06
460.578	88.06
460.798	73.06
461.018	92.06
461.238	69.06
461.458	90.06
461.678	74.06
461.898	74.06
462.118	75.06
462.338	83.06
462.558	82.06
462.777	65.06
462.997	86.06
463.217	82.06
463.437	82.06
463.657	84.06
463.876	87.06
464.096	81.06
464.316	92.06
464.536	88.06
464.755	83.06
464.975	81.06
465.195	78.06
465.414	74.06
465.634	83.06
465.854	79.06
466.073	70.06
466.293	77.06
466.512	79.06
466.732	82.06
466.951	93.06
467.171	63.06
467.391	72.06
467.61	77.06
467.829	80.06
468.049	79.06
468.268	71.06
468.488	73.06
468.707	79.06
468.927	80.06
469.146	76.06
469.365	88.06
469.585	70.06
469.804	87.06
470.023	78.06
470.243	91.06
470.462	75.06
470.681	82.06
470.901	69.06
471.12	74.06
471.339	70.06
471.558	79.06
471.777	80.06
471.997	92.06
472.216	95.06
472.435	68.06
472.654	83.06
472.873	92.06
473.092	79.06
473.311	75.06
473.53	66.06
473.749	68.06
473.968	85.06
474.187	86.06
474.406	70.06
474.625	79.06
474.844	77.06
475.063	78.06
475.282	77.06
475.501	72.06
475.72	69.06
475.939	69.06
476.158	72.06
476.377	70.06
476.596	95.06
476.814	87.06
477.033	81.06
477.252	85.06
477.471	77.06
477.69	73.06
477.908	83.06
478.127	87.06
478.346	79.06
478.564	72.06
478.783	90.06
479.002	64.06
479.22	79.06
479.439	73.06
479.658	81.06
479.876	75.06
480.095	78.06
480.313	87.06
480.532	80.06
480.751	72.06
480.969	74.06
481.188	75.06
481.406	78.06
481.624	68.06
481.843	73.06
482.061	64.06
482.28	66.06
482.498	84.06
482.717	71.06
482.935	67.06
483.153	76.06
483.372	88.06
483.59	86.06
483.808	79.06
484.027	77.06
484.245	83.06
484.463	85.06
484.681	82.06
484.9	69.06
485.118	82.06
485.336	89.06
485.554	77.06
485.772	65.06
485.99	81.06
486.209	77.06
486.427	77.06
486.645	81.06
486.863	97.06
487.081	77.06
487.299	85.06
487.517	59.06
487.735	89.06
487.953	72.06
488.171	85.06
488.389	69.06
488.607	71.06
488.825	77.06
489.043	89.06
489.261	79.06
489.479	77.06
489.696	82.06
489.914	65.06
490.132	76.06
490.35	69.06
490.568	74.06
490.786	85.06
491.003	83.06
491.221	79.06
491.439	78.06
491.657	68.06
491.874	69.06
492.092	80.06
492.31	89.06
492.527	77.06
492.745	82.06
492.963	85.06
493.18	94.06
493.398	81.06
493.615	82.06
493.833	72.06
494.05	91.06
494.268	79.06
494.485	78.06
494.703	73.06
494.92	79.06
495.138	86.06
495.355	78.06
495.573	76.06
495.79	76.06
496.008	80.06
496.225	76.06
496.442	72.06
496.66	71.06
496.877	82.06
497.094	95.06
497.312	82.06
497.529	77.06
497.746	88.06
497.963	96.06
498.181	84.06
498.398	80.06
498.615	92.06
498.832	72.06
499.049	65.06
499.267	75.06
499.484	72.06
499.701	84.06
499.918	101.06
500.135	85.06
500.352	69.06
500.569	71.06
500.786	92.06
501.003	87.06
501.22	99.06
501.437	80.06
501.654	79.06
501.871	72.06
502.088	75.06
502.305	89.06
502.522	85.06
502.739	98.06
502.956	76.06
503.172	77.06
503.389	82.06
503.606	80.06
503.823	90.06
504.04	83.06
504.256	106.06
504.473	94.06
504.69	71.06
504.907	85.06
505.123	88.06
505.34	84.06
505.557	86.06
505.773	71.06
505.99	77.06
506.207	69.06
506.423	67.06
506.64	82.06
506.856	79.06
507.073	81.06
507.289	76.06
507.506	80.06
507.722	79.06
507.939	83.06
508.155	82.06
508.372	69.06
508.588	77.06
508.805	84.06
509.021	83.06
509.238	85.06
509.454	84.06
509.67	69.06
509.887	84.06
510.103	85.06
510.319	79.06
510.536	80.06
510.752	73.06
510.968	80.06
511.184	74.06
511.401	73.06
511.617	66.06
511.833	73.06
512.049	77.06
512.265	85.06
512.481	86.06
512.698	80.06
512.914	80.06
513.13	76.06
513.346	86.06
513.562	84.06
513.778	99.06
513.994	82.06
514.21	90.06
514.426	72.06
514.642	75.06
514.858	86.06
515.074	77.06
515.29	88.06
515.506	82.06
515.721	96.06
515.937	75.06
516.153	80.06
516.369	82.06
516.585	67.06
516.801	69.06
517.016	88.06
517.232	95.06
517.448	86.06
517.664	79.06
517.879	80.06
518.095	86.06
518.311	91.06
518.527	81.06
518.742	92.06
518.958	83.06
519.173	86.06
519.389	78.06
519.605	84.06
519.82	85.06
520.036	71.06
