Data from 1600_4_HRD10591_00034.txt Node
Date: Mon Jan 19 13:56:27 EST 2026
User: Yrep
Spectrometer: HR+D1059
Trigger mode: 1
Integration Time (sec): 1.000000E-1
Scans to average: 1
Electric dark correction enabled: true
Nonlinearity correction enabled: false
Boxcar width: 0
XAxis mode: Wavelengths
Number of Pixels in Spectrum: 2048
>>>>>Begin Spectral Data<<<<<
223.165	-6.5
223.4	-6.5
223.635	-6.5
223.869	-19.5
224.104	-21.5
224.338	-15.5
224.573	-6.5
224.808	-12.5
225.042	-22.5
225.277	-17.5
225.511	-4.5
225.746	7.5
225.98	7.5
226.215	1.5
226.449	15.5
226.683	24.5
226.918	30.5
227.152	39.5
227.387	32.5
227.621	33.5
227.856	52.5
228.09	46.5
228.324	53.5
228.559	67.5
228.793	62.5
229.027	56.5
229.262	63.5
229.496	76.5
229.73	88.5
229.964	84.5
230.199	65.5
230.433	64.5
230.667	66.5
230.901	84.5
231.136	74.5
231.37	94.5
231.604	87.5
231.838	78.5
232.072	86.5
232.306	65.5
232.541	87.5
232.775	87.5
233.009	89.5
233.243	82.5
233.477	79.5
233.711	98.5
233.945	99.5
234.179	80.5
234.413	80.5
234.647	82.5
234.881	75.5
235.115	88.5
235.349	68.5
235.583	67.5
235.817	74.5
236.051	82.5
236.285	85.5
236.519	69.5
236.753	78.5
236.987	80.5
237.221	74.5
237.455	65.5
237.689	68.5
237.922	71.5
238.156	68.5
238.39	63.5
238.624	84.5
238.858	78.5
239.091	78.5
239.325	77.5
239.559	63.5
239.793	70.5
240.027	70.5
240.26	82.5
240.494	92.5
240.728	66.5
240.961	68.5
241.195	78.5
241.429	70.5
241.662	77.5
241.896	93.5
242.13	74.5
242.363	63.5
242.597	71.5
242.83	75.5
243.064	66.5
243.298	82.5
243.531	80.5
243.765	81.5
243.998	72.5
244.232	80.5
244.465	81.5
244.699	72.5
244.932	68.5
245.166	80.5
245.399	66.5
245.633	73.5
245.866	72.5
246.099	71.5
246.333	82.5
246.566	56.5
246.8	72.5
247.033	60.5
247.266	73.5
247.5	82.5
247.733	89.5
247.966	82.5
248.2	84.5
248.433	90.5
248.666	70.5
248.899	77.5
249.133	78.5
249.366	74.5
249.599	96.5
249.832	80.5
250.066	81.5
250.299	73.5
250.532	68.5
250.765	83.5
250.998	74.5
251.231	78.5
251.465	87.5
251.698	84.5
251.931	78.5
252.164	86.5
252.397	74.5
252.63	72.5
252.863	80.5
253.096	75.5
253.329	84.5
253.562	78.5
253.795	88.5
254.028	87.5
254.261	84.5
254.494	75.5
254.727	78.5
254.96	80.5
255.193	86.5
255.426	81.5
255.659	87.5
255.892	73.5
256.124	76.5
256.357	82.5
256.59	65.5
256.823	74.5
257.056	92.5
257.289	66.5
257.521	73.5
257.754	88.5
257.987	73.5
258.22	101.5
258.452	79.5
258.685	78.5
258.918	77.5
259.151	78.5
259.383	81.5
259.616	69.5
259.849	84.5
260.081	86.5
260.314	71.5
260.547	75.5
260.779	82.5
261.012	85.5
261.244	89.5
261.477	97.5
261.71	92.5
261.942	88.5
262.175	81.5
262.407	85.5
262.64	76.5
262.872	76.5
263.105	83.5
263.337	96.5
263.57	77.5
263.802	84.5
264.035	77.5
264.267	78.5
264.499	79.5
264.732	76.5
264.964	77.5
265.197	73.5
265.429	70.5
265.661	80.5
265.894	78.5
266.126	78.5
266.358	74.5
266.591	91.5
266.823	86.5
267.055	72.5
267.287	82.5
267.52	75.5
267.752	76.5
267.984	80.5
268.216	69.5
268.448	78.5
268.681	74.5
268.913	92.5
269.145	97.5
269.377	93.5
269.609	94.5
269.841	71.5
270.073	78.5
270.306	91.5
270.538	85.5
270.77	67.5
271.002	66.5
271.234	80.5
271.466	66.5
271.698	66.5
271.93	75.5
272.162	80.5
272.394	74.5
272.626	72.5
272.858	87.5
273.09	80.5
273.322	76.5
273.553	86.5
273.785	87.5
274.017	77.5
274.249	74.5
274.481	82.5
274.713	77.5
274.945	90.5
275.176	72.5
275.408	86.5
275.64	78.5
275.872	74.5
276.104	64.5
276.335	62.5
276.567	83.5
276.799	85.5
277.031	72.5
277.262	82.5
277.494	87.5
277.726	76.5
277.957	79.5
278.189	77.5
278.421	86.5
278.652	88.5
278.884	73.5
279.115	91.5
279.347	76.5
279.579	88.5
279.81	100.5
280.042	81.5
280.273	72.5
280.505	88.5
280.736	79.5
280.968	91.5
281.199	69.5
281.431	82.5
281.662	86.5
281.894	83.5
282.125	91.5
282.356	84.5
282.588	89.5
282.819	88.5
283.051	93.5
283.282	95.5
283.513	88.5
283.745	79.5
283.976	70.5
284.207	86.5
284.439	88.5
284.67	84.5
284.901	76.5
285.132	83.5
285.364	77.5
285.595	74.5
285.826	82.5
286.057	92.5
286.288	92.5
286.52	83.5
286.751	91.5
286.982	81.5
287.213	81.5
287.444	81.5
287.675	94.5
287.906	82.5
288.138	84.5
288.369	69.5
288.6	80.5
288.831	86.5
289.062	87.5
289.293	71.5
289.524	96.5
289.755	82.5
289.986	49.5
290.217	83.5
290.448	92.5
290.679	91.5
290.91	80.5
291.141	89.5
291.371	80.5
291.602	79.5
291.833	86.5
292.064	74.5
292.295	82.5
292.526	84.5
292.757	94.5
292.987	85.5
293.218	93.5
293.449	74.5
293.68	87.5
293.91	85.5
294.141	88.5
294.372	93.5
294.603	102.5
294.833	90.5
295.064	93.5
295.295	82.5
295.525	72.5
295.756	82.5
295.987	77.5
296.217	100.5
296.448	92.5
296.679	69.5
296.909	88.5
297.14	85.5
297.37	75.5
297.601	88.5
297.831	76.5
298.062	94.5
298.292	84.5
298.523	86.5
298.753	80.5
298.984	83.5
299.214	97.5
299.445	75.5
299.675	81.5
299.905	87.5
300.136	92.5
300.366	74.5
300.597	102.5
300.827	84.5
301.057	95.5
301.288	76.5
301.518	91.5
301.748	78.5
301.979	94.5
302.209	93.5
302.439	83.5
302.669	92.5
302.9	82.5
303.13	86.5
303.36	78.5
303.59	79.5
303.82	102.5
304.051	85.5
304.281	88.5
304.511	81.5
304.741	72.5
304.971	86.5
305.201	90.5
305.431	80.5
305.661	72.5
305.891	87.5
306.121	84.5
306.352	86.5
306.582	87.5
306.812	86.5
307.042	89.5
307.272	84.5
307.502	67.5
307.731	86.5
307.961	86.5
308.191	85.5
308.421	77.5
308.651	83.5
308.881	78.5
309.111	88.5
309.341	87.5
309.571	77.5
309.8	80.5
310.03	80.5
310.26	89.5
310.49	78.5
310.72	82.5
310.949	91.5
311.179	84.5
311.409	86.5
311.639	85.5
311.868	82.5
312.098	86.5
312.328	79.5
312.557	82.5
312.787	69.5
313.017	78.5
313.246	76.5
313.476	69.5
313.706	90.5
313.935	94.5
314.165	88.5
314.394	84.5
314.624	72.5
314.853	88.5
315.083	99.5
315.312	87.5
315.542	79.5
315.771	83.5
316.001	77.5
316.23	92.5
316.46	67.5
316.689	74.5
316.919	87.5
317.148	92.5
317.377	86.5
317.607	89.5
317.836	75.5
318.065	87.5
318.295	86.5
318.524	92.5
318.753	82.5
318.983	89.5
319.212	88.5
319.441	86.5
319.67	89.5
319.9	82.5
320.129	95.5
320.358	88.5
320.587	79.5
320.816	72.5
321.046	92.5
321.275	86.5
321.504	84.5
321.733	102.5
321.962	85.5
322.191	85.5
322.42	98.5
322.649	84.5
322.878	88.5
323.108	104.5
323.337	86.5
323.566	91.5
323.795	92.5
324.024	88.5
324.253	78.5
324.482	92.5
324.71	82.5
324.939	77.5
325.168	82.5
325.397	88.5
325.626	80.5
325.855	83.5
326.084	105.5
326.313	84.5
326.542	77.5
326.77	86.5
326.999	86.5
327.228	95.5
327.457	81.5
327.686	89.5
327.914	82.5
328.143	84.5
328.372	82.5
328.6	90.5
328.829	88.5
329.058	85.5
329.287	97.5
329.515	81.5
329.744	79.5
329.972	79.5
330.201	85.5
330.43	89.5
330.658	81.5
330.887	74.5
331.115	91.5
331.344	79.5
331.572	78.5
331.801	70.5
332.03	81.5
332.258	74.5
332.486	80.5
332.715	88.5
332.943	75.5
333.172	93.5
333.4	77.5
333.629	80.5
333.857	74.5
334.085	92.5
334.314	85.5
334.542	77.5
334.771	86.5
334.999	68.5
335.227	83.5
335.455	79.5
335.684	76.5
335.912	74.5
336.14	60.5
336.369	70.5
336.597	72.5
336.825	82.5
337.053	84.5
337.281	90.5
337.51	68.5
337.738	90.5
337.966	76.5
338.194	97.5
338.422	77.5
338.65	75.5
338.878	86.5
339.106	90.5
339.334	87.5
339.562	85.5
339.79	90.5
340.018	92.5
340.246	71.5
340.474	84.5
340.702	94.5
340.93	81.5
341.158	83.5
341.386	87.5
341.614	85.5
341.842	70.5
342.07	78.5
342.298	88.5
342.526	87.5
342.754	69.5
342.981	97.5
343.209	81.5
343.437	105.5
343.665	71.5
343.893	88.5
344.12	73.5
344.348	76.5
344.576	76.5
344.804	83.5
345.031	81.5
345.259	78.5
345.487	80.5
345.714	94.5
345.942	80.5
346.17	77.5
346.397	76.5
346.625	81.5
346.853	84.5
347.08	74.5
347.308	73.5
347.535	66.5
347.763	66.5
347.99	85.5
348.218	82.5
348.445	92.5
348.673	91.5
348.9	79.5
349.128	75.5
349.355	88.5
349.583	74.5
349.81	90.5
350.037	95.5
350.265	80.5
350.492	76.5
350.72	76.5
350.947	84.5
351.174	100.5
351.402	88.5
351.629	75.5
351.856	86.5
352.083	79.5
352.311	82.5
352.538	87.5
352.765	94.5
352.992	85.5
353.22	86.5
353.447	88.5
353.674	80.5
353.901	92.5
354.128	87.5
354.355	82.5
354.583	85.5
354.81	91.5
355.037	93.5
355.264	79.5
355.491	82.5
355.718	82.5
355.945	83.5
356.172	80.5
356.399	90.5
356.626	71.5
356.853	73.5
357.08	85.5
357.307	84.5
357.534	83.5
357.761	84.5
357.988	87.5
358.215	92.5
358.441	93.5
358.668	77.5
358.895	95.5
359.122	86.5
359.349	74.5
359.576	81.5
359.802	96.5
360.029	76.5
360.256	79.5
360.483	86.5
360.709	90.5
360.936	94.5
361.163	87.5
361.39	86.5
361.616	81.5
361.843	78.5
362.07	72.5
362.296	92.5
362.523	88.5
362.749	86.5
362.976	73.5
363.203	96.5
363.429	86.5
363.656	78.5
363.882	68.5
364.109	66.5
364.335	89.5
364.562	103.5
364.788	83.5
365.015	82.5
365.241	79.5
365.468	85.5
365.694	73.5
365.92	91.5
366.147	88.5
366.373	72.5
366.599	83.5
366.826	85.5
367.052	83.5
367.278	88.5
367.505	80.5
367.731	95.5
367.957	85.5
368.184	74.5
368.41	80.5
368.636	96.5
368.862	80.5
369.089	68.5
369.315	80.5
369.541	92.5
369.767	86.5
369.993	81.5
370.219	81.5
370.445	87.5
370.672	86.5
370.898	89.5
371.124	85.5
371.35	75.5
371.576	90.5
371.802	88.5
372.028	93.5
372.254	79.5
372.48	78.5
372.706	81.5
372.932	73.5
373.158	86.5
373.384	100.5
373.61	96.5
373.835	87.5
374.061	95.5
374.287	78.5
374.513	99.5
374.739	87.5
374.965	96.5
375.191	90.5
375.416	78.5
375.642	83.5
375.868	93.5
376.094	90.5
376.319	82.5
376.545	84.5
376.771	78.5
376.997	97.5
377.222	84.5
377.448	85.5
377.674	92.5
377.899	86.5
378.125	73.5
378.35	88.5
378.576	75.5
378.802	90.5
379.027	87.5
379.253	82.5
379.478	71.5
379.704	91.5
379.929	80.5
380.155	88.5
380.38	82.5
380.606	82.5
380.831	84.5
381.057	95.5
381.282	88.5
381.507	96.5
381.733	63.5
381.958	81.5
382.184	87.5
382.409	80.5
382.634	70.5
382.86	95.5
383.085	82.5
383.31	80.5
383.535	89.5
383.761	71.5
383.986	96.5
384.211	94.5
384.436	81.5
384.662	95.5
384.887	82.5
385.112	81.5
385.337	82.5
385.562	66.5
385.787	96.5
386.013	83.5
386.238	93.5
386.463	79.5
386.688	92.5
386.913	88.5
387.138	85.5
387.363	94.5
387.588	76.5
387.813	89.5
388.038	92.5
388.263	74.5
388.488	84.5
388.713	100.5
388.938	93.5
389.163	93.5
389.387	80.5
389.612	88.5
389.837	80.5
390.062	85.5
390.287	75.5
390.512	67.5
390.736	80.5
390.961	90.5
391.186	73.5
391.411	86.5
391.636	83.5
391.86	101.5
392.085	80.5
392.31	83.5
392.534	75.5
392.759	81.5
392.984	83.5
393.208	110.5
393.433	129.5
393.658	100.5
393.882	88.5
394.107	84.5
394.331	70.5
394.556	103.5
394.78	103.5
395.005	73.5
395.229	82.5
395.454	84.5
395.678	80.5
395.903	102.5
396.127	100.5
396.352	96.5
396.576	85.5
396.801	94.5
397.025	114.5
397.249	106.5
397.474	84.5
397.698	94.5
397.922	97.5
398.147	85.5
398.371	78.5
398.595	87.5
398.82	85.5
399.044	90.5
399.268	83.5
399.492	78.5
399.717	93.5
399.941	69.5
400.165	98.5
400.389	97.5
400.613	86.5
400.837	78.5
401.062	80.5
401.286	82.5
401.51	78.5
401.734	72.5
401.958	79.5
402.182	90.5
402.406	74.5
402.63	77.5
402.854	74.5
403.078	82.5
403.302	84.5
403.526	97.5
403.75	90.5
403.974	82.5
404.198	89.5
404.422	92.5
404.645	73.5
404.869	81.5
405.093	93.5
405.317	65.5
405.541	87.5
405.765	96.5
405.988	88.5
406.212	88.5
406.436	74.5
406.66	78.5
406.883	97.5
407.107	87.5
407.331	92.5
407.555	72.5
407.778	90.5
408.002	85.5
408.226	85.5
408.449	83.5
408.673	79.5
408.896	69.5
409.12	84.5
409.344	94.5
409.567	77.5
409.791	78.5
410.014	89.5
410.238	80.5
410.461	75.5
410.685	91.5
410.908	87.5
411.132	69.5
411.355	92.5
411.578	85.5
411.802	78.5
412.025	84.5
412.249	68.5
412.472	76.5
412.695	80.5
412.919	80.5
413.142	84.5
413.365	89.5
413.589	80.5
413.812	90.5
414.035	84.5
414.258	69.5
414.482	83.5
414.705	93.5
414.928	78.5
415.151	80.5
415.374	84.5
415.597	86.5
415.821	94.5
416.044	71.5
416.267	82.5
416.49	95.5
416.713	92.5
416.936	82.5
417.159	75.5
417.382	71.5
417.605	88.5
417.828	83.5
418.051	77.5
418.274	81.5
418.497	78.5
418.72	86.5
418.943	84.5
419.166	73.5
419.389	68.5
419.611	78.5
419.834	84.5
420.057	80.5
420.28	94.5
420.503	87.5
420.726	89.5
420.948	80.5
421.171	56.5
421.394	79.5
421.617	89.5
421.839	94.5
422.062	95.5
422.285	98.5
422.507	101.5
422.73	144.5
422.953	112.5
423.175	97.5
423.398	73.5
423.621	78.5
423.843	80.5
424.066	83.5
424.288	70.5
424.511	87.5
424.733	89.5
424.956	80.5
425.178	72.5
425.401	65.5
425.623	84.5
425.846	72.5
426.068	82.5
426.291	78.5
426.513	75.5
426.735	90.5
426.958	87.5
427.18	77.5
427.402	81.5
427.625	92.5
427.847	97.5
428.069	86.5
428.292	82.5
428.514	89.5
428.736	80.5
428.958	95.5
429.181	87.5
429.403	81.5
429.625	70.5
429.847	84.5
430.069	95.5
430.292	113.5
430.514	79.5
430.736	93.5
430.958	68.5
431.18	90.5
431.402	69.5
431.624	70.5
431.846	78.5
432.068	102.5
432.29	72.5
432.512	83.5
432.734	84.5
432.956	77.5
433.178	75.5
433.4	70.5
433.622	70.5
433.844	86.5
434.066	80.5
434.287	86.5
434.509	76.5
434.731	86.5
434.953	85.5
435.175	87.5
435.397	72.5
435.618	78.5
435.84	84.5
436.062	67.5
436.284	84.5
436.505	80.5
436.727	80.5
436.949	77.5
437.17	72.5
437.392	68.5
437.614	71.5
437.835	83.5
438.057	75.5
438.278	101.5
438.5	68.5
438.721	84.5
438.943	90.5
439.165	86.5
439.386	86.5
439.608	73.5
439.829	79.5
440.05	80.5
440.272	79.5
440.493	77.5
440.715	88.5
440.936	90.5
441.158	81.5
441.379	78.5
441.6	87.5
441.822	83.5
442.043	85.5
442.264	76.5
442.486	73.5
442.707	94.5
442.928	80.5
443.149	81.5
443.371	87.5
443.592	96.5
443.813	84.5
444.034	87.5
444.255	83.5
444.476	86.5
444.698	101.5
444.919	77.5
445.14	137.5
445.361	133.5
445.582	104.5
445.803	96.5
446.024	71.5
446.245	82.5
446.466	89.5
446.687	68.5
446.908	84.5
447.129	76.5
447.35	81.5
447.571	83.5
447.792	70.5
448.013	62.5
448.234	90.5
448.455	75.5
448.675	75.5
448.896	83.5
449.117	82.5
449.338	84.5
449.559	78.5
449.779	76.5
450	77.5
450.221	80.5
450.442	82.5
450.662	71.5
450.883	86.5
451.104	78.5
451.324	90.5
451.545	92.5
451.766	98.5
451.986	68.5
452.207	80.5
452.428	78.5
452.648	80.5
452.869	74.5
453.089	84.5
453.31	84.5
453.53	74.5
453.751	80.5
453.971	95.5
454.192	91.5
454.412	69.5
454.633	93.5
454.853	78.5
455.073	74.5
455.294	93.5
455.514	78.5
455.734	71.5
455.955	88.5
456.175	84.5
456.395	83.5
456.616	74.5
456.836	86.5
457.056	78.5
457.276	80.5
457.497	68.5
457.717	88.5
457.937	94.5
458.157	82.5
458.377	82.5
458.598	69.5
458.818	82.5
459.038	88.5
459.258	72.5
459.478	77.5
459.698	84.5
459.918	83.5
460.138	82.5
460.358	85.5
460.578	81.5
460.798	88.5
461.018	77.5
461.238	88.5
461.458	84.5
461.678	92.5
461.898	88.5
462.118	77.5
462.338	79.5
462.558	80.5
462.777	80.5
462.997	76.5
463.217	80.5
463.437	86.5
463.657	84.5
463.876	82.5
464.096	80.5
464.316	80.5
464.536	77.5
464.755	78.5
464.975	82.5
465.195	94.5
465.414	88.5
465.634	78.5
465.854	84.5
466.073	86.5
466.293	89.5
466.512	89.5
466.732	82.5
466.951	76.5
467.171	82.5
467.391	86.5
467.61	104.5
467.829	86.5
468.049	84.5
468.268	71.5
468.488	83.5
468.707	74.5
468.927	92.5
469.146	98.5
469.365	79.5
469.585	80.5
469.804	82.5
470.023	80.5
470.243	73.5
470.462	79.5
470.681	73.5
470.901	91.5
471.12	84.5
471.339	82.5
471.558	90.5
471.777	84.5
471.997	79.5
472.216	87.5
472.435	84.5
472.654	81.5
472.873	85.5
473.092	65.5
473.311	83.5
473.53	82.5
473.749	89.5
473.968	91.5
474.187	82.5
474.406	73.5
474.625	73.5
474.844	87.5
475.063	72.5
475.282	102.5
475.501	81.5
475.72	85.5
475.939	65.5
476.158	77.5
476.377	88.5
476.596	89.5
476.814	71.5
477.033	89.5
477.252	87.5
477.471	73.5
477.69	85.5
477.908	70.5
478.127	79.5
478.346	84.5
478.564	86.5
478.783	60.5
479.002	80.5
479.22	79.5
479.439	86.5
479.658	80.5
479.876	75.5
480.095	73.5
480.313	76.5
480.532	96.5
480.751	85.5
480.969	76.5
481.188	89.5
481.406	80.5
481.624	85.5
481.843	95.5
482.061	72.5
482.28	81.5
482.498	84.5
482.717	85.5
482.935	83.5
483.153	74.5
483.372	82.5
483.59	94.5
483.808	84.5
484.027	92.5
484.245	89.5
484.463	80.5
484.681	84.5
484.9	74.5
485.118	89.5
485.336	87.5
485.554	93.5
485.772	64.5
485.99	72.5
486.209	98.5
486.427	71.5
486.645	83.5
486.863	84.5
487.081	88.5
487.299	82.5
487.517	67.5
487.735	87.5
487.953	110.5
488.171	96.5
488.389	83.5
488.607	85.5
488.825	89.5
489.043	82.5
489.261	84.5
489.479	72.5
489.696	73.5
489.914	80.5
490.132	92.5
490.35	84.5
490.568	88.5
490.786	86.5
491.003	84.5
491.221	67.5
491.439	70.5
491.657	90.5
491.874	83.5
492.092	76.5
492.31	81.5
492.527	78.5
492.745	84.5
492.963	75.5
493.18	97.5
493.398	79.5
493.615	69.5
493.833	82.5
494.05	84.5
494.268	77.5
494.485	89.5
494.703	79.5
494.92	80.5
495.138	82.5
495.355	80.5
495.573	85.5
495.79	89.5
496.008	74.5
496.225	71.5
496.442	77.5
496.66	72.5
496.877	76.5
497.094	74.5
497.312	79.5
497.529	80.5
497.746	81.5
497.963	79.5
498.181	95.5
498.398	80.5
498.615	79.5
498.832	93.5
499.049	86.5
499.267	73.5
499.484	80.5
499.701	62.5
499.918	98.5
500.135	92.5
500.352	84.5
500.569	79.5
500.786	90.5
501.003	88.5
501.22	75.5
501.437	79.5
501.654	85.5
501.871	88.5
502.088	74.5
502.305	91.5
502.522	81.5
502.739	87.5
502.956	85.5
503.172	83.5
503.389	78.5
503.606	83.5
503.823	88.5
504.04	93.5
504.256	72.5
504.473	80.5
504.69	96.5
504.907	105.5
505.123	88.5
505.34	88.5
505.557	73.5
505.773	81.5
505.99	80.5
506.207	70.5
506.423	85.5
506.64	83.5
506.856	81.5
507.073	74.5
507.289	69.5
507.506	74.5
507.722	81.5
507.939	81.5
508.155	90.5
508.372	89.5
508.588	90.5
508.805	87.5
509.021	86.5
509.238	85.5
509.454	81.5
509.67	71.5
509.887	84.5
510.103	82.5
510.319	86.5
510.536	88.5
510.752	91.5
510.968	81.5
511.184	84.5
511.401	78.5
511.617	92.5
511.833	78.5
512.049	92.5
512.265	70.5
512.481	97.5
512.698	70.5
512.914	84.5
513.13	96.5
513.346	88.5
513.562	104.5
513.778	82.5
513.994	88.5
514.21	65.5
514.426	89.5
514.642	88.5
514.858	90.5
515.074	74.5
515.29	75.5
515.506	80.5
515.721	74.5
515.937	94.5
516.153	76.5
516.369	86.5
516.585	85.5
516.801	81.5
517.016	82.5
517.232	84.5
517.448	88.5
517.664	81.5
517.879	87.5
518.095	76.5
518.311	93.5
518.527	100.5
518.742	85.5
518.958	91.5
519.173	88.5
519.389	82.5
519.605	94.5
519.82	88.5
520.036	76.5
520.251	92.5
520.467	76.5
520.682	90.5
520.898	71.5
521.113	84.5
521.329	95.5
521.544	86.5
521.76	89.5
521.975	82.5
522.19	90.5
522.406	74.5
522.621	77.5
522.836	90.5
523.052	88.5
523.267	83.5
523.482	76.5
523.698	73.5
523.913	80.5
524.128	73.5
524.343	83.5
524.559	96.5
524.774	62.5
524.989	82.5
525.204	89.5
525.419	84.5
525.634	89.5
525.849	86.5
526.064	84.5
526.28	105.5
526.495	99.5
526.71	123.5
526.925	86.5
527.14	104.5
527.355	104.5
527.57	89.5
527.785	82.5
527.999	85.5
528.214	83.5
528.429	87.5
528.644	72.5
528.859	82.5
529.074	82.5
529.289	80.5
529.503	76.5
529.718	93.5
529.933	73.5
530.148	81.5
530.363	86.5
530.577	94.5
530.792	64.5
531.007	72.5
531.221	79.5
531.436	88.5
531.651	101.5
531.865	79.5
532.08	85.5
532.295	87.5
532.509	68.5
532.724	77.5
532.938	92.5
533.153	99.5
533.367	79.5
533.582	80.5
533.796	80.5
534.011	75.5
534.225	90.5
534.44	78.5
534.654	86.5
534.868	107.5
535.083	100.5
535.297	84.5
535.511	97.5
535.726	91.5
535.94	64.5
536.154	79.5
536.369	94.5
536.583	79.5
536.797	96.5
537.011	86.5
537.225	84.5
537.44	90.5
537.654	78.5
537.868	87.5
538.082	94.5
538.296	78.5
538.51	68.5
538.724	81.5
538.938	94.5
539.153	84.5
539.367	80.5
539.581	85.5
539.795	82.5
540.009	89.5
