Data from 1600_4_HRD10591_00026.txt Node
Date: Mon Jan 19 13:56:23 EST 2026
User: Yrep
Spectrometer: HR+D1059
Trigger mode: 1
Integration Time (sec): 1.000000E-1
Scans to average: 1
Electric dark correction enabled: true
Nonlinearity correction enabled: false
Boxcar width: 0
XAxis mode: Wavelengths
Number of Pixels in Spectrum: 2048
>>>>>Begin Spectral Data<<<<<
223.165	-29.62
223.4	-29.62
223.635	-29.62
223.869	-2.62
224.104	-22.62
224.338	-18.62
224.573	-22.62
224.808	3.38
225.042	-8.62
225.277	-7.62
225.511	3.38
225.746	-15.62
225.98	11.38
226.215	23.38
226.449	25.38
226.683	0.38
226.918	22.38
227.152	38.38
227.387	21.38
227.621	37.38
227.856	47.38
228.09	41.38
228.324	55.38
228.559	57.38
228.793	51.38
229.027	56.38
229.262	59.38
229.496	55.38
229.73	61.38
229.964	61.38
230.199	67.38
230.433	65.38
230.667	65.38
230.901	72.38
231.136	79.38
231.37	68.38
231.604	79.38
231.838	74.38
232.072	74.38
232.306	79.38
232.541	66.38
232.775	73.38
233.009	67.38
233.243	87.38
233.477	72.38
233.711	78.38
233.945	76.38
234.179	62.38
234.413	61.38
234.647	65.38
234.881	75.38
235.115	66.38
235.349	80.38
235.583	75.38
235.817	69.38
236.051	62.38
236.285	62.38
236.519	76.38
236.753	71.38
236.987	73.38
237.221	65.38
237.455	82.38
237.689	66.38
237.922	64.38
238.156	71.38
238.39	63.38
238.624	65.38
238.858	82.38
239.091	59.38
239.325	67.38
239.559	64.38
239.793	72.38
240.027	83.38
240.26	70.38
240.494	75.38
240.728	70.38
240.961	66.38
241.195	72.38
241.429	60.38
241.662	57.38
241.896	63.38
242.13	73.38
242.363	68.38
242.597	62.38
242.83	67.38
243.064	75.38
243.298	75.38
243.531	63.38
243.765	81.38
243.998	77.38
244.232	61.38
244.465	73.38
244.699	78.38
244.932	75.38
245.166	73.38
245.399	84.38
245.633	66.38
245.866	82.38
246.099	78.38
246.333	72.38
246.566	67.38
246.8	63.38
247.033	78.38
247.266	70.38
247.5	75.38
247.733	67.38
247.966	75.38
248.2	78.38
248.433	66.38
248.666	76.38
248.899	72.38
249.133	78.38
249.366	74.38
249.599	65.38
249.832	71.38
250.066	80.38
250.299	70.38
250.532	70.38
250.765	75.38
250.998	70.38
251.231	72.38
251.465	77.38
251.698	83.38
251.931	73.38
252.164	73.38
252.397	73.38
252.63	86.38
252.863	61.38
253.096	81.38
253.329	81.38
253.562	64.38
253.795	75.38
254.028	83.38
254.261	78.38
254.494	79.38
254.727	88.38
254.96	70.38
255.193	73.38
255.426	64.38
255.659	72.38
255.892	77.38
256.124	81.38
256.357	76.38
256.59	98.38
256.823	67.38
257.056	78.38
257.289	78.38
257.521	80.38
257.754	74.38
257.987	78.38
258.22	85.38
258.452	70.38
258.685	74.38
258.918	77.38
259.151	65.38
259.383	80.38
259.616	68.38
259.849	68.38
260.081	65.38
260.314	71.38
260.547	75.38
260.779	79.38
261.012	79.38
261.244	76.38
261.477	87.38
261.71	92.38
261.942	70.38
262.175	85.38
262.407	75.38
262.64	70.38
262.872	76.38
263.105	65.38
263.337	75.38
263.57	86.38
263.802	68.38
264.035	73.38
264.267	60.38
264.499	72.38
264.732	64.38
264.964	75.38
265.197	72.38
265.429	90.38
265.661	77.38
265.894	88.38
266.126	76.38
266.358	69.38
266.591	75.38
266.823	77.38
267.055	80.38
267.287	82.38
267.52	79.38
267.752	69.38
267.984	73.38
268.216	73.38
268.448	89.38
268.681	76.38
268.913	74.38
269.145	68.38
269.377	65.38
269.609	84.38
269.841	82.38
270.073	81.38
270.306	63.38
270.538	85.38
270.77	77.38
271.002	73.38
271.234	75.38
271.466	71.38
271.698	79.38
271.93	85.38
272.162	78.38
272.394	80.38
272.626	88.38
272.858	91.38
273.09	89.38
273.322	91.38
273.553	68.38
273.785	77.38
274.017	63.38
274.249	76.38
274.481	69.38
274.713	70.38
274.945	88.38
275.176	81.38
275.408	75.38
275.64	73.38
275.872	83.38
276.104	94.38
276.335	78.38
276.567	61.38
276.799	86.38
277.031	83.38
277.262	73.38
277.494	88.38
277.726	86.38
277.957	78.38
278.189	67.38
278.421	87.38
278.652	84.38
278.884	71.38
279.115	68.38
279.347	69.38
279.579	87.38
279.81	80.38
280.042	89.38
280.273	77.38
280.505	77.38
280.736	84.38
280.968	84.38
281.199	76.38
281.431	79.38
281.662	75.38
281.894	76.38
282.125	85.38
282.356	75.38
282.588	89.38
282.819	73.38
283.051	66.38
283.282	73.38
283.513	72.38
283.745	80.38
283.976	69.38
284.207	90.38
284.439	90.38
284.67	94.38
284.901	87.38
285.132	87.38
285.364	99.38
285.595	87.38
285.826	84.38
286.057	84.38
286.288	84.38
286.52	82.38
286.751	75.38
286.982	83.38
287.213	83.38
287.444	85.38
287.675	89.38
287.906	90.38
288.138	89.38
288.369	95.38
288.6	79.38
288.831	84.38
289.062	91.38
289.293	90.38
289.524	76.38
289.755	70.38
289.986	66.38
290.217	91.38
290.448	73.38
290.679	89.38
290.91	86.38
291.141	83.38
291.371	79.38
291.602	84.38
291.833	85.38
292.064	83.38
292.295	81.38
292.526	61.38
292.757	82.38
292.987	82.38
293.218	72.38
293.449	72.38
293.68	88.38
293.91	71.38
294.141	93.38
294.372	81.38
294.603	83.38
294.833	87.38
295.064	77.38
295.295	95.38
295.525	75.38
295.756	82.38
295.987	89.38
296.217	79.38
296.448	78.38
296.679	68.38
296.909	94.38
297.14	84.38
297.37	98.38
297.601	81.38
297.831	70.38
298.062	69.38
298.292	86.38
298.523	78.38
298.753	97.38
298.984	91.38
299.214	73.38
299.445	88.38
299.675	87.38
299.905	79.38
300.136	79.38
300.366	83.38
300.597	68.38
300.827	77.38
301.057	83.38
301.288	89.38
301.518	86.38
301.748	85.38
301.979	87.38
302.209	86.38
302.439	89.38
302.669	73.38
302.9	91.38
303.13	90.38
303.36	82.38
303.59	87.38
303.82	82.38
304.051	76.38
304.281	80.38
304.511	78.38
304.741	86.38
304.971	85.38
305.201	88.38
305.431	105.38
305.661	87.38
305.891	81.38
306.121	83.38
306.352	88.38
306.582	82.38
306.812	87.38
307.042	85.38
307.272	74.38
307.502	75.38
307.731	73.38
307.961	93.38
308.191	100.38
308.421	97.38
308.651	90.38
308.881	82.38
309.111	92.38
309.341	109.38
309.571	107.38
309.8	96.38
310.03	83.38
310.26	72.38
310.49	76.38
310.72	78.38
310.949	87.38
311.179	79.38
311.409	79.38
311.639	71.38
311.868	88.38
312.098	95.38
312.328	82.38
312.557	93.38
312.787	81.38
313.017	92.38
313.246	72.38
313.476	84.38
313.706	90.38
313.935	87.38
314.165	75.38
314.394	71.38
314.624	75.38
314.853	81.38
315.083	88.38
315.312	90.38
315.542	70.38
315.771	87.38
316.001	80.38
316.23	82.38
316.46	82.38
316.689	75.38
316.919	89.38
317.148	95.38
317.377	80.38
317.607	79.38
317.836	89.38
318.065	104.38
318.295	101.38
318.524	75.38
318.753	80.38
318.983	73.38
319.212	85.38
319.441	85.38
319.67	73.38
319.9	80.38
320.129	95.38
320.358	75.38
320.587	89.38
320.816	86.38
321.046	92.38
321.275	84.38
321.504	76.38
321.733	90.38
321.962	86.38
322.191	87.38
322.42	79.38
322.649	79.38
322.878	91.38
323.108	92.38
323.337	82.38
323.566	94.38
323.795	84.38
324.024	76.38
324.253	75.38
324.482	98.38
324.71	77.38
324.939	85.38
325.168	82.38
325.397	67.38
325.626	78.38
325.855	77.38
326.084	75.38
326.313	90.38
326.542	64.38
326.77	85.38
326.999	70.38
327.228	80.38
327.457	89.38
327.686	88.38
327.914	75.38
328.143	84.38
328.372	81.38
328.6	85.38
328.829	89.38
329.058	79.38
329.287	83.38
329.515	80.38
329.744	88.38
329.972	85.38
330.201	90.38
330.43	82.38
330.658	90.38
330.887	73.38
331.115	82.38
331.344	73.38
331.572	84.38
331.801	81.38
332.03	85.38
332.258	79.38
332.486	85.38
332.715	89.38
332.943	84.38
333.172	81.38
333.4	80.38
333.629	80.38
333.857	80.38
334.085	78.38
334.314	96.38
334.542	89.38
334.771	78.38
334.999	86.38
335.227	82.38
335.455	80.38
335.684	80.38
335.912	80.38
336.14	87.38
336.369	94.38
336.597	93.38
336.825	87.38
337.053	78.38
337.281	83.38
337.51	88.38
337.738	81.38
337.966	76.38
338.194	86.38
338.422	80.38
338.65	85.38
338.878	86.38
339.106	72.38
339.334	85.38
339.562	87.38
339.79	73.38
340.018	77.38
340.246	81.38
340.474	83.38
340.702	76.38
340.93	72.38
341.158	102.38
341.386	91.38
341.614	79.38
341.842	83.38
342.07	89.38
342.298	87.38
342.526	72.38
342.754	95.38
342.981	65.38
343.209	84.38
343.437	95.38
343.665	98.38
343.893	84.38
344.12	100.38
344.348	91.38
344.576	81.38
344.804	95.38
345.031	76.38
345.259	69.38
345.487	69.38
345.714	84.38
345.942	78.38
346.17	75.38
346.397	97.38
346.625	90.38
346.853	81.38
347.08	73.38
347.308	85.38
347.535	87.38
347.763	96.38
347.99	82.38
348.218	96.38
348.445	77.38
348.673	82.38
348.9	83.38
349.128	93.38
349.355	76.38
349.583	79.38
349.81	73.38
350.037	65.38
350.265	83.38
350.492	81.38
350.72	79.38
350.947	90.38
351.174	82.38
351.402	87.38
351.629	81.38
351.856	87.38
352.083	87.38
352.311	84.38
352.538	67.38
352.765	85.38
352.992	91.38
353.22	78.38
353.447	87.38
353.674	82.38
353.901	81.38
354.128	81.38
354.355	76.38
354.583	74.38
354.81	81.38
355.037	72.38
355.264	74.38
355.491	80.38
355.718	82.38
355.945	75.38
356.172	100.38
356.399	79.38
356.626	79.38
356.853	97.38
357.08	94.38
357.307	86.38
357.534	83.38
357.761	87.38
357.988	107.38
358.215	95.38
358.441	93.38
358.668	87.38
358.895	84.38
359.122	69.38
359.349	82.38
359.576	69.38
359.802	84.38
360.029	81.38
360.256	87.38
360.483	83.38
360.709	98.38
360.936	91.38
361.163	86.38
361.39	80.38
361.616	82.38
361.843	90.38
362.07	90.38
362.296	85.38
362.523	89.38
362.749	103.38
362.976	109.38
363.203	107.38
363.429	101.38
363.656	94.38
363.882	91.38
364.109	105.38
364.335	129.38
364.562	112.38
364.788	101.38
365.015	95.38
365.241	88.38
365.468	101.38
365.694	67.38
365.92	93.38
366.147	78.38
366.373	72.38
366.599	85.38
366.826	67.38
367.052	64.38
367.278	105.38
367.505	85.38
367.731	91.38
367.957	87.38
368.184	92.38
368.41	87.38
368.636	83.38
368.862	95.38
369.089	86.38
369.315	91.38
369.541	78.38
369.767	83.38
369.993	88.38
370.219	101.38
370.445	83.38
370.672	91.38
370.898	86.38
371.124	90.38
371.35	91.38
371.576	83.38
371.802	92.38
372.028	105.38
372.254	96.38
372.48	88.38
372.706	84.38
372.932	87.38
373.158	88.38
373.384	121.38
373.61	138.38
373.835	117.38
374.061	108.38
374.287	99.38
374.513	98.38
374.739	120.38
374.965	113.38
375.191	105.38
375.416	99.38
375.642	67.38
375.868	95.38
376.094	91.38
376.319	95.38
376.545	105.38
376.771	101.38
376.997	86.38
377.222	83.38
377.448	89.38
377.674	99.38
377.899	98.38
378.125	84.38
378.35	85.38
378.576	76.38
378.802	75.38
379.027	86.38
379.253	79.38
379.478	89.38
379.704	89.38
379.929	85.38
380.155	85.38
380.38	89.38
380.606	87.38
380.831	76.38
381.057	79.38
381.282	88.38
381.507	97.38
381.733	107.38
381.958	106.38
382.184	127.38
382.409	114.38
382.634	116.38
382.86	131.38
383.085	127.38
383.31	129.38
383.535	130.38
383.761	123.38
383.986	152.38
384.211	118.38
384.436	101.38
384.662	81.38
384.887	72.38
385.112	98.38
385.337	93.38
385.562	79.38
385.787	101.38
386.013	119.38
386.238	103.38
386.463	98.38
386.688	109.38
386.913	84.38
387.138	87.38
387.363	93.38
387.588	88.38
387.813	109.38
388.038	95.38
388.263	84.38
388.488	116.38
388.713	96.38
388.938	89.38
389.163	91.38
389.387	83.38
389.612	88.38
389.837	91.38
390.062	92.38
390.287	79.38
390.512	98.38
390.736	105.38
390.961	93.38
391.186	75.38
391.411	88.38
391.636	74.38
391.86	85.38
392.085	79.38
392.31	93.38
392.534	107.38
392.759	124.38
392.984	167.38
393.208	280.38
393.433	423.38
393.658	319.38
393.882	146.38
394.107	120.38
394.331	125.38
394.556	140.38
394.78	105.38
395.005	77.38
395.229	86.38
395.454	93.38
395.678	106.38
395.903	118.38
396.127	162.38
396.352	185.38
396.576	187.38
396.801	279.38
397.025	321.38
397.249	169.38
397.474	107.38
397.698	91.38
397.922	88.38
398.147	79.38
398.371	77.38
398.595	78.38
398.82	73.38
399.044	91.38
399.268	83.38
399.492	76.38
399.717	84.38
399.941	93.38
400.165	94.38
400.389	88.38
400.613	87.38
400.837	83.38
401.062	82.38
401.286	85.38
401.51	92.38
401.734	87.38
401.958	79.38
402.182	89.38
402.406	68.38
402.63	76.38
402.854	69.38
403.078	81.38
403.302	93.38
403.526	77.38
403.75	93.38
403.974	72.38
404.198	74.38
404.422	109.38
404.645	99.38
404.869	100.38
405.093	79.38
405.317	75.38
405.541	79.38
405.765	83.38
405.988	67.38
406.212	73.38
406.436	85.38
406.66	90.38
406.883	86.38
407.107	83.38
407.331	90.38
407.555	92.38
407.778	107.38
408.002	110.38
408.226	93.38
408.449	79.38
408.673	87.38
408.896	94.38
409.12	99.38
409.344	89.38
409.567	65.38
409.791	79.38
410.014	90.38
410.238	89.38
410.461	84.38
410.685	82.38
410.908	74.38
411.132	95.38
411.355	87.38
411.578	79.38
411.802	87.38
412.025	79.38
412.249	75.38
412.472	79.38
412.695	86.38
412.919	88.38
413.142	90.38
413.365	79.38
413.589	71.38
413.812	74.38
414.035	83.38
414.258	71.38
414.482	78.38
414.705	75.38
414.928	87.38
415.151	75.38
415.374	72.38
415.597	72.38
415.821	77.38
416.044	83.38
416.267	75.38
416.49	90.38
416.713	89.38
416.936	79.38
417.159	72.38
417.382	88.38
417.605	77.38
417.828	82.38
418.051	79.38
418.274	83.38
418.497	78.38
418.72	83.38
418.943	89.38
419.166	79.38
419.389	88.38
419.611	64.38
419.834	73.38
420.057	91.38
420.28	85.38
420.503	84.38
420.726	87.38
420.948	95.38
421.171	93.38
421.394	81.38
421.617	101.38
421.839	106.38
422.062	114.38
422.285	137.38
422.507	243.38
422.73	365.38
422.953	320.38
423.175	147.38
423.398	93.38
423.621	83.38
423.843	73.38
424.066	78.38
424.288	93.38
424.511	85.38
424.733	89.38
424.956	78.38
425.178	86.38
425.401	87.38
425.623	84.38
425.846	72.38
426.068	75.38
426.291	78.38
426.513	84.38
426.735	72.38
426.958	79.38
427.18	88.38
427.402	94.38
427.625	87.38
427.847	78.38
428.069	97.38
428.292	100.38
428.514	133.38
428.736	107.38
428.958	123.38
429.181	119.38
429.403	91.38
429.625	99.38
429.847	115.38
430.069	140.38
430.292	151.38
430.514	156.38
430.736	115.38
430.958	141.38
431.18	99.38
431.402	75.38
431.624	88.38
431.846	115.38
432.068	127.38
432.29	84.38
432.512	95.38
432.734	92.38
432.956	73.38
433.178	92.38
433.4	81.38
433.622	69.38
433.844	77.38
434.066	93.38
434.287	79.38
434.509	75.38
434.731	78.38
434.953	74.38
435.175	71.38
435.397	90.38
435.618	67.38
435.84	78.38
436.062	75.38
436.284	83.38
436.505	81.38
436.727	92.38
436.949	93.38
437.17	69.38
437.392	72.38
437.614	83.38
437.835	79.38
438.057	64.38
438.278	80.38
438.5	107.38
438.721	89.38
438.943	88.38
439.165	93.38
439.386	72.38
439.608	79.38
439.829	85.38
440.05	63.38
440.272	75.38
440.493	103.38
440.715	93.38
440.936	83.38
441.158	99.38
441.379	86.38
441.6	84.38
441.822	75.38
442.043	76.38
442.264	93.38
442.486	132.38
442.707	145.38
442.928	111.38
443.149	107.38
443.371	124.38
443.592	201.38
443.813	183.38
444.034	85.38
444.255	77.38
444.476	80.38
444.698	96.38
444.919	81.38
445.14	152.38
445.361	157.38
445.582	241.38
445.803	228.38
446.024	115.38
446.245	81.38
446.466	80.38
446.687	84.38
446.908	90.38
447.129	75.38
447.35	87.38
447.571	74.38
447.792	82.38
448.013	85.38
448.234	82.38
448.455	79.38
448.675	77.38
448.896	59.38
449.117	83.38
449.338	61.38
449.559	83.38
449.779	87.38
450	86.38
450.221	73.38
450.442	84.38
450.662	69.38
450.883	79.38
451.104	81.38
451.324	84.38
451.545	83.38
451.766	74.38
451.986	80.38
452.207	84.38
452.428	76.38
452.648	92.38
452.869	84.38
453.089	82.38
453.31	77.38
453.53	99.38
453.751	97.38
453.971	95.38
454.192	72.38
454.412	86.38
454.633	69.38
454.853	88.38
455.073	80.38
455.294	85.38
455.514	95.38
455.734	93.38
455.955	76.38
456.175	77.38
456.395	81.38
456.616	71.38
456.836	65.38
457.056	72.38
457.276	80.38
457.497	84.38
457.717	81.38
457.937	98.38
458.157	105.38
458.377	105.38
458.598	112.38
458.818	111.38
459.038	104.38
459.258	84.38
459.478	75.38
459.698	91.38
459.918	72.38
460.138	71.38
460.358	87.38
460.578	87.38
460.798	104.38
461.018	100.38
461.238	90.38
461.458	81.38
461.678	72.38
461.898	82.38
462.118	80.38
462.338	84.38
462.558	79.38
462.777	81.38
462.997	80.38
463.217	66.38
463.437	70.38
463.657	81.38
463.876	70.38
464.096	83.38
464.316	83.38
464.536	84.38
464.755	72.38
464.975	75.38
465.195	89.38
465.414	67.38
465.634	78.38
465.854	71.38
466.073	83.38
466.293	83.38
466.512	86.38
466.732	80.38
466.951	85.38
467.171	81.38
467.391	88.38
467.61	77.38
467.829	80.38
468.049	86.38
468.268	81.38
468.488	75.38
468.707	88.38
468.927	77.38
469.146	77.38
469.365	81.38
469.585	75.38
469.804	66.38
470.023	69.38
470.243	72.38
470.462	75.38
470.681	71.38
470.901	92.38
471.12	90.38
471.339	78.38
471.558	84.38
471.777	90.38
471.997	75.38
472.216	90.38
472.435	77.38
472.654	70.38
472.873	82.38
473.092	84.38
473.311	82.38
473.53	84.38
473.749	67.38
473.968	68.38
474.187	93.38
474.406	82.38
474.625	73.38
474.844	75.38
475.063	75.38
475.282	79.38
475.501	77.38
475.72	85.38
475.939	72.38
476.158	66.38
476.377	73.38
476.596	73.38
476.814	84.38
477.033	88.38
477.252	76.38
477.471	64.38
477.69	77.38
477.908	69.38
478.127	74.38
478.346	77.38
478.564	65.38
478.783	78.38
479.002	75.38
479.22	77.38
479.439	95.38
479.658	71.38
479.876	81.38
480.095	81.38
480.313	81.38
480.532	82.38
480.751	84.38
480.969	83.38
481.188	85.38
481.406	88.38
481.624	83.38
481.843	76.38
482.061	84.38
482.28	85.38
482.498	83.38
482.717	91.38
482.935	77.38
483.153	68.38
483.372	79.38
483.59	81.38
483.808	84.38
484.027	77.38
484.245	87.38
484.463	96.38
484.681	82.38
484.9	101.38
485.118	99.38
485.336	109.38
485.554	84.38
485.772	84.38
485.99	87.38
486.209	91.38
486.427	88.38
486.645	82.38
486.863	69.38
487.081	97.38
487.299	109.38
487.517	99.38
487.735	99.38
487.953	135.38
488.171	116.38
488.389	98.38
488.607	69.38
488.825	75.38
489.043	95.38
489.261	92.38
489.479	80.38
489.696	90.38
489.914	87.38
490.132	82.38
490.35	80.38
490.568	97.38
490.786	84.38
491.003	69.38
491.221	87.38
491.439	77.38
491.657	79.38
491.874	100.38
492.092	95.38
492.31	87.38
492.527	87.38
492.745	82.38
492.963	102.38
493.18	94.38
493.398	91.38
493.615	85.38
493.833	69.38
494.05	76.38
494.268	73.38
494.485	83.38
494.703	71.38
494.92	81.38
495.138	88.38
495.355	92.38
495.573	70.38
495.79	80.38
496.008	91.38
496.225	89.38
496.442	83.38
496.66	91.38
496.877	80.38
497.094	82.38
497.312	95.38
497.529	89.38
497.746	83.38
497.963	103.38
498.181	93.38
498.398	112.38
498.615	109.38
498.832	85.38
499.049	76.38
499.267	93.38
499.484	78.38
499.701	95.38
499.918	108.38
500.135	93.38
500.352	107.38
500.569	95.38
500.786	85.38
501.003	87.38
501.22	88.38
501.437	93.38
501.654	109.38
501.871	92.38
502.088	89.38
502.305	79.38
502.522	75.38
502.739	88.38
502.956	86.38
503.172	78.38
503.389	99.38
503.606	71.38
503.823	112.38
504.04	101.38
504.256	117.38
504.473	117.38
504.69	90.38
504.907	97.38
505.123	85.38
505.34	70.38
505.557	76.38
505.773	96.38
505.99	75.38
506.207	73.38
506.423	89.38
506.64	88.38
506.856	95.38
507.073	81.38
507.289	84.38
507.506	75.38
507.722	87.38
507.939	83.38
508.155	85.38
508.372	77.38
508.588	84.38
508.805	88.38
509.021	80.38
509.238	87.38
509.454	88.38
509.67	84.38
509.887	81.38
510.103	90.38
510.319	77.38
510.536	70.38
510.752	82.38
510.968	83.38
511.184	83.38
511.401	83.38
511.617	83.38
511.833	88.38
512.049	81.38
512.265	83.38
512.481	87.38
512.698	70.38
512.914	80.38
513.13	75.38
513.346	83.38
513.562	81.38
513.778	90.38
513.994	75.38
514.21	84.38
514.426	89.38
514.642	80.38
514.858	84.38
515.074	82.38
515.29	76.38
515.506	82.38
515.721	77.38
515.937	91.38
516.153	70.38
516.369	90.38
516.585	88.38
516.801	107.38
517.016	120.38
517.232	103.38
517.448	152.38
517.664	102.38
517.879	83.38
518.095	96.38
518.311	109.38
