Data from 1600_4_HRD10591_00023.txt Node
Date: Mon Jan 19 13:56:22 EST 2026
User: Yrep
Spectrometer: HR+D1059
Trigger mode: 1
Integration Time (sec): 1.000000E-1
Scans to average: 1
Electric dark correction enabled: true
Nonlinearity correction enabled: false
Boxcar width: 0
XAxis mode: Wavelengths
Number of Pixels in Spectrum: 2048
>>>>>Begin Spectral Data<<<<<
223.165	-17.75
223.4	-17.75
223.635	-17.75
223.869	-3.75
224.104	-17.75
224.338	-25.75
224.573	-17.75
224.808	-13.75
225.042	-10.75
225.277	-0.75
225.511	-5.75
225.746	6.25
225.98	-5.75
226.215	18.25
226.449	7.25
226.683	37.25
226.918	24.25
227.152	26.25
227.387	49.25
227.621	38.25
227.856	44.25
228.09	60.25
228.324	51.25
228.559	62.25
228.793	64.25
229.027	60.25
229.262	60.25
229.496	70.25
229.73	66.25
229.964	77.25
230.199	66.25
230.433	64.25
230.667	79.25
230.901	68.25
231.136	84.25
231.37	70.25
231.604	74.25
231.838	89.25
232.072	85.25
232.306	87.25
232.541	78.25
232.775	68.25
233.009	84.25
233.243	73.25
233.477	76.25
233.711	84.25
233.945	87.25
234.179	77.25
234.413	87.25
234.647	80.25
234.881	73.25
235.115	81.25
235.349	83.25
235.583	79.25
235.817	79.25
236.051	83.25
236.285	87.25
236.519	85.25
236.753	71.25
236.987	80.25
237.221	88.25
237.455	78.25
237.689	75.25
237.922	90.25
238.156	66.25
238.39	72.25
238.624	73.25
238.858	83.25
239.091	75.25
239.325	74.25
239.559	65.25
239.793	72.25
240.027	80.25
240.26	84.25
240.494	83.25
240.728	70.25
240.961	80.25
241.195	92.25
241.429	82.25
241.662	81.25
241.896	74.25
242.13	66.25
242.363	70.25
242.597	63.25
242.83	83.25
243.064	62.25
243.298	78.25
243.531	81.25
243.765	87.25
243.998	73.25
244.232	65.25
244.465	71.25
244.699	80.25
244.932	82.25
245.166	85.25
245.399	62.25
245.633	87.25
245.866	88.25
246.099	72.25
246.333	71.25
246.566	68.25
246.8	69.25
247.033	81.25
247.266	82.25
247.5	79.25
247.733	81.25
247.966	78.25
248.2	52.25
248.433	82.25
248.666	86.25
248.899	72.25
249.133	71.25
249.366	92.25
249.599	71.25
249.832	84.25
250.066	91.25
250.299	87.25
250.532	84.25
250.765	67.25
250.998	79.25
251.231	93.25
251.465	75.25
251.698	96.25
251.931	88.25
252.164	90.25
252.397	75.25
252.63	87.25
252.863	68.25
253.096	70.25
253.329	93.25
253.562	88.25
253.795	61.25
254.028	74.25
254.261	79.25
254.494	69.25
254.727	92.25
254.96	84.25
255.193	79.25
255.426	78.25
255.659	86.25
255.892	79.25
256.124	81.25
256.357	83.25
256.59	65.25
256.823	89.25
257.056	89.25
257.289	81.25
257.521	77.25
257.754	87.25
257.987	66.25
258.22	90.25
258.452	92.25
258.685	78.25
258.918	74.25
259.151	70.25
259.383	69.25
259.616	87.25
259.849	87.25
260.081	93.25
260.314	99.25
260.547	72.25
260.779	66.25
261.012	80.25
261.244	80.25
261.477	70.25
261.71	76.25
261.942	96.25
262.175	87.25
262.407	82.25
262.64	73.25
262.872	78.25
263.105	84.25
263.337	70.25
263.57	72.25
263.802	85.25
264.035	80.25
264.267	72.25
264.499	82.25
264.732	88.25
264.964	86.25
265.197	68.25
265.429	79.25
265.661	90.25
265.894	81.25
266.126	92.25
266.358	86.25
266.591	80.25
266.823	84.25
267.055	73.25
267.287	78.25
267.52	65.25
267.752	84.25
267.984	93.25
268.216	87.25
268.448	79.25
268.681	74.25
268.913	73.25
269.145	80.25
269.377	86.25
269.609	87.25
269.841	81.25
270.073	77.25
270.306	78.25
270.538	73.25
270.77	65.25
271.002	87.25
271.234	88.25
271.466	89.25
271.698	72.25
271.93	74.25
272.162	74.25
272.394	75.25
272.626	92.25
272.858	77.25
273.09	67.25
273.322	62.25
273.553	62.25
273.785	77.25
274.017	75.25
274.249	90.25
274.481	71.25
274.713	77.25
274.945	95.25
275.176	88.25
275.408	78.25
275.64	102.25
275.872	65.25
276.104	77.25
276.335	89.25
276.567	81.25
276.799	82.25
277.031	72.25
277.262	71.25
277.494	78.25
277.726	95.25
277.957	83.25
278.189	87.25
278.421	95.25
278.652	84.25
278.884	77.25
279.115	83.25
279.347	81.25
279.579	86.25
279.81	78.25
280.042	85.25
280.273	85.25
280.505	89.25
280.736	94.25
280.968	75.25
281.199	91.25
281.431	92.25
281.662	81.25
281.894	76.25
282.125	74.25
282.356	88.25
282.588	94.25
282.819	82.25
283.051	66.25
283.282	84.25
283.513	89.25
283.745	90.25
283.976	88.25
284.207	77.25
284.439	82.25
284.67	84.25
284.901	85.25
285.132	91.25
285.364	82.25
285.595	88.25
285.826	85.25
286.057	71.25
286.288	76.25
286.52	96.25
286.751	77.25
286.982	83.25
287.213	87.25
287.444	99.25
287.675	92.25
287.906	83.25
288.138	94.25
288.369	71.25
288.6	89.25
288.831	79.25
289.062	86.25
289.293	88.25
289.524	81.25
289.755	85.25
289.986	84.25
290.217	94.25
290.448	80.25
290.679	68.25
290.91	72.25
291.141	85.25
291.371	84.25
291.602	79.25
291.833	89.25
292.064	86.25
292.295	102.25
292.526	69.25
292.757	90.25
292.987	96.25
293.218	72.25
293.449	97.25
293.68	75.25
293.91	89.25
294.141	97.25
294.372	93.25
294.603	77.25
294.833	83.25
295.064	83.25
295.295	86.25
295.525	98.25
295.756	80.25
295.987	86.25
296.217	77.25
296.448	84.25
296.679	71.25
296.909	84.25
297.14	78.25
297.37	81.25
297.601	84.25
297.831	86.25
298.062	72.25
298.292	84.25
298.523	94.25
298.753	77.25
298.984	89.25
299.214	78.25
299.445	89.25
299.675	92.25
299.905	86.25
300.136	83.25
300.366	92.25
300.597	98.25
300.827	86.25
301.057	82.25
301.288	90.25
301.518	97.25
301.748	73.25
301.979	102.25
302.209	88.25
302.439	88.25
302.669	84.25
302.9	88.25
303.13	83.25
303.36	83.25
303.59	88.25
303.82	97.25
304.051	66.25
304.281	85.25
304.511	88.25
304.741	81.25
304.971	69.25
305.201	83.25
305.431	90.25
305.661	91.25
305.891	92.25
306.121	83.25
306.352	79.25
306.582	86.25
306.812	84.25
307.042	99.25
307.272	99.25
307.502	79.25
307.731	83.25
307.961	87.25
308.191	89.25
308.421	91.25
308.651	102.25
308.881	80.25
309.111	81.25
309.341	84.25
309.571	87.25
309.8	72.25
310.03	79.25
310.26	92.25
310.49	82.25
310.72	84.25
310.949	87.25
311.179	79.25
311.409	89.25
311.639	90.25
311.868	83.25
312.098	85.25
312.328	73.25
312.557	86.25
312.787	79.25
313.017	73.25
313.246	81.25
313.476	80.25
313.706	86.25
313.935	75.25
314.165	78.25
314.394	83.25
314.624	80.25
314.853	83.25
315.083	60.25
315.312	70.25
315.542	89.25
315.771	86.25
316.001	88.25
316.23	99.25
316.46	66.25
316.689	88.25
316.919	92.25
317.148	78.25
317.377	74.25
317.607	77.25
317.836	78.25
318.065	89.25
318.295	82.25
318.524	83.25
318.753	88.25
318.983	80.25
319.212	94.25
319.441	89.25
319.67	84.25
319.9	78.25
320.129	84.25
320.358	97.25
320.587	83.25
320.816	82.25
321.046	78.25
321.275	90.25
321.504	83.25
321.733	81.25
321.962	96.25
322.191	85.25
322.42	78.25
322.649	86.25
322.878	79.25
323.108	100.25
323.337	76.25
323.566	89.25
323.795	80.25
324.024	85.25
324.253	78.25
324.482	91.25
324.71	69.25
324.939	87.25
325.168	93.25
325.397	80.25
325.626	76.25
325.855	86.25
326.084	95.25
326.313	78.25
326.542	64.25
326.77	87.25
326.999	78.25
327.228	76.25
327.457	92.25
327.686	90.25
327.914	86.25
328.143	81.25
328.372	75.25
328.6	94.25
328.829	73.25
329.058	84.25
329.287	86.25
329.515	90.25
329.744	83.25
329.972	78.25
330.201	76.25
330.43	88.25
330.658	80.25
330.887	71.25
331.115	86.25
331.344	79.25
331.572	69.25
331.801	89.25
332.03	82.25
332.258	81.25
332.486	92.25
332.715	84.25
332.943	87.25
333.172	85.25
333.4	98.25
333.629	78.25
333.857	83.25
334.085	90.25
334.314	85.25
334.542	77.25
334.771	81.25
334.999	77.25
335.227	77.25
335.455	88.25
335.684	101.25
335.912	76.25
336.14	75.25
336.369	78.25
336.597	93.25
336.825	82.25
337.053	82.25
337.281	97.25
337.51	92.25
337.738	55.25
337.966	77.25
338.194	89.25
338.422	80.25
338.65	82.25
338.878	89.25
339.106	81.25
339.334	87.25
339.562	92.25
339.79	83.25
340.018	96.25
340.246	81.25
340.474	87.25
340.702	78.25
340.93	72.25
341.158	104.25
341.386	79.25
341.614	87.25
341.842	89.25
342.07	84.25
342.298	81.25
342.526	91.25
342.754	87.25
342.981	85.25
343.209	77.25
343.437	103.25
343.665	90.25
343.893	95.25
344.12	86.25
344.348	89.25
344.576	82.25
344.804	98.25
345.031	87.25
345.259	91.25
345.487	94.25
345.714	92.25
345.942	82.25
346.17	102.25
346.397	70.25
346.625	85.25
346.853	82.25
347.08	86.25
347.308	88.25
347.535	77.25
347.763	74.25
347.99	86.25
348.218	93.25
348.445	66.25
348.673	77.25
348.9	74.25
349.128	84.25
349.355	74.25
349.583	87.25
349.81	89.25
350.037	77.25
350.265	90.25
350.492	89.25
350.72	93.25
350.947	80.25
351.174	85.25
351.402	83.25
351.629	84.25
351.856	98.25
352.083	82.25
352.311	80.25
352.538	89.25
352.765	103.25
352.992	93.25
353.22	75.25
353.447	76.25
353.674	89.25
353.901	74.25
354.128	87.25
354.355	82.25
354.583	72.25
354.81	82.25
355.037	74.25
355.264	86.25
355.491	98.25
355.718	90.25
355.945	86.25
356.172	77.25
356.399	86.25
356.626	78.25
356.853	87.25
357.08	87.25
357.307	81.25
357.534	95.25
357.761	75.25
357.988	74.25
358.215	91.25
358.441	95.25
358.668	87.25
358.895	86.25
359.122	88.25
359.349	81.25
359.576	84.25
359.802	76.25
360.029	73.25
360.256	89.25
360.483	71.25
360.709	89.25
360.936	92.25
361.163	83.25
361.39	81.25
361.616	85.25
361.843	80.25
362.07	95.25
362.296	84.25
362.523	81.25
362.749	88.25
362.976	80.25
363.203	100.25
363.429	84.25
363.656	87.25
363.882	93.25
364.109	77.25
364.335	101.25
364.562	105.25
364.788	90.25
365.015	80.25
365.241	82.25
365.468	82.25
365.694	88.25
365.92	81.25
366.147	88.25
366.373	84.25
366.599	71.25
366.826	80.25
367.052	74.25
367.278	93.25
367.505	86.25
367.731	85.25
367.957	77.25
368.184	88.25
368.41	90.25
368.636	72.25
368.862	81.25
369.089	79.25
369.315	71.25
369.541	88.25
369.767	67.25
369.993	86.25
370.219	72.25
370.445	93.25
370.672	89.25
370.898	89.25
371.124	77.25
371.35	94.25
371.576	94.25
371.802	77.25
372.028	105.25
372.254	88.25
372.48	92.25
372.706	97.25
372.932	94.25
373.158	99.25
373.384	90.25
373.61	99.25
373.835	95.25
374.061	83.25
374.287	88.25
374.513	96.25
374.739	107.25
374.965	103.25
375.191	78.25
375.416	87.25
375.642	84.25
375.868	101.25
376.094	84.25
376.319	77.25
376.545	100.25
376.771	82.25
376.997	89.25
377.222	85.25
377.448	89.25
377.674	89.25
377.899	76.25
378.125	73.25
378.35	83.25
378.576	99.25
378.802	82.25
379.027	83.25
379.253	78.25
379.478	86.25
379.704	79.25
379.929	82.25
380.155	86.25
380.38	80.25
380.606	89.25
380.831	86.25
381.057	96.25
381.282	78.25
381.507	75.25
381.733	92.25
381.958	91.25
382.184	95.25
382.409	95.25
382.634	103.25
382.86	109.25
383.085	93.25
383.31	116.25
383.535	113.25
383.761	100.25
383.986	105.25
384.211	85.25
384.436	104.25
384.662	86.25
384.887	86.25
385.112	87.25
385.337	70.25
385.562	100.25
385.787	108.25
386.013	98.25
386.238	88.25
386.463	87.25
386.688	91.25
386.913	81.25
387.138	75.25
387.363	96.25
387.588	90.25
387.813	87.25
388.038	84.25
388.263	79.25
388.488	91.25
388.713	96.25
388.938	94.25
389.163	85.25
389.387	85.25
389.612	85.25
389.837	92.25
390.062	84.25
390.287	95.25
390.512	69.25
390.736	86.25
390.961	87.25
391.186	84.25
391.411	86.25
391.636	78.25
391.86	69.25
392.085	75.25
392.31	89.25
392.534	97.25
392.759	89.25
392.984	98.25
393.208	142.25
393.433	180.25
393.658	159.25
393.882	95.25
394.107	92.25
394.331	90.25
394.556	98.25
394.78	84.25
395.005	89.25
395.229	100.25
395.454	87.25
395.678	89.25
395.903	104.25
396.127	125.25
396.352	132.25
396.576	110.25
396.801	148.25
397.025	169.25
397.249	106.25
397.474	78.25
397.698	80.25
397.922	97.25
398.147	88.25
398.371	85.25
398.595	85.25
398.82	81.25
399.044	78.25
399.268	79.25
399.492	87.25
399.717	80.25
399.941	91.25
400.165	80.25
400.389	87.25
400.613	80.25
400.837	77.25
401.062	80.25
401.286	68.25
401.51	90.25
401.734	86.25
401.958	66.25
402.182	85.25
402.406	78.25
402.63	90.25
402.854	83.25
403.078	79.25
403.302	88.25
403.526	95.25
403.75	78.25
403.974	79.25
404.198	80.25
404.422	82.25
404.645	92.25
404.869	79.25
405.093	97.25
405.317	91.25
405.541	85.25
405.765	83.25
405.988	77.25
406.212	84.25
406.436	70.25
406.66	96.25
406.883	92.25
407.107	92.25
407.331	85.25
407.555	83.25
407.778	100.25
408.002	99.25
408.226	79.25
408.449	98.25
408.673	72.25
408.896	92.25
409.12	92.25
409.344	82.25
409.567	97.25
409.791	88.25
410.014	89.25
410.238	90.25
410.461	70.25
410.685	84.25
410.908	68.25
411.132	90.25
411.355	84.25
411.578	78.25
411.802	73.25
412.025	72.25
412.249	74.25
412.472	86.25
412.695	72.25
412.919	81.25
413.142	80.25
413.365	84.25
413.589	86.25
413.812	82.25
414.035	95.25
414.258	80.25
414.482	94.25
414.705	89.25
414.928	92.25
415.151	86.25
415.374	82.25
415.597	82.25
415.821	89.25
416.044	85.25
416.267	79.25
416.49	84.25
416.713	86.25
416.936	74.25
417.159	84.25
417.382	96.25
417.605	85.25
417.828	84.25
418.051	82.25
418.274	94.25
418.497	74.25
418.72	75.25
418.943	85.25
419.166	80.25
419.389	86.25
419.611	72.25
419.834	80.25
420.057	88.25
420.28	81.25
420.503	89.25
420.726	90.25
420.948	93.25
421.171	74.25
421.394	95.25
421.617	112.25
421.839	84.25
422.062	93.25
422.285	96.25
422.507	138.25
422.73	213.25
422.953	199.25
423.175	116.25
423.398	112.25
423.621	89.25
423.843	73.25
424.066	98.25
424.288	88.25
424.511	71.25
424.733	82.25
424.956	70.25
425.178	91.25
425.401	90.25
425.623	80.25
425.846	66.25
426.068	95.25
426.291	84.25
426.513	86.25
426.735	79.25
426.958	79.25
427.18	89.25
427.402	92.25
427.625	80.25
427.847	94.25
428.069	92.25
428.292	95.25
428.514	99.25
428.736	97.25
428.958	98.25
429.181	93.25
429.403	84.25
429.625	83.25
429.847	89.25
430.069	109.25
430.292	118.25
430.514	114.25
430.736	113.25
430.958	115.25
431.18	79.25
431.402	83.25
431.624	65.25
431.846	93.25
432.068	103.25
432.29	75.25
432.512	80.25
432.734	99.25
432.956	69.25
433.178	80.25
433.4	95.25
433.622	91.25
433.844	85.25
434.066	83.25
434.287	74.25
434.509	86.25
434.731	81.25
434.953	89.25
435.175	83.25
435.397	84.25
435.618	85.25
435.84	94.25
436.062	85.25
436.284	86.25
436.505	85.25
436.727	80.25
436.949	87.25
437.17	75.25
437.392	86.25
437.614	79.25
437.835	82.25
438.057	91.25
438.278	82.25
438.5	100.25
438.721	96.25
438.943	66.25
439.165	92.25
439.386	94.25
439.608	99.25
439.829	97.25
440.05	94.25
440.272	102.25
440.493	79.25
440.715	88.25
440.936	85.25
441.158	67.25
441.379	66.25
441.6	75.25
441.822	94.25
442.043	86.25
442.264	80.25
442.486	89.25
442.707	112.25
442.928	86.25
443.149	100.25
443.371	110.25
443.592	126.25
443.813	131.25
444.034	80.25
444.255	92.25
444.476	81.25
444.698	81.25
444.919	69.25
445.14	163.25
445.361	130.25
445.582	153.25
445.803	140.25
446.024	98.25
446.245	93.25
446.466	100.25
446.687	83.25
446.908	82.25
447.129	84.25
447.35	84.25
447.571	77.25
447.792	72.25
448.013	88.25
448.234	85.25
448.455	83.25
448.675	89.25
448.896	86.25
449.117	87.25
449.338	85.25
449.559	76.25
449.779	84.25
450	70.25
450.221	79.25
450.442	75.25
450.662	86.25
450.883	88.25
451.104	79.25
451.324	79.25
451.545	88.25
451.766	82.25
451.986	89.25
452.207	72.25
452.428	74.25
452.648	81.25
452.869	69.25
453.089	79.25
453.31	81.25
453.53	90.25
453.751	78.25
453.971	76.25
454.192	74.25
454.412	82.25
454.633	82.25
454.853	81.25
455.073	84.25
455.294	79.25
455.514	76.25
455.734	92.25
455.955	85.25
456.175	80.25
456.395	75.25
456.616	92.25
456.836	77.25
457.056	80.25
457.276	96.25
457.497	100.25
457.717	86.25
457.937	100.25
458.157	95.25
458.377	88.25
458.598	97.25
458.818	97.25
459.038	82.25
459.258	80.25
459.478	78.25
459.698	74.25
459.918	86.25
460.138	78.25
460.358	72.25
460.578	100.25
460.798	108.25
461.018	81.25
461.238	87.25
461.458	92.25
461.678	92.25
461.898	88.25
462.118	79.25
462.338	96.25
462.558	92.25
462.777	93.25
462.997	88.25
463.217	84.25
463.437	87.25
463.657	85.25
463.876	86.25
464.096	94.25
464.316	88.25
464.536	90.25
464.755	85.25
464.975	80.25
465.195	93.25
465.414	92.25
465.634	88.25
465.854	90.25
466.073	70.25
466.293	86.25
466.512	85.25
466.732	73.25
466.951	86.25
467.171	86.25
467.391	95.25
467.61	68.25
467.829	79.25
468.049	87.25
468.268	77.25
468.488	80.25
468.707	86.25
468.927	72.25
469.146	82.25
469.365	74.25
469.585	75.25
469.804	85.25
470.023	101.25
470.243	96.25
470.462	89.25
470.681	83.25
470.901	82.25
471.12	88.25
471.339	86.25
471.558	80.25
471.777	80.25
471.997	80.25
472.216	93.25
472.435	89.25
472.654	84.25
472.873	87.25
473.092	80.25
473.311	87.25
473.53	80.25
473.749	91.25
473.968	88.25
474.187	72.25
474.406	92.25
474.625	79.25
474.844	76.25
475.063	75.25
475.282	96.25
475.501	93.25
475.72	83.25
475.939	82.25
476.158	93.25
476.377	91.25
476.596	91.25
476.814	88.25
477.033	70.25
477.252	87.25
477.471	74.25
477.69	90.25
477.908	87.25
478.127	81.25
478.346	92.25
478.564	78.25
478.783	84.25
479.002	69.25
479.22	90.25
479.439	76.25
479.658	88.25
479.876	91.25
480.095	94.25
480.313	84.25
480.532	81.25
480.751	96.25
480.969	84.25
481.188	81.25
481.406	91.25
481.624	88.25
481.843	85.25
482.061	87.25
482.28	96.25
482.498	100.25
482.717	74.25
482.935	80.25
483.153	88.25
483.372	88.25
483.59	76.25
483.808	76.25
484.027	96.25
484.245	99.25
484.463	97.25
484.681	97.25
484.9	77.25
485.118	74.25
485.336	74.25
485.554	85.25
485.772	93.25
485.99	97.25
486.209	79.25
486.427	90.25
486.645	90.25
486.863	80.25
487.081	75.25
487.299	78.25
487.517	80.25
487.735	88.25
487.953	109.25
488.171	105.25
488.389	89.25
488.607	96.25
488.825	86.25
489.043	88.25
489.261	92.25
489.479	78.25
489.696	90.25
489.914	85.25
490.132	81.25
490.35	92.25
490.568	85.25
490.786	77.25
491.003	88.25
491.221	86.25
491.439	89.25
491.657	93.25
491.874	98.25
492.092	89.25
492.31	89.25
492.527	92.25
492.745	84.25
492.963	83.25
493.18	79.25
493.398	86.25
493.615	94.25
493.833	82.25
494.05	86.25
494.268	94.25
494.485	82.25
494.703	84.25
494.92	90.25
495.138	83.25
495.355	94.25
495.573	85.25
495.79	94.25
496.008	97.25
496.225	80.25
496.442	74.25
496.66	90.25
496.877	89.25
497.094	86.25
497.312	75.25
497.529	90.25
497.746	95.25
497.963	84.25
498.181	90.25
498.398	88.25
498.615	73.25
498.832	88.25
499.049	95.25
499.267	94.25
499.484	75.25
499.701	87.25
499.918	87.25
500.135	84.25
500.352	106.25
500.569	80.25
500.786	84.25
501.003	84.25
501.22	89.25
501.437	86.25
501.654	89.25
501.871	80.25
502.088	89.25
502.305	82.25
502.522	80.25
502.739	72.25
502.956	87.25
503.172	79.25
503.389	80.25
503.606	86.25
503.823	77.25
504.04	86.25
504.256	113.25
504.473	88.25
504.69	92.25
504.907	95.25
505.123	81.25
505.34	77.25
505.557	94.25
505.773	94.25
505.99	79.25
506.207	78.25
506.423	98.25
506.64	92.25
506.856	68.25
507.073	78.25
507.289	83.25
507.506	82.25
507.722	92.25
507.939	95.25
508.155	103.25
508.372	93.25
508.588	85.25
508.805	95.25
509.021	83.25
509.238	90.25
509.454	81.25
509.67	82.25
509.887	92.25
510.103	68.25
510.319	80.25
510.536	88.25
510.752	85.25
510.968	84.25
511.184	76.25
511.401	96.25
511.617	85.25
511.833	77.25
512.049	90.25
512.265	83.25
512.481	87.25
512.698	84.25
512.914	81.25
513.13	74.25
513.346	91.25
513.562	84.25
513.778	80.25
513.994	67.25
514.21	83.25
514.426	82.25
514.642	87.25
514.858	81.25
515.074	88.25
515.29	88.25
515.506	95.25
515.721	97.25
515.937	91.25
516.153	77.25
516.369	85.25
516.585	91.25
516.801	92.25
517.016	90.25
517.232	93.25
517.448	104.25
517.664	108.25
517.879	97.25
518.095	86.25
518.311	96.25
518.527	97.25
518.742	108.25
518.958	96.25
519.173	95.25
