Data from 1600_4_HRD10591_00020.txt Node
Date: Mon Jan 19 13:56:20 EST 2026
User: Yrep
Spectrometer: HR+D1059
Trigger mode: 1
Integration Time (sec): 1.000000E-1
Scans to average: 1
Electric dark correction enabled: true
Nonlinearity correction enabled: false
Boxcar width: 0
XAxis mode: Wavelengths
Number of Pixels in Spectrum: 2048
>>>>>Begin Spectral Data<<<<<
223.165	-26.62
223.4	-26.62
223.635	-26.62
223.869	-33.62
224.104	2.38
224.338	-12.62
224.573	-6.62
224.808	-22.62
225.042	-13.62
225.277	-7.62
225.511	-5.62
225.746	-2.62
225.98	-1.62
226.215	19.38
226.449	14.38
226.683	30.38
226.918	35.38
227.152	31.38
227.387	47.38
227.621	45.38
227.856	47.38
228.09	36.38
228.324	55.38
228.559	51.38
228.793	57.38
229.027	57.38
229.262	63.38
229.496	70.38
229.73	61.38
229.964	74.38
230.199	63.38
230.433	85.38
230.667	86.38
230.901	78.38
231.136	70.38
231.37	85.38
231.604	76.38
231.838	78.38
232.072	75.38
232.306	73.38
232.541	88.38
232.775	95.38
233.009	79.38
233.243	88.38
233.477	89.38
233.711	89.38
233.945	90.38
234.179	79.38
234.413	81.38
234.647	69.38
234.881	79.38
235.115	89.38
235.349	103.38
235.583	73.38
235.817	75.38
236.051	86.38
236.285	72.38
236.519	84.38
236.753	89.38
236.987	80.38
237.221	81.38
237.455	77.38
237.689	66.38
237.922	77.38
238.156	81.38
238.39	84.38
238.624	88.38
238.858	70.38
239.091	65.38
239.325	75.38
239.559	85.38
239.793	90.38
240.027	98.38
240.26	73.38
240.494	75.38
240.728	73.38
240.961	56.38
241.195	72.38
241.429	81.38
241.662	83.38
241.896	72.38
242.13	76.38
242.363	97.38
242.597	70.38
242.83	81.38
243.064	83.38
243.298	80.38
243.531	79.38
243.765	73.38
243.998	81.38
244.232	69.38
244.465	73.38
244.699	67.38
244.932	80.38
245.166	65.38
245.399	78.38
245.633	87.38
245.866	74.38
246.099	77.38
246.333	81.38
246.566	80.38
246.8	83.38
247.033	80.38
247.266	88.38
247.5	70.38
247.733	87.38
247.966	75.38
248.2	75.38
248.433	73.38
248.666	80.38
248.899	74.38
249.133	77.38
249.366	77.38
249.599	65.38
249.832	80.38
250.066	73.38
250.299	74.38
250.532	83.38
250.765	84.38
250.998	59.38
251.231	70.38
251.465	71.38
251.698	73.38
251.931	83.38
252.164	81.38
252.397	80.38
252.63	89.38
252.863	85.38
253.096	84.38
253.329	80.38
253.562	78.38
253.795	90.38
254.028	70.38
254.261	79.38
254.494	74.38
254.727	82.38
254.96	86.38
255.193	79.38
255.426	83.38
255.659	57.38
255.892	87.38
256.124	77.38
256.357	79.38
256.59	68.38
256.823	87.38
257.056	85.38
257.289	77.38
257.521	86.38
257.754	74.38
257.987	78.38
258.22	91.38
258.452	87.38
258.685	69.38
258.918	101.38
259.151	80.38
259.383	93.38
259.616	86.38
259.849	69.38
260.081	81.38
260.314	81.38
260.547	78.38
260.779	82.38
261.012	86.38
261.244	74.38
261.477	94.38
261.71	93.38
261.942	74.38
262.175	79.38
262.407	73.38
262.64	81.38
262.872	101.38
263.105	93.38
263.337	87.38
263.57	81.38
263.802	80.38
264.035	72.38
264.267	80.38
264.499	70.38
264.732	74.38
264.964	98.38
265.197	83.38
265.429	82.38
265.661	70.38
265.894	89.38
266.126	75.38
266.358	93.38
266.591	91.38
266.823	83.38
267.055	93.38
267.287	92.38
267.52	83.38
267.752	90.38
267.984	71.38
268.216	70.38
268.448	94.38
268.681	75.38
268.913	73.38
269.145	72.38
269.377	80.38
269.609	76.38
269.841	90.38
270.073	76.38
270.306	79.38
270.538	87.38
270.77	80.38
271.002	89.38
271.234	90.38
271.466	84.38
271.698	86.38
271.93	96.38
272.162	97.38
272.394	96.38
272.626	84.38
272.858	97.38
273.09	73.38
273.322	74.38
273.553	88.38
273.785	99.38
274.017	91.38
274.249	103.38
274.481	79.38
274.713	87.38
274.945	93.38
275.176	87.38
275.408	86.38
275.64	76.38
275.872	87.38
276.104	94.38
276.335	93.38
276.567	74.38
276.799	81.38
277.031	73.38
277.262	70.38
277.494	84.38
277.726	73.38
277.957	71.38
278.189	100.38
278.421	83.38
278.652	106.38
278.884	88.38
279.115	89.38
279.347	94.38
279.579	89.38
279.81	69.38
280.042	88.38
280.273	93.38
280.505	76.38
280.736	70.38
280.968	98.38
281.199	79.38
281.431	97.38
281.662	85.38
281.894	79.38
282.125	70.38
282.356	82.38
282.588	84.38
282.819	77.38
283.051	77.38
283.282	75.38
283.513	79.38
283.745	80.38
283.976	95.38
284.207	67.38
284.439	91.38
284.67	97.38
284.901	89.38
285.132	90.38
285.364	83.38
285.595	88.38
285.826	82.38
286.057	81.38
286.288	74.38
286.52	86.38
286.751	86.38
286.982	80.38
287.213	83.38
287.444	77.38
287.675	89.38
287.906	94.38
288.138	87.38
288.369	93.38
288.6	86.38
288.831	91.38
289.062	76.38
289.293	80.38
289.524	92.38
289.755	86.38
289.986	74.38
290.217	74.38
290.448	88.38
290.679	85.38
290.91	93.38
291.141	82.38
291.371	95.38
291.602	77.38
291.833	85.38
292.064	97.38
292.295	80.38
292.526	82.38
292.757	88.38
292.987	92.38
293.218	87.38
293.449	93.38
293.68	67.38
293.91	93.38
294.141	96.38
294.372	89.38
294.603	93.38
294.833	87.38
295.064	86.38
295.295	85.38
295.525	89.38
295.756	92.38
295.987	90.38
296.217	82.38
296.448	97.38
296.679	91.38
296.909	87.38
297.14	85.38
297.37	93.38
297.601	79.38
297.831	77.38
298.062	85.38
298.292	98.38
298.523	88.38
298.753	90.38
298.984	79.38
299.214	93.38
299.445	81.38
299.675	80.38
299.905	81.38
300.136	102.38
300.366	87.38
300.597	70.38
300.827	97.38
301.057	74.38
301.288	81.38
301.518	65.38
301.748	86.38
301.979	93.38
302.209	83.38
302.439	88.38
302.669	97.38
302.9	78.38
303.13	79.38
303.36	88.38
303.59	100.38
303.82	89.38
304.051	76.38
304.281	85.38
304.511	73.38
304.741	83.38
304.971	68.38
305.201	91.38
305.431	82.38
305.661	89.38
305.891	75.38
306.121	79.38
306.352	83.38
306.582	70.38
306.812	92.38
307.042	89.38
307.272	89.38
307.502	90.38
307.731	85.38
307.961	90.38
308.191	71.38
308.421	81.38
308.651	75.38
308.881	95.38
309.111	75.38
309.341	89.38
309.571	69.38
309.8	88.38
310.03	74.38
310.26	94.38
310.49	82.38
310.72	86.38
310.949	85.38
311.179	86.38
311.409	93.38
311.639	90.38
311.868	83.38
312.098	94.38
312.328	100.38
312.557	89.38
312.787	85.38
313.017	87.38
313.246	98.38
313.476	78.38
313.706	85.38
313.935	90.38
314.165	86.38
314.394	91.38
314.624	83.38
314.853	89.38
315.083	88.38
315.312	85.38
315.542	86.38
315.771	102.38
316.001	82.38
316.23	97.38
316.46	79.38
316.689	86.38
316.919	100.38
317.148	84.38
317.377	95.38
317.607	85.38
317.836	84.38
318.065	97.38
318.295	75.38
318.524	92.38
318.753	78.38
318.983	89.38
319.212	72.38
319.441	83.38
319.67	90.38
319.9	91.38
320.129	86.38
320.358	82.38
320.587	70.38
320.816	81.38
321.046	90.38
321.275	81.38
321.504	97.38
321.733	107.38
321.962	101.38
322.191	91.38
322.42	74.38
322.649	87.38
322.878	97.38
323.108	84.38
323.337	81.38
323.566	75.38
323.795	89.38
324.024	80.38
324.253	87.38
324.482	81.38
324.71	84.38
324.939	80.38
325.168	84.38
325.397	84.38
325.626	83.38
325.855	65.38
326.084	83.38
326.313	86.38
326.542	83.38
326.77	100.38
326.999	85.38
327.228	89.38
327.457	80.38
327.686	71.38
327.914	112.38
328.143	102.38
328.372	81.38
328.6	75.38
328.829	85.38
329.058	82.38
329.287	79.38
329.515	80.38
329.744	74.38
329.972	70.38
330.201	91.38
330.43	104.38
330.658	103.38
330.887	88.38
331.115	88.38
331.344	93.38
331.572	84.38
331.801	85.38
332.03	83.38
332.258	81.38
332.486	84.38
332.715	76.38
332.943	83.38
333.172	72.38
333.4	85.38
333.629	84.38
333.857	86.38
334.085	68.38
334.314	88.38
334.542	82.38
334.771	78.38
334.999	93.38
335.227	80.38
335.455	69.38
335.684	91.38
335.912	87.38
336.14	89.38
336.369	89.38
336.597	86.38
336.825	73.38
337.053	76.38
337.281	89.38
337.51	87.38
337.738	75.38
337.966	74.38
338.194	103.38
338.422	101.38
338.65	91.38
338.878	86.38
339.106	65.38
339.334	81.38
339.562	74.38
339.79	81.38
340.018	81.38
340.246	85.38
340.474	85.38
340.702	81.38
340.93	80.38
341.158	83.38
341.386	81.38
341.614	75.38
341.842	78.38
342.07	90.38
342.298	78.38
342.526	91.38
342.754	73.38
342.981	82.38
343.209	83.38
343.437	99.38
343.665	86.38
343.893	71.38
344.12	93.38
344.348	89.38
344.576	89.38
344.804	83.38
345.031	100.38
345.259	87.38
345.487	97.38
345.714	84.38
345.942	82.38
346.17	97.38
346.397	85.38
346.625	96.38
346.853	79.38
347.08	81.38
347.308	83.38
347.535	87.38
347.763	79.38
347.99	88.38
348.218	93.38
348.445	91.38
348.673	82.38
348.9	96.38
349.128	90.38
349.355	85.38
349.583	93.38
349.81	86.38
350.037	80.38
350.265	82.38
350.492	82.38
350.72	103.38
350.947	81.38
351.174	100.38
351.402	84.38
351.629	86.38
351.856	86.38
352.083	76.38
352.311	90.38
352.538	92.38
352.765	79.38
352.992	93.38
353.22	88.38
353.447	87.38
353.674	77.38
353.901	88.38
354.128	81.38
354.355	89.38
354.583	81.38
354.81	83.38
355.037	85.38
355.264	89.38
355.491	84.38
355.718	83.38
355.945	88.38
356.172	90.38
356.399	99.38
356.626	91.38
356.853	81.38
357.08	88.38
357.307	84.38
357.534	75.38
357.761	91.38
357.988	93.38
358.215	82.38
358.441	86.38
358.668	89.38
358.895	76.38
359.122	82.38
359.349	82.38
359.576	78.38
359.802	88.38
360.029	89.38
360.256	92.38
360.483	87.38
360.709	83.38
360.936	96.38
361.163	80.38
361.39	72.38
361.616	83.38
361.843	88.38
362.07	85.38
362.296	96.38
362.523	86.38
362.749	85.38
362.976	90.38
363.203	85.38
363.429	78.38
363.656	86.38
363.882	74.38
364.109	81.38
364.335	82.38
364.562	94.38
364.788	97.38
365.015	74.38
365.241	78.38
365.468	80.38
365.694	85.38
365.92	81.38
366.147	89.38
366.373	94.38
366.599	95.38
366.826	80.38
367.052	83.38
367.278	93.38
367.505	79.38
367.731	88.38
367.957	74.38
368.184	86.38
368.41	87.38
368.636	86.38
368.862	98.38
369.089	84.38
369.315	81.38
369.541	82.38
369.767	83.38
369.993	73.38
370.219	85.38
370.445	86.38
370.672	86.38
370.898	86.38
371.124	87.38
371.35	83.38
371.576	84.38
371.802	85.38
372.028	93.38
372.254	96.38
372.48	85.38
372.706	87.38
372.932	88.38
373.158	89.38
373.384	79.38
373.61	85.38
373.835	75.38
374.061	85.38
374.287	90.38
374.513	82.38
374.739	77.38
374.965	75.38
375.191	84.38
375.416	93.38
375.642	86.38
375.868	75.38
376.094	96.38
376.319	91.38
376.545	78.38
376.771	79.38
376.997	86.38
377.222	83.38
377.448	74.38
377.674	97.38
377.899	93.38
378.125	72.38
378.35	90.38
378.576	80.38
378.802	77.38
379.027	101.38
379.253	93.38
379.478	88.38
379.704	71.38
379.929	84.38
380.155	87.38
380.38	83.38
380.606	84.38
380.831	82.38
381.057	88.38
381.282	96.38
381.507	79.38
381.733	96.38
381.958	74.38
382.184	88.38
382.409	104.38
382.634	86.38
382.86	103.38
383.085	88.38
383.31	83.38
383.535	95.38
383.761	87.38
383.986	98.38
384.211	81.38
384.436	99.38
384.662	73.38
384.887	92.38
385.112	90.38
385.337	85.38
385.562	80.38
385.787	97.38
386.013	90.38
386.238	86.38
386.463	94.38
386.688	89.38
386.913	75.38
387.138	101.38
387.363	83.38
387.588	97.38
387.813	82.38
388.038	69.38
388.263	106.38
388.488	95.38
388.713	98.38
388.938	81.38
389.163	95.38
389.387	85.38
389.612	76.38
389.837	96.38
390.062	86.38
390.287	97.38
390.512	71.38
390.736	101.38
390.961	70.38
391.186	87.38
391.411	93.38
391.636	81.38
391.86	81.38
392.085	91.38
392.31	93.38
392.534	94.38
392.759	79.38
392.984	102.38
393.208	136.38
393.433	177.38
393.658	143.38
393.882	113.38
394.107	86.38
394.331	99.38
394.556	98.38
394.78	94.38
395.005	93.38
395.229	95.38
395.454	82.38
395.678	68.38
395.903	98.38
396.127	98.38
396.352	101.38
396.576	106.38
396.801	134.38
397.025	136.38
397.249	98.38
397.474	87.38
397.698	81.38
397.922	91.38
398.147	88.38
398.371	81.38
398.595	96.38
398.82	89.38
399.044	79.38
399.268	93.38
399.492	82.38
399.717	83.38
399.941	74.38
400.165	82.38
400.389	82.38
400.613	100.38
400.837	82.38
401.062	83.38
401.286	85.38
401.51	81.38
401.734	83.38
401.958	93.38
402.182	82.38
402.406	97.38
402.63	79.38
402.854	91.38
403.078	72.38
403.302	93.38
403.526	75.38
403.75	73.38
403.974	76.38
404.198	85.38
404.422	84.38
404.645	92.38
404.869	83.38
405.093	83.38
405.317	80.38
405.541	83.38
405.765	81.38
405.988	91.38
406.212	90.38
406.436	84.38
406.66	93.38
406.883	93.38
407.107	87.38
407.331	104.38
407.555	70.38
407.778	62.38
408.002	91.38
408.226	71.38
408.449	77.38
408.673	89.38
408.896	93.38
409.12	87.38
409.344	101.38
409.567	71.38
409.791	85.38
410.014	88.38
410.238	84.38
410.461	83.38
410.685	65.38
410.908	76.38
411.132	79.38
411.355	87.38
411.578	86.38
411.802	89.38
412.025	75.38
412.249	79.38
412.472	92.38
412.695	88.38
412.919	79.38
413.142	83.38
413.365	83.38
413.589	66.38
413.812	90.38
414.035	82.38
414.258	78.38
414.482	90.38
414.705	90.38
414.928	76.38
415.151	85.38
415.374	79.38
415.597	84.38
415.821	97.38
416.044	90.38
416.267	79.38
416.49	83.38
416.713	88.38
416.936	66.38
417.159	89.38
417.382	73.38
417.605	61.38
417.828	101.38
418.051	93.38
418.274	84.38
418.497	91.38
418.72	67.38
418.943	86.38
419.166	75.38
419.389	81.38
419.611	77.38
419.834	87.38
420.057	85.38
420.28	86.38
420.503	83.38
420.726	93.38
420.948	79.38
421.171	87.38
421.394	93.38
421.617	67.38
421.839	80.38
422.062	106.38
422.285	112.38
422.507	121.38
422.73	190.38
422.953	166.38
423.175	116.38
423.398	98.38
423.621	90.38
423.843	83.38
424.066	66.38
424.288	84.38
424.511	95.38
424.733	90.38
424.956	88.38
425.178	87.38
425.401	80.38
425.623	75.38
425.846	88.38
426.068	93.38
426.291	85.38
426.513	81.38
426.735	78.38
426.958	69.38
427.18	89.38
427.402	83.38
427.625	71.38
427.847	84.38
428.069	88.38
428.292	105.38
428.514	102.38
428.736	98.38
428.958	91.38
429.181	91.38
429.403	71.38
429.625	73.38
429.847	89.38
430.069	104.38
430.292	103.38
430.514	115.38
430.736	106.38
430.958	97.38
431.18	71.38
431.402	71.38
431.624	89.38
431.846	79.38
432.068	95.38
432.29	85.38
432.512	85.38
432.734	91.38
432.956	80.38
433.178	92.38
433.4	88.38
433.622	86.38
433.844	87.38
434.066	77.38
434.287	91.38
434.509	88.38
434.731	96.38
434.953	73.38
435.175	84.38
435.397	87.38
435.618	72.38
435.84	86.38
436.062	74.38
436.284	71.38
436.505	78.38
436.727	85.38
436.949	81.38
437.17	83.38
437.392	89.38
437.614	80.38
437.835	92.38
438.057	71.38
438.278	96.38
438.5	93.38
438.721	86.38
438.943	94.38
439.165	85.38
439.386	90.38
439.608	86.38
439.829	83.38
440.05	100.38
440.272	90.38
440.493	81.38
440.715	79.38
440.936	90.38
441.158	88.38
441.379	87.38
441.6	83.38
441.822	87.38
442.043	87.38
442.264	78.38
442.486	76.38
442.707	105.38
442.928	93.38
443.149	96.38
443.371	94.38
443.592	117.38
443.813	109.38
444.034	79.38
444.255	95.38
444.476	81.38
444.698	88.38
444.919	73.38
445.14	137.38
445.361	128.38
445.582	139.38
445.803	111.38
446.024	81.38
446.245	90.38
446.466	85.38
446.687	73.38
446.908	67.38
447.129	90.38
447.35	75.38
447.571	83.38
447.792	81.38
448.013	82.38
448.234	80.38
448.455	83.38
448.675	85.38
448.896	88.38
449.117	71.38
449.338	90.38
449.559	91.38
449.779	88.38
450	85.38
450.221	85.38
450.442	80.38
450.662	90.38
450.883	80.38
451.104	78.38
451.324	81.38
451.545	79.38
451.766	83.38
451.986	56.38
452.207	80.38
452.428	92.38
452.648	85.38
452.869	77.38
453.089	90.38
453.31	94.38
453.53	90.38
453.751	77.38
453.971	95.38
454.192	86.38
454.412	85.38
454.633	87.38
454.853	88.38
455.073	86.38
455.294	85.38
455.514	93.38
455.734	97.38
455.955	83.38
456.175	72.38
456.395	90.38
456.616	88.38
456.836	83.38
457.056	74.38
457.276	81.38
457.497	71.38
457.717	72.38
457.937	89.38
458.157	90.38
458.377	93.38
458.598	78.38
458.818	96.38
459.038	85.38
459.258	100.38
459.478	86.38
459.698	80.38
459.918	88.38
460.138	90.38
460.358	72.38
460.578	78.38
460.798	94.38
461.018	100.38
461.238	89.38
461.458	84.38
461.678	91.38
461.898	73.38
462.118	63.38
462.338	77.38
462.558	79.38
462.777	73.38
462.997	85.38
463.217	88.38
463.437	91.38
463.657	83.38
463.876	81.38
464.096	94.38
464.316	88.38
464.536	98.38
464.755	89.38
464.975	93.38
465.195	84.38
465.414	90.38
465.634	66.38
465.854	85.38
466.073	73.38
466.293	85.38
466.512	71.38
466.732	87.38
466.951	73.38
467.171	75.38
467.391	94.38
467.61	73.38
467.829	82.38
468.049	95.38
468.268	93.38
468.488	70.38
468.707	82.38
468.927	77.38
469.146	87.38
469.365	102.38
469.585	85.38
469.804	72.38
470.023	85.38
470.243	79.38
470.462	100.38
470.681	79.38
470.901	75.38
471.12	76.38
471.339	81.38
471.558	78.38
471.777	80.38
471.997	82.38
472.216	84.38
472.435	83.38
472.654	82.38
472.873	94.38
473.092	78.38
473.311	96.38
473.53	78.38
473.749	79.38
473.968	87.38
474.187	79.38
474.406	80.38
474.625	77.38
474.844	76.38
475.063	75.38
475.282	74.38
475.501	66.38
475.72	93.38
475.939	81.38
476.158	71.38
476.377	77.38
476.596	98.38
476.814	69.38
477.033	89.38
477.252	83.38
477.471	88.38
477.69	77.38
477.908	87.38
478.127	79.38
478.346	71.38
478.564	86.38
478.783	91.38
479.002	75.38
479.22	86.38
479.439	82.38
479.658	84.38
479.876	86.38
480.095	83.38
480.313	87.38
480.532	95.38
480.751	91.38
480.969	98.38
481.188	87.38
481.406	75.38
481.624	63.38
481.843	83.38
482.061	81.38
482.28	83.38
482.498	92.38
482.717	86.38
482.935	90.38
483.153	96.38
483.372	85.38
483.59	88.38
483.808	76.38
484.027	94.38
484.245	89.38
484.463	89.38
484.681	90.38
484.9	80.38
485.118	90.38
485.336	82.38
485.554	93.38
485.772	101.38
485.99	66.38
486.209	73.38
486.427	92.38
486.645	92.38
486.863	89.38
487.081	78.38
487.299	86.38
487.517	85.38
487.735	82.38
487.953	87.38
488.171	93.38
488.389	89.38
488.607	79.38
488.825	89.38
489.043	87.38
489.261	86.38
489.479	83.38
489.696	86.38
489.914	80.38
490.132	99.38
490.35	93.38
490.568	81.38
490.786	80.38
491.003	84.38
491.221	83.38
491.439	86.38
491.657	94.38
491.874	80.38
492.092	87.38
492.31	82.38
492.527	82.38
492.745	91.38
492.963	76.38
493.18	97.38
493.398	79.38
493.615	92.38
493.833	84.38
494.05	85.38
494.268	77.38
494.485	87.38
494.703	104.38
494.92	86.38
495.138	82.38
495.355	87.38
495.573	87.38
495.79	73.38
496.008	95.38
496.225	86.38
496.442	75.38
496.66	86.38
496.877	90.38
497.094	99.38
497.312	84.38
497.529	74.38
497.746	86.38
497.963	86.38
498.181	84.38
498.398	91.38
498.615	116.38
498.832	84.38
499.049	79.38
499.267	100.38
499.484	86.38
499.701	83.38
499.918	88.38
500.135	82.38
500.352	86.38
500.569	75.38
500.786	91.38
501.003	72.38
501.22	80.38
501.437	91.38
501.654	85.38
501.871	80.38
502.088	91.38
502.305	98.38
502.522	91.38
502.739	98.38
502.956	91.38
503.172	92.38
503.389	80.38
503.606	93.38
503.823	81.38
504.04	75.38
504.256	100.38
504.473	84.38
504.69	95.38
504.907	102.38
505.123	95.38
505.34	72.38
505.557	85.38
505.773	91.38
505.99	82.38
506.207	81.38
506.423	88.38
506.64	93.38
506.856	85.38
507.073	88.38
507.289	83.38
507.506	79.38
507.722	88.38
507.939	76.38
508.155	78.38
508.372	71.38
508.588	80.38
508.805	97.38
509.021	83.38
509.238	82.38
509.454	94.38
509.67	83.38
509.887	85.38
510.103	78.38
510.319	90.38
510.536	91.38
510.752	87.38
510.968	92.38
511.184	89.38
511.401	90.38
511.617	85.38
511.833	74.38
512.049	93.38
512.265	88.38
512.481	98.38
512.698	93.38
512.914	87.38
513.13	93.38
513.346	76.38
513.562	95.38
513.778	95.38
513.994	80.38
514.21	85.38
514.426	90.38
514.642	78.38
514.858	86.38
515.074	81.38
515.29	85.38
515.506	86.38
515.721	97.38
515.937	87.38
516.153	81.38
516.369	91.38
516.585	89.38
516.801	95.38
517.016	93.38
517.232	80.38
517.448	97.38
517.664	86.38
517.879	90.38
518.095	86.38
518.311	88.38
518.527	96.38
518.742	104.38
518.958	100.38
519.173	91.38
