Data from 1600_4_HRD10591_00033.txt Node
Date: Mon Jan 19 13:56:27 EST 2026
User: Yrep
Spectrometer: HR+D1059
Trigger mode: 1
Integration Time (sec): 1.000000E-1
Scans to average: 1
Electric dark correction enabled: true
Nonlinearity correction enabled: false
Boxcar width: 0
XAxis mode: Wavelengths
Number of Pixels in Spectrum: 2048
>>>>>Begin Spectral Data<<<<<
223.165	-16.88
223.4	-16.88
223.635	-16.88
223.869	-19.88
224.104	-20.88
224.338	-16.88
224.573	-21.88
224.808	-3.88
225.042	-15.88
225.277	4.12
225.511	-5.88
225.746	11.12
225.98	16.12
226.215	25.12
226.449	4.12
226.683	20.12
226.918	17.12
227.152	24.12
227.387	36.12
227.621	31.12
227.856	43.12
228.09	42.12
228.324	53.12
228.559	55.12
228.793	52.12
229.027	57.12
229.262	70.12
229.496	58.12
229.73	70.12
229.964	71.12
230.199	72.12
230.433	63.12
230.667	78.12
230.901	80.12
231.136	71.12
231.37	83.12
231.604	65.12
231.838	84.12
232.072	80.12
232.306	77.12
232.541	83.12
232.775	73.12
233.009	76.12
233.243	85.12
233.477	74.12
233.711	82.12
233.945	77.12
234.179	90.12
234.413	80.12
234.647	76.12
234.881	64.12
235.115	64.12
235.349	69.12
235.583	73.12
235.817	70.12
236.051	77.12
236.285	72.12
236.519	81.12
236.753	70.12
236.987	70.12
237.221	72.12
237.455	80.12
237.689	66.12
237.922	86.12
238.156	72.12
238.39	71.12
238.624	62.12
238.858	59.12
239.091	77.12
239.325	73.12
239.559	68.12
239.793	74.12
240.027	83.12
240.26	63.12
240.494	80.12
240.728	77.12
240.961	68.12
241.195	76.12
241.429	83.12
241.662	85.12
241.896	69.12
242.13	67.12
242.363	80.12
242.597	81.12
242.83	79.12
243.064	76.12
243.298	76.12
243.531	75.12
243.765	72.12
243.998	80.12
244.232	74.12
244.465	76.12
244.699	67.12
244.932	66.12
245.166	56.12
245.399	64.12
245.633	62.12
245.866	64.12
246.099	59.12
246.333	73.12
246.566	65.12
246.8	66.12
247.033	80.12
247.266	54.12
247.5	68.12
247.733	70.12
247.966	81.12
248.2	80.12
248.433	73.12
248.666	71.12
248.899	77.12
249.133	86.12
249.366	79.12
249.599	83.12
249.832	84.12
250.066	87.12
250.299	69.12
250.532	64.12
250.765	84.12
250.998	87.12
251.231	94.12
251.465	70.12
251.698	70.12
251.931	82.12
252.164	84.12
252.397	70.12
252.63	73.12
252.863	79.12
253.096	92.12
253.329	72.12
253.562	83.12
253.795	77.12
254.028	78.12
254.261	84.12
254.494	70.12
254.727	72.12
254.96	81.12
255.193	83.12
255.426	88.12
255.659	78.12
255.892	71.12
256.124	81.12
256.357	75.12
256.59	82.12
256.823	90.12
257.056	72.12
257.289	73.12
257.521	78.12
257.754	73.12
257.987	92.12
258.22	79.12
258.452	82.12
258.685	80.12
258.918	83.12
259.151	72.12
259.383	82.12
259.616	84.12
259.849	83.12
260.081	83.12
260.314	96.12
260.547	63.12
260.779	66.12
261.012	78.12
261.244	76.12
261.477	83.12
261.71	84.12
261.942	83.12
262.175	77.12
262.407	79.12
262.64	75.12
262.872	69.12
263.105	82.12
263.337	81.12
263.57	85.12
263.802	91.12
264.035	77.12
264.267	94.12
264.499	78.12
264.732	73.12
264.964	74.12
265.197	90.12
265.429	77.12
265.661	77.12
265.894	81.12
266.126	87.12
266.358	78.12
266.591	84.12
266.823	71.12
267.055	78.12
267.287	87.12
267.52	64.12
267.752	93.12
267.984	70.12
268.216	81.12
268.448	83.12
268.681	76.12
268.913	82.12
269.145	88.12
269.377	96.12
269.609	81.12
269.841	80.12
270.073	76.12
270.306	78.12
270.538	78.12
270.77	79.12
271.002	86.12
271.234	82.12
271.466	86.12
271.698	61.12
271.93	82.12
272.162	88.12
272.394	80.12
272.626	80.12
272.858	96.12
273.09	83.12
273.322	88.12
273.553	74.12
273.785	84.12
274.017	82.12
274.249	71.12
274.481	72.12
274.713	85.12
274.945	90.12
275.176	86.12
275.408	79.12
275.64	72.12
275.872	74.12
276.104	81.12
276.335	86.12
276.567	62.12
276.799	85.12
277.031	69.12
277.262	83.12
277.494	78.12
277.726	82.12
277.957	95.12
278.189	76.12
278.421	74.12
278.652	75.12
278.884	78.12
279.115	79.12
279.347	67.12
279.579	74.12
279.81	70.12
280.042	82.12
280.273	82.12
280.505	80.12
280.736	86.12
280.968	84.12
281.199	70.12
281.431	70.12
281.662	75.12
281.894	66.12
282.125	71.12
282.356	82.12
282.588	78.12
282.819	98.12
283.051	81.12
283.282	82.12
283.513	78.12
283.745	71.12
283.976	78.12
284.207	82.12
284.439	91.12
284.67	86.12
284.901	82.12
285.132	83.12
285.364	87.12
285.595	88.12
285.826	82.12
286.057	86.12
286.288	86.12
286.52	94.12
286.751	76.12
286.982	93.12
287.213	88.12
287.444	89.12
287.675	80.12
287.906	78.12
288.138	66.12
288.369	87.12
288.6	76.12
288.831	83.12
289.062	81.12
289.293	72.12
289.524	82.12
289.755	82.12
289.986	81.12
290.217	77.12
290.448	82.12
290.679	86.12
290.91	86.12
291.141	79.12
291.371	84.12
291.602	100.12
291.833	96.12
292.064	83.12
292.295	78.12
292.526	73.12
292.757	77.12
292.987	82.12
293.218	85.12
293.449	69.12
293.68	83.12
293.91	81.12
294.141	74.12
294.372	70.12
294.603	83.12
294.833	78.12
295.064	73.12
295.295	78.12
295.525	74.12
295.756	92.12
295.987	93.12
296.217	90.12
296.448	74.12
296.679	82.12
296.909	80.12
297.14	72.12
297.37	72.12
297.601	92.12
297.831	79.12
298.062	79.12
298.292	76.12
298.523	93.12
298.753	76.12
298.984	82.12
299.214	80.12
299.445	85.12
299.675	83.12
299.905	81.12
300.136	84.12
300.366	86.12
300.597	70.12
300.827	78.12
301.057	66.12
301.288	92.12
301.518	71.12
301.748	94.12
301.979	93.12
302.209	82.12
302.439	78.12
302.669	70.12
302.9	86.12
303.13	82.12
303.36	84.12
303.59	89.12
303.82	78.12
304.051	92.12
304.281	84.12
304.511	98.12
304.741	84.12
304.971	74.12
305.201	91.12
305.431	92.12
305.661	75.12
305.891	86.12
306.121	85.12
306.352	87.12
306.582	96.12
306.812	63.12
307.042	78.12
307.272	81.12
307.502	84.12
307.731	94.12
307.961	85.12
308.191	79.12
308.421	85.12
308.651	81.12
308.881	84.12
309.111	112.12
309.341	88.12
309.571	73.12
309.8	81.12
310.03	87.12
310.26	82.12
310.49	88.12
310.72	94.12
310.949	90.12
311.179	107.12
311.409	85.12
311.639	99.12
311.868	84.12
312.098	91.12
312.328	82.12
312.557	82.12
312.787	67.12
313.017	78.12
313.246	87.12
313.476	94.12
313.706	76.12
313.935	96.12
314.165	81.12
314.394	82.12
314.624	70.12
314.853	76.12
315.083	62.12
315.312	80.12
315.542	74.12
315.771	72.12
316.001	87.12
316.23	86.12
316.46	90.12
316.689	67.12
316.919	75.12
317.148	92.12
317.377	90.12
317.607	74.12
317.836	93.12
318.065	85.12
318.295	73.12
318.524	72.12
318.753	100.12
318.983	71.12
319.212	65.12
319.441	73.12
319.67	83.12
319.9	87.12
320.129	75.12
320.358	81.12
320.587	94.12
320.816	85.12
321.046	99.12
321.275	78.12
321.504	80.12
321.733	80.12
321.962	78.12
322.191	80.12
322.42	85.12
322.649	88.12
322.878	85.12
323.108	83.12
323.337	84.12
323.566	79.12
323.795	64.12
324.024	88.12
324.253	78.12
324.482	90.12
324.71	86.12
324.939	84.12
325.168	86.12
325.397	82.12
325.626	84.12
325.855	72.12
326.084	86.12
326.313	68.12
326.542	68.12
326.77	87.12
326.999	73.12
327.228	84.12
327.457	80.12
327.686	81.12
327.914	75.12
328.143	76.12
328.372	73.12
328.6	86.12
328.829	90.12
329.058	81.12
329.287	88.12
329.515	82.12
329.744	81.12
329.972	86.12
330.201	71.12
330.43	76.12
330.658	102.12
330.887	83.12
331.115	71.12
331.344	66.12
331.572	73.12
331.801	86.12
332.03	82.12
332.258	68.12
332.486	75.12
332.715	82.12
332.943	91.12
333.172	76.12
333.4	82.12
333.629	83.12
333.857	88.12
334.085	82.12
334.314	67.12
334.542	87.12
334.771	84.12
334.999	86.12
335.227	89.12
335.455	78.12
335.684	82.12
335.912	89.12
336.14	82.12
336.369	99.12
336.597	81.12
336.825	88.12
337.053	79.12
337.281	88.12
337.51	72.12
337.738	79.12
337.966	76.12
338.194	62.12
338.422	71.12
338.65	85.12
338.878	86.12
339.106	75.12
339.334	67.12
339.562	76.12
339.79	94.12
340.018	74.12
340.246	90.12
340.474	75.12
340.702	83.12
340.93	85.12
341.158	76.12
341.386	95.12
341.614	99.12
341.842	93.12
342.07	82.12
342.298	83.12
342.526	82.12
342.754	87.12
342.981	76.12
343.209	83.12
343.437	87.12
343.665	76.12
343.893	83.12
344.12	86.12
344.348	82.12
344.576	88.12
344.804	73.12
345.031	82.12
345.259	76.12
345.487	85.12
345.714	91.12
345.942	90.12
346.17	71.12
346.397	70.12
346.625	88.12
346.853	90.12
347.08	81.12
347.308	103.12
347.535	78.12
347.763	80.12
347.99	85.12
348.218	91.12
348.445	86.12
348.673	92.12
348.9	70.12
349.128	87.12
349.355	74.12
349.583	82.12
349.81	78.12
350.037	88.12
350.265	63.12
350.492	84.12
350.72	84.12
350.947	93.12
351.174	95.12
351.402	72.12
351.629	97.12
351.856	86.12
352.083	99.12
352.311	86.12
352.538	89.12
352.765	89.12
352.992	90.12
353.22	78.12
353.447	79.12
353.674	82.12
353.901	90.12
354.128	73.12
354.355	79.12
354.583	88.12
354.81	86.12
355.037	59.12
355.264	76.12
355.491	74.12
355.718	82.12
355.945	83.12
356.172	77.12
356.399	84.12
356.626	76.12
356.853	81.12
357.08	92.12
357.307	88.12
357.534	98.12
357.761	76.12
357.988	82.12
358.215	92.12
358.441	87.12
358.668	77.12
358.895	90.12
359.122	74.12
359.349	78.12
359.576	82.12
359.802	88.12
360.029	81.12
360.256	71.12
360.483	60.12
360.709	85.12
360.936	89.12
361.163	75.12
361.39	90.12
361.616	77.12
361.843	79.12
362.07	78.12
362.296	70.12
362.523	78.12
362.749	74.12
362.976	83.12
363.203	69.12
363.429	78.12
363.656	69.12
363.882	83.12
364.109	76.12
364.335	96.12
364.562	71.12
364.788	79.12
365.015	98.12
365.241	95.12
365.468	93.12
365.694	75.12
365.92	90.12
366.147	72.12
366.373	82.12
366.599	83.12
366.826	77.12
367.052	79.12
367.278	90.12
367.505	81.12
367.731	83.12
367.957	83.12
368.184	84.12
368.41	64.12
368.636	76.12
368.862	77.12
369.089	92.12
369.315	86.12
369.541	85.12
369.767	67.12
369.993	92.12
370.219	80.12
370.445	77.12
370.672	80.12
370.898	73.12
371.124	85.12
371.35	71.12
371.576	90.12
371.802	75.12
372.028	80.12
372.254	84.12
372.48	77.12
372.706	86.12
372.932	78.12
373.158	93.12
373.384	84.12
373.61	93.12
373.835	73.12
374.061	79.12
374.287	82.12
374.513	71.12
374.739	73.12
374.965	85.12
375.191	79.12
375.416	78.12
375.642	80.12
375.868	87.12
376.094	79.12
376.319	72.12
376.545	91.12
376.771	95.12
376.997	83.12
377.222	71.12
377.448	79.12
377.674	73.12
377.899	79.12
378.125	90.12
378.35	67.12
378.576	82.12
378.802	86.12
379.027	80.12
379.253	84.12
379.478	58.12
379.704	95.12
379.929	99.12
380.155	69.12
380.38	74.12
380.606	76.12
380.831	87.12
381.057	90.12
381.282	81.12
381.507	81.12
381.733	69.12
381.958	79.12
382.184	69.12
382.409	74.12
382.634	80.12
382.86	80.12
383.085	91.12
383.31	83.12
383.535	82.12
383.761	98.12
383.986	75.12
384.211	80.12
384.436	90.12
384.662	74.12
384.887	77.12
385.112	64.12
385.337	68.12
385.562	75.12
385.787	90.12
386.013	88.12
386.238	84.12
386.463	80.12
386.688	84.12
386.913	90.12
387.138	71.12
387.363	76.12
387.588	63.12
387.813	71.12
388.038	80.12
388.263	86.12
388.488	86.12
388.713	84.12
388.938	70.12
389.163	78.12
389.387	83.12
389.612	70.12
389.837	87.12
390.062	77.12
390.287	79.12
390.512	94.12
390.736	83.12
390.961	90.12
391.186	80.12
391.411	79.12
391.636	74.12
391.86	74.12
392.085	80.12
392.31	79.12
392.534	90.12
392.759	96.12
392.984	79.12
393.208	79.12
393.433	92.12
393.658	79.12
393.882	81.12
394.107	76.12
394.331	92.12
394.556	93.12
394.78	102.12
395.005	77.12
395.229	75.12
395.454	80.12
395.678	76.12
395.903	92.12
396.127	94.12
396.352	74.12
396.576	83.12
396.801	86.12
397.025	90.12
397.249	86.12
397.474	93.12
397.698	85.12
397.922	71.12
398.147	79.12
398.371	78.12
398.595	74.12
398.82	94.12
399.044	80.12
399.268	67.12
399.492	79.12
399.717	82.12
399.941	70.12
400.165	53.12
400.389	74.12
400.613	70.12
400.837	73.12
401.062	90.12
401.286	86.12
401.51	83.12
401.734	81.12
401.958	85.12
402.182	87.12
402.406	74.12
402.63	72.12
402.854	78.12
403.078	68.12
403.302	88.12
403.526	82.12
403.75	76.12
403.974	82.12
404.198	82.12
404.422	64.12
404.645	94.12
404.869	89.12
405.093	76.12
405.317	84.12
405.541	79.12
405.765	67.12
405.988	71.12
406.212	69.12
406.436	78.12
406.66	79.12
406.883	79.12
407.107	79.12
407.331	83.12
407.555	65.12
407.778	86.12
408.002	80.12
408.226	70.12
408.449	83.12
408.673	83.12
408.896	82.12
409.12	84.12
409.344	94.12
409.567	62.12
409.791	74.12
410.014	77.12
410.238	76.12
410.461	88.12
410.685	73.12
410.908	80.12
411.132	71.12
411.355	84.12
411.578	86.12
411.802	75.12
412.025	69.12
412.249	61.12
412.472	80.12
412.695	73.12
412.919	76.12
413.142	78.12
413.365	72.12
413.589	83.12
413.812	72.12
414.035	84.12
414.258	68.12
414.482	65.12
414.705	79.12
414.928	82.12
415.151	64.12
415.374	76.12
415.597	86.12
415.821	91.12
416.044	86.12
416.267	72.12
416.49	78.12
416.713	91.12
416.936	72.12
417.159	78.12
417.382	81.12
417.605	73.12
417.828	82.12
418.051	80.12
418.274	78.12
418.497	85.12
418.72	72.12
418.943	92.12
419.166	82.12
419.389	87.12
419.611	69.12
419.834	89.12
420.057	88.12
420.28	75.12
420.503	83.12
420.726	77.12
420.948	71.12
421.171	85.12
421.394	76.12
421.617	76.12
421.839	85.12
422.062	71.12
422.285	89.12
422.507	90.12
422.73	102.12
422.953	107.12
423.175	98.12
423.398	92.12
423.621	66.12
423.843	81.12
424.066	86.12
424.288	73.12
424.511	66.12
424.733	66.12
424.956	67.12
425.178	78.12
425.401	72.12
425.623	70.12
425.846	81.12
426.068	79.12
426.291	76.12
426.513	69.12
426.735	82.12
426.958	80.12
427.18	83.12
427.402	81.12
427.625	77.12
427.847	67.12
428.069	73.12
428.292	78.12
428.514	84.12
428.736	74.12
428.958	74.12
429.181	87.12
429.403	81.12
429.625	89.12
429.847	74.12
430.069	70.12
430.292	90.12
430.514	90.12
430.736	83.12
430.958	95.12
431.18	76.12
431.402	78.12
431.624	93.12
431.846	85.12
432.068	86.12
432.29	92.12
432.512	84.12
432.734	69.12
432.956	72.12
433.178	92.12
433.4	84.12
433.622	72.12
433.844	86.12
434.066	98.12
434.287	83.12
434.509	72.12
434.731	78.12
434.953	73.12
435.175	80.12
435.397	86.12
435.618	79.12
435.84	71.12
436.062	78.12
436.284	69.12
436.505	92.12
436.727	80.12
436.949	77.12
437.17	79.12
437.392	92.12
437.614	59.12
437.835	78.12
438.057	91.12
438.278	82.12
438.5	83.12
438.721	86.12
438.943	83.12
439.165	66.12
439.386	76.12
439.608	81.12
439.829	80.12
440.05	72.12
440.272	78.12
440.493	70.12
440.715	71.12
440.936	79.12
441.158	71.12
441.379	65.12
441.6	81.12
441.822	62.12
442.043	75.12
442.264	83.12
442.486	86.12
442.707	79.12
442.928	76.12
443.149	71.12
443.371	67.12
443.592	75.12
443.813	95.12
444.034	69.12
444.255	78.12
444.476	72.12
444.698	91.12
444.919	84.12
445.14	139.12
445.361	119.12
445.582	83.12
445.803	93.12
446.024	94.12
446.245	86.12
446.466	72.12
446.687	58.12
446.908	78.12
447.129	90.12
447.35	79.12
447.571	65.12
447.792	80.12
448.013	69.12
448.234	84.12
448.455	84.12
448.675	87.12
448.896	81.12
449.117	80.12
449.338	77.12
449.559	84.12
449.779	70.12
450	73.12
450.221	73.12
450.442	75.12
450.662	71.12
450.883	54.12
451.104	66.12
451.324	78.12
451.545	85.12
451.766	71.12
451.986	84.12
452.207	86.12
452.428	81.12
452.648	82.12
452.869	78.12
453.089	65.12
453.31	80.12
453.53	70.12
453.751	82.12
453.971	74.12
454.192	98.12
454.412	76.12
454.633	76.12
454.853	79.12
455.073	63.12
455.294	74.12
455.514	72.12
455.734	76.12
455.955	70.12
456.175	71.12
456.395	78.12
456.616	84.12
456.836	92.12
457.056	75.12
457.276	84.12
457.497	82.12
457.717	80.12
457.937	81.12
458.157	79.12
458.377	80.12
458.598	78.12
458.818	81.12
459.038	83.12
459.258	79.12
459.478	80.12
459.698	79.12
459.918	85.12
460.138	63.12
460.358	77.12
460.578	71.12
460.798	75.12
461.018	90.12
461.238	75.12
461.458	78.12
461.678	85.12
461.898	77.12
462.118	73.12
462.338	72.12
462.558	67.12
462.777	90.12
462.997	76.12
463.217	83.12
463.437	66.12
463.657	74.12
463.876	88.12
464.096	91.12
464.316	77.12
464.536	71.12
464.755	84.12
464.975	88.12
465.195	89.12
465.414	72.12
465.634	66.12
465.854	84.12
466.073	93.12
466.293	75.12
466.512	91.12
466.732	80.12
466.951	63.12
467.171	85.12
467.391	73.12
467.61	74.12
467.829	80.12
468.049	84.12
468.268	86.12
468.488	75.12
468.707	80.12
468.927	71.12
469.146	74.12
469.365	89.12
469.585	81.12
469.804	77.12
470.023	95.12
470.243	67.12
470.462	72.12
470.681	81.12
470.901	80.12
471.12	79.12
471.339	69.12
471.558	77.12
471.777	73.12
471.997	70.12
472.216	72.12
472.435	86.12
472.654	87.12
472.873	81.12
473.092	76.12
473.311	78.12
473.53	66.12
473.749	74.12
473.968	77.12
474.187	74.12
474.406	87.12
474.625	82.12
474.844	65.12
475.063	65.12
475.282	72.12
475.501	75.12
475.72	75.12
475.939	67.12
476.158	60.12
476.377	68.12
476.596	78.12
476.814	93.12
477.033	67.12
477.252	78.12
477.471	72.12
477.69	86.12
477.908	84.12
478.127	79.12
478.346	86.12
478.564	79.12
478.783	75.12
479.002	80.12
479.22	76.12
479.439	73.12
479.658	86.12
479.876	72.12
480.095	85.12
480.313	73.12
480.532	72.12
480.751	71.12
480.969	74.12
481.188	90.12
481.406	92.12
481.624	73.12
481.843	72.12
482.061	86.12
482.28	81.12
482.498	80.12
482.717	72.12
482.935	67.12
483.153	84.12
483.372	82.12
483.59	81.12
483.808	76.12
484.027	90.12
484.245	88.12
484.463	75.12
484.681	81.12
484.9	85.12
485.118	96.12
485.336	81.12
485.554	90.12
485.772	82.12
485.99	72.12
486.209	86.12
486.427	80.12
486.645	73.12
486.863	76.12
487.081	93.12
487.299	66.12
487.517	68.12
487.735	67.12
487.953	69.12
488.171	81.12
488.389	76.12
488.607	76.12
488.825	60.12
489.043	67.12
489.261	75.12
489.479	85.12
489.696	99.12
489.914	87.12
490.132	85.12
490.35	85.12
490.568	72.12
490.786	90.12
491.003	84.12
491.221	91.12
491.439	74.12
491.657	66.12
491.874	82.12
492.092	79.12
492.31	85.12
492.527	84.12
492.745	77.12
492.963	84.12
493.18	82.12
493.398	88.12
493.615	62.12
493.833	58.12
494.05	79.12
494.268	71.12
494.485	77.12
494.703	68.12
494.92	90.12
495.138	78.12
495.355	80.12
495.573	75.12
495.79	80.12
496.008	78.12
496.225	81.12
496.442	66.12
496.66	87.12
496.877	78.12
497.094	92.12
497.312	82.12
497.529	80.12
497.746	75.12
497.963	77.12
498.181	81.12
498.398	73.12
498.615	83.12
498.832	83.12
499.049	97.12
499.267	94.12
499.484	92.12
499.701	82.12
499.918	77.12
500.135	76.12
500.352	71.12
500.569	74.12
500.786	82.12
501.003	73.12
501.22	82.12
501.437	74.12
501.654	72.12
501.871	92.12
502.088	87.12
502.305	91.12
502.522	88.12
502.739	74.12
502.956	85.12
503.172	72.12
503.389	80.12
503.606	83.12
503.823	78.12
504.04	76.12
504.256	83.12
504.473	77.12
504.69	71.12
504.907	80.12
505.123	78.12
505.34	96.12
505.557	85.12
505.773	83.12
505.99	69.12
506.207	71.12
506.423	74.12
506.64	92.12
506.856	69.12
507.073	73.12
507.289	85.12
507.506	73.12
507.722	72.12
507.939	74.12
508.155	80.12
508.372	82.12
508.588	71.12
508.805	75.12
509.021	79.12
509.238	75.12
509.454	66.12
509.67	69.12
509.887	74.12
510.103	78.12
510.319	79.12
510.536	78.12
510.752	64.12
510.968	86.12
511.184	85.12
511.401	80.12
511.617	70.12
511.833	81.12
512.049	63.12
512.265	85.12
512.481	78.12
512.698	87.12
512.914	86.12
513.13	73.12
513.346	72.12
513.562	84.12
513.778	80.12
513.994	84.12
514.21	84.12
514.426	83.12
514.642	84.12
514.858	75.12
515.074	90.12
515.29	84.12
515.506	82.12
515.721	79.12
515.937	73.12
516.153	83.12
516.369	63.12
516.585	69.12
516.801	84.12
517.016	80.12
517.232	84.12
517.448	68.12
517.664	78.12
517.879	68.12
518.095	73.12
518.311	90.12
518.527	63.12
518.742	86.12
518.958	82.12
519.173	91.12
519.389	80.12
519.605	72.12
519.82	85.12
520.036	86.12
520.251	73.12
