Data from 1600_4_HRD10591_00045.txt Node
Date: Mon Jan 19 13:56:33 EST 2026
User: Yrep
Spectrometer: HR+D1059
Trigger mode: 1
Integration Time (sec): 1.000000E-1
Scans to average: 1
Electric dark correction enabled: true
Nonlinearity correction enabled: false
Boxcar width: 0
XAxis mode: Wavelengths
Number of Pixels in Spectrum: 2048
>>>>>Begin Spectral Data<<<<<
223.165	-11.25
223.4	-11.25
223.635	-11.25
223.869	-28.25
224.104	-23.25
224.338	-22.25
224.573	-21.25
224.808	-7.25
225.042	-6.25
225.277	-9.25
225.511	-1.25
225.746	-3.25
225.98	10.75
226.215	20.75
226.449	12.75
226.683	20.75
226.918	38.75
227.152	29.75
227.387	38.75
227.621	40.75
227.856	36.75
228.09	44.75
228.324	52.75
228.559	58.75
228.793	60.75
229.027	59.75
229.262	63.75
229.496	71.75
229.73	66.75
229.964	81.75
230.199	69.75
230.433	71.75
230.667	68.75
230.901	81.75
231.136	80.75
231.37	67.75
231.604	73.75
231.838	83.75
232.072	82.75
232.306	82.75
232.541	98.75
232.775	76.75
233.009	83.75
233.243	88.75
233.477	79.75
233.711	82.75
233.945	78.75
234.179	57.75
234.413	84.75
234.647	78.75
234.881	85.75
235.115	80.75
235.349	66.75
235.583	65.75
235.817	85.75
236.051	66.75
236.285	67.75
236.519	72.75
236.753	80.75
236.987	74.75
237.221	76.75
237.455	94.75
237.689	81.75
237.922	89.75
238.156	79.75
238.39	64.75
238.624	66.75
238.858	80.75
239.091	67.75
239.325	66.75
239.559	87.75
239.793	64.75
240.027	81.75
240.26	74.75
240.494	65.75
240.728	66.75
240.961	58.75
241.195	67.75
241.429	73.75
241.662	78.75
241.896	64.75
242.13	88.75
242.363	84.75
242.597	65.75
242.83	67.75
243.064	75.75
243.298	71.75
243.531	68.75
243.765	81.75
243.998	72.75
244.232	69.75
244.465	81.75
244.699	59.75
244.932	79.75
245.166	84.75
245.399	70.75
245.633	88.75
245.866	80.75
246.099	68.75
246.333	77.75
246.566	67.75
246.8	73.75
247.033	65.75
247.266	87.75
247.5	89.75
247.733	82.75
247.966	80.75
248.2	88.75
248.433	88.75
248.666	87.75
248.899	80.75
249.133	79.75
249.366	75.75
249.599	88.75
249.832	86.75
250.066	84.75
250.299	80.75
250.532	84.75
250.765	71.75
250.998	88.75
251.231	77.75
251.465	73.75
251.698	84.75
251.931	84.75
252.164	75.75
252.397	89.75
252.63	80.75
252.863	81.75
253.096	71.75
253.329	73.75
253.562	78.75
253.795	80.75
254.028	76.75
254.261	70.75
254.494	68.75
254.727	89.75
254.96	76.75
255.193	89.75
255.426	78.75
255.659	60.75
255.892	68.75
256.124	78.75
256.357	86.75
256.59	85.75
256.823	75.75
257.056	85.75
257.289	88.75
257.521	82.75
257.754	68.75
257.987	80.75
258.22	84.75
258.452	78.75
258.685	63.75
258.918	80.75
259.151	77.75
259.383	68.75
259.616	74.75
259.849	86.75
260.081	86.75
260.314	83.75
260.547	81.75
260.779	73.75
261.012	80.75
261.244	88.75
261.477	86.75
261.71	76.75
261.942	94.75
262.175	82.75
262.407	72.75
262.64	68.75
262.872	78.75
263.105	82.75
263.337	77.75
263.57	77.75
263.802	80.75
264.035	70.75
264.267	90.75
264.499	81.75
264.732	92.75
264.964	73.75
265.197	75.75
265.429	82.75
265.661	84.75
265.894	78.75
266.126	68.75
266.358	87.75
266.591	80.75
266.823	87.75
267.055	75.75
267.287	83.75
267.52	95.75
267.752	89.75
267.984	84.75
268.216	96.75
268.448	84.75
268.681	72.75
268.913	100.75
269.145	81.75
269.377	76.75
269.609	84.75
269.841	89.75
270.073	82.75
270.306	82.75
270.538	65.75
270.77	87.75
271.002	74.75
271.234	84.75
271.466	81.75
271.698	82.75
271.93	78.75
272.162	77.75
272.394	64.75
272.626	72.75
272.858	81.75
273.09	74.75
273.322	86.75
273.553	73.75
273.785	91.75
274.017	76.75
274.249	93.75
274.481	96.75
274.713	73.75
274.945	78.75
275.176	77.75
275.408	77.75
275.64	92.75
275.872	70.75
276.104	88.75
276.335	73.75
276.567	74.75
276.799	76.75
277.031	87.75
277.262	81.75
277.494	84.75
277.726	94.75
277.957	86.75
278.189	90.75
278.421	84.75
278.652	68.75
278.884	82.75
279.115	77.75
279.347	70.75
279.579	84.75
279.81	93.75
280.042	97.75
280.273	75.75
280.505	82.75
280.736	85.75
280.968	76.75
281.199	79.75
281.431	104.75
281.662	86.75
281.894	80.75
282.125	94.75
282.356	71.75
282.588	68.75
282.819	75.75
283.051	64.75
283.282	66.75
283.513	89.75
283.745	75.75
283.976	83.75
284.207	86.75
284.439	84.75
284.67	86.75
284.901	80.75
285.132	89.75
285.364	88.75
285.595	84.75
285.826	96.75
286.057	80.75
286.288	73.75
286.52	81.75
286.751	86.75
286.982	97.75
287.213	90.75
287.444	70.75
287.675	76.75
287.906	75.75
288.138	93.75
288.369	98.75
288.6	78.75
288.831	85.75
289.062	59.75
289.293	84.75
289.524	72.75
289.755	82.75
289.986	71.75
290.217	72.75
290.448	81.75
290.679	93.75
290.91	81.75
291.141	81.75
291.371	90.75
291.602	86.75
291.833	85.75
292.064	88.75
292.295	80.75
292.526	79.75
292.757	96.75
292.987	82.75
293.218	75.75
293.449	74.75
293.68	97.75
293.91	84.75
294.141	99.75
294.372	84.75
294.603	79.75
294.833	78.75
295.064	78.75
295.295	89.75
295.525	92.75
295.756	76.75
295.987	78.75
296.217	77.75
296.448	79.75
296.679	95.75
296.909	81.75
297.14	79.75
297.37	79.75
297.601	89.75
297.831	84.75
298.062	77.75
298.292	88.75
298.523	77.75
298.753	72.75
298.984	87.75
299.214	88.75
299.445	84.75
299.675	88.75
299.905	89.75
300.136	87.75
300.366	88.75
300.597	86.75
300.827	92.75
301.057	85.75
301.288	72.75
301.518	69.75
301.748	87.75
301.979	83.75
302.209	92.75
302.439	86.75
302.669	78.75
302.9	76.75
303.13	84.75
303.36	87.75
303.59	86.75
303.82	80.75
304.051	82.75
304.281	86.75
304.511	91.75
304.741	85.75
304.971	92.75
305.201	88.75
305.431	81.75
305.661	72.75
305.891	72.75
306.121	83.75
306.352	78.75
306.582	96.75
306.812	90.75
307.042	85.75
307.272	84.75
307.502	75.75
307.731	78.75
307.961	97.75
308.191	81.75
308.421	80.75
308.651	70.75
308.881	82.75
309.111	87.75
309.341	82.75
309.571	100.75
309.8	80.75
310.03	90.75
310.26	90.75
310.49	89.75
310.72	80.75
310.949	82.75
311.179	86.75
311.409	76.75
311.639	92.75
311.868	96.75
312.098	86.75
312.328	89.75
312.557	90.75
312.787	82.75
313.017	90.75
313.246	74.75
313.476	69.75
313.706	67.75
313.935	71.75
314.165	85.75
314.394	93.75
314.624	90.75
314.853	83.75
315.083	82.75
315.312	81.75
315.542	90.75
315.771	88.75
316.001	87.75
316.23	80.75
316.46	73.75
316.689	95.75
316.919	76.75
317.148	85.75
317.377	88.75
317.607	99.75
317.836	96.75
318.065	81.75
318.295	89.75
318.524	76.75
318.753	76.75
318.983	90.75
319.212	82.75
319.441	75.75
319.67	77.75
319.9	101.75
320.129	82.75
320.358	83.75
320.587	81.75
320.816	73.75
321.046	78.75
321.275	84.75
321.504	87.75
321.733	88.75
321.962	86.75
322.191	83.75
322.42	87.75
322.649	86.75
322.878	78.75
323.108	97.75
323.337	79.75
323.566	81.75
323.795	86.75
324.024	88.75
324.253	83.75
324.482	75.75
324.71	94.75
324.939	81.75
325.168	66.75
325.397	84.75
325.626	92.75
325.855	84.75
326.084	82.75
326.313	94.75
326.542	89.75
326.77	80.75
326.999	85.75
327.228	83.75
327.457	91.75
327.686	84.75
327.914	94.75
328.143	97.75
328.372	92.75
328.6	77.75
328.829	78.75
329.058	91.75
329.287	88.75
329.515	89.75
329.744	92.75
329.972	72.75
330.201	88.75
330.43	84.75
330.658	78.75
330.887	79.75
331.115	89.75
331.344	87.75
331.572	100.75
331.801	86.75
332.03	86.75
332.258	90.75
332.486	71.75
332.715	78.75
332.943	94.75
333.172	92.75
333.4	66.75
333.629	86.75
333.857	83.75
334.085	80.75
334.314	71.75
334.542	79.75
334.771	80.75
334.999	88.75
335.227	92.75
335.455	93.75
335.684	89.75
335.912	90.75
336.14	94.75
336.369	98.75
336.597	79.75
336.825	73.75
337.053	81.75
337.281	74.75
337.51	90.75
337.738	89.75
337.966	81.75
338.194	83.75
338.422	76.75
338.65	102.75
338.878	83.75
339.106	78.75
339.334	78.75
339.562	90.75
339.79	84.75
340.018	84.75
340.246	90.75
340.474	77.75
340.702	77.75
340.93	63.75
341.158	76.75
341.386	76.75
341.614	88.75
341.842	82.75
342.07	81.75
342.298	101.75
342.526	100.75
342.754	71.75
342.981	81.75
343.209	84.75
343.437	98.75
343.665	92.75
343.893	94.75
344.12	82.75
344.348	96.75
344.576	96.75
344.804	75.75
345.031	78.75
345.259	84.75
345.487	74.75
345.714	81.75
345.942	73.75
346.17	84.75
346.397	95.75
346.625	88.75
346.853	78.75
347.08	73.75
347.308	78.75
347.535	87.75
347.763	79.75
347.99	102.75
348.218	70.75
348.445	77.75
348.673	85.75
348.9	81.75
349.128	79.75
349.355	81.75
349.583	88.75
349.81	71.75
350.037	80.75
350.265	80.75
350.492	79.75
350.72	85.75
350.947	72.75
351.174	83.75
351.402	96.75
351.629	102.75
351.856	91.75
352.083	78.75
352.311	75.75
352.538	75.75
352.765	78.75
352.992	86.75
353.22	78.75
353.447	84.75
353.674	92.75
353.901	84.75
354.128	92.75
354.355	81.75
354.583	74.75
354.81	74.75
355.037	89.75
355.264	73.75
355.491	88.75
355.718	84.75
355.945	99.75
356.172	93.75
356.399	72.75
356.626	79.75
356.853	69.75
357.08	76.75
357.307	88.75
357.534	93.75
357.761	78.75
357.988	88.75
358.215	98.75
358.441	93.75
358.668	91.75
358.895	93.75
359.122	93.75
359.349	95.75
359.576	86.75
359.802	75.75
360.029	92.75
360.256	84.75
360.483	72.75
360.709	81.75
360.936	101.75
361.163	85.75
361.39	80.75
361.616	81.75
361.843	86.75
362.07	96.75
362.296	90.75
362.523	82.75
362.749	90.75
362.976	83.75
363.203	99.75
363.429	96.75
363.656	80.75
363.882	78.75
364.109	74.75
364.335	88.75
364.562	85.75
364.788	82.75
365.015	98.75
365.241	86.75
365.468	90.75
365.694	80.75
365.92	81.75
366.147	82.75
366.373	78.75
366.599	84.75
366.826	84.75
367.052	82.75
367.278	93.75
367.505	89.75
367.731	95.75
367.957	92.75
368.184	85.75
368.41	93.75
368.636	90.75
368.862	101.75
369.089	74.75
369.315	88.75
369.541	83.75
369.767	80.75
369.993	69.75
370.219	75.75
370.445	88.75
370.672	88.75
370.898	79.75
371.124	76.75
371.35	81.75
371.576	84.75
371.802	94.75
372.028	79.75
372.254	75.75
372.48	82.75
372.706	85.75
372.932	78.75
373.158	97.75
373.384	98.75
373.61	106.75
373.835	93.75
374.061	73.75
374.287	77.75
374.513	74.75
374.739	89.75
374.965	87.75
375.191	81.75
375.416	83.75
375.642	77.75
375.868	82.75
376.094	87.75
376.319	88.75
376.545	70.75
376.771	94.75
376.997	94.75
377.222	99.75
377.448	102.75
377.674	86.75
377.899	94.75
378.125	89.75
378.35	78.75
378.576	81.75
378.802	67.75
379.027	75.75
379.253	97.75
379.478	89.75
379.704	96.75
379.929	76.75
380.155	80.75
380.38	91.75
380.606	70.75
380.831	80.75
381.057	95.75
381.282	83.75
381.507	83.75
381.733	82.75
381.958	77.75
382.184	87.75
382.409	83.75
382.634	82.75
382.86	79.75
383.085	97.75
383.31	88.75
383.535	83.75
383.761	85.75
383.986	94.75
384.211	91.75
384.436	80.75
384.662	101.75
384.887	80.75
385.112	69.75
385.337	82.75
385.562	75.75
385.787	92.75
386.013	88.75
386.238	101.75
386.463	94.75
386.688	86.75
386.913	85.75
387.138	83.75
387.363	79.75
387.588	90.75
387.813	93.75
388.038	92.75
388.263	86.75
388.488	87.75
388.713	89.75
388.938	65.75
389.163	82.75
389.387	78.75
389.612	87.75
389.837	82.75
390.062	104.75
390.287	80.75
390.512	89.75
390.736	80.75
390.961	88.75
391.186	63.75
391.411	70.75
391.636	86.75
391.86	92.75
392.085	80.75
392.31	81.75
392.534	89.75
392.759	100.75
392.984	113.75
393.208	154.75
393.433	245.75
393.658	187.75
393.882	114.75
394.107	95.75
394.331	108.75
394.556	89.75
394.78	69.75
395.005	81.75
395.229	91.75
395.454	91.75
395.678	79.75
395.903	95.75
396.127	105.75
396.352	112.75
396.576	126.75
396.801	170.75
397.025	188.75
397.249	113.75
397.474	102.75
397.698	89.75
397.922	79.75
398.147	81.75
398.371	81.75
398.595	68.75
398.82	68.75
399.044	73.75
399.268	73.75
399.492	69.75
399.717	76.75
399.941	87.75
400.165	89.75
400.389	70.75
400.613	72.75
400.837	86.75
401.062	94.75
401.286	89.75
401.51	85.75
401.734	86.75
401.958	71.75
402.182	75.75
402.406	74.75
402.63	87.75
402.854	85.75
403.078	71.75
403.302	73.75
403.526	68.75
403.75	70.75
403.974	82.75
404.198	88.75
404.422	89.75
404.645	80.75
404.869	76.75
405.093	85.75
405.317	85.75
405.541	79.75
405.765	90.75
405.988	81.75
406.212	88.75
406.436	75.75
406.66	104.75
406.883	80.75
407.107	84.75
407.331	88.75
407.555	84.75
407.778	83.75
408.002	99.75
408.226	76.75
408.449	83.75
408.673	82.75
408.896	90.75
409.12	81.75
409.344	81.75
409.567	91.75
409.791	76.75
410.014	78.75
410.238	79.75
410.461	78.75
410.685	72.75
410.908	76.75
411.132	86.75
411.355	83.75
411.578	92.75
411.802	79.75
412.025	72.75
412.249	79.75
412.472	78.75
412.695	67.75
412.919	82.75
413.142	94.75
413.365	95.75
413.589	78.75
413.812	86.75
414.035	102.75
414.258	89.75
414.482	85.75
414.705	90.75
414.928	88.75
415.151	64.75
415.374	78.75
415.597	90.75
415.821	85.75
416.044	81.75
416.267	81.75
416.49	69.75
416.713	88.75
416.936	101.75
417.159	85.75
417.382	74.75
417.605	79.75
417.828	89.75
418.051	83.75
418.274	97.75
418.497	79.75
418.72	78.75
418.943	70.75
419.166	92.75
419.389	59.75
419.611	75.75
419.834	81.75
420.057	69.75
420.28	92.75
420.503	86.75
420.726	92.75
420.948	84.75
421.171	93.75
421.394	80.75
421.617	80.75
421.839	88.75
422.062	80.75
422.285	109.75
422.507	137.75
422.73	202.75
422.953	184.75
423.175	103.75
423.398	89.75
423.621	80.75
423.843	87.75
424.066	86.75
424.288	82.75
424.511	79.75
424.733	84.75
424.956	81.75
425.178	88.75
425.401	88.75
425.623	76.75
425.846	85.75
426.068	76.75
426.291	81.75
426.513	83.75
426.735	84.75
426.958	83.75
427.18	88.75
427.402	81.75
427.625	86.75
427.847	81.75
428.069	84.75
428.292	96.75
428.514	92.75
428.736	99.75
428.958	92.75
429.181	100.75
429.403	74.75
429.625	76.75
429.847	94.75
430.069	95.75
430.292	102.75
430.514	99.75
430.736	85.75
430.958	89.75
431.18	86.75
431.402	68.75
431.624	80.75
431.846	83.75
432.068	97.75
432.29	90.75
432.512	75.75
432.734	84.75
432.956	80.75
433.178	85.75
433.4	90.75
433.622	75.75
433.844	95.75
434.066	84.75
434.287	89.75
434.509	87.75
434.731	77.75
434.953	86.75
435.175	77.75
435.397	91.75
435.618	79.75
435.84	76.75
436.062	70.75
436.284	86.75
436.505	80.75
436.727	80.75
436.949	83.75
437.17	73.75
437.392	86.75
437.614	61.75
437.835	71.75
438.057	96.75
438.278	73.75
438.5	88.75
438.721	82.75
438.943	79.75
439.165	86.75
439.386	90.75
439.608	76.75
439.829	72.75
440.05	87.75
440.272	80.75
440.493	71.75
440.715	90.75
440.936	87.75
441.158	85.75
441.379	80.75
441.6	69.75
441.822	89.75
442.043	87.75
442.264	92.75
442.486	97.75
442.707	90.75
442.928	84.75
443.149	93.75
443.371	99.75
443.592	104.75
443.813	88.75
444.034	87.75
444.255	74.75
444.476	80.75
444.698	87.75
444.919	82.75
445.14	176.75
445.361	133.75
445.582	128.75
445.803	109.75
446.024	95.75
446.245	84.75
446.466	95.75
446.687	77.75
446.908	72.75
447.129	75.75
447.35	79.75
447.571	64.75
447.792	69.75
448.013	85.75
448.234	83.75
448.455	85.75
448.675	80.75
448.896	75.75
449.117	79.75
449.338	96.75
449.559	78.75
449.779	84.75
450	93.75
450.221	88.75
450.442	86.75
450.662	81.75
450.883	79.75
451.104	82.75
451.324	74.75
451.545	87.75
451.766	91.75
451.986	77.75
452.207	88.75
452.428	97.75
452.648	70.75
452.869	84.75
453.089	88.75
453.31	100.75
453.53	70.75
453.751	72.75
453.971	94.75
454.192	88.75
454.412	83.75
454.633	87.75
454.853	78.75
455.073	81.75
455.294	81.75
455.514	80.75
455.734	69.75
455.955	90.75
456.175	82.75
456.395	73.75
456.616	90.75
456.836	84.75
457.056	80.75
457.276	82.75
457.497	77.75
457.717	85.75
457.937	87.75
458.157	91.75
458.377	71.75
458.598	88.75
458.818	100.75
459.038	84.75
459.258	89.75
459.478	85.75
459.698	75.75
459.918	79.75
460.138	67.75
460.358	83.75
460.578	93.75
460.798	78.75
461.018	85.75
461.238	93.75
461.458	75.75
461.678	87.75
461.898	77.75
462.118	74.75
462.338	66.75
462.558	65.75
462.777	77.75
462.997	86.75
463.217	80.75
463.437	73.75
463.657	91.75
463.876	92.75
464.096	88.75
464.316	77.75
464.536	84.75
464.755	80.75
464.975	86.75
465.195	85.75
465.414	87.75
465.634	82.75
465.854	64.75
466.073	73.75
466.293	82.75
466.512	86.75
466.732	86.75
466.951	80.75
467.171	78.75
467.391	69.75
467.61	84.75
467.829	69.75
468.049	82.75
468.268	78.75
468.488	88.75
468.707	88.75
468.927	88.75
469.146	84.75
469.365	72.75
469.585	83.75
469.804	87.75
470.023	81.75
470.243	88.75
470.462	66.75
470.681	85.75
470.901	83.75
471.12	72.75
471.339	103.75
471.558	83.75
471.777	72.75
471.997	68.75
472.216	88.75
472.435	87.75
472.654	73.75
472.873	78.75
473.092	76.75
473.311	84.75
473.53	85.75
473.749	70.75
473.968	84.75
474.187	79.75
474.406	80.75
474.625	73.75
474.844	80.75
475.063	78.75
475.282	82.75
475.501	80.75
475.72	81.75
475.939	79.75
476.158	73.75
476.377	80.75
476.596	81.75
476.814	90.75
477.033	78.75
477.252	65.75
477.471	98.75
477.69	89.75
477.908	78.75
478.127	87.75
478.346	77.75
478.564	74.75
478.783	92.75
479.002	86.75
479.22	80.75
479.439	86.75
479.658	74.75
479.876	84.75
480.095	86.75
480.313	73.75
480.532	79.75
480.751	85.75
480.969	69.75
481.188	86.75
481.406	84.75
481.624	77.75
481.843	87.75
482.061	73.75
482.28	73.75
482.498	95.75
482.717	99.75
482.935	87.75
483.153	90.75
483.372	78.75
483.59	82.75
483.808	75.75
484.027	74.75
484.245	82.75
484.463	86.75
484.681	76.75
484.9	74.75
485.118	90.75
485.336	84.75
485.554	71.75
485.772	84.75
485.99	86.75
486.209	83.75
486.427	85.75
486.645	89.75
486.863	75.75
487.081	79.75
487.299	74.75
487.517	92.75
487.735	85.75
487.953	89.75
488.171	82.75
488.389	80.75
488.607	91.75
488.825	84.75
489.043	74.75
489.261	100.75
489.479	74.75
489.696	86.75
489.914	79.75
490.132	98.75
490.35	92.75
490.568	79.75
490.786	87.75
491.003	90.75
491.221	88.75
491.439	86.75
491.657	90.75
491.874	75.75
492.092	71.75
492.31	77.75
492.527	68.75
492.745	84.75
492.963	95.75
493.18	85.75
493.398	80.75
493.615	83.75
493.833	82.75
494.05	82.75
494.268	74.75
494.485	72.75
494.703	70.75
494.92	79.75
495.138	84.75
495.355	71.75
495.573	77.75
495.79	88.75
496.008	79.75
496.225	89.75
496.442	77.75
496.66	84.75
496.877	80.75
497.094	84.75
497.312	78.75
497.529	92.75
497.746	110.75
497.963	84.75
498.181	87.75
498.398	83.75
498.615	86.75
498.832	79.75
499.049	92.75
499.267	102.75
499.484	83.75
499.701	87.75
499.918	83.75
500.135	100.75
500.352	85.75
500.569	66.75
500.786	100.75
501.003	80.75
501.22	73.75
501.437	85.75
501.654	84.75
501.871	83.75
502.088	93.75
502.305	82.75
502.522	87.75
502.739	78.75
502.956	76.75
503.172	80.75
503.389	79.75
503.606	74.75
503.823	91.75
504.04	84.75
504.256	90.75
504.473	81.75
504.69	89.75
504.907	98.75
505.123	94.75
505.34	82.75
505.557	65.75
505.773	81.75
505.99	90.75
506.207	79.75
506.423	77.75
506.64	86.75
506.856	75.75
507.073	82.75
507.289	81.75
507.506	81.75
507.722	75.75
507.939	97.75
508.155	87.75
508.372	85.75
508.588	83.75
508.805	97.75
509.021	72.75
509.238	95.75
509.454	69.75
509.67	72.75
509.887	72.75
510.103	86.75
510.319	85.75
510.536	85.75
510.752	82.75
510.968	87.75
511.184	76.75
511.401	88.75
511.617	82.75
511.833	88.75
512.049	81.75
512.265	83.75
512.481	89.75
512.698	97.75
512.914	86.75
513.13	91.75
513.346	82.75
513.562	94.75
513.778	79.75
513.994	79.75
514.21	91.75
514.426	85.75
514.642	86.75
514.858	84.75
515.074	83.75
515.29	82.75
515.506	87.75
515.721	73.75
515.937	91.75
516.153	89.75
516.369	70.75
516.585	84.75
516.801	81.75
517.016	69.75
517.232	80.75
517.448	98.75
517.664	85.75
517.879	87.75
518.095	80.75
518.311	92.75
518.527	96.75
518.742	89.75
518.958	94.75
519.173	91.75
519.389	82.75
519.605	76.75
