Data from 1600_4_HRD10591_00028.txt Node
Date: Mon Jan 19 13:56:24 EST 2026
User: Yrep
Spectrometer: HR+D1059
Trigger mode: 1
Integration Time (sec): 1.000000E-1
Scans to average: 1
Electric dark correction enabled: true
Nonlinearity correction enabled: false
Boxcar width: 0
XAxis mode: Wavelengths
Number of Pixels in Spectrum: 2048
>>>>>Begin Spectral Data<<<<<
223.165	-17.31
223.4	-17.31
223.635	-17.31
223.869	-15.31
224.104	-16.31
224.338	-11.31
224.573	-24.31
224.808	-25.31
225.042	-13.31
225.277	3.69
225.511	4.69
225.746	-6.31
225.98	-7.31
226.215	10.69
226.449	23.69
226.683	33.69
226.918	23.69
227.152	36.69
227.387	45.69
227.621	45.69
227.856	33.69
228.09	38.69
228.324	41.69
228.559	56.69
228.793	61.69
229.027	67.69
229.262	65.69
229.496	68.69
229.73	55.69
229.964	69.69
230.199	72.69
230.433	76.69
230.667	71.69
230.901	72.69
231.136	91.69
231.37	70.69
231.604	89.69
231.838	77.69
232.072	83.69
232.306	83.69
232.541	94.69
232.775	77.69
233.009	86.69
233.243	88.69
233.477	85.69
233.711	88.69
233.945	93.69
234.179	77.69
234.413	80.69
234.647	65.69
234.881	73.69
235.115	80.69
235.349	79.69
235.583	89.69
235.817	84.69
236.051	79.69
236.285	77.69
236.519	69.69
236.753	89.69
236.987	76.69
237.221	70.69
237.455	67.69
237.689	87.69
237.922	77.69
238.156	70.69
238.39	74.69
238.624	63.69
238.858	75.69
239.091	65.69
239.325	87.69
239.559	70.69
239.793	73.69
240.027	75.69
240.26	53.69
240.494	75.69
240.728	73.69
240.961	67.69
241.195	70.69
241.429	76.69
241.662	67.69
241.896	84.69
242.13	84.69
242.363	68.69
242.597	74.69
242.83	81.69
243.064	72.69
243.298	81.69
243.531	82.69
243.765	83.69
243.998	93.69
244.232	81.69
244.465	83.69
244.699	73.69
244.932	63.69
245.166	77.69
245.399	85.69
245.633	76.69
245.866	82.69
246.099	84.69
246.333	73.69
246.566	87.69
246.8	77.69
247.033	79.69
247.266	82.69
247.5	75.69
247.733	70.69
247.966	82.69
248.2	75.69
248.433	91.69
248.666	68.69
248.899	87.69
249.133	72.69
249.366	86.69
249.599	91.69
249.832	73.69
250.066	86.69
250.299	67.69
250.532	72.69
250.765	85.69
250.998	87.69
251.231	69.69
251.465	81.69
251.698	63.69
251.931	79.69
252.164	76.69
252.397	89.69
252.63	81.69
252.863	75.69
253.096	88.69
253.329	76.69
253.562	80.69
253.795	77.69
254.028	69.69
254.261	67.69
254.494	87.69
254.727	69.69
254.96	79.69
255.193	70.69
255.426	83.69
255.659	72.69
255.892	85.69
256.124	94.69
256.357	78.69
256.59	84.69
256.823	87.69
257.056	68.69
257.289	75.69
257.521	73.69
257.754	94.69
257.987	69.69
258.22	87.69
258.452	79.69
258.685	74.69
258.918	71.69
259.151	90.69
259.383	82.69
259.616	79.69
259.849	86.69
260.081	79.69
260.314	76.69
260.547	75.69
260.779	65.69
261.012	64.69
261.244	85.69
261.477	93.69
261.71	72.69
261.942	84.69
262.175	79.69
262.407	83.69
262.64	77.69
262.872	77.69
263.105	82.69
263.337	100.69
263.57	87.69
263.802	60.69
264.035	89.69
264.267	85.69
264.499	73.69
264.732	83.69
264.964	89.69
265.197	76.69
265.429	75.69
265.661	71.69
265.894	89.69
266.126	90.69
266.358	79.69
266.591	71.69
266.823	71.69
267.055	89.69
267.287	78.69
267.52	79.69
267.752	83.69
267.984	80.69
268.216	73.69
268.448	82.69
268.681	87.69
268.913	76.69
269.145	87.69
269.377	92.69
269.609	75.69
269.841	73.69
270.073	67.69
270.306	71.69
270.538	78.69
270.77	77.69
271.002	80.69
271.234	74.69
271.466	84.69
271.698	79.69
271.93	85.69
272.162	88.69
272.394	93.69
272.626	79.69
272.858	92.69
273.09	86.69
273.322	84.69
273.553	83.69
273.785	77.69
274.017	78.69
274.249	70.69
274.481	87.69
274.713	79.69
274.945	74.69
275.176	77.69
275.408	78.69
275.64	85.69
275.872	87.69
276.104	83.69
276.335	79.69
276.567	73.69
276.799	75.69
277.031	70.69
277.262	89.69
277.494	82.69
277.726	73.69
277.957	92.69
278.189	99.69
278.421	79.69
278.652	84.69
278.884	93.69
279.115	76.69
279.347	84.69
279.579	91.69
279.81	85.69
280.042	71.69
280.273	81.69
280.505	72.69
280.736	71.69
280.968	75.69
281.199	94.69
281.431	95.69
281.662	70.69
281.894	76.69
282.125	99.69
282.356	87.69
282.588	77.69
282.819	100.69
283.051	67.69
283.282	75.69
283.513	90.69
283.745	81.69
283.976	77.69
284.207	86.69
284.439	79.69
284.67	77.69
284.901	79.69
285.132	88.69
285.364	81.69
285.595	76.69
285.826	84.69
286.057	88.69
286.288	78.69
286.52	85.69
286.751	77.69
286.982	92.69
287.213	98.69
287.444	86.69
287.675	99.69
287.906	92.69
288.138	74.69
288.369	87.69
288.6	83.69
288.831	83.69
289.062	83.69
289.293	74.69
289.524	89.69
289.755	81.69
289.986	81.69
290.217	80.69
290.448	81.69
290.679	80.69
290.91	87.69
291.141	67.69
291.371	76.69
291.602	81.69
291.833	76.69
292.064	93.69
292.295	95.69
292.526	90.69
292.757	90.69
292.987	69.69
293.218	82.69
293.449	81.69
293.68	83.69
293.91	87.69
294.141	92.69
294.372	79.69
294.603	82.69
294.833	96.69
295.064	94.69
295.295	93.69
295.525	77.69
295.756	85.69
295.987	81.69
296.217	94.69
296.448	84.69
296.679	87.69
296.909	84.69
297.14	73.69
297.37	82.69
297.601	74.69
297.831	86.69
298.062	96.69
298.292	87.69
298.523	80.69
298.753	84.69
298.984	81.69
299.214	86.69
299.445	75.69
299.675	62.69
299.905	81.69
300.136	92.69
300.366	87.69
300.597	68.69
300.827	89.69
301.057	67.69
301.288	85.69
301.518	81.69
301.748	85.69
301.979	91.69
302.209	100.69
302.439	77.69
302.669	89.69
302.9	85.69
303.13	83.69
303.36	79.69
303.59	89.69
303.82	92.69
304.051	79.69
304.281	78.69
304.511	87.69
304.741	78.69
304.971	88.69
305.201	92.69
305.431	86.69
305.661	97.69
305.891	91.69
306.121	72.69
306.352	89.69
306.582	79.69
306.812	91.69
307.042	92.69
307.272	72.69
307.502	93.69
307.731	96.69
307.961	79.69
308.191	81.69
308.421	80.69
308.651	80.69
308.881	76.69
309.111	92.69
309.341	96.69
309.571	95.69
309.8	87.69
310.03	73.69
310.26	84.69
310.49	81.69
310.72	74.69
310.949	85.69
311.179	70.69
311.409	92.69
311.639	71.69
311.868	77.69
312.098	63.69
312.328	71.69
312.557	94.69
312.787	91.69
313.017	96.69
313.246	84.69
313.476	87.69
313.706	84.69
313.935	92.69
314.165	87.69
314.394	87.69
314.624	72.69
314.853	84.69
315.083	89.69
315.312	77.69
315.542	93.69
315.771	66.69
316.001	80.69
316.23	81.69
316.46	70.69
316.689	76.69
316.919	77.69
317.148	88.69
317.377	81.69
317.607	79.69
317.836	96.69
318.065	90.69
318.295	97.69
318.524	84.69
318.753	93.69
318.983	89.69
319.212	83.69
319.441	79.69
319.67	82.69
319.9	89.69
320.129	78.69
320.358	77.69
320.587	88.69
320.816	79.69
321.046	81.69
321.275	85.69
321.504	85.69
321.733	80.69
321.962	93.69
322.191	88.69
322.42	83.69
322.649	87.69
322.878	66.69
323.108	86.69
323.337	86.69
323.566	99.69
323.795	83.69
324.024	85.69
324.253	89.69
324.482	71.69
324.71	101.69
324.939	91.69
325.168	85.69
325.397	72.69
325.626	80.69
325.855	84.69
326.084	87.69
326.313	83.69
326.542	85.69
326.77	84.69
326.999	85.69
327.228	82.69
327.457	83.69
327.686	84.69
327.914	100.69
328.143	97.69
328.372	82.69
328.6	79.69
328.829	91.69
329.058	86.69
329.287	96.69
329.515	92.69
329.744	79.69
329.972	69.69
330.201	87.69
330.43	94.69
330.658	91.69
330.887	87.69
331.115	92.69
331.344	82.69
331.572	84.69
331.801	77.69
332.03	84.69
332.258	64.69
332.486	78.69
332.715	77.69
332.943	95.69
333.172	79.69
333.4	82.69
333.629	81.69
333.857	90.69
334.085	85.69
334.314	101.69
334.542	83.69
334.771	80.69
334.999	93.69
335.227	82.69
335.455	73.69
335.684	79.69
335.912	79.69
336.14	86.69
336.369	84.69
336.597	92.69
336.825	89.69
337.053	105.69
337.281	83.69
337.51	86.69
337.738	91.69
337.966	78.69
338.194	92.69
338.422	79.69
338.65	86.69
338.878	80.69
339.106	75.69
339.334	89.69
339.562	89.69
339.79	80.69
340.018	57.69
340.246	72.69
340.474	72.69
340.702	85.69
340.93	80.69
341.158	83.69
341.386	89.69
341.614	85.69
341.842	87.69
342.07	70.69
342.298	82.69
342.526	91.69
342.754	82.69
342.981	69.69
343.209	85.69
343.437	94.69
343.665	104.69
343.893	83.69
344.12	99.69
344.348	92.69
344.576	96.69
344.804	85.69
345.031	91.69
345.259	98.69
345.487	88.69
345.714	86.69
345.942	90.69
346.17	86.69
346.397	96.69
346.625	89.69
346.853	85.69
347.08	71.69
347.308	97.69
347.535	66.69
347.763	80.69
347.99	78.69
348.218	85.69
348.445	80.69
348.673	79.69
348.9	79.69
349.128	80.69
349.355	93.69
349.583	80.69
349.81	95.69
350.037	86.69
350.265	82.69
350.492	72.69
350.72	91.69
350.947	97.69
351.174	91.69
351.402	79.69
351.629	78.69
351.856	83.69
352.083	88.69
352.311	81.69
352.538	93.69
352.765	80.69
352.992	83.69
353.22	85.69
353.447	91.69
353.674	90.69
353.901	79.69
354.128	79.69
354.355	74.69
354.583	80.69
354.81	91.69
355.037	78.69
355.264	72.69
355.491	79.69
355.718	68.69
355.945	77.69
356.172	82.69
356.399	91.69
356.626	89.69
356.853	86.69
357.08	93.69
357.307	73.69
357.534	87.69
357.761	79.69
357.988	91.69
358.215	100.69
358.441	97.69
358.668	81.69
358.895	91.69
359.122	96.69
359.349	93.69
359.576	81.69
359.802	69.69
360.029	80.69
360.256	77.69
360.483	75.69
360.709	93.69
360.936	98.69
361.163	82.69
361.39	92.69
361.616	91.69
361.843	83.69
362.07	82.69
362.296	80.69
362.523	83.69
362.749	98.69
362.976	100.69
363.203	100.69
363.429	108.69
363.656	91.69
363.882	83.69
364.109	94.69
364.335	102.69
364.562	97.69
364.788	94.69
365.015	93.69
365.241	88.69
365.468	82.69
365.694	76.69
365.92	80.69
366.147	75.69
366.373	80.69
366.599	88.69
366.826	76.69
367.052	85.69
367.278	92.69
367.505	95.69
367.731	77.69
367.957	81.69
368.184	80.69
368.41	94.69
368.636	72.69
368.862	66.69
369.089	76.69
369.315	85.69
369.541	86.69
369.767	67.69
369.993	79.69
370.219	80.69
370.445	78.69
370.672	84.69
370.898	93.69
371.124	104.69
371.35	80.69
371.576	92.69
371.802	79.69
372.028	79.69
372.254	88.69
372.48	91.69
372.706	104.69
372.932	78.69
373.158	83.69
373.384	93.69
373.61	96.69
373.835	96.69
374.061	66.69
374.287	85.69
374.513	87.69
374.739	107.69
374.965	115.69
375.191	96.69
375.416	90.69
375.642	90.69
375.868	88.69
376.094	95.69
376.319	85.69
376.545	84.69
376.771	88.69
376.997	80.69
377.222	88.69
377.448	79.69
377.674	87.69
377.899	74.69
378.125	85.69
378.35	93.69
378.576	82.69
378.802	75.69
379.027	85.69
379.253	82.69
379.478	78.69
379.704	89.69
379.929	74.69
380.155	89.69
380.38	79.69
380.606	84.69
380.831	70.69
381.057	84.69
381.282	83.69
381.507	88.69
381.733	94.69
381.958	96.69
382.184	89.69
382.409	102.69
382.634	96.69
382.86	87.69
383.085	99.69
383.31	113.69
383.535	113.69
383.761	121.69
383.986	107.69
384.211	109.69
384.436	85.69
384.662	78.69
384.887	61.69
385.112	79.69
385.337	81.69
385.562	77.69
385.787	108.69
386.013	94.69
386.238	83.69
386.463	84.69
386.688	102.69
386.913	95.69
387.138	68.69
387.363	77.69
387.588	75.69
387.813	94.69
388.038	90.69
388.263	89.69
388.488	89.69
388.713	81.69
388.938	87.69
389.163	82.69
389.387	60.69
389.612	91.69
389.837	86.69
390.062	93.69
390.287	87.69
390.512	81.69
390.736	96.69
390.961	84.69
391.186	84.69
391.411	88.69
391.636	82.69
391.86	80.69
392.085	81.69
392.31	91.69
392.534	98.69
392.759	90.69
392.984	107.69
393.208	163.69
393.433	207.69
393.658	183.69
393.882	109.69
394.107	87.69
394.331	111.69
394.556	121.69
394.78	88.69
395.005	83.69
395.229	84.69
395.454	91.69
395.678	88.69
395.903	96.69
396.127	119.69
396.352	138.69
396.576	134.69
396.801	163.69
397.025	181.69
397.249	124.69
397.474	109.69
397.698	76.69
397.922	96.69
398.147	91.69
398.371	91.69
398.595	70.69
398.82	100.69
399.044	75.69
399.268	82.69
399.492	91.69
399.717	89.69
399.941	84.69
400.165	78.69
400.389	80.69
400.613	85.69
400.837	77.69
401.062	83.69
401.286	81.69
401.51	79.69
401.734	81.69
401.958	71.69
402.182	84.69
402.406	88.69
402.63	70.69
402.854	69.69
403.078	83.69
403.302	77.69
403.526	61.69
403.75	90.69
403.974	75.69
404.198	73.69
404.422	75.69
404.645	88.69
404.869	92.69
405.093	78.69
405.317	71.69
405.541	84.69
405.765	101.69
405.988	65.69
406.212	85.69
406.436	91.69
406.66	91.69
406.883	89.69
407.107	86.69
407.331	82.69
407.555	85.69
407.778	78.69
408.002	89.69
408.226	85.69
408.449	84.69
408.673	94.69
408.896	80.69
409.12	62.69
409.344	73.69
409.567	86.69
409.791	77.69
410.014	107.69
410.238	85.69
410.461	87.69
410.685	100.69
410.908	87.69
411.132	74.69
411.355	80.69
411.578	89.69
411.802	82.69
412.025	83.69
412.249	86.69
412.472	80.69
412.695	70.69
412.919	79.69
413.142	86.69
413.365	84.69
413.589	85.69
413.812	79.69
414.035	82.69
414.258	73.69
414.482	90.69
414.705	79.69
414.928	80.69
415.151	73.69
415.374	80.69
415.597	91.69
415.821	85.69
416.044	82.69
416.267	86.69
416.49	93.69
416.713	77.69
416.936	71.69
417.159	83.69
417.382	81.69
417.605	85.69
417.828	74.69
418.051	85.69
418.274	87.69
418.497	82.69
418.72	78.69
418.943	93.69
419.166	73.69
419.389	89.69
419.611	75.69
419.834	75.69
420.057	64.69
420.28	83.69
420.503	66.69
420.726	79.69
420.948	71.69
421.171	78.69
421.394	77.69
421.617	74.69
421.839	93.69
422.062	92.69
422.285	119.69
422.507	127.69
422.73	222.69
422.953	200.69
423.175	91.69
423.398	87.69
423.621	92.69
423.843	87.69
424.066	78.69
424.288	79.69
424.511	84.69
424.733	87.69
424.956	70.69
425.178	85.69
425.401	70.69
425.623	78.69
425.846	77.69
426.068	78.69
426.291	80.69
426.513	87.69
426.735	67.69
426.958	86.69
427.18	97.69
427.402	85.69
427.625	83.69
427.847	69.69
428.069	96.69
428.292	91.69
428.514	100.69
428.736	89.69
428.958	102.69
429.181	95.69
429.403	86.69
429.625	88.69
429.847	91.69
430.069	102.69
430.292	117.69
430.514	113.69
430.736	111.69
430.958	112.69
431.18	95.69
431.402	85.69
431.624	86.69
431.846	93.69
432.068	102.69
432.29	83.69
432.512	85.69
432.734	76.69
432.956	91.69
433.178	71.69
433.4	71.69
433.622	90.69
433.844	70.69
434.066	105.69
434.287	79.69
434.509	73.69
434.731	68.69
434.953	88.69
435.175	90.69
435.397	95.69
435.618	65.69
435.84	87.69
436.062	79.69
436.284	72.69
436.505	81.69
436.727	79.69
436.949	77.69
437.17	72.69
437.392	79.69
437.614	69.69
437.835	82.69
438.057	79.69
438.278	86.69
438.5	95.69
438.721	89.69
438.943	91.69
439.165	87.69
439.386	69.69
439.608	85.69
439.829	72.69
440.05	82.69
440.272	73.69
440.493	87.69
440.715	80.69
440.936	88.69
441.158	93.69
441.379	92.69
441.6	80.69
441.822	76.69
442.043	81.69
442.264	105.69
442.486	107.69
442.707	111.69
442.928	95.69
443.149	91.69
443.371	107.69
443.592	140.69
443.813	126.69
444.034	92.69
444.255	96.69
444.476	94.69
444.698	86.69
444.919	79.69
445.14	138.69
445.361	135.69
445.582	150.69
445.803	151.69
446.024	100.69
446.245	80.69
446.466	84.69
446.687	78.69
446.908	74.69
447.129	83.69
447.35	73.69
447.571	83.69
447.792	79.69
448.013	87.69
448.234	88.69
448.455	77.69
448.675	91.69
448.896	84.69
449.117	73.69
449.338	74.69
449.559	79.69
449.779	78.69
450	88.69
450.221	89.69
450.442	78.69
450.662	77.69
450.883	78.69
451.104	82.69
451.324	80.69
451.545	63.69
451.766	67.69
451.986	66.69
452.207	75.69
452.428	79.69
452.648	90.69
452.869	83.69
453.089	79.69
453.31	84.69
453.53	84.69
453.751	95.69
453.971	77.69
454.192	71.69
454.412	77.69
454.633	78.69
454.853	83.69
455.073	78.69
455.294	79.69
455.514	83.69
455.734	83.69
455.955	79.69
456.175	74.69
456.395	78.69
456.616	86.69
456.836	72.69
457.056	89.69
457.276	75.69
457.497	88.69
457.717	98.69
457.937	83.69
458.157	79.69
458.377	101.69
458.598	83.69
458.818	81.69
459.038	80.69
459.258	92.69
459.478	72.69
459.698	62.69
459.918	88.69
460.138	83.69
460.358	70.69
460.578	83.69
460.798	95.69
461.018	97.69
461.238	94.69
461.458	81.69
461.678	86.69
461.898	65.69
462.118	85.69
462.338	73.69
462.558	89.69
462.777	79.69
462.997	87.69
463.217	85.69
463.437	94.69
463.657	70.69
463.876	84.69
464.096	76.69
464.316	94.69
464.536	80.69
464.755	79.69
464.975	82.69
465.195	96.69
465.414	87.69
465.634	73.69
465.854	78.69
466.073	73.69
466.293	79.69
466.512	82.69
466.732	89.69
466.951	91.69
467.171	82.69
467.391	77.69
467.61	87.69
467.829	72.69
468.049	79.69
468.268	83.69
468.488	93.69
468.707	82.69
468.927	69.69
469.146	63.69
469.365	71.69
469.585	75.69
469.804	92.69
470.023	93.69
470.243	84.69
470.462	82.69
470.681	84.69
470.901	70.69
471.12	95.69
471.339	73.69
471.558	81.69
471.777	79.69
471.997	77.69
472.216	97.69
472.435	86.69
472.654	74.69
472.873	80.69
473.092	88.69
473.311	96.69
473.53	87.69
473.749	88.69
473.968	84.69
474.187	80.69
474.406	90.69
474.625	76.69
474.844	91.69
475.063	83.69
475.282	91.69
475.501	71.69
475.72	75.69
475.939	86.69
476.158	73.69
476.377	77.69
476.596	85.69
476.814	79.69
477.033	69.69
477.252	85.69
477.471	70.69
477.69	83.69
477.908	77.69
478.127	86.69
478.346	87.69
478.564	87.69
478.783	67.69
479.002	72.69
479.22	84.69
479.439	84.69
479.658	82.69
479.876	88.69
480.095	98.69
480.313	81.69
480.532	88.69
480.751	73.69
480.969	80.69
481.188	91.69
481.406	74.69
481.624	84.69
481.843	86.69
482.061	77.69
482.28	79.69
482.498	91.69
482.717	81.69
482.935	68.69
483.153	83.69
483.372	73.69
483.59	92.69
483.808	89.69
484.027	94.69
484.245	87.69
484.463	91.69
484.681	92.69
484.9	91.69
485.118	83.69
485.336	80.69
485.554	83.69
485.772	69.69
485.99	72.69
486.209	86.69
486.427	82.69
486.645	84.69
486.863	92.69
487.081	79.69
487.299	91.69
487.517	89.69
487.735	81.69
487.953	104.69
488.171	87.69
488.389	75.69
488.607	82.69
488.825	75.69
489.043	97.69
489.261	108.69
489.479	68.69
489.696	68.69
489.914	73.69
490.132	99.69
490.35	87.69
490.568	85.69
490.786	77.69
491.003	89.69
491.221	100.69
491.439	96.69
491.657	91.69
491.874	94.69
492.092	103.69
492.31	84.69
492.527	94.69
492.745	93.69
492.963	82.69
493.18	74.69
493.398	81.69
493.615	85.69
493.833	89.69
494.05	77.69
494.268	95.69
494.485	90.69
494.703	94.69
494.92	84.69
495.138	84.69
495.355	86.69
495.573	92.69
495.79	77.69
496.008	83.69
496.225	84.69
496.442	95.69
496.66	80.69
496.877	91.69
497.094	81.69
497.312	80.69
497.529	82.69
497.746	89.69
497.963	86.69
498.181	91.69
498.398	96.69
498.615	96.69
498.832	87.69
499.049	72.69
499.267	78.69
499.484	105.69
499.701	97.69
499.918	85.69
500.135	96.69
500.352	73.69
500.569	80.69
500.786	97.69
501.003	85.69
501.22	79.69
501.437	82.69
501.654	97.69
501.871	85.69
502.088	78.69
502.305	73.69
502.522	79.69
502.739	90.69
502.956	85.69
503.172	88.69
503.389	71.69
503.606	88.69
503.823	88.69
504.04	97.69
504.256	85.69
504.473	89.69
504.69	77.69
504.907	91.69
505.123	91.69
505.34	75.69
505.557	67.69
505.773	88.69
505.99	81.69
506.207	86.69
506.423	72.69
506.64	90.69
506.856	70.69
507.073	92.69
507.289	66.69
507.506	81.69
507.722	87.69
507.939	83.69
508.155	87.69
508.372	77.69
508.588	84.69
508.805	82.69
509.021	83.69
509.238	78.69
509.454	87.69
509.67	81.69
509.887	78.69
510.103	85.69
510.319	86.69
510.536	85.69
510.752	83.69
510.968	94.69
511.184	80.69
511.401	89.69
511.617	82.69
511.833	75.69
512.049	90.69
512.265	76.69
512.481	96.69
512.698	88.69
512.914	93.69
513.13	101.69
513.346	84.69
513.562	71.69
513.778	84.69
513.994	81.69
514.21	77.69
514.426	95.69
514.642	102.69
514.858	83.69
515.074	73.69
515.29	80.69
515.506	71.69
515.721	83.69
515.937	85.69
516.153	83.69
516.369	90.69
516.585	101.69
516.801	82.69
517.016	96.69
517.232	98.69
517.448	112.69
517.664	115.69
517.879	81.69
518.095	86.69
518.311	92.69
518.527	127.69
518.742	94.69
518.958	97.69
519.173	108.69
