Data from 1600_4_HRD10591_00014.txt Node
Date: Mon Jan 19 13:56:17 EST 2026
User: Yrep
Spectrometer: HR+D1059
Trigger mode: 1
Integration Time (sec): 1.000000E-1
Scans to average: 1
Electric dark correction enabled: true
Nonlinearity correction enabled: false
Boxcar width: 0
XAxis mode: Wavelengths
Number of Pixels in Spectrum: 2048
>>>>>Begin Spectral Data<<<<<
223.165	-14.81
223.4	-14.81
223.635	-14.81
223.869	-25.81
224.104	-28.81
224.338	-19.81
224.573	1.19
224.808	-11.81
225.042	-14.81
225.277	-17.81
225.511	6.19
225.746	6.19
225.98	10.19
226.215	14.19
226.449	19.19
226.683	31.19
226.918	17.19
227.152	28.19
227.387	34.19
227.621	32.19
227.856	45.19
228.09	38.19
228.324	50.19
228.559	43.19
228.793	59.19
229.027	60.19
229.262	55.19
229.496	70.19
229.73	71.19
229.964	70.19
230.199	68.19
230.433	76.19
230.667	75.19
230.901	79.19
231.136	84.19
231.37	78.19
231.604	87.19
231.838	84.19
232.072	71.19
232.306	84.19
232.541	84.19
232.775	91.19
233.009	74.19
233.243	83.19
233.477	88.19
233.711	86.19
233.945	69.19
234.179	74.19
234.413	84.19
234.647	83.19
234.881	67.19
235.115	77.19
235.349	81.19
235.583	72.19
235.817	83.19
236.051	69.19
236.285	74.19
236.519	85.19
236.753	70.19
236.987	69.19
237.221	82.19
237.455	71.19
237.689	87.19
237.922	64.19
238.156	83.19
238.39	67.19
238.624	74.19
238.858	89.19
239.091	79.19
239.325	68.19
239.559	73.19
239.793	71.19
240.027	84.19
240.26	82.19
240.494	67.19
240.728	82.19
240.961	61.19
241.195	74.19
241.429	81.19
241.662	71.19
241.896	73.19
242.13	68.19
242.363	79.19
242.597	64.19
242.83	74.19
243.064	69.19
243.298	85.19
243.531	85.19
243.765	70.19
243.998	78.19
244.232	79.19
244.465	73.19
244.699	73.19
244.932	71.19
245.166	74.19
245.399	68.19
245.633	83.19
245.866	75.19
246.099	80.19
246.333	78.19
246.566	72.19
246.8	68.19
247.033	74.19
247.266	70.19
247.5	72.19
247.733	72.19
247.966	65.19
248.2	85.19
248.433	82.19
248.666	78.19
248.899	67.19
249.133	71.19
249.366	81.19
249.599	78.19
249.832	59.19
250.066	90.19
250.299	79.19
250.532	60.19
250.765	87.19
250.998	84.19
251.231	80.19
251.465	91.19
251.698	60.19
251.931	77.19
252.164	77.19
252.397	97.19
252.63	84.19
252.863	81.19
253.096	71.19
253.329	80.19
253.562	70.19
253.795	74.19
254.028	77.19
254.261	73.19
254.494	80.19
254.727	81.19
254.96	87.19
255.193	76.19
255.426	81.19
255.659	86.19
255.892	78.19
256.124	74.19
256.357	85.19
256.59	84.19
256.823	73.19
257.056	80.19
257.289	81.19
257.521	84.19
257.754	76.19
257.987	70.19
258.22	81.19
258.452	63.19
258.685	59.19
258.918	69.19
259.151	84.19
259.383	66.19
259.616	83.19
259.849	85.19
260.081	79.19
260.314	77.19
260.547	66.19
260.779	87.19
261.012	67.19
261.244	85.19
261.477	89.19
261.71	82.19
261.942	86.19
262.175	69.19
262.407	76.19
262.64	71.19
262.872	86.19
263.105	84.19
263.337	70.19
263.57	84.19
263.802	79.19
264.035	91.19
264.267	64.19
264.499	75.19
264.732	68.19
264.964	65.19
265.197	81.19
265.429	63.19
265.661	82.19
265.894	97.19
266.126	61.19
266.358	80.19
266.591	90.19
266.823	92.19
267.055	65.19
267.287	78.19
267.52	89.19
267.752	91.19
267.984	87.19
268.216	70.19
268.448	74.19
268.681	77.19
268.913	69.19
269.145	78.19
269.377	81.19
269.609	73.19
269.841	95.19
270.073	86.19
270.306	79.19
270.538	84.19
270.77	85.19
271.002	82.19
271.234	83.19
271.466	89.19
271.698	72.19
271.93	82.19
272.162	77.19
272.394	77.19
272.626	81.19
272.858	79.19
273.09	75.19
273.322	92.19
273.553	86.19
273.785	91.19
274.017	90.19
274.249	89.19
274.481	86.19
274.713	74.19
274.945	86.19
275.176	79.19
275.408	67.19
275.64	99.19
275.872	72.19
276.104	87.19
276.335	86.19
276.567	88.19
276.799	86.19
277.031	80.19
277.262	78.19
277.494	77.19
277.726	63.19
277.957	80.19
278.189	90.19
278.421	87.19
278.652	75.19
278.884	94.19
279.115	56.19
279.347	69.19
279.579	73.19
279.81	85.19
280.042	79.19
280.273	103.19
280.505	97.19
280.736	81.19
280.968	79.19
281.199	73.19
281.431	95.19
281.662	83.19
281.894	84.19
282.125	88.19
282.356	80.19
282.588	84.19
282.819	72.19
283.051	72.19
283.282	95.19
283.513	79.19
283.745	74.19
283.976	80.19
284.207	67.19
284.439	63.19
284.67	85.19
284.901	91.19
285.132	90.19
285.364	92.19
285.595	84.19
285.826	85.19
286.057	91.19
286.288	69.19
286.52	73.19
286.751	95.19
286.982	77.19
287.213	78.19
287.444	77.19
287.675	76.19
287.906	75.19
288.138	71.19
288.369	81.19
288.6	89.19
288.831	78.19
289.062	83.19
289.293	87.19
289.524	81.19
289.755	73.19
289.986	77.19
290.217	83.19
290.448	68.19
290.679	71.19
290.91	73.19
291.141	78.19
291.371	98.19
291.602	80.19
291.833	83.19
292.064	92.19
292.295	81.19
292.526	78.19
292.757	84.19
292.987	79.19
293.218	94.19
293.449	81.19
293.68	88.19
293.91	89.19
294.141	99.19
294.372	72.19
294.603	76.19
294.833	74.19
295.064	71.19
295.295	76.19
295.525	79.19
295.756	74.19
295.987	85.19
296.217	88.19
296.448	82.19
296.679	94.19
296.909	85.19
297.14	79.19
297.37	82.19
297.601	86.19
297.831	93.19
298.062	81.19
298.292	80.19
298.523	75.19
298.753	97.19
298.984	88.19
299.214	78.19
299.445	89.19
299.675	99.19
299.905	84.19
300.136	84.19
300.366	77.19
300.597	79.19
300.827	89.19
301.057	84.19
301.288	57.19
301.518	80.19
301.748	80.19
301.979	95.19
302.209	93.19
302.439	74.19
302.669	71.19
302.9	65.19
303.13	98.19
303.36	95.19
303.59	79.19
303.82	87.19
304.051	70.19
304.281	78.19
304.511	79.19
304.741	72.19
304.971	80.19
305.201	74.19
305.431	88.19
305.661	69.19
305.891	93.19
306.121	86.19
306.352	83.19
306.582	80.19
306.812	88.19
307.042	79.19
307.272	77.19
307.502	78.19
307.731	59.19
307.961	95.19
308.191	73.19
308.421	87.19
308.651	83.19
308.881	92.19
309.111	79.19
309.341	100.19
309.571	101.19
309.8	73.19
310.03	82.19
310.26	81.19
310.49	62.19
310.72	83.19
310.949	85.19
311.179	82.19
311.409	93.19
311.639	83.19
311.868	87.19
312.098	75.19
312.328	86.19
312.557	80.19
312.787	92.19
313.017	73.19
313.246	76.19
313.476	82.19
313.706	85.19
313.935	90.19
314.165	90.19
314.394	77.19
314.624	86.19
314.853	84.19
315.083	83.19
315.312	80.19
315.542	89.19
315.771	85.19
316.001	82.19
316.23	75.19
316.46	67.19
316.689	102.19
316.919	78.19
317.148	69.19
317.377	81.19
317.607	82.19
317.836	80.19
318.065	83.19
318.295	87.19
318.524	96.19
318.753	84.19
318.983	80.19
319.212	67.19
319.441	98.19
319.67	69.19
319.9	76.19
320.129	92.19
320.358	72.19
320.587	89.19
320.816	75.19
321.046	79.19
321.275	97.19
321.504	82.19
321.733	83.19
321.962	74.19
322.191	81.19
322.42	74.19
322.649	92.19
322.878	92.19
323.108	81.19
323.337	88.19
323.566	75.19
323.795	86.19
324.024	101.19
324.253	100.19
324.482	72.19
324.71	81.19
324.939	99.19
325.168	76.19
325.397	70.19
325.626	84.19
325.855	79.19
326.084	70.19
326.313	76.19
326.542	81.19
326.77	80.19
326.999	83.19
327.228	83.19
327.457	88.19
327.686	77.19
327.914	77.19
328.143	88.19
328.372	84.19
328.6	90.19
328.829	83.19
329.058	84.19
329.287	91.19
329.515	88.19
329.744	93.19
329.972	63.19
330.201	92.19
330.43	93.19
330.658	94.19
330.887	86.19
331.115	95.19
331.344	79.19
331.572	93.19
331.801	71.19
332.03	77.19
332.258	81.19
332.486	80.19
332.715	80.19
332.943	82.19
333.172	67.19
333.4	79.19
333.629	63.19
333.857	78.19
334.085	74.19
334.314	93.19
334.542	73.19
334.771	84.19
334.999	91.19
335.227	93.19
335.455	83.19
335.684	94.19
335.912	85.19
336.14	81.19
336.369	80.19
336.597	96.19
336.825	83.19
337.053	80.19
337.281	84.19
337.51	84.19
337.738	85.19
337.966	95.19
338.194	82.19
338.422	89.19
338.65	84.19
338.878	88.19
339.106	79.19
339.334	88.19
339.562	76.19
339.79	70.19
340.018	84.19
340.246	73.19
340.474	91.19
340.702	86.19
340.93	90.19
341.158	92.19
341.386	77.19
341.614	78.19
341.842	87.19
342.07	80.19
342.298	86.19
342.526	85.19
342.754	79.19
342.981	87.19
343.209	77.19
343.437	95.19
343.665	80.19
343.893	72.19
344.12	88.19
344.348	79.19
344.576	88.19
344.804	84.19
345.031	87.19
345.259	85.19
345.487	73.19
345.714	83.19
345.942	89.19
346.17	87.19
346.397	92.19
346.625	86.19
346.853	82.19
347.08	83.19
347.308	84.19
347.535	83.19
347.763	72.19
347.99	87.19
348.218	88.19
348.445	75.19
348.673	76.19
348.9	68.19
349.128	88.19
349.355	87.19
349.583	81.19
349.81	72.19
350.037	73.19
350.265	84.19
350.492	85.19
350.72	81.19
350.947	96.19
351.174	80.19
351.402	81.19
351.629	88.19
351.856	71.19
352.083	82.19
352.311	83.19
352.538	72.19
352.765	83.19
352.992	71.19
353.22	75.19
353.447	75.19
353.674	84.19
353.901	67.19
354.128	92.19
354.355	96.19
354.583	80.19
354.81	81.19
355.037	81.19
355.264	93.19
355.491	92.19
355.718	110.19
355.945	80.19
356.172	90.19
356.399	77.19
356.626	85.19
356.853	83.19
357.08	101.19
357.307	77.19
357.534	91.19
357.761	81.19
357.988	100.19
358.215	93.19
358.441	79.19
358.668	78.19
358.895	93.19
359.122	92.19
359.349	83.19
359.576	101.19
359.802	84.19
360.029	77.19
360.256	96.19
360.483	72.19
360.709	85.19
360.936	100.19
361.163	69.19
361.39	91.19
361.616	88.19
361.843	83.19
362.07	77.19
362.296	97.19
362.523	89.19
362.749	70.19
362.976	85.19
363.203	112.19
363.429	81.19
363.656	73.19
363.882	89.19
364.109	88.19
364.335	112.19
364.562	99.19
364.788	102.19
365.015	77.19
365.241	79.19
365.468	79.19
365.694	85.19
365.92	82.19
366.147	86.19
366.373	68.19
366.599	91.19
366.826	88.19
367.052	73.19
367.278	84.19
367.505	77.19
367.731	86.19
367.957	87.19
368.184	89.19
368.41	88.19
368.636	74.19
368.862	100.19
369.089	80.19
369.315	79.19
369.541	84.19
369.767	79.19
369.993	84.19
370.219	75.19
370.445	94.19
370.672	83.19
370.898	89.19
371.124	89.19
371.35	83.19
371.576	91.19
371.802	84.19
372.028	87.19
372.254	91.19
372.48	92.19
372.706	93.19
372.932	91.19
373.158	82.19
373.384	88.19
373.61	101.19
373.835	94.19
374.061	89.19
374.287	91.19
374.513	98.19
374.739	104.19
374.965	79.19
375.191	84.19
375.416	100.19
375.642	84.19
375.868	99.19
376.094	85.19
376.319	70.19
376.545	92.19
376.771	78.19
376.997	85.19
377.222	90.19
377.448	88.19
377.674	71.19
377.899	75.19
378.125	79.19
378.35	79.19
378.576	82.19
378.802	78.19
379.027	87.19
379.253	96.19
379.478	94.19
379.704	91.19
379.929	89.19
380.155	80.19
380.38	84.19
380.606	83.19
380.831	69.19
381.057	77.19
381.282	83.19
381.507	86.19
381.733	105.19
381.958	99.19
382.184	95.19
382.409	92.19
382.634	97.19
382.86	113.19
383.085	95.19
383.31	94.19
383.535	83.19
383.761	95.19
383.986	91.19
384.211	89.19
384.436	103.19
384.662	73.19
384.887	77.19
385.112	76.19
385.337	76.19
385.562	84.19
385.787	94.19
386.013	98.19
386.238	96.19
386.463	94.19
386.688	95.19
386.913	79.19
387.138	64.19
387.363	77.19
387.588	86.19
387.813	105.19
388.038	94.19
388.263	87.19
388.488	83.19
388.713	84.19
388.938	75.19
389.163	82.19
389.387	98.19
389.612	99.19
389.837	84.19
390.062	86.19
390.287	84.19
390.512	83.19
390.736	79.19
390.961	75.19
391.186	85.19
391.411	71.19
391.636	74.19
391.86	79.19
392.085	95.19
392.31	94.19
392.534	87.19
392.759	88.19
392.984	109.19
393.208	150.19
393.433	196.19
393.658	155.19
393.882	92.19
394.107	100.19
394.331	102.19
394.556	111.19
394.78	95.19
395.005	77.19
395.229	78.19
395.454	75.19
395.678	100.19
395.903	111.19
396.127	129.19
396.352	141.19
396.576	128.19
396.801	140.19
397.025	164.19
397.249	111.19
397.474	83.19
397.698	90.19
397.922	79.19
398.147	93.19
398.371	69.19
398.595	88.19
398.82	80.19
399.044	89.19
399.268	89.19
399.492	78.19
399.717	111.19
399.941	89.19
400.165	83.19
400.389	83.19
400.613	77.19
400.837	83.19
401.062	84.19
401.286	87.19
401.51	83.19
401.734	69.19
401.958	73.19
402.182	71.19
402.406	74.19
402.63	96.19
402.854	75.19
403.078	95.19
403.302	89.19
403.526	79.19
403.75	70.19
403.974	84.19
404.198	73.19
404.422	81.19
404.645	88.19
404.869	92.19
405.093	85.19
405.317	76.19
405.541	76.19
405.765	70.19
405.988	88.19
406.212	94.19
406.436	95.19
406.66	93.19
406.883	88.19
407.107	86.19
407.331	87.19
407.555	89.19
407.778	94.19
408.002	95.19
408.226	85.19
408.449	85.19
408.673	70.19
408.896	72.19
409.12	79.19
409.344	102.19
409.567	88.19
409.791	79.19
410.014	86.19
410.238	79.19
410.461	88.19
410.685	89.19
410.908	76.19
411.132	93.19
411.355	95.19
411.578	79.19
411.802	82.19
412.025	83.19
412.249	89.19
412.472	89.19
412.695	70.19
412.919	89.19
413.142	77.19
413.365	87.19
413.589	85.19
413.812	88.19
414.035	83.19
414.258	71.19
414.482	71.19
414.705	79.19
414.928	86.19
415.151	81.19
415.374	80.19
415.597	69.19
415.821	83.19
416.044	75.19
416.267	87.19
416.49	79.19
416.713	81.19
416.936	88.19
417.159	82.19
417.382	93.19
417.605	87.19
417.828	84.19
418.051	73.19
418.274	80.19
418.497	82.19
418.72	80.19
418.943	83.19
419.166	73.19
419.389	76.19
419.611	82.19
419.834	76.19
420.057	70.19
420.28	80.19
420.503	73.19
420.726	88.19
420.948	73.19
421.171	79.19
421.394	72.19
421.617	78.19
421.839	89.19
422.062	103.19
422.285	112.19
422.507	158.19
422.73	221.19
422.953	204.19
423.175	115.19
423.398	97.19
423.621	88.19
423.843	93.19
424.066	79.19
424.288	90.19
424.511	94.19
424.733	91.19
424.956	89.19
425.178	83.19
425.401	81.19
425.623	79.19
425.846	80.19
426.068	91.19
426.291	87.19
426.513	77.19
426.735	71.19
426.958	79.19
427.18	72.19
427.402	81.19
427.625	77.19
427.847	76.19
428.069	83.19
428.292	92.19
428.514	95.19
428.736	72.19
428.958	98.19
429.181	108.19
429.403	107.19
429.625	93.19
429.847	96.19
430.069	124.19
430.292	113.19
430.514	109.19
430.736	102.19
430.958	116.19
431.18	93.19
431.402	97.19
431.624	94.19
431.846	84.19
432.068	106.19
432.29	88.19
432.512	85.19
432.734	81.19
432.956	86.19
433.178	76.19
433.4	79.19
433.622	88.19
433.844	85.19
434.066	94.19
434.287	74.19
434.509	70.19
434.731	71.19
434.953	80.19
435.175	77.19
435.397	77.19
435.618	82.19
435.84	86.19
436.062	87.19
436.284	86.19
436.505	76.19
436.727	76.19
436.949	89.19
437.17	72.19
437.392	78.19
437.614	77.19
437.835	77.19
438.057	73.19
438.278	76.19
438.5	91.19
438.721	95.19
438.943	78.19
439.165	77.19
439.386	93.19
439.608	78.19
439.829	80.19
440.05	77.19
440.272	78.19
440.493	96.19
440.715	89.19
440.936	87.19
441.158	93.19
441.379	89.19
441.6	100.19
441.822	80.19
442.043	76.19
442.264	92.19
442.486	95.19
442.707	104.19
442.928	93.19
443.149	76.19
443.371	97.19
443.592	128.19
443.813	128.19
444.034	88.19
444.255	78.19
444.476	91.19
444.698	87.19
444.919	86.19
445.14	141.19
445.361	124.19
445.582	150.19
445.803	140.19
446.024	88.19
446.245	85.19
446.466	103.19
446.687	73.19
446.908	84.19
447.129	79.19
447.35	93.19
447.571	76.19
447.792	86.19
448.013	83.19
448.234	89.19
448.455	88.19
448.675	86.19
448.896	87.19
449.117	95.19
449.338	92.19
449.559	91.19
449.779	87.19
450	71.19
450.221	67.19
450.442	96.19
450.662	81.19
450.883	72.19
451.104	85.19
451.324	85.19
451.545	65.19
451.766	79.19
451.986	85.19
452.207	76.19
452.428	87.19
452.648	82.19
452.869	93.19
453.089	95.19
453.31	77.19
453.53	71.19
453.751	95.19
453.971	93.19
454.192	64.19
454.412	81.19
454.633	79.19
454.853	70.19
455.073	80.19
455.294	76.19
455.514	93.19
455.734	94.19
455.955	87.19
456.175	73.19
456.395	82.19
456.616	87.19
456.836	64.19
457.056	83.19
457.276	76.19
457.497	87.19
457.717	86.19
457.937	87.19
458.157	93.19
458.377	94.19
458.598	85.19
458.818	99.19
459.038	85.19
459.258	64.19
459.478	75.19
459.698	61.19
459.918	98.19
460.138	79.19
460.358	80.19
460.578	74.19
460.798	81.19
461.018	91.19
461.238	68.19
461.458	74.19
461.678	86.19
461.898	83.19
462.118	92.19
462.338	83.19
462.558	77.19
462.777	72.19
462.997	98.19
463.217	91.19
463.437	85.19
463.657	83.19
463.876	80.19
464.096	76.19
464.316	80.19
464.536	85.19
464.755	78.19
464.975	81.19
465.195	81.19
465.414	84.19
465.634	81.19
465.854	90.19
466.073	87.19
466.293	84.19
466.512	69.19
466.732	69.19
466.951	84.19
467.171	75.19
467.391	79.19
467.61	101.19
467.829	85.19
468.049	78.19
468.268	75.19
468.488	80.19
468.707	86.19
468.927	72.19
469.146	77.19
469.365	87.19
469.585	80.19
469.804	85.19
470.023	84.19
470.243	85.19
470.462	86.19
470.681	77.19
470.901	84.19
471.12	89.19
471.339	75.19
471.558	79.19
471.777	80.19
471.997	68.19
472.216	75.19
472.435	61.19
472.654	84.19
472.873	71.19
473.092	89.19
473.311	83.19
473.53	79.19
473.749	87.19
473.968	82.19
474.187	99.19
474.406	82.19
474.625	92.19
474.844	85.19
475.063	70.19
475.282	73.19
475.501	93.19
475.72	69.19
475.939	84.19
476.158	84.19
476.377	73.19
476.596	87.19
476.814	76.19
477.033	81.19
477.252	83.19
477.471	89.19
477.69	87.19
477.908	72.19
478.127	95.19
478.346	77.19
478.564	91.19
478.783	86.19
479.002	91.19
479.22	84.19
479.439	82.19
479.658	96.19
479.876	89.19
480.095	83.19
480.313	69.19
480.532	78.19
480.751	76.19
480.969	77.19
481.188	88.19
481.406	95.19
481.624	84.19
481.843	80.19
482.061	77.19
482.28	73.19
482.498	95.19
482.717	87.19
482.935	77.19
483.153	96.19
483.372	82.19
483.59	92.19
483.808	93.19
484.027	102.19
484.245	71.19
484.463	98.19
484.681	89.19
484.9	81.19
485.118	88.19
485.336	89.19
485.554	83.19
485.772	86.19
485.99	73.19
486.209	80.19
486.427	82.19
486.645	75.19
486.863	90.19
487.081	76.19
487.299	87.19
487.517	112.19
487.735	89.19
487.953	107.19
488.171	104.19
488.389	77.19
488.607	84.19
488.825	87.19
489.043	86.19
489.261	70.19
489.479	102.19
489.696	90.19
489.914	88.19
490.132	87.19
490.35	95.19
490.568	97.19
490.786	79.19
491.003	88.19
491.221	72.19
491.439	80.19
491.657	91.19
491.874	86.19
492.092	79.19
492.31	81.19
492.527	83.19
492.745	88.19
492.963	82.19
493.18	91.19
493.398	94.19
493.615	103.19
493.833	72.19
494.05	89.19
494.268	77.19
494.485	83.19
494.703	86.19
494.92	85.19
495.138	91.19
495.355	73.19
495.573	86.19
495.79	70.19
496.008	89.19
496.225	80.19
496.442	89.19
496.66	99.19
496.877	86.19
497.094	95.19
497.312	87.19
497.529	85.19
497.746	88.19
497.963	77.19
498.181	84.19
498.398	102.19
498.615	88.19
498.832	73.19
499.049	79.19
499.267	88.19
499.484	85.19
499.701	93.19
499.918	94.19
500.135	94.19
500.352	80.19
500.569	84.19
500.786	97.19
501.003	93.19
501.22	69.19
501.437	97.19
501.654	102.19
501.871	82.19
502.088	95.19
502.305	74.19
502.522	104.19
502.739	85.19
502.956	95.19
503.172	78.19
503.389	89.19
503.606	79.19
503.823	99.19
504.04	101.19
504.256	77.19
504.473	102.19
504.69	93.19
504.907	89.19
505.123	81.19
505.34	79.19
505.557	73.19
505.773	75.19
505.99	89.19
506.207	69.19
506.423	77.19
506.64	79.19
506.856	88.19
507.073	88.19
507.289	82.19
507.506	83.19
507.722	88.19
507.939	76.19
508.155	88.19
508.372	83.19
508.588	83.19
508.805	78.19
509.021	92.19
509.238	85.19
509.454	76.19
509.67	75.19
509.887	78.19
510.103	74.19
510.319	82.19
510.536	90.19
510.752	80.19
510.968	87.19
511.184	85.19
511.401	83.19
511.617	76.19
511.833	96.19
512.049	96.19
512.265	94.19
512.481	80.19
512.698	90.19
512.914	101.19
513.13	80.19
513.346	95.19
513.562	97.19
513.778	89.19
513.994	82.19
514.21	78.19
514.426	81.19
514.642	92.19
514.858	71.19
515.074	93.19
515.29	101.19
515.506	81.19
515.721	79.19
515.937	87.19
516.153	98.19
516.369	85.19
516.585	75.19
516.801	92.19
517.016	96.19
517.232	90.19
517.448	116.19
517.664	94.19
517.879	94.19
518.095	81.19
518.311	97.19
518.527	120.19
518.742	96.19
518.958	107.19
519.173	109.19
