Data from 1600_4_HRD10591_00050.txt Node
Date: Mon Jan 19 13:56:35 EST 2026
User: Yrep
Spectrometer: HR+D1059
Trigger mode: 1
Integration Time (sec): 1.000000E-1
Scans to average: 1
Electric dark correction enabled: true
Nonlinearity correction enabled: false
Boxcar width: 0
XAxis mode: Wavelengths
Number of Pixels in Spectrum: 2048
>>>>>Begin Spectral Data<<<<<
223.165	-28.69
223.4	-28.69
223.635	-28.69
223.869	-27.69
224.104	-22.69
224.338	-19.69
224.573	-20.69
224.808	-25.69
225.042	-10.69
225.277	-4.69
225.511	8.31
225.746	5.31
225.98	23.31
226.215	11.31
226.449	20.31
226.683	17.31
226.918	36.31
227.152	38.31
227.387	28.31
227.621	44.31
227.856	51.31
228.09	38.31
228.324	62.31
228.559	58.31
228.793	51.31
229.027	58.31
229.262	54.31
229.496	60.31
229.73	62.31
229.964	67.31
230.199	66.31
230.433	63.31
230.667	68.31
230.901	75.31
231.136	77.31
231.37	78.31
231.604	67.31
231.838	66.31
232.072	83.31
232.306	82.31
232.541	86.31
232.775	87.31
233.009	74.31
233.243	73.31
233.477	72.31
233.711	84.31
233.945	78.31
234.179	76.31
234.413	85.31
234.647	72.31
234.881	83.31
235.115	80.31
235.349	82.31
235.583	66.31
235.817	79.31
236.051	80.31
236.285	81.31
236.519	78.31
236.753	64.31
236.987	81.31
237.221	79.31
237.455	79.31
237.689	66.31
237.922	66.31
238.156	70.31
238.39	79.31
238.624	70.31
238.858	72.31
239.091	91.31
239.325	85.31
239.559	86.31
239.793	76.31
240.027	60.31
240.26	68.31
240.494	59.31
240.728	68.31
240.961	80.31
241.195	71.31
241.429	66.31
241.662	76.31
241.896	68.31
242.13	64.31
242.363	76.31
242.597	81.31
242.83	66.31
243.064	81.31
243.298	72.31
243.531	63.31
243.765	73.31
243.998	77.31
244.232	75.31
244.465	80.31
244.699	76.31
244.932	83.31
245.166	79.31
245.399	76.31
245.633	91.31
245.866	82.31
246.099	82.31
246.333	62.31
246.566	85.31
246.8	80.31
247.033	67.31
247.266	83.31
247.5	84.31
247.733	79.31
247.966	77.31
248.2	66.31
248.433	68.31
248.666	71.31
248.899	75.31
249.133	81.31
249.366	74.31
249.599	84.31
249.832	61.31
250.066	95.31
250.299	88.31
250.532	78.31
250.765	83.31
250.998	78.31
251.231	46.31
251.465	68.31
251.698	54.31
251.931	73.31
252.164	86.31
252.397	94.31
252.63	75.31
252.863	84.31
253.096	75.31
253.329	73.31
253.562	85.31
253.795	77.31
254.028	82.31
254.261	95.31
254.494	76.31
254.727	75.31
254.96	83.31
255.193	76.31
255.426	54.31
255.659	70.31
255.892	65.31
256.124	70.31
256.357	75.31
256.59	88.31
256.823	79.31
257.056	72.31
257.289	74.31
257.521	70.31
257.754	78.31
257.987	65.31
258.22	66.31
258.452	85.31
258.685	76.31
258.918	82.31
259.151	80.31
259.383	79.31
259.616	64.31
259.849	82.31
260.081	78.31
260.314	73.31
260.547	86.31
260.779	86.31
261.012	93.31
261.244	80.31
261.477	91.31
261.71	74.31
261.942	87.31
262.175	75.31
262.407	76.31
262.64	93.31
262.872	91.31
263.105	65.31
263.337	85.31
263.57	69.31
263.802	76.31
264.035	90.31
264.267	71.31
264.499	80.31
264.732	86.31
264.964	70.31
265.197	86.31
265.429	89.31
265.661	82.31
265.894	85.31
266.126	86.31
266.358	96.31
266.591	83.31
266.823	82.31
267.055	91.31
267.287	86.31
267.52	87.31
267.752	64.31
267.984	80.31
268.216	82.31
268.448	78.31
268.681	62.31
268.913	83.31
269.145	86.31
269.377	85.31
269.609	90.31
269.841	62.31
270.073	77.31
270.306	67.31
270.538	88.31
270.77	86.31
271.002	84.31
271.234	67.31
271.466	71.31
271.698	74.31
271.93	76.31
272.162	63.31
272.394	86.31
272.626	69.31
272.858	72.31
273.09	102.31
273.322	75.31
273.553	72.31
273.785	76.31
274.017	75.31
274.249	77.31
274.481	81.31
274.713	89.31
274.945	77.31
275.176	70.31
275.408	86.31
275.64	90.31
275.872	83.31
276.104	86.31
276.335	82.31
276.567	75.31
276.799	70.31
277.031	72.31
277.262	82.31
277.494	85.31
277.726	80.31
277.957	84.31
278.189	73.31
278.421	82.31
278.652	84.31
278.884	90.31
279.115	81.31
279.347	76.31
279.579	85.31
279.81	78.31
280.042	89.31
280.273	72.31
280.505	71.31
280.736	78.31
280.968	91.31
281.199	79.31
281.431	73.31
281.662	69.31
281.894	80.31
282.125	80.31
282.356	77.31
282.588	86.31
282.819	68.31
283.051	83.31
283.282	71.31
283.513	84.31
283.745	70.31
283.976	74.31
284.207	86.31
284.439	77.31
284.67	73.31
284.901	79.31
285.132	82.31
285.364	88.31
285.595	80.31
285.826	78.31
286.057	77.31
286.288	90.31
286.52	82.31
286.751	83.31
286.982	95.31
287.213	64.31
287.444	80.31
287.675	90.31
287.906	91.31
288.138	92.31
288.369	91.31
288.6	77.31
288.831	74.31
289.062	91.31
289.293	78.31
289.524	68.31
289.755	84.31
289.986	79.31
290.217	82.31
290.448	83.31
290.679	92.31
290.91	87.31
291.141	84.31
291.371	63.31
291.602	86.31
291.833	79.31
292.064	83.31
292.295	71.31
292.526	83.31
292.757	72.31
292.987	68.31
293.218	82.31
293.449	71.31
293.68	80.31
293.91	89.31
294.141	70.31
294.372	87.31
294.603	73.31
294.833	73.31
295.064	78.31
295.295	84.31
295.525	72.31
295.756	84.31
295.987	88.31
296.217	70.31
296.448	74.31
296.679	87.31
296.909	83.31
297.14	76.31
297.37	103.31
297.601	72.31
297.831	83.31
298.062	72.31
298.292	82.31
298.523	96.31
298.753	84.31
298.984	91.31
299.214	87.31
299.445	92.31
299.675	87.31
299.905	74.31
300.136	79.31
300.366	88.31
300.597	86.31
300.827	85.31
301.057	85.31
301.288	86.31
301.518	90.31
301.748	76.31
301.979	86.31
302.209	93.31
302.439	82.31
302.669	102.31
302.9	94.31
303.13	80.31
303.36	83.31
303.59	73.31
303.82	65.31
304.051	72.31
304.281	79.31
304.511	80.31
304.741	72.31
304.971	77.31
305.201	71.31
305.431	88.31
305.661	83.31
305.891	79.31
306.121	86.31
306.352	79.31
306.582	80.31
306.812	80.31
307.042	85.31
307.272	83.31
307.502	95.31
307.731	102.31
307.961	68.31
308.191	81.31
308.421	82.31
308.651	88.31
308.881	87.31
309.111	82.31
309.341	80.31
309.571	83.31
309.8	83.31
310.03	79.31
310.26	80.31
310.49	74.31
310.72	78.31
310.949	90.31
311.179	88.31
311.409	78.31
311.639	86.31
311.868	68.31
312.098	68.31
312.328	74.31
312.557	89.31
312.787	91.31
313.017	86.31
313.246	79.31
313.476	85.31
313.706	79.31
313.935	73.31
314.165	95.31
314.394	93.31
314.624	85.31
314.853	94.31
315.083	87.31
315.312	82.31
315.542	96.31
315.771	81.31
316.001	95.31
316.23	76.31
316.46	79.31
316.689	88.31
316.919	82.31
317.148	75.31
317.377	87.31
317.607	93.31
317.836	87.31
318.065	98.31
318.295	76.31
318.524	85.31
318.753	82.31
318.983	78.31
319.212	79.31
319.441	74.31
319.67	81.31
319.9	92.31
320.129	90.31
320.358	81.31
320.587	88.31
320.816	97.31
321.046	87.31
321.275	84.31
321.504	65.31
321.733	70.31
321.962	92.31
322.191	84.31
322.42	83.31
322.649	82.31
322.878	67.31
323.108	72.31
323.337	94.31
323.566	87.31
323.795	91.31
324.024	75.31
324.253	77.31
324.482	77.31
324.71	79.31
324.939	79.31
325.168	73.31
325.397	74.31
325.626	72.31
325.855	81.31
326.084	82.31
326.313	77.31
326.542	92.31
326.77	72.31
326.999	67.31
327.228	92.31
327.457	77.31
327.686	85.31
327.914	88.31
328.143	82.31
328.372	101.31
328.6	95.31
328.829	80.31
329.058	76.31
329.287	87.31
329.515	85.31
329.744	86.31
329.972	72.31
330.201	91.31
330.43	77.31
330.658	84.31
330.887	90.31
331.115	74.31
331.344	79.31
331.572	79.31
331.801	80.31
332.03	81.31
332.258	78.31
332.486	79.31
332.715	89.31
332.943	86.31
333.172	92.31
333.4	98.31
333.629	81.31
333.857	78.31
334.085	79.31
334.314	82.31
334.542	74.31
334.771	73.31
334.999	86.31
335.227	76.31
335.455	80.31
335.684	81.31
335.912	84.31
336.14	82.31
336.369	91.31
336.597	87.31
336.825	74.31
337.053	82.31
337.281	85.31
337.51	87.31
337.738	101.31
337.966	71.31
338.194	75.31
338.422	79.31
338.65	80.31
338.878	95.31
339.106	88.31
339.334	66.31
339.562	80.31
339.79	90.31
340.018	85.31
340.246	77.31
340.474	72.31
340.702	78.31
340.93	84.31
341.158	82.31
341.386	87.31
341.614	90.31
341.842	76.31
342.07	67.31
342.298	84.31
342.526	83.31
342.754	71.31
342.981	76.31
343.209	86.31
343.437	68.31
343.665	76.31
343.893	91.31
344.12	80.31
344.348	85.31
344.576	71.31
344.804	76.31
345.031	93.31
345.259	79.31
345.487	75.31
345.714	83.31
345.942	70.31
346.17	69.31
346.397	69.31
346.625	83.31
346.853	75.31
347.08	94.31
347.308	80.31
347.535	81.31
347.763	82.31
347.99	85.31
348.218	80.31
348.445	86.31
348.673	88.31
348.9	74.31
349.128	87.31
349.355	84.31
349.583	79.31
349.81	88.31
350.037	75.31
350.265	77.31
350.492	73.31
350.72	83.31
350.947	80.31
351.174	72.31
351.402	78.31
351.629	84.31
351.856	94.31
352.083	84.31
352.311	78.31
352.538	88.31
352.765	81.31
352.992	80.31
353.22	77.31
353.447	72.31
353.674	63.31
353.901	91.31
354.128	84.31
354.355	90.31
354.583	82.31
354.81	83.31
355.037	89.31
355.264	92.31
355.491	55.31
355.718	77.31
355.945	80.31
356.172	78.31
356.399	89.31
356.626	87.31
356.853	92.31
357.08	81.31
357.307	79.31
357.534	86.31
357.761	86.31
357.988	81.31
358.215	97.31
358.441	93.31
358.668	85.31
358.895	71.31
359.122	79.31
359.349	73.31
359.576	66.31
359.802	74.31
360.029	94.31
360.256	72.31
360.483	76.31
360.709	68.31
360.936	98.31
361.163	62.31
361.39	85.31
361.616	83.31
361.843	81.31
362.07	86.31
362.296	80.31
362.523	102.31
362.749	72.31
362.976	84.31
363.203	88.31
363.429	67.31
363.656	76.31
363.882	83.31
364.109	83.31
364.335	82.31
364.562	90.31
364.788	76.31
365.015	79.31
365.241	67.31
365.468	78.31
365.694	77.31
365.92	82.31
366.147	78.31
366.373	65.31
366.599	71.31
366.826	78.31
367.052	84.31
367.278	90.31
367.505	73.31
367.731	70.31
367.957	71.31
368.184	71.31
368.41	81.31
368.636	73.31
368.862	68.31
369.089	111.31
369.315	86.31
369.541	99.31
369.767	83.31
369.993	82.31
370.219	75.31
370.445	81.31
370.672	97.31
370.898	77.31
371.124	78.31
371.35	84.31
371.576	92.31
371.802	80.31
372.028	82.31
372.254	81.31
372.48	84.31
372.706	79.31
372.932	91.31
373.158	85.31
373.384	94.31
373.61	83.31
373.835	98.31
374.061	79.31
374.287	88.31
374.513	86.31
374.739	75.31
374.965	83.31
375.191	90.31
375.416	90.31
375.642	83.31
375.868	78.31
376.094	78.31
376.319	73.31
376.545	78.31
376.771	84.31
376.997	72.31
377.222	86.31
377.448	76.31
377.674	78.31
377.899	80.31
378.125	88.31
378.35	91.31
378.576	78.31
378.802	61.31
379.027	84.31
379.253	85.31
379.478	79.31
379.704	69.31
379.929	69.31
380.155	84.31
380.38	87.31
380.606	77.31
380.831	79.31
381.057	84.31
381.282	78.31
381.507	95.31
381.733	97.31
381.958	80.31
382.184	90.31
382.409	89.31
382.634	92.31
382.86	77.31
383.085	88.31
383.31	91.31
383.535	78.31
383.761	84.31
383.986	82.31
384.211	86.31
384.436	77.31
384.662	79.31
384.887	80.31
385.112	72.31
385.337	82.31
385.562	80.31
385.787	68.31
386.013	92.31
386.238	79.31
386.463	78.31
386.688	85.31
386.913	80.31
387.138	76.31
387.363	79.31
387.588	75.31
387.813	83.31
388.038	72.31
388.263	75.31
388.488	94.31
388.713	76.31
388.938	84.31
389.163	87.31
389.387	80.31
389.612	70.31
389.837	85.31
390.062	84.31
390.287	79.31
390.512	67.31
390.736	83.31
390.961	79.31
391.186	72.31
391.411	91.31
391.636	74.31
391.86	69.31
392.085	70.31
392.31	95.31
392.534	91.31
392.759	93.31
392.984	87.31
393.208	144.31
393.433	196.31
393.658	167.31
393.882	105.31
394.107	112.31
394.331	89.31
394.556	69.31
394.78	83.31
395.005	81.31
395.229	75.31
395.454	72.31
395.678	86.31
395.903	83.31
396.127	92.31
396.352	106.31
396.576	128.31
396.801	162.31
397.025	191.31
397.249	110.31
397.474	82.31
397.698	82.31
397.922	73.31
398.147	83.31
398.371	91.31
398.595	78.31
398.82	72.31
399.044	74.31
399.268	68.31
399.492	86.31
399.717	88.31
399.941	69.31
400.165	91.31
400.389	84.31
400.613	85.31
400.837	86.31
401.062	90.31
401.286	78.31
401.51	76.31
401.734	87.31
401.958	86.31
402.182	80.31
402.406	72.31
402.63	79.31
402.854	80.31
403.078	90.31
403.302	81.31
403.526	92.31
403.75	73.31
403.974	81.31
404.198	84.31
404.422	87.31
404.645	71.31
404.869	65.31
405.093	84.31
405.317	72.31
405.541	70.31
405.765	87.31
405.988	78.31
406.212	84.31
406.436	82.31
406.66	71.31
406.883	75.31
407.107	67.31
407.331	78.31
407.555	84.31
407.778	77.31
408.002	70.31
408.226	77.31
408.449	75.31
408.673	81.31
408.896	87.31
409.12	78.31
409.344	64.31
409.567	79.31
409.791	81.31
410.014	83.31
410.238	79.31
410.461	72.31
410.685	82.31
410.908	100.31
411.132	66.31
411.355	75.31
411.578	88.31
411.802	70.31
412.025	68.31
412.249	76.31
412.472	87.31
412.695	77.31
412.919	81.31
413.142	73.31
413.365	80.31
413.589	76.31
413.812	79.31
414.035	70.31
414.258	81.31
414.482	75.31
414.705	83.31
414.928	78.31
415.151	79.31
415.374	73.31
415.597	84.31
415.821	82.31
416.044	62.31
416.267	81.31
416.49	81.31
416.713	71.31
416.936	91.31
417.159	80.31
417.382	82.31
417.605	76.31
417.828	81.31
418.051	74.31
418.274	90.31
418.497	77.31
418.72	73.31
418.943	85.31
419.166	71.31
419.389	76.31
419.611	72.31
419.834	67.31
420.057	78.31
420.28	79.31
420.503	73.31
420.726	62.31
420.948	88.31
421.171	76.31
421.394	83.31
421.617	82.31
421.839	85.31
422.062	92.31
422.285	93.31
422.507	100.31
422.73	114.31
422.953	108.31
423.175	79.31
423.398	73.31
423.621	80.31
423.843	85.31
424.066	68.31
424.288	67.31
424.511	66.31
424.733	75.31
424.956	82.31
425.178	72.31
425.401	81.31
425.623	74.31
425.846	69.31
426.068	74.31
426.291	76.31
426.513	79.31
426.735	86.31
426.958	82.31
427.18	73.31
427.402	87.31
427.625	70.31
427.847	80.31
428.069	83.31
428.292	101.31
428.514	80.31
428.736	75.31
428.958	94.31
429.181	76.31
429.403	81.31
429.625	79.31
429.847	85.31
430.069	89.31
430.292	98.31
430.514	84.31
430.736	85.31
430.958	106.31
431.18	90.31
431.402	78.31
431.624	72.31
431.846	87.31
432.068	94.31
432.29	71.31
432.512	81.31
432.734	70.31
432.956	92.31
433.178	76.31
433.4	70.31
433.622	76.31
433.844	83.31
434.066	84.31
434.287	99.31
434.509	58.31
434.731	78.31
434.953	83.31
435.175	65.31
435.397	69.31
435.618	80.31
435.84	83.31
436.062	81.31
436.284	74.31
436.505	60.31
436.727	81.31
436.949	82.31
437.17	77.31
437.392	75.31
437.614	80.31
437.835	88.31
438.057	82.31
438.278	91.31
438.5	80.31
438.721	79.31
438.943	95.31
439.165	81.31
439.386	85.31
439.608	90.31
439.829	71.31
440.05	75.31
440.272	73.31
440.493	79.31
440.715	76.31
440.936	101.31
441.158	79.31
441.379	77.31
441.6	80.31
441.822	83.31
442.043	79.31
442.264	96.31
442.486	94.31
442.707	83.31
442.928	87.31
443.149	77.31
443.371	79.31
443.592	98.31
443.813	63.31
444.034	71.31
444.255	73.31
444.476	64.31
444.698	77.31
444.919	88.31
445.14	158.31
445.361	124.31
445.582	92.31
445.803	78.31
446.024	95.31
446.245	82.31
446.466	82.31
446.687	81.31
446.908	79.31
447.129	83.31
447.35	66.31
447.571	84.31
447.792	66.31
448.013	73.31
448.234	78.31
448.455	75.31
448.675	67.31
448.896	81.31
449.117	70.31
449.338	69.31
449.559	76.31
449.779	82.31
450	79.31
450.221	76.31
450.442	82.31
450.662	84.31
450.883	79.31
451.104	65.31
451.324	78.31
451.545	69.31
451.766	71.31
451.986	93.31
452.207	72.31
452.428	68.31
452.648	77.31
452.869	78.31
453.089	78.31
453.31	77.31
453.53	78.31
453.751	78.31
453.971	85.31
454.192	86.31
454.412	82.31
454.633	94.31
454.853	79.31
455.073	84.31
455.294	76.31
455.514	83.31
455.734	64.31
455.955	67.31
456.175	82.31
456.395	80.31
456.616	84.31
456.836	90.31
457.056	80.31
457.276	67.31
457.497	72.31
457.717	82.31
457.937	90.31
458.157	65.31
458.377	76.31
458.598	90.31
458.818	84.31
459.038	78.31
459.258	77.31
459.478	83.31
459.698	82.31
459.918	74.31
460.138	77.31
460.358	66.31
460.578	78.31
460.798	80.31
461.018	79.31
461.238	70.31
461.458	73.31
461.678	70.31
461.898	79.31
462.118	72.31
462.338	78.31
462.558	84.31
462.777	78.31
462.997	82.31
463.217	84.31
463.437	64.31
463.657	75.31
463.876	72.31
464.096	71.31
464.316	76.31
464.536	74.31
464.755	82.31
464.975	78.31
465.195	99.31
465.414	81.31
465.634	63.31
465.854	89.31
466.073	71.31
466.293	77.31
466.512	63.31
466.732	83.31
466.951	76.31
467.171	82.31
467.391	82.31
467.61	77.31
467.829	85.31
468.049	92.31
468.268	66.31
468.488	79.31
468.707	75.31
468.927	79.31
469.146	91.31
469.365	72.31
469.585	75.31
469.804	79.31
470.023	87.31
470.243	89.31
470.462	84.31
470.681	87.31
470.901	86.31
471.12	74.31
471.339	69.31
471.558	64.31
471.777	90.31
471.997	86.31
472.216	90.31
472.435	86.31
472.654	77.31
472.873	82.31
473.092	80.31
473.311	81.31
473.53	82.31
473.749	80.31
473.968	81.31
474.187	77.31
474.406	73.31
474.625	75.31
474.844	76.31
475.063	82.31
475.282	71.31
475.501	80.31
475.72	78.31
475.939	69.31
476.158	72.31
476.377	85.31
476.596	82.31
476.814	72.31
477.033	80.31
477.252	70.31
477.471	67.31
477.69	83.31
477.908	77.31
478.127	86.31
478.346	78.31
478.564	85.31
478.783	84.31
479.002	75.31
479.22	67.31
479.439	76.31
479.658	83.31
479.876	81.31
480.095	67.31
480.313	75.31
480.532	79.31
480.751	76.31
480.969	78.31
481.188	84.31
481.406	71.31
481.624	85.31
481.843	68.31
482.061	78.31
482.28	72.31
482.498	86.31
482.717	76.31
482.935	74.31
483.153	72.31
483.372	89.31
483.59	95.31
483.808	90.31
484.027	72.31
484.245	78.31
484.463	72.31
484.681	84.31
484.9	90.31
485.118	87.31
485.336	86.31
485.554	80.31
485.772	68.31
485.99	86.31
486.209	80.31
486.427	70.31
486.645	73.31
486.863	69.31
487.081	68.31
487.299	76.31
487.517	82.31
487.735	78.31
487.953	80.31
488.171	82.31
488.389	85.31
488.607	92.31
488.825	80.31
489.043	85.31
489.261	92.31
489.479	78.31
489.696	63.31
489.914	79.31
490.132	76.31
490.35	84.31
490.568	83.31
490.786	75.31
491.003	70.31
491.221	75.31
491.439	78.31
491.657	75.31
491.874	94.31
492.092	86.31
492.31	91.31
492.527	73.31
492.745	67.31
492.963	68.31
493.18	80.31
493.398	82.31
493.615	71.31
493.833	82.31
494.05	79.31
494.268	64.31
494.485	70.31
494.703	66.31
494.92	88.31
495.138	82.31
495.355	78.31
495.573	75.31
495.79	80.31
496.008	83.31
496.225	88.31
496.442	80.31
496.66	95.31
496.877	72.31
497.094	69.31
497.312	92.31
497.529	73.31
497.746	71.31
497.963	73.31
498.181	79.31
498.398	66.31
498.615	74.31
498.832	83.31
499.049	68.31
499.267	81.31
499.484	90.31
499.701	87.31
499.918	88.31
500.135	68.31
500.352	75.31
500.569	71.31
500.786	80.31
501.003	84.31
501.22	70.31
501.437	78.31
501.654	77.31
501.871	85.31
502.088	75.31
502.305	78.31
502.522	71.31
502.739	79.31
502.956	87.31
503.172	99.31
503.389	73.31
503.606	62.31
503.823	72.31
504.04	85.31
504.256	82.31
504.473	80.31
504.69	82.31
504.907	69.31
505.123	73.31
505.34	87.31
505.557	78.31
505.773	86.31
505.99	77.31
506.207	79.31
506.423	84.31
506.64	78.31
506.856	84.31
507.073	87.31
507.289	74.31
507.506	71.31
507.722	86.31
507.939	81.31
508.155	84.31
508.372	88.31
508.588	82.31
508.805	92.31
509.021	78.31
509.238	75.31
509.454	76.31
509.67	86.31
509.887	78.31
510.103	78.31
510.319	66.31
510.536	66.31
510.752	89.31
510.968	99.31
511.184	75.31
511.401	71.31
511.617	78.31
511.833	87.31
512.049	80.31
512.265	78.31
512.481	91.31
512.698	97.31
512.914	82.31
513.13	85.31
513.346	65.31
513.562	87.31
513.778	77.31
513.994	65.31
514.21	78.31
514.426	79.31
514.642	90.31
514.858	91.31
515.074	82.31
515.29	83.31
515.506	73.31
515.721	67.31
515.937	77.31
516.153	92.31
516.369	78.31
516.585	88.31
516.801	76.31
517.016	83.31
517.232	86.31
517.448	63.31
517.664	88.31
517.879	94.31
518.095	82.31
518.311	87.31
518.527	99.31
518.742	70.31
518.958	80.31
519.173	86.31
519.389	74.31
519.605	69.31
519.82	86.31
