Data from 1600_4_HRD10591_00037.txt Node
Date: Mon Jan 19 13:56:29 EST 2026
User: Yrep
Spectrometer: HR+D1059
Trigger mode: 1
Integration Time (sec): 1.000000E-1
Scans to average: 1
Electric dark correction enabled: true
Nonlinearity correction enabled: false
Boxcar width: 0
XAxis mode: Wavelengths
Number of Pixels in Spectrum: 2048
>>>>>Begin Spectral Data<<<<<
223.165	-30.69
223.4	-30.69
223.635	-30.69
223.869	-12.69
224.104	-27.69
224.338	-13.69
224.573	-20.69
224.808	-10.69
225.042	-10.69
225.277	1.31
225.511	7.31
225.746	-3.69
225.98	9.31
226.215	3.31
226.449	30.31
226.683	26.31
226.918	32.31
227.152	20.31
227.387	49.31
227.621	53.31
227.856	47.31
228.09	56.31
228.324	42.31
228.559	55.31
228.793	59.31
229.027	56.31
229.262	59.31
229.496	62.31
229.73	69.31
229.964	83.31
230.199	81.31
230.433	83.31
230.667	80.31
230.901	69.31
231.136	84.31
231.37	82.31
231.604	93.31
231.838	88.31
232.072	89.31
232.306	87.31
232.541	95.31
232.775	91.31
233.009	72.31
233.243	81.31
233.477	74.31
233.711	79.31
233.945	73.31
234.179	76.31
234.413	75.31
234.647	89.31
234.881	73.31
235.115	60.31
235.349	77.31
235.583	84.31
235.817	87.31
236.051	83.31
236.285	81.31
236.519	77.31
236.753	77.31
236.987	77.31
237.221	95.31
237.455	93.31
237.689	79.31
237.922	80.31
238.156	81.31
238.39	84.31
238.624	84.31
238.858	76.31
239.091	80.31
239.325	78.31
239.559	79.31
239.793	73.31
240.027	80.31
240.26	82.31
240.494	65.31
240.728	82.31
240.961	65.31
241.195	85.31
241.429	76.31
241.662	72.31
241.896	82.31
242.13	78.31
242.363	78.31
242.597	73.31
242.83	87.31
243.064	65.31
243.298	66.31
243.531	78.31
243.765	102.31
243.998	58.31
244.232	72.31
244.465	84.31
244.699	73.31
244.932	71.31
245.166	75.31
245.399	83.31
245.633	77.31
245.866	81.31
246.099	60.31
246.333	90.31
246.566	88.31
246.8	71.31
247.033	65.31
247.266	73.31
247.5	74.31
247.733	78.31
247.966	68.31
248.2	68.31
248.433	87.31
248.666	77.31
248.899	89.31
249.133	76.31
249.366	71.31
249.599	66.31
249.832	82.31
250.066	83.31
250.299	72.31
250.532	84.31
250.765	81.31
250.998	89.31
251.231	75.31
251.465	78.31
251.698	81.31
251.931	87.31
252.164	94.31
252.397	75.31
252.63	73.31
252.863	74.31
253.096	84.31
253.329	79.31
253.562	77.31
253.795	85.31
254.028	96.31
254.261	89.31
254.494	82.31
254.727	77.31
254.96	87.31
255.193	73.31
255.426	89.31
255.659	73.31
255.892	83.31
256.124	77.31
256.357	81.31
256.59	82.31
256.823	77.31
257.056	90.31
257.289	88.31
257.521	84.31
257.754	68.31
257.987	67.31
258.22	89.31
258.452	83.31
258.685	80.31
258.918	66.31
259.151	81.31
259.383	95.31
259.616	88.31
259.849	83.31
260.081	81.31
260.314	84.31
260.547	77.31
260.779	94.31
261.012	79.31
261.244	91.31
261.477	88.31
261.71	65.31
261.942	87.31
262.175	80.31
262.407	87.31
262.64	64.31
262.872	84.31
263.105	91.31
263.337	100.31
263.57	85.31
263.802	92.31
264.035	66.31
264.267	88.31
264.499	73.31
264.732	96.31
264.964	85.31
265.197	72.31
265.429	72.31
265.661	87.31
265.894	82.31
266.126	83.31
266.358	90.31
266.591	88.31
266.823	81.31
267.055	83.31
267.287	97.31
267.52	77.31
267.752	81.31
267.984	84.31
268.216	71.31
268.448	102.31
268.681	74.31
268.913	86.31
269.145	82.31
269.377	83.31
269.609	88.31
269.841	77.31
270.073	89.31
270.306	98.31
270.538	79.31
270.77	68.31
271.002	82.31
271.234	104.31
271.466	81.31
271.698	91.31
271.93	84.31
272.162	87.31
272.394	63.31
272.626	85.31
272.858	84.31
273.09	97.31
273.322	78.31
273.553	87.31
273.785	90.31
274.017	77.31
274.249	83.31
274.481	95.31
274.713	65.31
274.945	89.31
275.176	76.31
275.408	88.31
275.64	81.31
275.872	85.31
276.104	87.31
276.335	85.31
276.567	83.31
276.799	89.31
277.031	85.31
277.262	85.31
277.494	77.31
277.726	103.31
277.957	78.31
278.189	90.31
278.421	81.31
278.652	90.31
278.884	92.31
279.115	88.31
279.347	77.31
279.579	91.31
279.81	82.31
280.042	85.31
280.273	92.31
280.505	77.31
280.736	101.31
280.968	87.31
281.199	79.31
281.431	82.31
281.662	88.31
281.894	88.31
282.125	89.31
282.356	103.31
282.588	98.31
282.819	81.31
283.051	83.31
283.282	84.31
283.513	89.31
283.745	85.31
283.976	84.31
284.207	99.31
284.439	70.31
284.67	88.31
284.901	74.31
285.132	88.31
285.364	77.31
285.595	85.31
285.826	90.31
286.057	93.31
286.288	86.31
286.52	99.31
286.751	74.31
286.982	80.31
287.213	85.31
287.444	78.31
287.675	82.31
287.906	88.31
288.138	89.31
288.369	94.31
288.6	82.31
288.831	74.31
289.062	97.31
289.293	75.31
289.524	81.31
289.755	81.31
289.986	83.31
290.217	83.31
290.448	80.31
290.679	94.31
290.91	75.31
291.141	96.31
291.371	96.31
291.602	88.31
291.833	86.31
292.064	81.31
292.295	79.31
292.526	91.31
292.757	91.31
292.987	90.31
293.218	89.31
293.449	84.31
293.68	78.31
293.91	77.31
294.141	80.31
294.372	84.31
294.603	102.31
294.833	90.31
295.064	75.31
295.295	87.31
295.525	82.31
295.756	95.31
295.987	88.31
296.217	79.31
296.448	87.31
296.679	83.31
296.909	91.31
297.14	90.31
297.37	89.31
297.601	87.31
297.831	82.31
298.062	73.31
298.292	81.31
298.523	83.31
298.753	95.31
298.984	84.31
299.214	108.31
299.445	83.31
299.675	84.31
299.905	73.31
300.136	89.31
300.366	91.31
300.597	89.31
300.827	106.31
301.057	89.31
301.288	73.31
301.518	100.31
301.748	77.31
301.979	99.31
302.209	81.31
302.439	82.31
302.669	75.31
302.9	74.31
303.13	86.31
303.36	92.31
303.59	78.31
303.82	96.31
304.051	85.31
304.281	80.31
304.511	80.31
304.741	93.31
304.971	96.31
305.201	103.31
305.431	75.31
305.661	86.31
305.891	82.31
306.121	83.31
306.352	97.31
306.582	78.31
306.812	91.31
307.042	91.31
307.272	76.31
307.502	95.31
307.731	87.31
307.961	90.31
308.191	85.31
308.421	80.31
308.651	81.31
308.881	85.31
309.111	83.31
309.341	113.31
309.571	83.31
309.8	89.31
310.03	96.31
310.26	80.31
310.49	98.31
310.72	99.31
310.949	79.31
311.179	104.31
311.409	79.31
311.639	81.31
311.868	108.31
312.098	92.31
312.328	95.31
312.557	89.31
312.787	90.31
313.017	96.31
313.246	76.31
313.476	93.31
313.706	80.31
313.935	86.31
314.165	76.31
314.394	78.31
314.624	96.31
314.853	90.31
315.083	90.31
315.312	97.31
315.542	83.31
315.771	91.31
316.001	86.31
316.23	78.31
316.46	86.31
316.689	81.31
316.919	87.31
317.148	79.31
317.377	87.31
317.607	81.31
317.836	80.31
318.065	87.31
318.295	101.31
318.524	89.31
318.753	91.31
318.983	87.31
319.212	91.31
319.441	80.31
319.67	90.31
319.9	88.31
320.129	86.31
320.358	86.31
320.587	96.31
320.816	91.31
321.046	77.31
321.275	90.31
321.504	94.31
321.733	98.31
321.962	84.31
322.191	84.31
322.42	80.31
322.649	89.31
322.878	93.31
323.108	90.31
323.337	82.31
323.566	88.31
323.795	107.31
324.024	87.31
324.253	83.31
324.482	74.31
324.71	85.31
324.939	73.31
325.168	91.31
325.397	89.31
325.626	83.31
325.855	97.31
326.084	95.31
326.313	61.31
326.542	75.31
326.77	75.31
326.999	91.31
327.228	65.31
327.457	91.31
327.686	91.31
327.914	91.31
328.143	92.31
328.372	87.31
328.6	86.31
328.829	77.31
329.058	100.31
329.287	76.31
329.515	78.31
329.744	74.31
329.972	95.31
330.201	85.31
330.43	67.31
330.658	80.31
330.887	91.31
331.115	89.31
331.344	76.31
331.572	92.31
331.801	84.31
332.03	89.31
332.258	85.31
332.486	99.31
332.715	89.31
332.943	85.31
333.172	72.31
333.4	88.31
333.629	91.31
333.857	85.31
334.085	92.31
334.314	98.31
334.542	92.31
334.771	91.31
334.999	85.31
335.227	92.31
335.455	81.31
335.684	90.31
335.912	93.31
336.14	92.31
336.369	89.31
336.597	91.31
336.825	82.31
337.053	80.31
337.281	88.31
337.51	86.31
337.738	88.31
337.966	86.31
338.194	76.31
338.422	93.31
338.65	89.31
338.878	76.31
339.106	92.31
339.334	87.31
339.562	76.31
339.79	84.31
340.018	76.31
340.246	90.31
340.474	92.31
340.702	81.31
340.93	74.31
341.158	84.31
341.386	99.31
341.614	90.31
341.842	96.31
342.07	85.31
342.298	95.31
342.526	78.31
342.754	80.31
342.981	87.31
343.209	79.31
343.437	97.31
343.665	84.31
343.893	101.31
344.12	82.31
344.348	85.31
344.576	82.31
344.804	97.31
345.031	89.31
345.259	72.31
345.487	99.31
345.714	85.31
345.942	82.31
346.17	99.31
346.397	89.31
346.625	88.31
346.853	95.31
347.08	62.31
347.308	96.31
347.535	77.31
347.763	70.31
347.99	94.31
348.218	93.31
348.445	98.31
348.673	97.31
348.9	91.31
349.128	91.31
349.355	99.31
349.583	88.31
349.81	83.31
350.037	94.31
350.265	88.31
350.492	94.31
350.72	92.31
350.947	92.31
351.174	89.31
351.402	98.31
351.629	83.31
351.856	86.31
352.083	76.31
352.311	87.31
352.538	93.31
352.765	80.31
352.992	87.31
353.22	80.31
353.447	85.31
353.674	96.31
353.901	94.31
354.128	92.31
354.355	81.31
354.583	89.31
354.81	89.31
355.037	77.31
355.264	92.31
355.491	86.31
355.718	78.31
355.945	82.31
356.172	92.31
356.399	90.31
356.626	79.31
356.853	99.31
357.08	86.31
357.307	83.31
357.534	91.31
357.761	95.31
357.988	100.31
358.215	92.31
358.441	91.31
358.668	83.31
358.895	96.31
359.122	100.31
359.349	86.31
359.576	89.31
359.802	89.31
360.029	94.31
360.256	89.31
360.483	67.31
360.709	81.31
360.936	89.31
361.163	97.31
361.39	94.31
361.616	87.31
361.843	84.31
362.07	98.31
362.296	74.31
362.523	99.31
362.749	80.31
362.976	85.31
363.203	98.31
363.429	92.31
363.656	96.31
363.882	96.31
364.109	80.31
364.335	87.31
364.562	76.31
364.788	72.31
365.015	81.31
365.241	92.31
365.468	82.31
365.694	95.31
365.92	90.31
366.147	80.31
366.373	92.31
366.599	82.31
366.826	85.31
367.052	86.31
367.278	72.31
367.505	88.31
367.731	102.31
367.957	78.31
368.184	76.31
368.41	74.31
368.636	85.31
368.862	90.31
369.089	77.31
369.315	82.31
369.541	87.31
369.767	89.31
369.993	78.31
370.219	80.31
370.445	88.31
370.672	68.31
370.898	68.31
371.124	80.31
371.35	80.31
371.576	79.31
371.802	83.31
372.028	99.31
372.254	81.31
372.48	81.31
372.706	82.31
372.932	94.31
373.158	77.31
373.384	94.31
373.61	79.31
373.835	93.31
374.061	95.31
374.287	86.31
374.513	72.31
374.739	81.31
374.965	73.31
375.191	82.31
375.416	78.31
375.642	90.31
375.868	87.31
376.094	87.31
376.319	96.31
376.545	75.31
376.771	88.31
376.997	87.31
377.222	90.31
377.448	92.31
377.674	98.31
377.899	91.31
378.125	89.31
378.35	85.31
378.576	97.31
378.802	104.31
379.027	84.31
379.253	84.31
379.478	94.31
379.704	100.31
379.929	95.31
380.155	83.31
380.38	87.31
380.606	93.31
380.831	83.31
381.057	83.31
381.282	77.31
381.507	83.31
381.733	77.31
381.958	89.31
382.184	87.31
382.409	78.31
382.634	85.31
382.86	71.31
383.085	86.31
383.31	75.31
383.535	91.31
383.761	87.31
383.986	90.31
384.211	86.31
384.436	87.31
384.662	92.31
384.887	83.31
385.112	83.31
385.337	86.31
385.562	69.31
385.787	84.31
386.013	81.31
386.238	66.31
386.463	79.31
386.688	95.31
386.913	79.31
387.138	72.31
387.363	79.31
387.588	83.31
387.813	82.31
388.038	96.31
388.263	89.31
388.488	86.31
388.713	87.31
388.938	90.31
389.163	89.31
389.387	101.31
389.612	86.31
389.837	99.31
390.062	87.31
390.287	90.31
390.512	89.31
390.736	101.31
390.961	84.31
391.186	97.31
391.411	82.31
391.636	86.31
391.86	79.31
392.085	91.31
392.31	68.31
392.534	91.31
392.759	89.31
392.984	78.31
393.208	108.31
393.433	130.31
393.658	112.31
393.882	85.31
394.107	76.31
394.331	92.31
394.556	92.31
394.78	76.31
395.005	78.31
395.229	88.31
395.454	80.31
395.678	77.31
395.903	83.31
396.127	89.31
396.352	99.31
396.576	71.31
396.801	102.31
397.025	125.31
397.249	95.31
397.474	89.31
397.698	84.31
397.922	78.31
398.147	81.31
398.371	93.31
398.595	86.31
398.82	82.31
399.044	90.31
399.268	81.31
399.492	74.31
399.717	73.31
399.941	75.31
400.165	97.31
400.389	100.31
400.613	82.31
400.837	85.31
401.062	74.31
401.286	71.31
401.51	83.31
401.734	82.31
401.958	85.31
402.182	89.31
402.406	89.31
402.63	87.31
402.854	83.31
403.078	78.31
403.302	87.31
403.526	95.31
403.75	76.31
403.974	84.31
404.198	85.31
404.422	82.31
404.645	92.31
404.869	75.31
405.093	79.31
405.317	99.31
405.541	72.31
405.765	69.31
405.988	66.31
406.212	93.31
406.436	85.31
406.66	93.31
406.883	85.31
407.107	78.31
407.331	87.31
407.555	86.31
407.778	74.31
408.002	89.31
408.226	95.31
408.449	89.31
408.673	90.31
408.896	76.31
409.12	87.31
409.344	89.31
409.567	80.31
409.791	83.31
410.014	77.31
410.238	86.31
410.461	77.31
410.685	69.31
410.908	77.31
411.132	74.31
411.355	82.31
411.578	87.31
411.802	83.31
412.025	71.31
412.249	84.31
412.472	89.31
412.695	86.31
412.919	87.31
413.142	87.31
413.365	82.31
413.589	80.31
413.812	67.31
414.035	83.31
414.258	103.31
414.482	85.31
414.705	88.31
414.928	86.31
415.151	75.31
415.374	76.31
415.597	83.31
415.821	88.31
416.044	83.31
416.267	87.31
416.49	93.31
416.713	76.31
416.936	92.31
417.159	80.31
417.382	89.31
417.605	67.31
417.828	75.31
418.051	66.31
418.274	85.31
418.497	72.31
418.72	84.31
418.943	76.31
419.166	88.31
419.389	85.31
419.611	86.31
419.834	81.31
420.057	78.31
420.28	76.31
420.503	97.31
420.726	91.31
420.948	83.31
421.171	97.31
421.394	83.31
421.617	73.31
421.839	71.31
422.062	79.31
422.285	89.31
422.507	95.31
422.73	108.31
422.953	113.31
423.175	90.31
423.398	83.31
423.621	81.31
423.843	77.31
424.066	83.31
424.288	93.31
424.511	95.31
424.733	91.31
424.956	85.31
425.178	85.31
425.401	73.31
425.623	82.31
425.846	87.31
426.068	80.31
426.291	95.31
426.513	93.31
426.735	90.31
426.958	80.31
427.18	87.31
427.402	84.31
427.625	73.31
427.847	77.31
428.069	72.31
428.292	80.31
428.514	92.31
428.736	84.31
428.958	91.31
429.181	95.31
429.403	85.31
429.625	88.31
429.847	101.31
430.069	90.31
430.292	89.31
430.514	99.31
430.736	86.31
430.958	83.31
431.18	83.31
431.402	96.31
431.624	80.31
431.846	93.31
432.068	82.31
432.29	78.31
432.512	81.31
432.734	88.31
432.956	88.31
433.178	86.31
433.4	82.31
433.622	69.31
433.844	87.31
434.066	79.31
434.287	80.31
434.509	75.31
434.731	81.31
434.953	73.31
435.175	74.31
435.397	74.31
435.618	91.31
435.84	81.31
436.062	85.31
436.284	83.31
436.505	104.31
436.727	91.31
436.949	73.31
437.17	80.31
437.392	92.31
437.614	78.31
437.835	88.31
438.057	81.31
438.278	77.31
438.5	88.31
438.721	80.31
438.943	77.31
439.165	91.31
439.386	82.31
439.608	81.31
439.829	79.31
440.05	82.31
440.272	83.31
440.493	85.31
440.715	87.31
440.936	86.31
441.158	77.31
441.379	84.31
441.6	79.31
441.822	83.31
442.043	81.31
442.264	76.31
442.486	77.31
442.707	80.31
442.928	80.31
443.149	87.31
443.371	89.31
443.592	97.31
443.813	98.31
444.034	89.31
444.255	71.31
444.476	89.31
444.698	82.31
444.919	89.31
445.14	171.31
445.361	120.31
445.582	97.31
445.803	102.31
446.024	90.31
446.245	91.31
446.466	97.31
446.687	74.31
446.908	78.31
447.129	85.31
447.35	75.31
447.571	90.31
447.792	68.31
448.013	81.31
448.234	97.31
448.455	89.31
448.675	83.31
448.896	80.31
449.117	92.31
449.338	77.31
449.559	68.31
449.779	86.31
450	64.31
450.221	87.31
450.442	90.31
450.662	74.31
450.883	89.31
451.104	83.31
451.324	75.31
451.545	86.31
451.766	83.31
451.986	80.31
452.207	71.31
452.428	73.31
452.648	75.31
452.869	73.31
453.089	77.31
453.31	71.31
453.53	84.31
453.751	81.31
453.971	66.31
454.192	81.31
454.412	83.31
454.633	76.31
454.853	88.31
455.073	83.31
455.294	78.31
455.514	77.31
455.734	74.31
455.955	80.31
456.175	78.31
456.395	95.31
456.616	88.31
456.836	78.31
457.056	95.31
457.276	71.31
457.497	79.31
457.717	78.31
457.937	73.31
458.157	87.31
458.377	91.31
458.598	85.31
458.818	87.31
459.038	77.31
459.258	63.31
459.478	71.31
459.698	84.31
459.918	73.31
460.138	88.31
460.358	74.31
460.578	78.31
460.798	67.31
461.018	92.31
461.238	91.31
461.458	93.31
461.678	92.31
461.898	66.31
462.118	75.31
462.338	92.31
462.558	79.31
462.777	78.31
462.997	94.31
463.217	92.31
463.437	87.31
463.657	82.31
463.876	86.31
464.096	80.31
464.316	74.31
464.536	72.31
464.755	74.31
464.975	68.31
465.195	85.31
465.414	96.31
465.634	76.31
465.854	80.31
466.073	76.31
466.293	87.31
466.512	91.31
466.732	96.31
466.951	78.31
467.171	91.31
467.391	68.31
467.61	88.31
467.829	71.31
468.049	82.31
468.268	85.31
468.488	95.31
468.707	88.31
468.927	70.31
469.146	94.31
469.365	87.31
469.585	74.31
469.804	92.31
470.023	86.31
470.243	100.31
470.462	95.31
470.681	84.31
470.901	92.31
471.12	87.31
471.339	97.31
471.558	77.31
471.777	95.31
471.997	85.31
472.216	96.31
472.435	81.31
472.654	90.31
472.873	84.31
473.092	91.31
473.311	89.31
473.53	81.31
473.749	76.31
473.968	100.31
474.187	76.31
474.406	81.31
474.625	99.31
474.844	78.31
475.063	88.31
475.282	97.31
475.501	71.31
475.72	85.31
475.939	90.31
476.158	73.31
476.377	88.31
476.596	82.31
476.814	88.31
477.033	75.31
477.252	91.31
477.471	84.31
477.69	82.31
477.908	85.31
478.127	99.31
478.346	80.31
478.564	82.31
478.783	83.31
479.002	81.31
479.22	84.31
479.439	73.31
479.658	80.31
479.876	90.31
480.095	87.31
480.313	78.31
480.532	88.31
480.751	78.31
480.969	75.31
481.188	85.31
481.406	81.31
481.624	71.31
481.843	70.31
482.061	88.31
482.28	88.31
482.498	81.31
482.717	78.31
482.935	73.31
483.153	82.31
483.372	73.31
483.59	83.31
483.808	81.31
484.027	81.31
484.245	94.31
484.463	92.31
484.681	77.31
484.9	83.31
485.118	104.31
485.336	75.31
485.554	84.31
485.772	95.31
485.99	63.31
486.209	86.31
486.427	76.31
486.645	71.31
486.863	80.31
487.081	99.31
487.299	75.31
487.517	99.31
487.735	82.31
487.953	84.31
488.171	90.31
488.389	81.31
488.607	85.31
488.825	98.31
489.043	87.31
489.261	91.31
489.479	73.31
489.696	73.31
489.914	85.31
490.132	77.31
490.35	71.31
490.568	89.31
490.786	82.31
491.003	89.31
491.221	86.31
491.439	88.31
491.657	83.31
491.874	83.31
492.092	87.31
492.31	87.31
492.527	80.31
492.745	91.31
492.963	83.31
493.18	91.31
493.398	67.31
493.615	87.31
493.833	79.31
494.05	85.31
494.268	95.31
494.485	95.31
494.703	89.31
494.92	85.31
495.138	82.31
495.355	93.31
495.573	92.31
495.79	77.31
496.008	101.31
496.225	86.31
496.442	89.31
496.66	97.31
496.877	88.31
497.094	90.31
497.312	93.31
497.529	78.31
497.746	70.31
497.963	79.31
498.181	77.31
498.398	93.31
498.615	77.31
498.832	80.31
499.049	99.31
499.267	82.31
499.484	73.31
499.701	95.31
499.918	88.31
500.135	81.31
500.352	81.31
500.569	89.31
500.786	83.31
501.003	82.31
501.22	81.31
501.437	82.31
501.654	69.31
501.871	90.31
502.088	83.31
502.305	98.31
502.522	94.31
502.739	91.31
502.956	80.31
503.172	87.31
503.389	80.31
503.606	96.31
503.823	87.31
504.04	85.31
504.256	99.31
504.473	87.31
504.69	89.31
504.907	79.31
505.123	80.31
505.34	79.31
505.557	70.31
505.773	90.31
505.99	68.31
506.207	86.31
506.423	73.31
506.64	88.31
506.856	75.31
507.073	81.31
507.289	101.31
507.506	76.31
507.722	96.31
507.939	80.31
508.155	76.31
508.372	99.31
508.588	85.31
508.805	88.31
509.021	92.31
509.238	88.31
509.454	63.31
509.67	75.31
509.887	70.31
510.103	85.31
510.319	69.31
510.536	85.31
510.752	76.31
510.968	85.31
511.184	87.31
511.401	72.31
511.617	75.31
511.833	73.31
512.049	80.31
512.265	72.31
512.481	88.31
512.698	84.31
512.914	79.31
513.13	87.31
513.346	85.31
513.562	83.31
513.778	97.31
513.994	89.31
514.21	93.31
514.426	74.31
514.642	92.31
514.858	90.31
515.074	84.31
515.29	80.31
515.506	85.31
515.721	81.31
515.937	100.31
516.153	78.31
516.369	73.31
516.585	85.31
516.801	89.31
517.016	93.31
517.232	90.31
517.448	103.31
517.664	96.31
517.879	73.31
518.095	77.31
518.311	76.31
518.527	100.31
518.742	103.31
518.958	102.31
519.173	86.31
519.389	76.31
519.605	91.31
