Data from 1600_4_HRD10591_00007.txt Node
Date: Mon Jan 19 13:56:14 EST 2026
User: Yrep
Spectrometer: HR+D1059
Trigger mode: 1
Integration Time (sec): 1.000000E-1
Scans to average: 1
Electric dark correction enabled: true
Nonlinearity correction enabled: false
Boxcar width: 0
XAxis mode: Wavelengths
Number of Pixels in Spectrum: 2048
>>>>>Begin Spectral Data<<<<<
223.165	-19.06
223.4	-19.06
223.635	-19.06
223.869	-17.06
224.104	-30.06
224.338	-13.06
224.573	-17.06
224.808	-3.06
225.042	-11.06
225.277	-8.06
225.511	9.94
225.746	0.94
225.98	2.94
226.215	12.94
226.449	19.94
226.683	21.94
226.918	19.94
227.152	29.94
227.387	29.94
227.621	25.94
227.856	50.94
228.09	52.94
228.324	57.94
228.559	54.94
228.793	64.94
229.027	60.94
229.262	71.94
229.496	61.94
229.73	65.94
229.964	56.94
230.199	67.94
230.433	70.94
230.667	78.94
230.901	87.94
231.136	70.94
231.37	76.94
231.604	76.94
231.838	71.94
232.072	64.94
232.306	89.94
232.541	76.94
232.775	84.94
233.009	82.94
233.243	85.94
233.477	90.94
233.711	75.94
233.945	56.94
234.179	75.94
234.413	76.94
234.647	72.94
234.881	87.94
235.115	77.94
235.349	70.94
235.583	80.94
235.817	79.94
236.051	69.94
236.285	72.94
236.519	69.94
236.753	65.94
236.987	68.94
237.221	84.94
237.455	75.94
237.689	74.94
237.922	78.94
238.156	68.94
238.39	72.94
238.624	68.94
238.858	70.94
239.091	81.94
239.325	69.94
239.559	85.94
239.793	75.94
240.027	86.94
240.26	68.94
240.494	63.94
240.728	80.94
240.961	79.94
241.195	80.94
241.429	76.94
241.662	72.94
241.896	62.94
242.13	80.94
242.363	56.94
242.597	82.94
242.83	80.94
243.064	72.94
243.298	79.94
243.531	83.94
243.765	71.94
243.998	71.94
244.232	84.94
244.465	89.94
244.699	60.94
244.932	72.94
245.166	82.94
245.399	77.94
245.633	74.94
245.866	73.94
246.099	83.94
246.333	80.94
246.566	57.94
246.8	64.94
247.033	76.94
247.266	77.94
247.5	86.94
247.733	59.94
247.966	90.94
248.2	71.94
248.433	69.94
248.666	83.94
248.899	78.94
249.133	69.94
249.366	87.94
249.599	78.94
249.832	82.94
250.066	92.94
250.299	56.94
250.532	80.94
250.765	67.94
250.998	86.94
251.231	70.94
251.465	73.94
251.698	75.94
251.931	67.94
252.164	62.94
252.397	64.94
252.63	72.94
252.863	80.94
253.096	58.94
253.329	84.94
253.562	69.94
253.795	69.94
254.028	79.94
254.261	76.94
254.494	74.94
254.727	66.94
254.96	86.94
255.193	90.94
255.426	69.94
255.659	82.94
255.892	72.94
256.124	79.94
256.357	82.94
256.59	73.94
256.823	92.94
257.056	80.94
257.289	71.94
257.521	84.94
257.754	70.94
257.987	84.94
258.22	73.94
258.452	80.94
258.685	94.94
258.918	69.94
259.151	86.94
259.383	75.94
259.616	70.94
259.849	84.94
260.081	77.94
260.314	72.94
260.547	65.94
260.779	75.94
261.012	72.94
261.244	75.94
261.477	87.94
261.71	77.94
261.942	71.94
262.175	75.94
262.407	77.94
262.64	82.94
262.872	93.94
263.105	89.94
263.337	74.94
263.57	70.94
263.802	70.94
264.035	82.94
264.267	91.94
264.499	92.94
264.732	81.94
264.964	79.94
265.197	68.94
265.429	89.94
265.661	81.94
265.894	78.94
266.126	82.94
266.358	72.94
266.591	89.94
266.823	78.94
267.055	70.94
267.287	81.94
267.52	85.94
267.752	79.94
267.984	63.94
268.216	78.94
268.448	95.94
268.681	71.94
268.913	78.94
269.145	71.94
269.377	71.94
269.609	76.94
269.841	87.94
270.073	68.94
270.306	79.94
270.538	85.94
270.77	70.94
271.002	71.94
271.234	76.94
271.466	78.94
271.698	95.94
271.93	78.94
272.162	90.94
272.394	88.94
272.626	68.94
272.858	89.94
273.09	86.94
273.322	72.94
273.553	87.94
273.785	75.94
274.017	77.94
274.249	73.94
274.481	79.94
274.713	80.94
274.945	85.94
275.176	77.94
275.408	71.94
275.64	76.94
275.872	91.94
276.104	81.94
276.335	67.94
276.567	80.94
276.799	89.94
277.031	80.94
277.262	82.94
277.494	83.94
277.726	79.94
277.957	91.94
278.189	90.94
278.421	72.94
278.652	65.94
278.884	78.94
279.115	76.94
279.347	70.94
279.579	72.94
279.81	80.94
280.042	90.94
280.273	90.94
280.505	77.94
280.736	93.94
280.968	79.94
281.199	79.94
281.431	58.94
281.662	76.94
281.894	72.94
282.125	79.94
282.356	84.94
282.588	67.94
282.819	78.94
283.051	74.94
283.282	78.94
283.513	75.94
283.745	84.94
283.976	78.94
284.207	84.94
284.439	90.94
284.67	80.94
284.901	74.94
285.132	83.94
285.364	82.94
285.595	88.94
285.826	97.94
286.057	79.94
286.288	85.94
286.52	99.94
286.751	74.94
286.982	70.94
287.213	75.94
287.444	82.94
287.675	73.94
287.906	80.94
288.138	76.94
288.369	79.94
288.6	82.94
288.831	64.94
289.062	97.94
289.293	87.94
289.524	85.94
289.755	71.94
289.986	82.94
290.217	87.94
290.448	92.94
290.679	64.94
290.91	78.94
291.141	72.94
291.371	80.94
291.602	87.94
291.833	68.94
292.064	88.94
292.295	78.94
292.526	84.94
292.757	80.94
292.987	84.94
293.218	80.94
293.449	82.94
293.68	88.94
293.91	77.94
294.141	88.94
294.372	77.94
294.603	77.94
294.833	90.94
295.064	69.94
295.295	78.94
295.525	77.94
295.756	75.94
295.987	88.94
296.217	92.94
296.448	77.94
296.679	78.94
296.909	93.94
297.14	82.94
297.37	81.94
297.601	85.94
297.831	79.94
298.062	93.94
298.292	94.94
298.523	86.94
298.753	76.94
298.984	92.94
299.214	89.94
299.445	80.94
299.675	77.94
299.905	86.94
300.136	77.94
300.366	77.94
300.597	91.94
300.827	89.94
301.057	81.94
301.288	77.94
301.518	86.94
301.748	77.94
301.979	101.94
302.209	90.94
302.439	73.94
302.669	74.94
302.9	78.94
303.13	68.94
303.36	89.94
303.59	100.94
303.82	78.94
304.051	70.94
304.281	79.94
304.511	84.94
304.741	74.94
304.971	82.94
305.201	84.94
305.431	83.94
305.661	79.94
305.891	77.94
306.121	76.94
306.352	82.94
306.582	90.94
306.812	70.94
307.042	73.94
307.272	81.94
307.502	72.94
307.731	76.94
307.961	60.94
308.191	81.94
308.421	86.94
308.651	85.94
308.881	87.94
309.111	68.94
309.341	85.94
309.571	90.94
309.8	92.94
310.03	77.94
310.26	78.94
310.49	94.94
310.72	96.94
310.949	70.94
311.179	84.94
311.409	76.94
311.639	85.94
311.868	88.94
312.098	57.94
312.328	91.94
312.557	73.94
312.787	81.94
313.017	82.94
313.246	84.94
313.476	90.94
313.706	79.94
313.935	81.94
314.165	82.94
314.394	83.94
314.624	88.94
314.853	80.94
315.083	88.94
315.312	89.94
315.542	76.94
315.771	81.94
316.001	78.94
316.23	82.94
316.46	85.94
316.689	82.94
316.919	78.94
317.148	79.94
317.377	80.94
317.607	90.94
317.836	103.94
318.065	78.94
318.295	86.94
318.524	75.94
318.753	72.94
318.983	76.94
319.212	80.94
319.441	80.94
319.67	90.94
319.9	82.94
320.129	80.94
320.358	85.94
320.587	86.94
320.816	84.94
321.046	72.94
321.275	77.94
321.504	69.94
321.733	71.94
321.962	79.94
322.191	77.94
322.42	72.94
322.649	92.94
322.878	81.94
323.108	72.94
323.337	78.94
323.566	80.94
323.795	71.94
324.024	78.94
324.253	76.94
324.482	79.94
324.71	85.94
324.939	75.94
325.168	62.94
325.397	81.94
325.626	92.94
325.855	82.94
326.084	86.94
326.313	73.94
326.542	66.94
326.77	92.94
326.999	72.94
327.228	80.94
327.457	92.94
327.686	82.94
327.914	79.94
328.143	87.94
328.372	79.94
328.6	75.94
328.829	75.94
329.058	92.94
329.287	80.94
329.515	70.94
329.744	94.94
329.972	86.94
330.201	78.94
330.43	88.94
330.658	81.94
330.887	67.94
331.115	71.94
331.344	92.94
331.572	83.94
331.801	73.94
332.03	71.94
332.258	76.94
332.486	86.94
332.715	73.94
332.943	88.94
333.172	68.94
333.4	78.94
333.629	82.94
333.857	92.94
334.085	86.94
334.314	89.94
334.542	76.94
334.771	81.94
334.999	72.94
335.227	89.94
335.455	78.94
335.684	82.94
335.912	81.94
336.14	67.94
336.369	78.94
336.597	73.94
336.825	78.94
337.053	82.94
337.281	89.94
337.51	80.94
337.738	96.94
337.966	90.94
338.194	90.94
338.422	86.94
338.65	86.94
338.878	93.94
339.106	83.94
339.334	84.94
339.562	83.94
339.79	83.94
340.018	73.94
340.246	74.94
340.474	97.94
340.702	84.94
340.93	74.94
341.158	79.94
341.386	86.94
341.614	73.94
341.842	87.94
342.07	68.94
342.298	94.94
342.526	83.94
342.754	65.94
342.981	82.94
343.209	62.94
343.437	92.94
343.665	82.94
343.893	88.94
344.12	84.94
344.348	62.94
344.576	82.94
344.804	97.94
345.031	83.94
345.259	86.94
345.487	78.94
345.714	66.94
345.942	82.94
346.17	83.94
346.397	85.94
346.625	94.94
346.853	80.94
347.08	78.94
347.308	85.94
347.535	74.94
347.763	77.94
347.99	82.94
348.218	78.94
348.445	61.94
348.673	82.94
348.9	78.94
349.128	80.94
349.355	77.94
349.583	86.94
349.81	69.94
350.037	92.94
350.265	82.94
350.492	74.94
350.72	82.94
350.947	84.94
351.174	86.94
351.402	84.94
351.629	78.94
351.856	77.94
352.083	89.94
352.311	72.94
352.538	76.94
352.765	92.94
352.992	84.94
353.22	87.94
353.447	66.94
353.674	80.94
353.901	78.94
354.128	90.94
354.355	78.94
354.583	90.94
354.81	99.94
355.037	74.94
355.264	68.94
355.491	99.94
355.718	75.94
355.945	92.94
356.172	77.94
356.399	81.94
356.626	78.94
356.853	71.94
357.08	96.94
357.307	79.94
357.534	70.94
357.761	73.94
357.988	87.94
358.215	90.94
358.441	81.94
358.668	86.94
358.895	85.94
359.122	68.94
359.349	82.94
359.576	68.94
359.802	65.94
360.029	77.94
360.256	79.94
360.483	82.94
360.709	71.94
360.936	90.94
361.163	69.94
361.39	79.94
361.616	85.94
361.843	71.94
362.07	82.94
362.296	68.94
362.523	68.94
362.749	82.94
362.976	81.94
363.203	77.94
363.429	88.94
363.656	90.94
363.882	73.94
364.109	88.94
364.335	90.94
364.562	76.94
364.788	79.94
365.015	82.94
365.241	88.94
365.468	81.94
365.694	91.94
365.92	67.94
366.147	89.94
366.373	94.94
366.599	88.94
366.826	67.94
367.052	74.94
367.278	76.94
367.505	86.94
367.731	90.94
367.957	72.94
368.184	80.94
368.41	73.94
368.636	79.94
368.862	79.94
369.089	84.94
369.315	83.94
369.541	79.94
369.767	70.94
369.993	55.94
370.219	82.94
370.445	84.94
370.672	71.94
370.898	96.94
371.124	96.94
371.35	84.94
371.576	97.94
371.802	74.94
372.028	81.94
372.254	86.94
372.48	96.94
372.706	96.94
372.932	92.94
373.158	81.94
373.384	81.94
373.61	91.94
373.835	91.94
374.061	90.94
374.287	79.94
374.513	79.94
374.739	90.94
374.965	76.94
375.191	79.94
375.416	84.94
375.642	80.94
375.868	86.94
376.094	86.94
376.319	87.94
376.545	74.94
376.771	85.94
376.997	81.94
377.222	77.94
377.448	72.94
377.674	67.94
377.899	77.94
378.125	83.94
378.35	80.94
378.576	62.94
378.802	77.94
379.027	80.94
379.253	83.94
379.478	82.94
379.704	95.94
379.929	76.94
380.155	69.94
380.38	78.94
380.606	83.94
380.831	79.94
381.057	92.94
381.282	79.94
381.507	97.94
381.733	89.94
381.958	90.94
382.184	82.94
382.409	80.94
382.634	80.94
382.86	83.94
383.085	83.94
383.31	88.94
383.535	84.94
383.761	83.94
383.986	91.94
384.211	84.94
384.436	69.94
384.662	74.94
384.887	75.94
385.112	92.94
385.337	76.94
385.562	80.94
385.787	88.94
386.013	82.94
386.238	85.94
386.463	87.94
386.688	81.94
386.913	74.94
387.138	74.94
387.363	68.94
387.588	79.94
387.813	79.94
388.038	94.94
388.263	72.94
388.488	78.94
388.713	78.94
388.938	86.94
389.163	76.94
389.387	82.94
389.612	95.94
389.837	69.94
390.062	70.94
390.287	78.94
390.512	86.94
390.736	75.94
390.961	68.94
391.186	84.94
391.411	68.94
391.636	70.94
391.86	75.94
392.085	86.94
392.31	66.94
392.534	82.94
392.759	77.94
392.984	68.94
393.208	79.94
393.433	112.94
393.658	104.94
393.882	82.94
394.107	84.94
394.331	88.94
394.556	88.94
394.78	87.94
395.005	76.94
395.229	78.94
395.454	68.94
395.678	63.94
395.903	77.94
396.127	91.94
396.352	97.94
396.576	76.94
396.801	95.94
397.025	99.94
397.249	86.94
397.474	91.94
397.698	86.94
397.922	94.94
398.147	84.94
398.371	90.94
398.595	85.94
398.82	73.94
399.044	80.94
399.268	78.94
399.492	82.94
399.717	86.94
399.941	91.94
400.165	72.94
400.389	76.94
400.613	86.94
400.837	66.94
401.062	86.94
401.286	79.94
401.51	77.94
401.734	88.94
401.958	82.94
402.182	79.94
402.406	64.94
402.63	77.94
402.854	69.94
403.078	85.94
403.302	94.94
403.526	77.94
403.75	93.94
403.974	80.94
404.198	72.94
404.422	71.94
404.645	78.94
404.869	74.94
405.093	82.94
405.317	90.94
405.541	86.94
405.765	86.94
405.988	90.94
406.212	71.94
406.436	87.94
406.66	80.94
406.883	77.94
407.107	100.94
407.331	77.94
407.555	77.94
407.778	78.94
408.002	84.94
408.226	80.94
408.449	83.94
408.673	78.94
408.896	71.94
409.12	80.94
409.344	79.94
409.567	80.94
409.791	77.94
410.014	84.94
410.238	72.94
410.461	75.94
410.685	64.94
410.908	78.94
411.132	72.94
411.355	73.94
411.578	71.94
411.802	78.94
412.025	83.94
412.249	78.94
412.472	82.94
412.695	82.94
412.919	65.94
413.142	84.94
413.365	76.94
413.589	77.94
413.812	72.94
414.035	85.94
414.258	74.94
414.482	81.94
414.705	69.94
414.928	87.94
415.151	93.94
415.374	86.94
415.597	70.94
415.821	76.94
416.044	80.94
416.267	85.94
416.49	78.94
416.713	67.94
416.936	78.94
417.159	76.94
417.382	84.94
417.605	79.94
417.828	74.94
418.051	73.94
418.274	87.94
418.497	84.94
418.72	79.94
418.943	71.94
419.166	80.94
419.389	79.94
419.611	82.94
419.834	76.94
420.057	79.94
420.28	85.94
420.503	69.94
420.726	73.94
420.948	88.94
421.171	78.94
421.394	72.94
421.617	78.94
421.839	64.94
422.062	71.94
422.285	82.94
422.507	99.94
422.73	135.94
422.953	121.94
423.175	102.94
423.398	81.94
423.621	70.94
423.843	90.94
424.066	79.94
424.288	79.94
424.511	69.94
424.733	81.94
424.956	77.94
425.178	87.94
425.401	75.94
425.623	76.94
425.846	70.94
426.068	79.94
426.291	72.94
426.513	69.94
426.735	87.94
426.958	73.94
427.18	94.94
427.402	92.94
427.625	76.94
427.847	68.94
428.069	73.94
428.292	78.94
428.514	66.94
428.736	69.94
428.958	79.94
429.181	91.94
429.403	95.94
429.625	103.94
429.847	87.94
430.069	81.94
430.292	118.94
430.514	85.94
430.736	82.94
430.958	99.94
431.18	91.94
431.402	94.94
431.624	82.94
431.846	84.94
432.068	93.94
432.29	80.94
432.512	80.94
432.734	76.94
432.956	81.94
433.178	78.94
433.4	78.94
433.622	89.94
433.844	93.94
434.066	81.94
434.287	74.94
434.509	82.94
434.731	72.94
434.953	75.94
435.175	76.94
435.397	90.94
435.618	71.94
435.84	72.94
436.062	80.94
436.284	66.94
436.505	80.94
436.727	89.94
436.949	83.94
437.17	83.94
437.392	79.94
437.614	86.94
437.835	62.94
438.057	69.94
438.278	82.94
438.5	94.94
438.721	85.94
438.943	77.94
439.165	75.94
439.386	72.94
439.608	81.94
439.829	74.94
440.05	85.94
440.272	78.94
440.493	81.94
440.715	78.94
440.936	93.94
441.158	77.94
441.379	91.94
441.6	76.94
441.822	82.94
442.043	70.94
442.264	79.94
442.486	88.94
442.707	108.94
442.928	76.94
443.149	78.94
443.371	83.94
443.592	93.94
443.813	97.94
444.034	71.94
444.255	79.94
444.476	78.94
444.698	70.94
444.919	74.94
445.14	153.94
445.361	122.94
445.582	96.94
445.803	96.94
446.024	82.94
446.245	79.94
446.466	80.94
446.687	94.94
446.908	85.94
447.129	77.94
447.35	80.94
447.571	88.94
447.792	74.94
448.013	74.94
448.234	59.94
448.455	70.94
448.675	77.94
448.896	78.94
449.117	83.94
449.338	82.94
449.559	77.94
449.779	84.94
450	86.94
450.221	86.94
450.442	81.94
450.662	68.94
450.883	76.94
451.104	78.94
451.324	79.94
451.545	86.94
451.766	71.94
451.986	71.94
452.207	85.94
452.428	75.94
452.648	90.94
452.869	91.94
453.089	90.94
453.31	81.94
453.53	88.94
453.751	86.94
453.971	90.94
454.192	79.94
454.412	72.94
454.633	75.94
454.853	69.94
455.073	79.94
455.294	80.94
455.514	94.94
455.734	86.94
455.955	80.94
456.175	67.94
456.395	63.94
456.616	68.94
456.836	82.94
457.056	80.94
457.276	85.94
457.497	88.94
457.717	76.94
457.937	86.94
458.157	79.94
458.377	72.94
458.598	95.94
458.818	73.94
459.038	84.94
459.258	69.94
459.478	84.94
459.698	80.94
459.918	87.94
460.138	78.94
460.358	78.94
460.578	77.94
460.798	85.94
461.018	89.94
461.238	86.94
461.458	88.94
461.678	84.94
461.898	71.94
462.118	80.94
462.338	69.94
462.558	90.94
462.777	86.94
462.997	86.94
463.217	76.94
463.437	75.94
463.657	80.94
463.876	74.94
464.096	80.94
464.316	79.94
464.536	62.94
464.755	90.94
464.975	80.94
465.195	85.94
465.414	82.94
465.634	85.94
465.854	62.94
466.073	82.94
466.293	81.94
466.512	84.94
466.732	84.94
466.951	78.94
467.171	80.94
467.391	92.94
467.61	83.94
467.829	103.94
468.049	68.94
468.268	77.94
468.488	76.94
468.707	74.94
468.927	66.94
469.146	76.94
469.365	75.94
469.585	82.94
469.804	86.94
470.023	78.94
470.243	80.94
470.462	91.94
470.681	83.94
470.901	73.94
471.12	78.94
471.339	98.94
471.558	77.94
471.777	82.94
471.997	84.94
472.216	77.94
472.435	83.94
472.654	86.94
472.873	90.94
473.092	95.94
473.311	78.94
473.53	72.94
473.749	86.94
473.968	76.94
474.187	79.94
474.406	80.94
474.625	78.94
474.844	84.94
475.063	72.94
475.282	68.94
475.501	75.94
475.72	90.94
475.939	98.94
476.158	84.94
476.377	71.94
476.596	84.94
476.814	71.94
477.033	84.94
477.252	72.94
477.471	64.94
477.69	87.94
477.908	85.94
478.127	77.94
478.346	75.94
478.564	77.94
478.783	71.94
479.002	70.94
479.22	80.94
479.439	82.94
479.658	87.94
479.876	68.94
480.095	68.94
480.313	80.94
480.532	78.94
480.751	75.94
480.969	82.94
481.188	74.94
481.406	71.94
481.624	84.94
481.843	78.94
482.061	83.94
482.28	64.94
482.498	88.94
482.717	88.94
482.935	98.94
483.153	84.94
483.372	77.94
483.59	75.94
483.808	80.94
484.027	74.94
484.245	83.94
484.463	70.94
484.681	96.94
484.9	81.94
485.118	74.94
485.336	71.94
485.554	73.94
485.772	86.94
485.99	83.94
486.209	97.94
486.427	75.94
486.645	90.94
486.863	89.94
487.081	73.94
487.299	86.94
487.517	94.94
487.735	86.94
487.953	94.94
488.171	94.94
488.389	68.94
488.607	100.94
488.825	100.94
489.043	84.94
489.261	74.94
489.479	83.94
489.696	84.94
489.914	75.94
490.132	79.94
490.35	90.94
490.568	79.94
490.786	70.94
491.003	94.94
491.221	92.94
491.439	96.94
491.657	96.94
491.874	80.94
492.092	79.94
492.31	85.94
492.527	98.94
492.745	74.94
492.963	92.94
493.18	86.94
493.398	84.94
493.615	90.94
493.833	78.94
494.05	99.94
494.268	85.94
494.485	83.94
494.703	86.94
494.92	82.94
495.138	75.94
495.355	90.94
495.573	82.94
495.79	75.94
496.008	72.94
496.225	80.94
496.442	72.94
496.66	94.94
496.877	84.94
497.094	85.94
497.312	74.94
497.529	78.94
497.746	79.94
497.963	102.94
498.181	82.94
498.398	88.94
498.615	89.94
498.832	97.94
499.049	85.94
499.267	79.94
499.484	71.94
499.701	82.94
499.918	78.94
500.135	90.94
500.352	90.94
500.569	85.94
500.786	91.94
501.003	85.94
501.22	90.94
501.437	86.94
501.654	85.94
501.871	76.94
502.088	78.94
502.305	84.94
502.522	84.94
502.739	86.94
502.956	79.94
503.172	86.94
503.389	88.94
503.606	88.94
503.823	66.94
504.04	87.94
504.256	104.94
504.473	91.94
504.69	52.94
504.907	85.94
505.123	87.94
505.34	71.94
505.557	83.94
505.773	90.94
505.99	76.94
506.207	81.94
506.423	84.94
506.64	85.94
506.856	76.94
507.073	93.94
507.289	67.94
507.506	76.94
507.722	79.94
507.939	82.94
508.155	77.94
508.372	94.94
508.588	73.94
508.805	71.94
509.021	87.94
509.238	82.94
509.454	72.94
509.67	78.94
509.887	86.94
510.103	98.94
510.319	80.94
510.536	93.94
510.752	85.94
510.968	79.94
511.184	77.94
511.401	88.94
511.617	79.94
511.833	92.94
512.049	87.94
512.265	76.94
512.481	92.94
512.698	96.94
512.914	89.94
513.13	91.94
513.346	77.94
513.562	95.94
513.778	91.94
513.994	77.94
514.21	73.94
514.426	85.94
514.642	96.94
514.858	81.94
515.074	79.94
515.29	85.94
515.506	87.94
515.721	91.94
515.937	94.94
516.153	91.94
516.369	82.94
516.585	79.94
516.801	77.94
517.016	82.94
517.232	82.94
517.448	85.94
517.664	78.94
517.879	78.94
518.095	66.94
518.311	71.94
518.527	98.94
518.742	92.94
518.958	91.94
519.173	83.94
519.389	60.94
519.605	85.94
519.82	91.94
520.036	80.94
