Data from 1600_4_HRD10591_00016.txt Node
Date: Mon Jan 19 13:56:18 EST 2026
User: Yrep
Spectrometer: HR+D1059
Trigger mode: 1
Integration Time (sec): 1.000000E-1
Scans to average: 1
Electric dark correction enabled: true
Nonlinearity correction enabled: false
Boxcar width: 0
XAxis mode: Wavelengths
Number of Pixels in Spectrum: 2048
>>>>>Begin Spectral Data<<<<<
223.165	-22.25
223.4	-22.25
223.635	-22.25
223.869	-32.25
224.104	-28.25
224.338	-3.25
224.573	2.75
224.808	-10.25
225.042	-7.25
225.277	-7.25
225.511	-2.25
225.746	-3.25
225.98	1.75
226.215	9.75
226.449	23.75
226.683	31.75
226.918	13.75
227.152	32.75
227.387	49.75
227.621	61.75
227.856	68.75
228.09	48.75
228.324	42.75
228.559	67.75
228.793	66.75
229.027	66.75
229.262	61.75
229.496	75.75
229.73	77.75
229.964	69.75
230.199	73.75
230.433	63.75
230.667	83.75
230.901	77.75
231.136	90.75
231.37	76.75
231.604	79.75
231.838	85.75
232.072	77.75
232.306	90.75
232.541	77.75
232.775	79.75
233.009	82.75
233.243	89.75
233.477	66.75
233.711	73.75
233.945	65.75
234.179	88.75
234.413	80.75
234.647	69.75
234.881	81.75
235.115	71.75
235.349	84.75
235.583	81.75
235.817	66.75
236.051	75.75
236.285	57.75
236.519	80.75
236.753	73.75
236.987	79.75
237.221	65.75
237.455	72.75
237.689	83.75
237.922	63.75
238.156	88.75
238.39	67.75
238.624	69.75
238.858	75.75
239.091	74.75
239.325	65.75
239.559	70.75
239.793	89.75
240.027	75.75
240.26	66.75
240.494	83.75
240.728	65.75
240.961	70.75
241.195	74.75
241.429	74.75
241.662	88.75
241.896	86.75
242.13	83.75
242.363	87.75
242.597	75.75
242.83	79.75
243.064	80.75
243.298	69.75
243.531	81.75
243.765	68.75
243.998	79.75
244.232	72.75
244.465	85.75
244.699	74.75
244.932	82.75
245.166	93.75
245.399	83.75
245.633	90.75
245.866	81.75
246.099	91.75
246.333	68.75
246.566	64.75
246.8	89.75
247.033	84.75
247.266	75.75
247.5	76.75
247.733	67.75
247.966	76.75
248.2	83.75
248.433	91.75
248.666	91.75
248.899	92.75
249.133	77.75
249.366	86.75
249.599	84.75
249.832	75.75
250.066	80.75
250.299	75.75
250.532	86.75
250.765	90.75
250.998	78.75
251.231	75.75
251.465	94.75
251.698	85.75
251.931	56.75
252.164	82.75
252.397	90.75
252.63	67.75
252.863	83.75
253.096	89.75
253.329	85.75
253.562	79.75
253.795	92.75
254.028	83.75
254.261	90.75
254.494	76.75
254.727	76.75
254.96	83.75
255.193	78.75
255.426	83.75
255.659	89.75
255.892	80.75
256.124	81.75
256.357	76.75
256.59	81.75
256.823	69.75
257.056	93.75
257.289	79.75
257.521	90.75
257.754	70.75
257.987	74.75
258.22	80.75
258.452	65.75
258.685	73.75
258.918	81.75
259.151	89.75
259.383	94.75
259.616	84.75
259.849	89.75
260.081	74.75
260.314	87.75
260.547	80.75
260.779	66.75
261.012	84.75
261.244	79.75
261.477	100.75
261.71	84.75
261.942	82.75
262.175	74.75
262.407	83.75
262.64	76.75
262.872	77.75
263.105	89.75
263.337	82.75
263.57	90.75
263.802	66.75
264.035	77.75
264.267	88.75
264.499	66.75
264.732	89.75
264.964	85.75
265.197	72.75
265.429	83.75
265.661	68.75
265.894	79.75
266.126	92.75
266.358	81.75
266.591	84.75
266.823	73.75
267.055	69.75
267.287	82.75
267.52	74.75
267.752	89.75
267.984	77.75
268.216	89.75
268.448	84.75
268.681	65.75
268.913	72.75
269.145	92.75
269.377	86.75
269.609	89.75
269.841	83.75
270.073	72.75
270.306	93.75
270.538	83.75
270.77	85.75
271.002	63.75
271.234	78.75
271.466	89.75
271.698	77.75
271.93	85.75
272.162	86.75
272.394	83.75
272.626	91.75
272.858	73.75
273.09	75.75
273.322	80.75
273.553	81.75
273.785	87.75
274.017	78.75
274.249	85.75
274.481	91.75
274.713	89.75
274.945	85.75
275.176	87.75
275.408	82.75
275.64	91.75
275.872	72.75
276.104	86.75
276.335	96.75
276.567	86.75
276.799	83.75
277.031	85.75
277.262	84.75
277.494	89.75
277.726	71.75
277.957	83.75
278.189	83.75
278.421	94.75
278.652	91.75
278.884	89.75
279.115	100.75
279.347	78.75
279.579	71.75
279.81	79.75
280.042	86.75
280.273	80.75
280.505	89.75
280.736	79.75
280.968	85.75
281.199	76.75
281.431	93.75
281.662	88.75
281.894	89.75
282.125	81.75
282.356	79.75
282.588	95.75
282.819	75.75
283.051	82.75
283.282	84.75
283.513	88.75
283.745	68.75
283.976	69.75
284.207	76.75
284.439	97.75
284.67	94.75
284.901	93.75
285.132	90.75
285.364	104.75
285.595	75.75
285.826	88.75
286.057	94.75
286.288	103.75
286.52	96.75
286.751	90.75
286.982	97.75
287.213	84.75
287.444	82.75
287.675	89.75
287.906	90.75
288.138	91.75
288.369	90.75
288.6	87.75
288.831	76.75
289.062	85.75
289.293	87.75
289.524	100.75
289.755	82.75
289.986	75.75
290.217	90.75
290.448	75.75
290.679	81.75
290.91	103.75
291.141	98.75
291.371	79.75
291.602	74.75
291.833	77.75
292.064	79.75
292.295	73.75
292.526	95.75
292.757	92.75
292.987	81.75
293.218	102.75
293.449	86.75
293.68	78.75
293.91	85.75
294.141	87.75
294.372	85.75
294.603	84.75
294.833	99.75
295.064	93.75
295.295	75.75
295.525	87.75
295.756	79.75
295.987	91.75
296.217	91.75
296.448	78.75
296.679	87.75
296.909	97.75
297.14	97.75
297.37	85.75
297.601	79.75
297.831	81.75
298.062	81.75
298.292	88.75
298.523	83.75
298.753	99.75
298.984	78.75
299.214	98.75
299.445	93.75
299.675	96.75
299.905	102.75
300.136	94.75
300.366	69.75
300.597	76.75
300.827	88.75
301.057	81.75
301.288	86.75
301.518	70.75
301.748	89.75
301.979	88.75
302.209	95.75
302.439	85.75
302.669	79.75
302.9	89.75
303.13	83.75
303.36	83.75
303.59	91.75
303.82	86.75
304.051	75.75
304.281	96.75
304.511	88.75
304.741	81.75
304.971	89.75
305.201	89.75
305.431	87.75
305.661	89.75
305.891	82.75
306.121	89.75
306.352	83.75
306.582	96.75
306.812	93.75
307.042	71.75
307.272	87.75
307.502	78.75
307.731	89.75
307.961	87.75
308.191	89.75
308.421	82.75
308.651	99.75
308.881	97.75
309.111	93.75
309.341	83.75
309.571	89.75
309.8	84.75
310.03	88.75
310.26	86.75
310.49	89.75
310.72	76.75
310.949	77.75
311.179	83.75
311.409	81.75
311.639	83.75
311.868	79.75
312.098	93.75
312.328	98.75
312.557	95.75
312.787	83.75
313.017	84.75
313.246	90.75
313.476	77.75
313.706	86.75
313.935	90.75
314.165	79.75
314.394	84.75
314.624	92.75
314.853	79.75
315.083	90.75
315.312	83.75
315.542	75.75
315.771	77.75
316.001	82.75
316.23	78.75
316.46	90.75
316.689	90.75
316.919	86.75
317.148	91.75
317.377	88.75
317.607	99.75
317.836	87.75
318.065	95.75
318.295	93.75
318.524	80.75
318.753	85.75
318.983	76.75
319.212	83.75
319.441	80.75
319.67	85.75
319.9	79.75
320.129	83.75
320.358	80.75
320.587	79.75
320.816	101.75
321.046	85.75
321.275	94.75
321.504	76.75
321.733	96.75
321.962	80.75
322.191	87.75
322.42	85.75
322.649	83.75
322.878	98.75
323.108	84.75
323.337	84.75
323.566	83.75
323.795	90.75
324.024	83.75
324.253	75.75
324.482	93.75
324.71	81.75
324.939	80.75
325.168	78.75
325.397	95.75
325.626	88.75
325.855	85.75
326.084	84.75
326.313	84.75
326.542	94.75
326.77	77.75
326.999	84.75
327.228	89.75
327.457	90.75
327.686	77.75
327.914	87.75
328.143	80.75
328.372	91.75
328.6	101.75
328.829	88.75
329.058	85.75
329.287	79.75
329.515	80.75
329.744	85.75
329.972	91.75
330.201	94.75
330.43	87.75
330.658	90.75
330.887	97.75
331.115	82.75
331.344	90.75
331.572	86.75
331.801	84.75
332.03	79.75
332.258	75.75
332.486	85.75
332.715	95.75
332.943	88.75
333.172	85.75
333.4	76.75
333.629	95.75
333.857	78.75
334.085	88.75
334.314	85.75
334.542	82.75
334.771	86.75
334.999	106.75
335.227	89.75
335.455	80.75
335.684	104.75
335.912	90.75
336.14	97.75
336.369	89.75
336.597	73.75
336.825	95.75
337.053	91.75
337.281	83.75
337.51	85.75
337.738	89.75
337.966	89.75
338.194	83.75
338.422	95.75
338.65	94.75
338.878	85.75
339.106	96.75
339.334	85.75
339.562	85.75
339.79	90.75
340.018	90.75
340.246	78.75
340.474	81.75
340.702	93.75
340.93	94.75
341.158	82.75
341.386	76.75
341.614	88.75
341.842	82.75
342.07	80.75
342.298	85.75
342.526	90.75
342.754	81.75
342.981	87.75
343.209	81.75
343.437	101.75
343.665	81.75
343.893	87.75
344.12	85.75
344.348	73.75
344.576	76.75
344.804	91.75
345.031	91.75
345.259	91.75
345.487	86.75
345.714	76.75
345.942	76.75
346.17	84.75
346.397	91.75
346.625	76.75
346.853	83.75
347.08	85.75
347.308	91.75
347.535	85.75
347.763	80.75
347.99	74.75
348.218	101.75
348.445	89.75
348.673	89.75
348.9	73.75
349.128	88.75
349.355	83.75
349.583	80.75
349.81	77.75
350.037	87.75
350.265	85.75
350.492	94.75
350.72	64.75
350.947	79.75
351.174	96.75
351.402	96.75
351.629	73.75
351.856	82.75
352.083	81.75
352.311	85.75
352.538	82.75
352.765	93.75
352.992	77.75
353.22	85.75
353.447	79.75
353.674	78.75
353.901	89.75
354.128	81.75
354.355	76.75
354.583	85.75
354.81	79.75
355.037	91.75
355.264	75.75
355.491	79.75
355.718	80.75
355.945	81.75
356.172	93.75
356.399	86.75
356.626	73.75
356.853	97.75
357.08	88.75
357.307	81.75
357.534	79.75
357.761	79.75
357.988	87.75
358.215	101.75
358.441	93.75
358.668	88.75
358.895	83.75
359.122	81.75
359.349	97.75
359.576	79.75
359.802	84.75
360.029	83.75
360.256	89.75
360.483	82.75
360.709	89.75
360.936	91.75
361.163	90.75
361.39	88.75
361.616	78.75
361.843	94.75
362.07	97.75
362.296	88.75
362.523	86.75
362.749	90.75
362.976	93.75
363.203	95.75
363.429	83.75
363.656	82.75
363.882	96.75
364.109	95.75
364.335	109.75
364.562	105.75
364.788	86.75
365.015	81.75
365.241	86.75
365.468	90.75
365.694	76.75
365.92	93.75
366.147	88.75
366.373	78.75
366.599	73.75
366.826	90.75
367.052	86.75
367.278	81.75
367.505	87.75
367.731	89.75
367.957	87.75
368.184	83.75
368.41	79.75
368.636	90.75
368.862	88.75
369.089	72.75
369.315	73.75
369.541	87.75
369.767	90.75
369.993	84.75
370.219	79.75
370.445	84.75
370.672	100.75
370.898	90.75
371.124	89.75
371.35	73.75
371.576	82.75
371.802	85.75
372.028	86.75
372.254	97.75
372.48	85.75
372.706	80.75
372.932	79.75
373.158	85.75
373.384	100.75
373.61	89.75
373.835	95.75
374.061	103.75
374.287	94.75
374.513	98.75
374.739	105.75
374.965	82.75
375.191	83.75
375.416	69.75
375.642	74.75
375.868	93.75
376.094	79.75
376.319	88.75
376.545	85.75
376.771	71.75
376.997	88.75
377.222	73.75
377.448	85.75
377.674	81.75
377.899	83.75
378.125	85.75
378.35	78.75
378.576	63.75
378.802	82.75
379.027	95.75
379.253	75.75
379.478	88.75
379.704	93.75
379.929	80.75
380.155	81.75
380.38	83.75
380.606	75.75
380.831	88.75
381.057	93.75
381.282	98.75
381.507	89.75
381.733	87.75
381.958	83.75
382.184	85.75
382.409	103.75
382.634	106.75
382.86	87.75
383.085	95.75
383.31	82.75
383.535	89.75
383.761	100.75
383.986	101.75
384.211	98.75
384.436	79.75
384.662	76.75
384.887	79.75
385.112	73.75
385.337	77.75
385.562	80.75
385.787	98.75
386.013	78.75
386.238	81.75
386.463	84.75
386.688	96.75
386.913	94.75
387.138	95.75
387.363	81.75
387.588	94.75
387.813	99.75
388.038	81.75
388.263	92.75
388.488	72.75
388.713	83.75
388.938	67.75
389.163	84.75
389.387	83.75
389.612	89.75
389.837	83.75
390.062	101.75
390.287	82.75
390.512	82.75
390.736	86.75
390.961	76.75
391.186	83.75
391.411	74.75
391.636	81.75
391.86	75.75
392.085	81.75
392.31	81.75
392.534	81.75
392.759	97.75
392.984	109.75
393.208	148.75
393.433	171.75
393.658	145.75
393.882	89.75
394.107	102.75
394.331	98.75
394.556	86.75
394.78	90.75
395.005	91.75
395.229	92.75
395.454	93.75
395.678	97.75
395.903	110.75
396.127	104.75
396.352	122.75
396.576	95.75
396.801	143.75
397.025	159.75
397.249	113.75
397.474	103.75
397.698	92.75
397.922	90.75
398.147	91.75
398.371	79.75
398.595	85.75
398.82	102.75
399.044	86.75
399.268	82.75
399.492	90.75
399.717	79.75
399.941	86.75
400.165	84.75
400.389	90.75
400.613	84.75
400.837	81.75
401.062	73.75
401.286	90.75
401.51	81.75
401.734	75.75
401.958	75.75
402.182	84.75
402.406	80.75
402.63	80.75
402.854	66.75
403.078	93.75
403.302	82.75
403.526	87.75
403.75	70.75
403.974	94.75
404.198	93.75
404.422	91.75
404.645	88.75
404.869	85.75
405.093	85.75
405.317	76.75
405.541	85.75
405.765	83.75
405.988	80.75
406.212	85.75
406.436	89.75
406.66	94.75
406.883	81.75
407.107	82.75
407.331	77.75
407.555	89.75
407.778	81.75
408.002	90.75
408.226	85.75
408.449	93.75
408.673	82.75
408.896	71.75
409.12	93.75
409.344	82.75
409.567	88.75
409.791	87.75
410.014	98.75
410.238	98.75
410.461	87.75
410.685	88.75
410.908	85.75
411.132	90.75
411.355	79.75
411.578	80.75
411.802	75.75
412.025	83.75
412.249	88.75
412.472	85.75
412.695	77.75
412.919	79.75
413.142	100.75
413.365	90.75
413.589	101.75
413.812	83.75
414.035	80.75
414.258	88.75
414.482	73.75
414.705	74.75
414.928	88.75
415.151	76.75
415.374	90.75
415.597	85.75
415.821	88.75
416.044	85.75
416.267	84.75
416.49	78.75
416.713	78.75
416.936	79.75
417.159	65.75
417.382	79.75
417.605	79.75
417.828	78.75
418.051	87.75
418.274	79.75
418.497	65.75
418.72	82.75
418.943	90.75
419.166	96.75
419.389	76.75
419.611	81.75
419.834	76.75
420.057	68.75
420.28	89.75
420.503	85.75
420.726	89.75
420.948	71.75
421.171	61.75
421.394	94.75
421.617	90.75
421.839	94.75
422.062	91.75
422.285	111.75
422.507	158.75
422.73	217.75
422.953	199.75
423.175	116.75
423.398	99.75
423.621	95.75
423.843	84.75
424.066	69.75
424.288	73.75
424.511	68.75
424.733	85.75
424.956	79.75
425.178	90.75
425.401	91.75
425.623	85.75
425.846	81.75
426.068	82.75
426.291	95.75
426.513	76.75
426.735	75.75
426.958	87.75
427.18	83.75
427.402	89.75
427.625	80.75
427.847	72.75
428.069	94.75
428.292	96.75
428.514	100.75
428.736	91.75
428.958	104.75
429.181	96.75
429.403	93.75
429.625	82.75
429.847	85.75
430.069	111.75
430.292	115.75
430.514	138.75
430.736	113.75
430.958	119.75
431.18	75.75
431.402	81.75
431.624	76.75
431.846	101.75
432.068	112.75
432.29	82.75
432.512	85.75
432.734	104.75
432.956	85.75
433.178	85.75
433.4	73.75
433.622	74.75
433.844	84.75
434.066	88.75
434.287	92.75
434.509	95.75
434.731	87.75
434.953	67.75
435.175	78.75
435.397	83.75
435.618	80.75
435.84	82.75
436.062	84.75
436.284	78.75
436.505	82.75
436.727	78.75
436.949	80.75
437.17	81.75
437.392	86.75
437.614	77.75
437.835	83.75
438.057	83.75
438.278	79.75
438.5	88.75
438.721	88.75
438.943	88.75
439.165	74.75
439.386	73.75
439.608	76.75
439.829	80.75
440.05	100.75
440.272	94.75
440.493	79.75
440.715	88.75
440.936	91.75
441.158	75.75
441.379	74.75
441.6	79.75
441.822	79.75
442.043	98.75
442.264	88.75
442.486	93.75
442.707	104.75
442.928	92.75
443.149	85.75
443.371	113.75
443.592	135.75
443.813	127.75
444.034	94.75
444.255	78.75
444.476	79.75
444.698	82.75
444.919	87.75
445.14	138.75
445.361	138.75
445.582	154.75
445.803	133.75
446.024	94.75
446.245	85.75
446.466	94.75
446.687	78.75
446.908	89.75
447.129	71.75
447.35	81.75
447.571	86.75
447.792	85.75
448.013	96.75
448.234	85.75
448.455	82.75
448.675	82.75
448.896	94.75
449.117	93.75
449.338	80.75
449.559	75.75
449.779	86.75
450	95.75
450.221	82.75
450.442	86.75
450.662	71.75
450.883	84.75
451.104	84.75
451.324	76.75
451.545	87.75
451.766	100.75
451.986	93.75
452.207	80.75
452.428	71.75
452.648	75.75
452.869	85.75
453.089	91.75
453.31	82.75
453.53	80.75
453.751	90.75
453.971	74.75
454.192	81.75
454.412	75.75
454.633	94.75
454.853	87.75
455.073	81.75
455.294	84.75
455.514	80.75
455.734	87.75
455.955	85.75
456.175	83.75
456.395	76.75
456.616	74.75
456.836	81.75
457.056	78.75
457.276	87.75
457.497	84.75
457.717	91.75
457.937	89.75
458.157	91.75
458.377	82.75
458.598	105.75
458.818	86.75
459.038	90.75
459.258	90.75
459.478	75.75
459.698	84.75
459.918	90.75
460.138	89.75
460.358	83.75
460.578	77.75
460.798	70.75
461.018	96.75
461.238	79.75
461.458	87.75
461.678	86.75
461.898	80.75
462.118	84.75
462.338	84.75
462.558	87.75
462.777	82.75
462.997	70.75
463.217	83.75
463.437	77.75
463.657	65.75
463.876	83.75
464.096	82.75
464.316	73.75
464.536	70.75
464.755	76.75
464.975	77.75
465.195	97.75
465.414	84.75
465.634	79.75
465.854	96.75
466.073	80.75
466.293	83.75
466.512	75.75
466.732	74.75
466.951	77.75
467.171	90.75
467.391	105.75
467.61	84.75
467.829	88.75
468.049	80.75
468.268	92.75
468.488	81.75
468.707	88.75
468.927	94.75
469.146	81.75
469.365	81.75
469.585	87.75
469.804	81.75
470.023	86.75
470.243	93.75
470.462	82.75
470.681	84.75
470.901	90.75
471.12	88.75
471.339	83.75
471.558	75.75
471.777	91.75
471.997	83.75
472.216	80.75
472.435	81.75
472.654	68.75
472.873	82.75
473.092	82.75
473.311	95.75
473.53	88.75
473.749	73.75
473.968	81.75
474.187	84.75
474.406	89.75
474.625	77.75
474.844	85.75
475.063	86.75
475.282	76.75
475.501	87.75
475.72	89.75
475.939	81.75
476.158	83.75
476.377	86.75
476.596	84.75
476.814	79.75
477.033	81.75
477.252	82.75
477.471	95.75
477.69	85.75
477.908	78.75
478.127	84.75
478.346	90.75
478.564	86.75
478.783	74.75
479.002	77.75
479.22	75.75
479.439	79.75
479.658	68.75
479.876	81.75
480.095	98.75
480.313	82.75
480.532	87.75
480.751	78.75
480.969	78.75
481.188	96.75
481.406	94.75
481.624	89.75
481.843	78.75
482.061	82.75
482.28	92.75
482.498	83.75
482.717	83.75
482.935	87.75
483.153	88.75
483.372	86.75
483.59	86.75
483.808	85.75
484.027	79.75
484.245	95.75
484.463	84.75
484.681	93.75
484.9	109.75
485.118	87.75
485.336	75.75
485.554	98.75
485.772	81.75
485.99	97.75
486.209	90.75
486.427	77.75
486.645	88.75
486.863	88.75
487.081	91.75
487.299	96.75
487.517	87.75
487.735	84.75
487.953	104.75
488.171	102.75
488.389	93.75
488.607	87.75
488.825	89.75
489.043	91.75
489.261	86.75
489.479	86.75
489.696	95.75
489.914	70.75
490.132	82.75
490.35	83.75
490.568	94.75
490.786	80.75
491.003	82.75
491.221	76.75
491.439	82.75
491.657	93.75
491.874	96.75
492.092	87.75
492.31	88.75
492.527	75.75
492.745	76.75
492.963	85.75
493.18	78.75
493.398	76.75
493.615	90.75
493.833	82.75
494.05	88.75
494.268	91.75
494.485	82.75
494.703	75.75
494.92	82.75
495.138	70.75
495.355	80.75
495.573	89.75
495.79	85.75
496.008	92.75
496.225	87.75
496.442	91.75
496.66	93.75
496.877	77.75
497.094	83.75
497.312	87.75
497.529	102.75
497.746	85.75
497.963	93.75
498.181	79.75
498.398	89.75
498.615	86.75
498.832	84.75
499.049	84.75
499.267	93.75
499.484	87.75
499.701	95.75
499.918	88.75
500.135	98.75
500.352	95.75
500.569	93.75
500.786	86.75
501.003	104.75
501.22	85.75
501.437	95.75
501.654	95.75
501.871	97.75
502.088	61.75
502.305	98.75
502.522	82.75
502.739	95.75
502.956	88.75
503.172	75.75
503.389	78.75
503.606	82.75
503.823	94.75
504.04	91.75
504.256	104.75
504.473	74.75
504.69	90.75
504.907	86.75
505.123	81.75
505.34	89.75
505.557	79.75
505.773	89.75
505.99	78.75
506.207	85.75
506.423	87.75
506.64	84.75
506.856	80.75
507.073	82.75
507.289	75.75
507.506	99.75
507.722	82.75
507.939	94.75
508.155	83.75
508.372	86.75
508.588	67.75
508.805	79.75
509.021	90.75
509.238	88.75
509.454	83.75
509.67	75.75
509.887	79.75
510.103	78.75
510.319	92.75
510.536	96.75
510.752	85.75
510.968	100.75
511.184	78.75
511.401	76.75
511.617	90.75
511.833	90.75
512.049	87.75
512.265	85.75
512.481	90.75
512.698	77.75
512.914	90.75
513.13	86.75
513.346	81.75
513.562	93.75
513.778	97.75
513.994	101.75
514.21	80.75
514.426	95.75
514.642	88.75
514.858	85.75
515.074	98.75
515.29	97.75
515.506	97.75
515.721	95.75
515.937	93.75
516.153	90.75
516.369	79.75
516.585	96.75
516.801	82.75
517.016	102.75
517.232	73.75
517.448	100.75
517.664	98.75
517.879	92.75
518.095	84.75
518.311	94.75
518.527	114.75
518.742	107.75
518.958	117.75
519.173	105.75
