Data from 1600_4_HRD10591_00040.txt Node
Date: Mon Jan 19 13:56:30 EST 2026
User: Yrep
Spectrometer: HR+D1059
Trigger mode: 1
Integration Time (sec): 1.000000E-1
Scans to average: 1
Electric dark correction enabled: true
Nonlinearity correction enabled: false
Boxcar width: 0
XAxis mode: Wavelengths
Number of Pixels in Spectrum: 2048
>>>>>Begin Spectral Data<<<<<
223.165	-0.56
223.4	-0.56
223.635	-0.56
223.869	-23.56
224.104	-13.56
224.338	-23.56
224.573	-21.56
224.808	-22.56
225.042	-11.56
225.277	-18.56
225.511	8.44
225.746	10.44
225.98	11.44
226.215	8.44
226.449	10.44
226.683	26.44
226.918	16.44
227.152	43.44
227.387	28.44
227.621	28.44
227.856	42.44
228.09	32.44
228.324	50.44
228.559	42.44
228.793	47.44
229.027	62.44
229.262	62.44
229.496	66.44
229.73	66.44
229.964	69.44
230.199	79.44
230.433	78.44
230.667	79.44
230.901	82.44
231.136	78.44
231.37	58.44
231.604	68.44
231.838	85.44
232.072	68.44
232.306	69.44
232.541	94.44
232.775	77.44
233.009	65.44
233.243	74.44
233.477	75.44
233.711	74.44
233.945	66.44
234.179	75.44
234.413	89.44
234.647	72.44
234.881	80.44
235.115	74.44
235.349	76.44
235.583	75.44
235.817	75.44
236.051	68.44
236.285	62.44
236.519	68.44
236.753	70.44
236.987	77.44
237.221	60.44
237.455	66.44
237.689	72.44
237.922	73.44
238.156	70.44
238.39	68.44
238.624	76.44
238.858	65.44
239.091	86.44
239.325	66.44
239.559	78.44
239.793	65.44
240.027	61.44
240.26	80.44
240.494	68.44
240.728	74.44
240.961	68.44
241.195	72.44
241.429	76.44
241.662	78.44
241.896	72.44
242.13	73.44
242.363	78.44
242.597	69.44
242.83	51.44
243.064	70.44
243.298	62.44
243.531	71.44
243.765	78.44
243.998	70.44
244.232	73.44
244.465	74.44
244.699	85.44
244.932	74.44
245.166	76.44
245.399	84.44
245.633	66.44
245.866	68.44
246.099	80.44
246.333	83.44
246.566	66.44
246.8	78.44
247.033	84.44
247.266	72.44
247.5	76.44
247.733	69.44
247.966	80.44
248.2	88.44
248.433	96.44
248.666	75.44
248.899	78.44
249.133	78.44
249.366	69.44
249.599	83.44
249.832	62.44
250.066	74.44
250.299	85.44
250.532	86.44
250.765	69.44
250.998	78.44
251.231	80.44
251.465	88.44
251.698	62.44
251.931	72.44
252.164	78.44
252.397	86.44
252.63	79.44
252.863	73.44
253.096	77.44
253.329	72.44
253.562	90.44
253.795	74.44
254.028	65.44
254.261	68.44
254.494	60.44
254.727	88.44
254.96	86.44
255.193	67.44
255.426	68.44
255.659	68.44
255.892	62.44
256.124	71.44
256.357	68.44
256.59	71.44
256.823	81.44
257.056	76.44
257.289	72.44
257.521	70.44
257.754	81.44
257.987	82.44
258.22	85.44
258.452	85.44
258.685	80.44
258.918	72.44
259.151	69.44
259.383	76.44
259.616	91.44
259.849	75.44
260.081	72.44
260.314	78.44
260.547	71.44
260.779	87.44
261.012	64.44
261.244	78.44
261.477	76.44
261.71	78.44
261.942	76.44
262.175	72.44
262.407	70.44
262.64	78.44
262.872	72.44
263.105	86.44
263.337	71.44
263.57	70.44
263.802	66.44
264.035	70.44
264.267	72.44
264.499	92.44
264.732	74.44
264.964	58.44
265.197	78.44
265.429	85.44
265.661	83.44
265.894	96.44
266.126	77.44
266.358	84.44
266.591	83.44
266.823	69.44
267.055	76.44
267.287	66.44
267.52	84.44
267.752	83.44
267.984	78.44
268.216	80.44
268.448	74.44
268.681	78.44
268.913	85.44
269.145	69.44
269.377	70.44
269.609	72.44
269.841	83.44
270.073	84.44
270.306	84.44
270.538	76.44
270.77	77.44
271.002	88.44
271.234	78.44
271.466	85.44
271.698	85.44
271.93	79.44
272.162	73.44
272.394	74.44
272.626	78.44
272.858	70.44
273.09	68.44
273.322	81.44
273.553	94.44
273.785	80.44
274.017	78.44
274.249	73.44
274.481	68.44
274.713	86.44
274.945	86.44
275.176	83.44
275.408	70.44
275.64	81.44
275.872	80.44
276.104	77.44
276.335	74.44
276.567	77.44
276.799	93.44
277.031	86.44
277.262	69.44
277.494	88.44
277.726	78.44
277.957	68.44
278.189	72.44
278.421	82.44
278.652	76.44
278.884	88.44
279.115	88.44
279.347	87.44
279.579	81.44
279.81	93.44
280.042	87.44
280.273	68.44
280.505	75.44
280.736	87.44
280.968	87.44
281.199	73.44
281.431	86.44
281.662	86.44
281.894	86.44
282.125	83.44
282.356	84.44
282.588	68.44
282.819	82.44
283.051	79.44
283.282	94.44
283.513	88.44
283.745	82.44
283.976	86.44
284.207	82.44
284.439	75.44
284.67	83.44
284.901	77.44
285.132	74.44
285.364	79.44
285.595	74.44
285.826	79.44
286.057	91.44
286.288	96.44
286.52	85.44
286.751	81.44
286.982	82.44
287.213	71.44
287.444	85.44
287.675	89.44
287.906	79.44
288.138	86.44
288.369	76.44
288.6	72.44
288.831	62.44
289.062	73.44
289.293	78.44
289.524	76.44
289.755	86.44
289.986	84.44
290.217	73.44
290.448	78.44
290.679	67.44
290.91	80.44
291.141	79.44
291.371	75.44
291.602	80.44
291.833	80.44
292.064	81.44
292.295	77.44
292.526	90.44
292.757	80.44
292.987	78.44
293.218	76.44
293.449	78.44
293.68	78.44
293.91	81.44
294.141	76.44
294.372	82.44
294.603	76.44
294.833	86.44
295.064	72.44
295.295	80.44
295.525	83.44
295.756	84.44
295.987	71.44
296.217	81.44
296.448	87.44
296.679	85.44
296.909	81.44
297.14	87.44
297.37	73.44
297.601	81.44
297.831	97.44
298.062	77.44
298.292	70.44
298.523	76.44
298.753	76.44
298.984	76.44
299.214	72.44
299.445	76.44
299.675	67.44
299.905	78.44
300.136	89.44
300.366	69.44
300.597	85.44
300.827	80.44
301.057	77.44
301.288	89.44
301.518	80.44
301.748	69.44
301.979	99.44
302.209	93.44
302.439	80.44
302.669	82.44
302.9	76.44
303.13	78.44
303.36	84.44
303.59	91.44
303.82	76.44
304.051	85.44
304.281	84.44
304.511	84.44
304.741	76.44
304.971	82.44
305.201	76.44
305.431	89.44
305.661	82.44
305.891	80.44
306.121	78.44
306.352	79.44
306.582	85.44
306.812	85.44
307.042	83.44
307.272	89.44
307.502	75.44
307.731	79.44
307.961	82.44
308.191	85.44
308.421	81.44
308.651	94.44
308.881	75.44
309.111	101.44
309.341	86.44
309.571	93.44
309.8	87.44
310.03	85.44
310.26	80.44
310.49	82.44
310.72	72.44
310.949	74.44
311.179	90.44
311.409	79.44
311.639	82.44
311.868	81.44
312.098	74.44
312.328	85.44
312.557	70.44
312.787	83.44
313.017	79.44
313.246	85.44
313.476	68.44
313.706	81.44
313.935	87.44
314.165	67.44
314.394	89.44
314.624	79.44
314.853	66.44
315.083	82.44
315.312	90.44
315.542	71.44
315.771	80.44
316.001	91.44
316.23	71.44
316.46	55.44
316.689	65.44
316.919	90.44
317.148	80.44
317.377	81.44
317.607	84.44
317.836	98.44
318.065	79.44
318.295	84.44
318.524	90.44
318.753	83.44
318.983	88.44
319.212	84.44
319.441	82.44
319.67	83.44
319.9	97.44
320.129	86.44
320.358	80.44
320.587	78.44
320.816	81.44
321.046	97.44
321.275	102.44
321.504	85.44
321.733	71.44
321.962	74.44
322.191	81.44
322.42	83.44
322.649	78.44
322.878	85.44
323.108	71.44
323.337	79.44
323.566	80.44
323.795	66.44
324.024	91.44
324.253	90.44
324.482	87.44
324.71	80.44
324.939	79.44
325.168	70.44
325.397	86.44
325.626	72.44
325.855	73.44
326.084	74.44
326.313	83.44
326.542	69.44
326.77	92.44
326.999	86.44
327.228	76.44
327.457	76.44
327.686	88.44
327.914	71.44
328.143	95.44
328.372	82.44
328.6	78.44
328.829	76.44
329.058	68.44
329.287	64.44
329.515	64.44
329.744	77.44
329.972	71.44
330.201	86.44
330.43	82.44
330.658	68.44
330.887	85.44
331.115	78.44
331.344	64.44
331.572	90.44
331.801	79.44
332.03	88.44
332.258	82.44
332.486	76.44
332.715	69.44
332.943	79.44
333.172	76.44
333.4	84.44
333.629	71.44
333.857	91.44
334.085	83.44
334.314	85.44
334.542	96.44
334.771	77.44
334.999	75.44
335.227	73.44
335.455	72.44
335.684	80.44
335.912	69.44
336.14	79.44
336.369	90.44
336.597	72.44
336.825	68.44
337.053	85.44
337.281	92.44
337.51	72.44
337.738	84.44
337.966	82.44
338.194	75.44
338.422	75.44
338.65	78.44
338.878	83.44
339.106	77.44
339.334	81.44
339.562	76.44
339.79	85.44
340.018	72.44
340.246	69.44
340.474	92.44
340.702	68.44
340.93	79.44
341.158	82.44
341.386	60.44
341.614	90.44
341.842	92.44
342.07	79.44
342.298	70.44
342.526	81.44
342.754	79.44
342.981	85.44
343.209	81.44
343.437	87.44
343.665	79.44
343.893	74.44
344.12	94.44
344.348	76.44
344.576	91.44
344.804	85.44
345.031	90.44
345.259	87.44
345.487	80.44
345.714	66.44
345.942	78.44
346.17	74.44
346.397	87.44
346.625	90.44
346.853	76.44
347.08	93.44
347.308	92.44
347.535	74.44
347.763	89.44
347.99	82.44
348.218	64.44
348.445	80.44
348.673	82.44
348.9	78.44
349.128	99.44
349.355	102.44
349.583	98.44
349.81	86.44
350.037	80.44
350.265	69.44
350.492	72.44
350.72	85.44
350.947	80.44
351.174	89.44
351.402	80.44
351.629	74.44
351.856	73.44
352.083	86.44
352.311	82.44
352.538	75.44
352.765	88.44
352.992	77.44
353.22	83.44
353.447	68.44
353.674	69.44
353.901	72.44
354.128	79.44
354.355	82.44
354.583	79.44
354.81	81.44
355.037	86.44
355.264	70.44
355.491	81.44
355.718	84.44
355.945	97.44
356.172	95.44
356.399	76.44
356.626	83.44
356.853	77.44
357.08	92.44
357.307	82.44
357.534	82.44
357.761	79.44
357.988	90.44
358.215	72.44
358.441	66.44
358.668	80.44
358.895	79.44
359.122	81.44
359.349	63.44
359.576	83.44
359.802	86.44
360.029	76.44
360.256	74.44
360.483	84.44
360.709	77.44
360.936	83.44
361.163	62.44
361.39	84.44
361.616	78.44
361.843	73.44
362.07	70.44
362.296	80.44
362.523	79.44
362.749	90.44
362.976	87.44
363.203	90.44
363.429	64.44
363.656	77.44
363.882	74.44
364.109	75.44
364.335	62.44
364.562	66.44
364.788	73.44
365.015	86.44
365.241	80.44
365.468	84.44
365.694	83.44
365.92	73.44
366.147	86.44
366.373	66.44
366.599	85.44
366.826	92.44
367.052	97.44
367.278	90.44
367.505	92.44
367.731	87.44
367.957	80.44
368.184	83.44
368.41	93.44
368.636	87.44
368.862	90.44
369.089	79.44
369.315	85.44
369.541	72.44
369.767	78.44
369.993	72.44
370.219	79.44
370.445	84.44
370.672	75.44
370.898	81.44
371.124	91.44
371.35	79.44
371.576	72.44
371.802	86.44
372.028	70.44
372.254	78.44
372.48	74.44
372.706	59.44
372.932	78.44
373.158	74.44
373.384	86.44
373.61	81.44
373.835	79.44
374.061	73.44
374.287	85.44
374.513	68.44
374.739	87.44
374.965	69.44
375.191	95.44
375.416	83.44
375.642	88.44
375.868	84.44
376.094	66.44
376.319	63.44
376.545	92.44
376.771	72.44
376.997	81.44
377.222	72.44
377.448	86.44
377.674	78.44
377.899	74.44
378.125	87.44
378.35	79.44
378.576	81.44
378.802	80.44
379.027	94.44
379.253	70.44
379.478	86.44
379.704	86.44
379.929	82.44
380.155	85.44
380.38	84.44
380.606	86.44
380.831	89.44
381.057	78.44
381.282	88.44
381.507	67.44
381.733	78.44
381.958	74.44
382.184	83.44
382.409	78.44
382.634	80.44
382.86	72.44
383.085	74.44
383.31	82.44
383.535	94.44
383.761	94.44
383.986	83.44
384.211	76.44
384.436	75.44
384.662	78.44
384.887	66.44
385.112	68.44
385.337	86.44
385.562	74.44
385.787	70.44
386.013	74.44
386.238	73.44
386.463	75.44
386.688	92.44
386.913	93.44
387.138	82.44
387.363	80.44
387.588	85.44
387.813	78.44
388.038	90.44
388.263	81.44
388.488	65.44
388.713	71.44
388.938	92.44
389.163	67.44
389.387	82.44
389.612	75.44
389.837	79.44
390.062	90.44
390.287	82.44
390.512	69.44
390.736	62.44
390.961	83.44
391.186	70.44
391.411	74.44
391.636	89.44
391.86	79.44
392.085	76.44
392.31	91.44
392.534	81.44
392.759	92.44
392.984	72.44
393.208	97.44
393.433	91.44
393.658	97.44
393.882	80.44
394.107	71.44
394.331	84.44
394.556	85.44
394.78	82.44
395.005	100.44
395.229	84.44
395.454	89.44
395.678	83.44
395.903	75.44
396.127	86.44
396.352	86.44
396.576	76.44
396.801	78.44
397.025	87.44
397.249	84.44
397.474	74.44
397.698	86.44
397.922	71.44
398.147	82.44
398.371	81.44
398.595	74.44
398.82	69.44
399.044	75.44
399.268	82.44
399.492	86.44
399.717	90.44
399.941	76.44
400.165	83.44
400.389	85.44
400.613	87.44
400.837	83.44
401.062	85.44
401.286	80.44
401.51	75.44
401.734	78.44
401.958	84.44
402.182	76.44
402.406	78.44
402.63	71.44
402.854	76.44
403.078	86.44
403.302	80.44
403.526	69.44
403.75	76.44
403.974	81.44
404.198	75.44
404.422	79.44
404.645	82.44
404.869	75.44
405.093	70.44
405.317	66.44
405.541	73.44
405.765	78.44
405.988	67.44
406.212	71.44
406.436	96.44
406.66	78.44
406.883	89.44
407.107	78.44
407.331	87.44
407.555	86.44
407.778	67.44
408.002	80.44
408.226	82.44
408.449	79.44
408.673	86.44
408.896	77.44
409.12	70.44
409.344	76.44
409.567	70.44
409.791	71.44
410.014	94.44
410.238	77.44
410.461	78.44
410.685	70.44
410.908	82.44
411.132	73.44
411.355	83.44
411.578	94.44
411.802	64.44
412.025	80.44
412.249	82.44
412.472	86.44
412.695	82.44
412.919	76.44
413.142	74.44
413.365	85.44
413.589	65.44
413.812	70.44
414.035	73.44
414.258	64.44
414.482	88.44
414.705	80.44
414.928	79.44
415.151	85.44
415.374	81.44
415.597	73.44
415.821	83.44
416.044	84.44
416.267	76.44
416.49	83.44
416.713	87.44
416.936	87.44
417.159	68.44
417.382	76.44
417.605	79.44
417.828	71.44
418.051	84.44
418.274	83.44
418.497	80.44
418.72	72.44
418.943	77.44
419.166	77.44
419.389	84.44
419.611	86.44
419.834	63.44
420.057	80.44
420.28	71.44
420.503	90.44
420.726	84.44
420.948	80.44
421.171	87.44
421.394	76.44
421.617	90.44
421.839	70.44
422.062	77.44
422.285	100.44
422.507	87.44
422.73	94.44
422.953	94.44
423.175	71.44
423.398	58.44
423.621	70.44
423.843	88.44
424.066	66.44
424.288	76.44
424.511	77.44
424.733	81.44
424.956	90.44
425.178	78.44
425.401	70.44
425.623	90.44
425.846	66.44
426.068	96.44
426.291	82.44
426.513	72.44
426.735	88.44
426.958	78.44
427.18	78.44
427.402	69.44
427.625	74.44
427.847	82.44
428.069	82.44
428.292	84.44
428.514	80.44
428.736	87.44
428.958	77.44
429.181	82.44
429.403	81.44
429.625	79.44
429.847	78.44
430.069	84.44
430.292	83.44
430.514	81.44
430.736	87.44
430.958	67.44
431.18	71.44
431.402	90.44
431.624	81.44
431.846	77.44
432.068	81.44
432.29	77.44
432.512	69.44
432.734	88.44
432.956	95.44
433.178	79.44
433.4	73.44
433.622	84.44
433.844	76.44
434.066	71.44
434.287	72.44
434.509	63.44
434.731	70.44
434.953	79.44
435.175	68.44
435.397	81.44
435.618	76.44
435.84	73.44
436.062	71.44
436.284	81.44
436.505	82.44
436.727	90.44
436.949	70.44
437.17	86.44
437.392	76.44
437.614	69.44
437.835	90.44
438.057	74.44
438.278	75.44
438.5	81.44
438.721	92.44
438.943	81.44
439.165	82.44
439.386	71.44
439.608	78.44
439.829	78.44
440.05	75.44
440.272	90.44
440.493	88.44
440.715	82.44
440.936	90.44
441.158	86.44
441.379	67.44
441.6	71.44
441.822	83.44
442.043	71.44
442.264	90.44
442.486	88.44
442.707	72.44
442.928	76.44
443.149	67.44
443.371	83.44
443.592	85.44
443.813	80.44
444.034	83.44
444.255	87.44
444.476	79.44
444.698	71.44
444.919	68.44
445.14	171.44
445.361	137.44
445.582	92.44
445.803	71.44
446.024	72.44
446.245	85.44
446.466	89.44
446.687	80.44
446.908	85.44
447.129	82.44
447.35	74.44
447.571	78.44
447.792	77.44
448.013	60.44
448.234	81.44
448.455	67.44
448.675	83.44
448.896	79.44
449.117	63.44
449.338	77.44
449.559	80.44
449.779	80.44
450	86.44
450.221	87.44
450.442	87.44
450.662	88.44
450.883	75.44
451.104	86.44
451.324	69.44
451.545	83.44
451.766	67.44
451.986	84.44
452.207	87.44
452.428	87.44
452.648	80.44
452.869	84.44
453.089	73.44
453.31	81.44
453.53	62.44
453.751	82.44
453.971	74.44
454.192	71.44
454.412	90.44
454.633	86.44
454.853	87.44
455.073	75.44
455.294	81.44
455.514	78.44
455.734	69.44
455.955	84.44
456.175	93.44
456.395	78.44
456.616	69.44
456.836	93.44
457.056	80.44
457.276	75.44
457.497	81.44
457.717	94.44
457.937	76.44
458.157	85.44
458.377	76.44
458.598	86.44
458.818	79.44
459.038	76.44
459.258	73.44
459.478	70.44
459.698	78.44
459.918	83.44
460.138	84.44
460.358	80.44
460.578	82.44
460.798	75.44
461.018	76.44
461.238	81.44
461.458	96.44
461.678	70.44
461.898	66.44
462.118	83.44
462.338	85.44
462.558	81.44
462.777	91.44
462.997	90.44
463.217	82.44
463.437	76.44
463.657	70.44
463.876	70.44
464.096	85.44
464.316	78.44
464.536	79.44
464.755	84.44
464.975	94.44
465.195	82.44
465.414	78.44
465.634	88.44
465.854	82.44
466.073	76.44
466.293	74.44
466.512	76.44
466.732	86.44
466.951	85.44
467.171	79.44
467.391	76.44
467.61	71.44
467.829	84.44
468.049	86.44
468.268	78.44
468.488	93.44
468.707	80.44
468.927	84.44
469.146	70.44
469.365	101.44
469.585	86.44
469.804	75.44
470.023	73.44
470.243	83.44
470.462	71.44
470.681	86.44
470.901	73.44
471.12	90.44
471.339	92.44
471.558	71.44
471.777	83.44
471.997	88.44
472.216	73.44
472.435	82.44
472.654	79.44
472.873	81.44
473.092	77.44
473.311	86.44
473.53	84.44
473.749	80.44
473.968	66.44
474.187	94.44
474.406	91.44
474.625	84.44
474.844	73.44
475.063	84.44
475.282	79.44
475.501	94.44
475.72	74.44
475.939	79.44
476.158	74.44
476.377	78.44
476.596	77.44
476.814	72.44
477.033	77.44
477.252	78.44
477.471	72.44
477.69	73.44
477.908	86.44
478.127	70.44
478.346	80.44
478.564	78.44
478.783	72.44
479.002	92.44
479.22	86.44
479.439	78.44
479.658	91.44
479.876	76.44
480.095	79.44
480.313	88.44
480.532	80.44
480.751	87.44
480.969	84.44
481.188	87.44
481.406	76.44
481.624	85.44
481.843	74.44
482.061	76.44
482.28	79.44
482.498	68.44
482.717	75.44
482.935	83.44
483.153	68.44
483.372	81.44
483.59	72.44
483.808	90.44
484.027	85.44
484.245	74.44
484.463	74.44
484.681	83.44
484.9	70.44
485.118	76.44
485.336	85.44
485.554	73.44
485.772	77.44
485.99	83.44
486.209	78.44
486.427	77.44
486.645	79.44
486.863	86.44
487.081	72.44
487.299	94.44
487.517	76.44
487.735	80.44
487.953	75.44
488.171	103.44
488.389	80.44
488.607	84.44
488.825	81.44
489.043	66.44
489.261	79.44
489.479	88.44
489.696	71.44
489.914	71.44
490.132	86.44
490.35	99.44
490.568	78.44
490.786	86.44
491.003	84.44
491.221	80.44
491.439	67.44
491.657	81.44
491.874	85.44
492.092	86.44
492.31	75.44
492.527	83.44
492.745	73.44
492.963	86.44
493.18	88.44
493.398	78.44
493.615	80.44
493.833	76.44
494.05	80.44
494.268	81.44
494.485	75.44
494.703	72.44
494.92	80.44
495.138	80.44
495.355	67.44
495.573	86.44
495.79	89.44
496.008	91.44
496.225	101.44
496.442	80.44
496.66	98.44
496.877	77.44
497.094	85.44
497.312	70.44
497.529	74.44
497.746	73.44
497.963	78.44
498.181	84.44
498.398	68.44
498.615	96.44
498.832	76.44
499.049	87.44
499.267	88.44
499.484	78.44
499.701	81.44
499.918	80.44
500.135	76.44
500.352	86.44
500.569	78.44
500.786	86.44
501.003	76.44
501.22	78.44
501.437	73.44
501.654	95.44
501.871	82.44
502.088	79.44
502.305	79.44
502.522	93.44
502.739	70.44
502.956	78.44
503.172	80.44
503.389	87.44
503.606	96.44
503.823	84.44
504.04	85.44
504.256	80.44
504.473	83.44
504.69	88.44
504.907	83.44
505.123	76.44
505.34	70.44
505.557	77.44
505.773	76.44
505.99	80.44
506.207	86.44
506.423	90.44
506.64	89.44
506.856	80.44
507.073	85.44
507.289	66.44
507.506	80.44
507.722	78.44
507.939	84.44
508.155	86.44
508.372	76.44
508.588	79.44
508.805	78.44
509.021	90.44
509.238	68.44
509.454	71.44
509.67	78.44
509.887	70.44
510.103	76.44
510.319	86.44
510.536	68.44
510.752	75.44
510.968	80.44
511.184	81.44
511.401	79.44
511.617	89.44
511.833	88.44
512.049	85.44
512.265	88.44
512.481	86.44
512.698	78.44
512.914	76.44
513.13	71.44
513.346	66.44
513.562	98.44
513.778	93.44
513.994	82.44
514.21	81.44
514.426	76.44
514.642	84.44
514.858	72.44
515.074	84.44
515.29	71.44
515.506	87.44
515.721	77.44
515.937	93.44
516.153	85.44
516.369	89.44
516.585	100.44
516.801	84.44
517.016	90.44
517.232	77.44
517.448	90.44
517.664	84.44
517.879	80.44
518.095	93.44
518.311	72.44
518.527	90.44
518.742	76.44
518.958	77.44
519.173	82.44
519.389	84.44
519.605	78.44
519.82	83.44
520.036	98.44
520.251	85.44
