Data from 1600_4_HRD10591_00012.txt Node
Date: Mon Jan 19 13:56:16 EST 2026
User: Yrep
Spectrometer: HR+D1059
Trigger mode: 1
Integration Time (sec): 1.000000E-1
Scans to average: 1
Electric dark correction enabled: true
Nonlinearity correction enabled: false
Boxcar width: 0
XAxis mode: Wavelengths
Number of Pixels in Spectrum: 2048
>>>>>Begin Spectral Data<<<<<
223.165	-18.62
223.4	-18.62
223.635	-18.62
223.869	-17.62
224.104	-20.62
224.338	-12.62
224.573	-26.62
224.808	-7.62
225.042	-4.62
225.277	3.38
225.511	-9.62
225.746	4.38
225.98	5.38
226.215	13.38
226.449	10.38
226.683	18.38
226.918	23.38
227.152	39.38
227.387	25.38
227.621	44.38
227.856	40.38
228.09	54.38
228.324	46.38
228.559	58.38
228.793	66.38
229.027	59.38
229.262	64.38
229.496	65.38
229.73	64.38
229.964	70.38
230.199	58.38
230.433	79.38
230.667	84.38
230.901	86.38
231.136	72.38
231.37	87.38
231.604	74.38
231.838	86.38
232.072	69.38
232.306	86.38
232.541	88.38
232.775	79.38
233.009	82.38
233.243	62.38
233.477	69.38
233.711	76.38
233.945	67.38
234.179	85.38
234.413	79.38
234.647	93.38
234.881	81.38
235.115	72.38
235.349	80.38
235.583	78.38
235.817	69.38
236.051	85.38
236.285	72.38
236.519	74.38
236.753	82.38
236.987	73.38
237.221	91.38
237.455	74.38
237.689	72.38
237.922	78.38
238.156	86.38
238.39	75.38
238.624	79.38
238.858	83.38
239.091	80.38
239.325	86.38
239.559	80.38
239.793	83.38
240.027	76.38
240.26	63.38
240.494	83.38
240.728	72.38
240.961	85.38
241.195	56.38
241.429	83.38
241.662	82.38
241.896	87.38
242.13	71.38
242.363	92.38
242.597	63.38
242.83	87.38
243.064	80.38
243.298	66.38
243.531	72.38
243.765	67.38
243.998	70.38
244.232	83.38
244.465	72.38
244.699	85.38
244.932	86.38
245.166	68.38
245.399	83.38
245.633	82.38
245.866	84.38
246.099	87.38
246.333	66.38
246.566	69.38
246.8	76.38
247.033	62.38
247.266	83.38
247.5	69.38
247.733	80.38
247.966	88.38
248.2	73.38
248.433	80.38
248.666	74.38
248.899	72.38
249.133	78.38
249.366	78.38
249.599	83.38
249.832	86.38
250.066	72.38
250.299	68.38
250.532	101.38
250.765	79.38
250.998	76.38
251.231	85.38
251.465	78.38
251.698	73.38
251.931	79.38
252.164	93.38
252.397	72.38
252.63	92.38
252.863	84.38
253.096	84.38
253.329	77.38
253.562	83.38
253.795	84.38
254.028	79.38
254.261	79.38
254.494	71.38
254.727	71.38
254.96	71.38
255.193	79.38
255.426	73.38
255.659	84.38
255.892	67.38
256.124	74.38
256.357	86.38
256.59	89.38
256.823	80.38
257.056	84.38
257.289	71.38
257.521	83.38
257.754	80.38
257.987	87.38
258.22	92.38
258.452	73.38
258.685	75.38
258.918	76.38
259.151	87.38
259.383	66.38
259.616	90.38
259.849	78.38
260.081	86.38
260.314	76.38
260.547	70.38
260.779	72.38
261.012	78.38
261.244	63.38
261.477	83.38
261.71	76.38
261.942	80.38
262.175	93.38
262.407	80.38
262.64	85.38
262.872	76.38
263.105	71.38
263.337	85.38
263.57	79.38
263.802	83.38
264.035	69.38
264.267	74.38
264.499	87.38
264.732	77.38
264.964	79.38
265.197	83.38
265.429	78.38
265.661	91.38
265.894	78.38
266.126	84.38
266.358	96.38
266.591	84.38
266.823	91.38
267.055	71.38
267.287	72.38
267.52	81.38
267.752	87.38
267.984	83.38
268.216	73.38
268.448	79.38
268.681	94.38
268.913	77.38
269.145	84.38
269.377	74.38
269.609	90.38
269.841	81.38
270.073	78.38
270.306	83.38
270.538	82.38
270.77	83.38
271.002	74.38
271.234	79.38
271.466	68.38
271.698	74.38
271.93	87.38
272.162	85.38
272.394	76.38
272.626	82.38
272.858	76.38
273.09	88.38
273.322	86.38
273.553	92.38
273.785	70.38
274.017	75.38
274.249	73.38
274.481	94.38
274.713	80.38
274.945	78.38
275.176	87.38
275.408	93.38
275.64	81.38
275.872	76.38
276.104	95.38
276.335	83.38
276.567	86.38
276.799	80.38
277.031	78.38
277.262	75.38
277.494	60.38
277.726	80.38
277.957	85.38
278.189	77.38
278.421	85.38
278.652	80.38
278.884	76.38
279.115	67.38
279.347	80.38
279.579	98.38
279.81	83.38
280.042	90.38
280.273	92.38
280.505	82.38
280.736	83.38
280.968	83.38
281.199	76.38
281.431	87.38
281.662	90.38
281.894	87.38
282.125	79.38
282.356	92.38
282.588	82.38
282.819	91.38
283.051	96.38
283.282	70.38
283.513	87.38
283.745	84.38
283.976	85.38
284.207	69.38
284.439	90.38
284.67	82.38
284.901	82.38
285.132	79.38
285.364	78.38
285.595	76.38
285.826	94.38
286.057	89.38
286.288	88.38
286.52	100.38
286.751	84.38
286.982	84.38
287.213	75.38
287.444	98.38
287.675	83.38
287.906	86.38
288.138	78.38
288.369	84.38
288.6	96.38
288.831	77.38
289.062	96.38
289.293	81.38
289.524	86.38
289.755	84.38
289.986	63.38
290.217	75.38
290.448	82.38
290.679	82.38
290.91	82.38
291.141	79.38
291.371	91.38
291.602	78.38
291.833	69.38
292.064	78.38
292.295	86.38
292.526	86.38
292.757	82.38
292.987	73.38
293.218	84.38
293.449	89.38
293.68	78.38
293.91	92.38
294.141	84.38
294.372	85.38
294.603	89.38
294.833	79.38
295.064	58.38
295.295	86.38
295.525	87.38
295.756	82.38
295.987	73.38
296.217	92.38
296.448	80.38
296.679	91.38
296.909	102.38
297.14	90.38
297.37	88.38
297.601	95.38
297.831	73.38
298.062	95.38
298.292	96.38
298.523	90.38
298.753	93.38
298.984	76.38
299.214	71.38
299.445	82.38
299.675	75.38
299.905	81.38
300.136	88.38
300.366	80.38
300.597	86.38
300.827	79.38
301.057	89.38
301.288	81.38
301.518	85.38
301.748	79.38
301.979	104.38
302.209	87.38
302.439	82.38
302.669	75.38
302.9	84.38
303.13	80.38
303.36	83.38
303.59	81.38
303.82	72.38
304.051	92.38
304.281	88.38
304.511	87.38
304.741	87.38
304.971	89.38
305.201	94.38
305.431	79.38
305.661	101.38
305.891	82.38
306.121	92.38
306.352	103.38
306.582	72.38
306.812	81.38
307.042	76.38
307.272	81.38
307.502	82.38
307.731	67.38
307.961	95.38
308.191	79.38
308.421	94.38
308.651	76.38
308.881	90.38
309.111	94.38
309.341	87.38
309.571	93.38
309.8	86.38
310.03	88.38
310.26	81.38
310.49	92.38
310.72	82.38
310.949	79.38
311.179	96.38
311.409	70.38
311.639	89.38
311.868	86.38
312.098	78.38
312.328	81.38
312.557	89.38
312.787	82.38
313.017	73.38
313.246	90.38
313.476	78.38
313.706	86.38
313.935	76.38
314.165	76.38
314.394	67.38
314.624	98.38
314.853	77.38
315.083	76.38
315.312	94.38
315.542	90.38
315.771	86.38
316.001	88.38
316.23	76.38
316.46	75.38
316.689	99.38
316.919	82.38
317.148	81.38
317.377	92.38
317.607	87.38
317.836	80.38
318.065	76.38
318.295	81.38
318.524	79.38
318.753	80.38
318.983	79.38
319.212	80.38
319.441	86.38
319.67	75.38
319.9	88.38
320.129	81.38
320.358	94.38
320.587	81.38
320.816	80.38
321.046	78.38
321.275	71.38
321.504	87.38
321.733	74.38
321.962	79.38
322.191	79.38
322.42	92.38
322.649	73.38
322.878	85.38
323.108	84.38
323.337	70.38
323.566	86.38
323.795	88.38
324.024	83.38
324.253	90.38
324.482	80.38
324.71	90.38
324.939	91.38
325.168	81.38
325.397	89.38
325.626	83.38
325.855	92.38
326.084	86.38
326.313	76.38
326.542	90.38
326.77	87.38
326.999	84.38
327.228	77.38
327.457	77.38
327.686	99.38
327.914	80.38
328.143	95.38
328.372	90.38
328.6	84.38
328.829	82.38
329.058	97.38
329.287	82.38
329.515	81.38
329.744	82.38
329.972	89.38
330.201	91.38
330.43	86.38
330.658	78.38
330.887	72.38
331.115	80.38
331.344	85.38
331.572	94.38
331.801	92.38
332.03	80.38
332.258	97.38
332.486	86.38
332.715	71.38
332.943	76.38
333.172	78.38
333.4	86.38
333.629	76.38
333.857	97.38
334.085	108.38
334.314	91.38
334.542	82.38
334.771	82.38
334.999	77.38
335.227	91.38
335.455	85.38
335.684	83.38
335.912	91.38
336.14	86.38
336.369	76.38
336.597	70.38
336.825	89.38
337.053	85.38
337.281	84.38
337.51	73.38
337.738	94.38
337.966	92.38
338.194	92.38
338.422	88.38
338.65	91.38
338.878	80.38
339.106	86.38
339.334	87.38
339.562	78.38
339.79	66.38
340.018	80.38
340.246	82.38
340.474	90.38
340.702	102.38
340.93	87.38
341.158	78.38
341.386	83.38
341.614	82.38
341.842	86.38
342.07	87.38
342.298	86.38
342.526	78.38
342.754	88.38
342.981	79.38
343.209	89.38
343.437	94.38
343.665	74.38
343.893	92.38
344.12	90.38
344.348	94.38
344.576	72.38
344.804	93.38
345.031	86.38
345.259	85.38
345.487	85.38
345.714	78.38
345.942	99.38
346.17	82.38
346.397	94.38
346.625	82.38
346.853	77.38
347.08	86.38
347.308	87.38
347.535	84.38
347.763	92.38
347.99	87.38
348.218	84.38
348.445	78.38
348.673	84.38
348.9	95.38
349.128	102.38
349.355	72.38
349.583	92.38
349.81	84.38
350.037	79.38
350.265	86.38
350.492	75.38
350.72	84.38
350.947	88.38
351.174	79.38
351.402	76.38
351.629	71.38
351.856	95.38
352.083	75.38
352.311	78.38
352.538	95.38
352.765	86.38
352.992	78.38
353.22	85.38
353.447	76.38
353.674	90.38
353.901	76.38
354.128	83.38
354.355	90.38
354.583	80.38
354.81	81.38
355.037	86.38
355.264	76.38
355.491	92.38
355.718	78.38
355.945	84.38
356.172	81.38
356.399	78.38
356.626	83.38
356.853	88.38
357.08	94.38
357.307	95.38
357.534	95.38
357.761	82.38
357.988	96.38
358.215	94.38
358.441	104.38
358.668	87.38
358.895	81.38
359.122	69.38
359.349	85.38
359.576	72.38
359.802	70.38
360.029	83.38
360.256	84.38
360.483	70.38
360.709	69.38
360.936	84.38
361.163	88.38
361.39	78.38
361.616	83.38
361.843	80.38
362.07	96.38
362.296	106.38
362.523	89.38
362.749	70.38
362.976	91.38
363.203	103.38
363.429	80.38
363.656	87.38
363.882	88.38
364.109	81.38
364.335	108.38
364.562	100.38
364.788	101.38
365.015	76.38
365.241	88.38
365.468	82.38
365.694	92.38
365.92	78.38
366.147	79.38
366.373	70.38
366.599	86.38
366.826	85.38
367.052	85.38
367.278	95.38
367.505	103.38
367.731	113.38
367.957	87.38
368.184	83.38
368.41	76.38
368.636	85.38
368.862	103.38
369.089	93.38
369.315	77.38
369.541	74.38
369.767	75.38
369.993	77.38
370.219	78.38
370.445	84.38
370.672	98.38
370.898	86.38
371.124	87.38
371.35	85.38
371.576	83.38
371.802	82.38
372.028	95.38
372.254	103.38
372.48	77.38
372.706	93.38
372.932	78.38
373.158	109.38
373.384	90.38
373.61	103.38
373.835	99.38
374.061	87.38
374.287	87.38
374.513	94.38
374.739	85.38
374.965	98.38
375.191	96.38
375.416	90.38
375.642	95.38
375.868	98.38
376.094	85.38
376.319	92.38
376.545	74.38
376.771	74.38
376.997	87.38
377.222	88.38
377.448	76.38
377.674	86.38
377.899	90.38
378.125	90.38
378.35	81.38
378.576	79.38
378.802	76.38
379.027	93.38
379.253	83.38
379.478	95.38
379.704	98.38
379.929	80.38
380.155	85.38
380.38	83.38
380.606	82.38
380.831	92.38
381.057	99.38
381.282	90.38
381.507	92.38
381.733	97.38
381.958	97.38
382.184	102.38
382.409	84.38
382.634	103.38
382.86	107.38
383.085	117.38
383.31	99.38
383.535	108.38
383.761	91.38
383.986	98.38
384.211	103.38
384.436	81.38
384.662	74.38
384.887	98.38
385.112	91.38
385.337	87.38
385.562	87.38
385.787	109.38
386.013	85.38
386.238	83.38
386.463	86.38
386.688	79.38
386.913	88.38
387.138	85.38
387.363	101.38
387.588	82.38
387.813	90.38
388.038	92.38
388.263	82.38
388.488	85.38
388.713	72.38
388.938	84.38
389.163	83.38
389.387	78.38
389.612	85.38
389.837	88.38
390.062	97.38
390.287	71.38
390.512	95.38
390.736	85.38
390.961	78.38
391.186	84.38
391.411	77.38
391.636	78.38
391.86	93.38
392.085	87.38
392.31	78.38
392.534	84.38
392.759	95.38
392.984	104.38
393.208	144.38
393.433	195.38
393.658	176.38
393.882	107.38
394.107	98.38
394.331	116.38
394.556	122.38
394.78	85.38
395.005	90.38
395.229	79.38
395.454	102.38
395.678	88.38
395.903	107.38
396.127	123.38
396.352	131.38
396.576	141.38
396.801	155.38
397.025	178.38
397.249	108.38
397.474	90.38
397.698	91.38
397.922	86.38
398.147	87.38
398.371	87.38
398.595	82.38
398.82	68.38
399.044	80.38
399.268	86.38
399.492	81.38
399.717	97.38
399.941	93.38
400.165	89.38
400.389	88.38
400.613	83.38
400.837	88.38
401.062	71.38
401.286	88.38
401.51	80.38
401.734	76.38
401.958	73.38
402.182	78.38
402.406	69.38
402.63	81.38
402.854	83.38
403.078	89.38
403.302	99.38
403.526	88.38
403.75	84.38
403.974	86.38
404.198	90.38
404.422	100.38
404.645	100.38
404.869	91.38
405.093	71.38
405.317	71.38
405.541	77.38
405.765	86.38
405.988	98.38
406.212	83.38
406.436	82.38
406.66	90.38
406.883	77.38
407.107	73.38
407.331	89.38
407.555	84.38
407.778	98.38
408.002	78.38
408.226	83.38
408.449	92.38
408.673	82.38
408.896	61.38
409.12	88.38
409.344	84.38
409.567	83.38
409.791	81.38
410.014	84.38
410.238	80.38
410.461	86.38
410.685	85.38
410.908	80.38
411.132	96.38
411.355	92.38
411.578	83.38
411.802	76.38
412.025	83.38
412.249	86.38
412.472	70.38
412.695	79.38
412.919	90.38
413.142	90.38
413.365	77.38
413.589	75.38
413.812	83.38
414.035	82.38
414.258	84.38
414.482	81.38
414.705	78.38
414.928	89.38
415.151	79.38
415.374	70.38
415.597	72.38
415.821	87.38
416.044	80.38
416.267	77.38
416.49	87.38
416.713	98.38
416.936	81.38
417.159	68.38
417.382	78.38
417.605	65.38
417.828	85.38
418.051	65.38
418.274	78.38
418.497	89.38
418.72	91.38
418.943	96.38
419.166	74.38
419.389	86.38
419.611	77.38
419.834	103.38
420.057	88.38
420.28	79.38
420.503	78.38
420.726	86.38
420.948	82.38
421.171	71.38
421.394	90.38
421.617	79.38
421.839	106.38
422.062	95.38
422.285	106.38
422.507	174.38
422.73	260.38
422.953	232.38
423.175	111.38
423.398	100.38
423.621	84.38
423.843	81.38
424.066	93.38
424.288	82.38
424.511	86.38
424.733	87.38
424.956	78.38
425.178	90.38
425.401	83.38
425.623	94.38
425.846	84.38
426.068	90.38
426.291	70.38
426.513	76.38
426.735	79.38
426.958	95.38
427.18	87.38
427.402	94.38
427.625	93.38
427.847	94.38
428.069	90.38
428.292	85.38
428.514	108.38
428.736	90.38
428.958	96.38
429.181	97.38
429.403	71.38
429.625	102.38
429.847	96.38
430.069	125.38
430.292	120.38
430.514	113.38
430.736	106.38
430.958	109.38
431.18	86.38
431.402	77.38
431.624	80.38
431.846	94.38
432.068	108.38
432.29	84.38
432.512	83.38
432.734	84.38
432.956	77.38
433.178	82.38
433.4	89.38
433.622	83.38
433.844	73.38
434.066	91.38
434.287	94.38
434.509	79.38
434.731	83.38
434.953	79.38
435.175	77.38
435.397	79.38
435.618	74.38
435.84	67.38
436.062	72.38
436.284	60.38
436.505	86.38
436.727	81.38
436.949	72.38
437.17	66.38
437.392	85.38
437.614	66.38
437.835	74.38
438.057	93.38
438.278	75.38
438.5	94.38
438.721	90.38
438.943	82.38
439.165	88.38
439.386	88.38
439.608	80.38
439.829	74.38
440.05	84.38
440.272	95.38
440.493	93.38
440.715	85.38
440.936	75.38
441.158	87.38
441.379	95.38
441.6	75.38
441.822	83.38
442.043	94.38
442.264	91.38
442.486	85.38
442.707	100.38
442.928	106.38
443.149	100.38
443.371	114.38
443.592	148.38
443.813	127.38
444.034	87.38
444.255	66.38
444.476	89.38
444.698	86.38
444.919	77.38
445.14	150.38
445.361	147.38
445.582	159.38
445.803	145.38
446.024	84.38
446.245	88.38
446.466	77.38
446.687	80.38
446.908	76.38
447.129	91.38
447.35	79.38
447.571	79.38
447.792	91.38
448.013	87.38
448.234	93.38
448.455	79.38
448.675	82.38
448.896	79.38
449.117	73.38
449.338	75.38
449.559	80.38
449.779	99.38
450	71.38
450.221	75.38
450.442	90.38
450.662	84.38
450.883	70.38
451.104	81.38
451.324	72.38
451.545	78.38
451.766	70.38
451.986	83.38
452.207	89.38
452.428	81.38
452.648	79.38
452.869	87.38
453.089	89.38
453.31	90.38
453.53	91.38
453.751	96.38
453.971	88.38
454.192	93.38
454.412	82.38
454.633	83.38
454.853	78.38
455.073	86.38
455.294	75.38
455.514	80.38
455.734	68.38
455.955	73.38
456.175	82.38
456.395	84.38
456.616	82.38
456.836	86.38
457.056	91.38
457.276	72.38
457.497	82.38
457.717	87.38
457.937	91.38
458.157	98.38
458.377	89.38
458.598	94.38
458.818	97.38
459.038	84.38
459.258	84.38
459.478	84.38
459.698	88.38
459.918	92.38
460.138	78.38
460.358	74.38
460.578	84.38
460.798	75.38
461.018	88.38
461.238	83.38
461.458	90.38
461.678	82.38
461.898	83.38
462.118	82.38
462.338	79.38
462.558	72.38
462.777	66.38
462.997	107.38
463.217	71.38
463.437	78.38
463.657	77.38
463.876	82.38
464.096	87.38
464.316	77.38
464.536	71.38
464.755	83.38
464.975	84.38
465.195	76.38
465.414	78.38
465.634	72.38
465.854	65.38
466.073	92.38
466.293	86.38
466.512	78.38
466.732	93.38
466.951	83.38
467.171	73.38
467.391	80.38
467.61	77.38
467.829	60.38
468.049	84.38
468.268	93.38
468.488	85.38
468.707	76.38
468.927	82.38
469.146	79.38
469.365	65.38
469.585	78.38
469.804	83.38
470.023	79.38
470.243	82.38
470.462	70.38
470.681	67.38
470.901	80.38
471.12	77.38
471.339	95.38
471.558	82.38
471.777	93.38
471.997	82.38
472.216	94.38
472.435	82.38
472.654	88.38
472.873	85.38
473.092	81.38
473.311	93.38
473.53	84.38
473.749	82.38
473.968	81.38
474.187	80.38
474.406	85.38
474.625	98.38
474.844	85.38
475.063	81.38
475.282	100.38
475.501	80.38
475.72	85.38
475.939	80.38
476.158	85.38
476.377	84.38
476.596	87.38
476.814	84.38
477.033	75.38
477.252	90.38
477.471	78.38
477.69	73.38
477.908	83.38
478.127	88.38
478.346	82.38
478.564	89.38
478.783	70.38
479.002	84.38
479.22	84.38
479.439	92.38
479.658	96.38
479.876	90.38
480.095	84.38
480.313	96.38
480.532	87.38
480.751	87.38
480.969	89.38
481.188	80.38
481.406	81.38
481.624	87.38
481.843	74.38
482.061	94.38
482.28	78.38
482.498	99.38
482.717	85.38
482.935	71.38
483.153	88.38
483.372	89.38
483.59	88.38
483.808	86.38
484.027	91.38
484.245	82.38
484.463	92.38
484.681	99.38
484.9	91.38
485.118	76.38
485.336	76.38
485.554	84.38
485.772	91.38
485.99	94.38
486.209	81.38
486.427	92.38
486.645	84.38
486.863	72.38
487.081	98.38
487.299	76.38
487.517	90.38
487.735	103.38
487.953	111.38
488.171	104.38
488.389	86.38
488.607	75.38
488.825	72.38
489.043	87.38
489.261	65.38
489.479	79.38
489.696	78.38
489.914	78.38
490.132	90.38
490.35	70.38
490.568	74.38
490.786	87.38
491.003	90.38
491.221	82.38
491.439	92.38
491.657	86.38
491.874	93.38
492.092	77.38
492.31	93.38
492.527	71.38
492.745	85.38
492.963	85.38
493.18	79.38
493.398	78.38
493.615	98.38
493.833	79.38
494.05	69.38
494.268	84.38
494.485	89.38
494.703	90.38
494.92	92.38
495.138	79.38
495.355	94.38
495.573	96.38
495.79	77.38
496.008	93.38
496.225	72.38
496.442	82.38
496.66	104.38
496.877	76.38
497.094	70.38
497.312	66.38
497.529	83.38
497.746	86.38
497.963	85.38
498.181	100.38
498.398	88.38
498.615	88.38
498.832	88.38
499.049	94.38
499.267	108.38
499.484	81.38
499.701	88.38
499.918	96.38
500.135	96.38
500.352	85.38
500.569	74.38
500.786	78.38
501.003	90.38
501.22	92.38
501.437	82.38
501.654	91.38
501.871	90.38
502.088	77.38
502.305	79.38
502.522	91.38
502.739	81.38
502.956	93.38
503.172	82.38
503.389	91.38
503.606	92.38
503.823	96.38
504.04	99.38
504.256	82.38
504.473	92.38
504.69	85.38
504.907	94.38
505.123	80.38
505.34	88.38
505.557	89.38
505.773	84.38
505.99	95.38
506.207	80.38
506.423	77.38
506.64	94.38
506.856	86.38
507.073	94.38
507.289	86.38
507.506	85.38
507.722	78.38
507.939	80.38
508.155	96.38
508.372	87.38
508.588	88.38
508.805	87.38
509.021	86.38
509.238	79.38
509.454	75.38
509.67	75.38
509.887	84.38
510.103	72.38
510.319	79.38
510.536	83.38
510.752	89.38
510.968	77.38
511.184	86.38
511.401	82.38
511.617	94.38
511.833	92.38
512.049	86.38
512.265	96.38
512.481	79.38
512.698	83.38
512.914	73.38
513.13	61.38
513.346	77.38
513.562	88.38
513.778	99.38
513.994	89.38
514.21	79.38
514.426	90.38
514.642	90.38
514.858	90.38
515.074	93.38
515.29	83.38
515.506	89.38
515.721	80.38
515.937	77.38
516.153	78.38
516.369	99.38
516.585	82.38
516.801	78.38
517.016	102.38
517.232	107.38
517.448	111.38
517.664	102.38
517.879	76.38
518.095	86.38
518.311	102.38
518.527	124.38
518.742	106.38
518.958	110.38
519.173	99.38
