Data from 1600_4_HRD10591_00044.txt Node
Date: Mon Jan 19 13:56:32 EST 2026
User: Yrep
Spectrometer: HR+D1059
Trigger mode: 1
Integration Time (sec): 1.000000E-1
Scans to average: 1
Electric dark correction enabled: true
Nonlinearity correction enabled: false
Boxcar width: 0
XAxis mode: Wavelengths
Number of Pixels in Spectrum: 2048
>>>>>Begin Spectral Data<<<<<
223.165	-21.06
223.4	-21.06
223.635	-21.06
223.869	-19.06
224.104	-21.06
224.338	-24.06
224.573	-12.06
224.808	-11.06
225.042	2.94
225.277	6.94
225.511	-8.06
225.746	-2.06
225.98	-0.06
226.215	8.94
226.449	16.94
226.683	24.94
226.918	20.94
227.152	36.94
227.387	27.94
227.621	32.94
227.856	46.94
228.09	44.94
228.324	49.94
228.559	52.94
228.793	55.94
229.027	52.94
229.262	67.94
229.496	49.94
229.73	72.94
229.964	86.94
230.199	71.94
230.433	63.94
230.667	70.94
230.901	67.94
231.136	80.94
231.37	76.94
231.604	76.94
231.838	81.94
232.072	78.94
232.306	76.94
232.541	79.94
232.775	69.94
233.009	74.94
233.243	78.94
233.477	89.94
233.711	73.94
233.945	79.94
234.179	66.94
234.413	78.94
234.647	84.94
234.881	75.94
235.115	76.94
235.349	79.94
235.583	78.94
235.817	68.94
236.051	61.94
236.285	76.94
236.519	71.94
236.753	77.94
236.987	82.94
237.221	80.94
237.455	82.94
237.689	74.94
237.922	77.94
238.156	80.94
238.39	70.94
238.624	70.94
238.858	75.94
239.091	66.94
239.325	64.94
239.559	72.94
239.793	79.94
240.027	73.94
240.26	80.94
240.494	68.94
240.728	88.94
240.961	61.94
241.195	70.94
241.429	80.94
241.662	86.94
241.896	83.94
242.13	81.94
242.363	67.94
242.597	63.94
242.83	77.94
243.064	76.94
243.298	70.94
243.531	86.94
243.765	77.94
243.998	78.94
244.232	66.94
244.465	76.94
244.699	72.94
244.932	73.94
245.166	66.94
245.399	71.94
245.633	77.94
245.866	74.94
246.099	76.94
246.333	69.94
246.566	79.94
246.8	77.94
247.033	86.94
247.266	71.94
247.5	68.94
247.733	63.94
247.966	71.94
248.2	76.94
248.433	76.94
248.666	82.94
248.899	75.94
249.133	69.94
249.366	71.94
249.599	75.94
249.832	85.94
250.066	71.94
250.299	87.94
250.532	82.94
250.765	71.94
250.998	76.94
251.231	88.94
251.465	88.94
251.698	82.94
251.931	85.94
252.164	78.94
252.397	83.94
252.63	83.94
252.863	85.94
253.096	78.94
253.329	72.94
253.562	85.94
253.795	69.94
254.028	71.94
254.261	72.94
254.494	66.94
254.727	78.94
254.96	85.94
255.193	79.94
255.426	70.94
255.659	94.94
255.892	79.94
256.124	71.94
256.357	59.94
256.59	85.94
256.823	78.94
257.056	82.94
257.289	70.94
257.521	88.94
257.754	78.94
257.987	77.94
258.22	84.94
258.452	76.94
258.685	81.94
258.918	78.94
259.151	70.94
259.383	79.94
259.616	85.94
259.849	78.94
260.081	79.94
260.314	84.94
260.547	85.94
260.779	76.94
261.012	60.94
261.244	81.94
261.477	81.94
261.71	71.94
261.942	76.94
262.175	78.94
262.407	87.94
262.64	75.94
262.872	86.94
263.105	75.94
263.337	86.94
263.57	79.94
263.802	75.94
264.035	72.94
264.267	71.94
264.499	86.94
264.732	78.94
264.964	68.94
265.197	78.94
265.429	92.94
265.661	79.94
265.894	75.94
266.126	82.94
266.358	63.94
266.591	74.94
266.823	90.94
267.055	73.94
267.287	72.94
267.52	87.94
267.752	90.94
267.984	80.94
268.216	86.94
268.448	75.94
268.681	79.94
268.913	82.94
269.145	94.94
269.377	90.94
269.609	79.94
269.841	74.94
270.073	78.94
270.306	86.94
270.538	60.94
270.77	82.94
271.002	78.94
271.234	92.94
271.466	81.94
271.698	78.94
271.93	84.94
272.162	80.94
272.394	84.94
272.626	76.94
272.858	76.94
273.09	90.94
273.322	88.94
273.553	78.94
273.785	77.94
274.017	85.94
274.249	78.94
274.481	87.94
274.713	91.94
274.945	83.94
275.176	94.94
275.408	84.94
275.64	90.94
275.872	80.94
276.104	76.94
276.335	80.94
276.567	86.94
276.799	72.94
277.031	84.94
277.262	81.94
277.494	78.94
277.726	72.94
277.957	82.94
278.189	80.94
278.421	81.94
278.652	82.94
278.884	54.94
279.115	96.94
279.347	76.94
279.579	84.94
279.81	76.94
280.042	77.94
280.273	90.94
280.505	86.94
280.736	73.94
280.968	85.94
281.199	90.94
281.431	95.94
281.662	77.94
281.894	78.94
282.125	74.94
282.356	70.94
282.588	90.94
282.819	75.94
283.051	60.94
283.282	86.94
283.513	82.94
283.745	85.94
283.976	76.94
284.207	76.94
284.439	79.94
284.67	79.94
284.901	71.94
285.132	83.94
285.364	90.94
285.595	81.94
285.826	100.94
286.057	80.94
286.288	91.94
286.52	83.94
286.751	93.94
286.982	74.94
287.213	92.94
287.444	101.94
287.675	55.94
287.906	78.94
288.138	75.94
288.369	72.94
288.6	78.94
288.831	79.94
289.062	81.94
289.293	87.94
289.524	79.94
289.755	72.94
289.986	82.94
290.217	89.94
290.448	88.94
290.679	71.94
290.91	98.94
291.141	79.94
291.371	79.94
291.602	70.94
291.833	82.94
292.064	80.94
292.295	90.94
292.526	90.94
292.757	86.94
292.987	78.94
293.218	88.94
293.449	88.94
293.68	87.94
293.91	80.94
294.141	99.94
294.372	88.94
294.603	80.94
294.833	72.94
295.064	87.94
295.295	83.94
295.525	87.94
295.756	84.94
295.987	83.94
296.217	77.94
296.448	77.94
296.679	77.94
296.909	77.94
297.14	95.94
297.37	86.94
297.601	71.94
297.831	84.94
298.062	78.94
298.292	88.94
298.523	82.94
298.753	87.94
298.984	75.94
299.214	87.94
299.445	86.94
299.675	82.94
299.905	89.94
300.136	86.94
300.366	92.94
300.597	84.94
300.827	75.94
301.057	85.94
301.288	74.94
301.518	85.94
301.748	72.94
301.979	100.94
302.209	77.94
302.439	83.94
302.669	78.94
302.9	87.94
303.13	79.94
303.36	85.94
303.59	96.94
303.82	94.94
304.051	74.94
304.281	86.94
304.511	85.94
304.741	82.94
304.971	80.94
305.201	78.94
305.431	97.94
305.661	87.94
305.891	70.94
306.121	88.94
306.352	63.94
306.582	86.94
306.812	72.94
307.042	84.94
307.272	83.94
307.502	78.94
307.731	86.94
307.961	77.94
308.191	78.94
308.421	68.94
308.651	70.94
308.881	79.94
309.111	91.94
309.341	91.94
309.571	82.94
309.8	77.94
310.03	78.94
310.26	91.94
310.49	78.94
310.72	83.94
310.949	82.94
311.179	86.94
311.409	78.94
311.639	85.94
311.868	80.94
312.098	85.94
312.328	91.94
312.557	81.94
312.787	86.94
313.017	88.94
313.246	81.94
313.476	81.94
313.706	79.94
313.935	69.94
314.165	90.94
314.394	77.94
314.624	67.94
314.853	92.94
315.083	68.94
315.312	79.94
315.542	76.94
315.771	88.94
316.001	65.94
316.23	82.94
316.46	76.94
316.689	62.94
316.919	82.94
317.148	77.94
317.377	82.94
317.607	76.94
317.836	90.94
318.065	86.94
318.295	79.94
318.524	78.94
318.753	71.94
318.983	88.94
319.212	82.94
319.441	71.94
319.67	87.94
319.9	88.94
320.129	78.94
320.358	83.94
320.587	76.94
320.816	75.94
321.046	91.94
321.275	79.94
321.504	74.94
321.733	92.94
321.962	85.94
322.191	82.94
322.42	91.94
322.649	78.94
322.878	93.94
323.108	75.94
323.337	75.94
323.566	89.94
323.795	79.94
324.024	64.94
324.253	84.94
324.482	87.94
324.71	90.94
324.939	89.94
325.168	82.94
325.397	83.94
325.626	84.94
325.855	88.94
326.084	73.94
326.313	78.94
326.542	79.94
326.77	83.94
326.999	82.94
327.228	91.94
327.457	64.94
327.686	80.94
327.914	102.94
328.143	103.94
328.372	95.94
328.6	77.94
328.829	77.94
329.058	77.94
329.287	88.94
329.515	88.94
329.744	83.94
329.972	81.94
330.201	78.94
330.43	78.94
330.658	83.94
330.887	83.94
331.115	87.94
331.344	81.94
331.572	78.94
331.801	93.94
332.03	75.94
332.258	81.94
332.486	75.94
332.715	77.94
332.943	84.94
333.172	91.94
333.4	94.94
333.629	86.94
333.857	83.94
334.085	72.94
334.314	79.94
334.542	85.94
334.771	91.94
334.999	79.94
335.227	81.94
335.455	84.94
335.684	71.94
335.912	74.94
336.14	82.94
336.369	79.94
336.597	88.94
336.825	82.94
337.053	80.94
337.281	84.94
337.51	77.94
337.738	72.94
337.966	67.94
338.194	78.94
338.422	87.94
338.65	88.94
338.878	84.94
339.106	76.94
339.334	74.94
339.562	81.94
339.79	83.94
340.018	69.94
340.246	82.94
340.474	74.94
340.702	78.94
340.93	77.94
341.158	84.94
341.386	84.94
341.614	75.94
341.842	91.94
342.07	82.94
342.298	67.94
342.526	75.94
342.754	90.94
342.981	94.94
343.209	70.94
343.437	96.94
343.665	85.94
343.893	77.94
344.12	91.94
344.348	84.94
344.576	86.94
344.804	85.94
345.031	84.94
345.259	70.94
345.487	75.94
345.714	67.94
345.942	67.94
346.17	80.94
346.397	76.94
346.625	73.94
346.853	88.94
347.08	70.94
347.308	81.94
347.535	83.94
347.763	83.94
347.99	86.94
348.218	83.94
348.445	91.94
348.673	83.94
348.9	85.94
349.128	74.94
349.355	78.94
349.583	75.94
349.81	76.94
350.037	65.94
350.265	83.94
350.492	85.94
350.72	83.94
350.947	72.94
351.174	85.94
351.402	66.94
351.629	72.94
351.856	80.94
352.083	81.94
352.311	86.94
352.538	87.94
352.765	75.94
352.992	98.94
353.22	76.94
353.447	65.94
353.674	90.94
353.901	84.94
354.128	78.94
354.355	83.94
354.583	73.94
354.81	72.94
355.037	82.94
355.264	87.94
355.491	94.94
355.718	71.94
355.945	84.94
356.172	76.94
356.399	71.94
356.626	82.94
356.853	80.94
357.08	93.94
357.307	81.94
357.534	78.94
357.761	86.94
357.988	70.94
358.215	83.94
358.441	82.94
358.668	83.94
358.895	91.94
359.122	87.94
359.349	80.94
359.576	79.94
359.802	73.94
360.029	87.94
360.256	98.94
360.483	74.94
360.709	83.94
360.936	85.94
361.163	93.94
361.39	87.94
361.616	78.94
361.843	91.94
362.07	89.94
362.296	76.94
362.523	90.94
362.749	80.94
362.976	89.94
363.203	98.94
363.429	83.94
363.656	83.94
363.882	90.94
364.109	74.94
364.335	86.94
364.562	81.94
364.788	71.94
365.015	78.94
365.241	74.94
365.468	76.94
365.694	65.94
365.92	78.94
366.147	84.94
366.373	90.94
366.599	84.94
366.826	69.94
367.052	77.94
367.278	86.94
367.505	71.94
367.731	101.94
367.957	92.94
368.184	78.94
368.41	81.94
368.636	81.94
368.862	81.94
369.089	77.94
369.315	75.94
369.541	85.94
369.767	80.94
369.993	81.94
370.219	73.94
370.445	80.94
370.672	76.94
370.898	84.94
371.124	79.94
371.35	80.94
371.576	74.94
371.802	72.94
372.028	84.94
372.254	78.94
372.48	82.94
372.706	89.94
372.932	74.94
373.158	86.94
373.384	74.94
373.61	100.94
373.835	93.94
374.061	88.94
374.287	86.94
374.513	96.94
374.739	89.94
374.965	89.94
375.191	89.94
375.416	87.94
375.642	85.94
375.868	82.94
376.094	77.94
376.319	82.94
376.545	72.94
376.771	90.94
376.997	70.94
377.222	85.94
377.448	73.94
377.674	88.94
377.899	80.94
378.125	80.94
378.35	83.94
378.576	83.94
378.802	71.94
379.027	80.94
379.253	91.94
379.478	80.94
379.704	76.94
379.929	82.94
380.155	81.94
380.38	82.94
380.606	86.94
380.831	80.94
381.057	76.94
381.282	88.94
381.507	81.94
381.733	88.94
381.958	73.94
382.184	92.94
382.409	81.94
382.634	80.94
382.86	94.94
383.085	100.94
383.31	80.94
383.535	97.94
383.761	80.94
383.986	80.94
384.211	86.94
384.436	85.94
384.662	68.94
384.887	80.94
385.112	83.94
385.337	88.94
385.562	90.94
385.787	74.94
386.013	94.94
386.238	80.94
386.463	75.94
386.688	92.94
386.913	90.94
387.138	75.94
387.363	77.94
387.588	80.94
387.813	86.94
388.038	94.94
388.263	81.94
388.488	84.94
388.713	79.94
388.938	86.94
389.163	60.94
389.387	73.94
389.612	75.94
389.837	78.94
390.062	73.94
390.287	81.94
390.512	91.94
390.736	86.94
390.961	96.94
391.186	81.94
391.411	66.94
391.636	85.94
391.86	73.94
392.085	70.94
392.31	92.94
392.534	91.94
392.759	88.94
392.984	112.94
393.208	133.94
393.433	161.94
393.658	127.94
393.882	99.94
394.107	82.94
394.331	90.94
394.556	86.94
394.78	84.94
395.005	81.94
395.229	80.94
395.454	84.94
395.678	88.94
395.903	80.94
396.127	95.94
396.352	94.94
396.576	109.94
396.801	136.94
397.025	126.94
397.249	93.94
397.474	86.94
397.698	81.94
397.922	81.94
398.147	84.94
398.371	82.94
398.595	83.94
398.82	86.94
399.044	79.94
399.268	78.94
399.492	85.94
399.717	82.94
399.941	77.94
400.165	84.94
400.389	72.94
400.613	70.94
400.837	89.94
401.062	69.94
401.286	75.94
401.51	63.94
401.734	85.94
401.958	88.94
402.182	70.94
402.406	76.94
402.63	75.94
402.854	82.94
403.078	85.94
403.302	86.94
403.526	86.94
403.75	75.94
403.974	67.94
404.198	96.94
404.422	82.94
404.645	81.94
404.869	84.94
405.093	82.94
405.317	86.94
405.541	82.94
405.765	76.94
405.988	80.94
406.212	79.94
406.436	71.94
406.66	78.94
406.883	73.94
407.107	70.94
407.331	80.94
407.555	92.94
407.778	88.94
408.002	94.94
408.226	73.94
408.449	83.94
408.673	95.94
408.896	79.94
409.12	72.94
409.344	82.94
409.567	93.94
409.791	88.94
410.014	86.94
410.238	76.94
410.461	78.94
410.685	86.94
410.908	87.94
411.132	72.94
411.355	81.94
411.578	86.94
411.802	74.94
412.025	87.94
412.249	90.94
412.472	82.94
412.695	80.94
412.919	67.94
413.142	74.94
413.365	83.94
413.589	73.94
413.812	81.94
414.035	67.94
414.258	74.94
414.482	78.94
414.705	75.94
414.928	100.94
415.151	87.94
415.374	75.94
415.597	82.94
415.821	76.94
416.044	84.94
416.267	72.94
416.49	73.94
416.713	75.94
416.936	86.94
417.159	78.94
417.382	85.94
417.605	82.94
417.828	78.94
418.051	75.94
418.274	80.94
418.497	77.94
418.72	77.94
418.943	80.94
419.166	81.94
419.389	72.94
419.611	79.94
419.834	69.94
420.057	71.94
420.28	76.94
420.503	72.94
420.726	78.94
420.948	80.94
421.171	79.94
421.394	92.94
421.617	89.94
421.839	77.94
422.062	82.94
422.285	85.94
422.507	103.94
422.73	130.94
422.953	125.94
423.175	81.94
423.398	71.94
423.621	68.94
423.843	52.94
424.066	59.94
424.288	86.94
424.511	80.94
424.733	83.94
424.956	80.94
425.178	85.94
425.401	82.94
425.623	64.94
425.846	77.94
426.068	70.94
426.291	84.94
426.513	87.94
426.735	75.94
426.958	86.94
427.18	86.94
427.402	92.94
427.625	82.94
427.847	79.94
428.069	85.94
428.292	91.94
428.514	72.94
428.736	79.94
428.958	78.94
429.181	89.94
429.403	71.94
429.625	76.94
429.847	101.94
430.069	91.94
430.292	88.94
430.514	84.94
430.736	83.94
430.958	89.94
431.18	84.94
431.402	78.94
431.624	78.94
431.846	76.94
432.068	93.94
432.29	76.94
432.512	79.94
432.734	75.94
432.956	97.94
433.178	81.94
433.4	76.94
433.622	83.94
433.844	88.94
434.066	87.94
434.287	80.94
434.509	92.94
434.731	85.94
434.953	73.94
435.175	73.94
435.397	78.94
435.618	71.94
435.84	64.94
436.062	78.94
436.284	82.94
436.505	78.94
436.727	81.94
436.949	70.94
437.17	81.94
437.392	66.94
437.614	71.94
437.835	80.94
438.057	93.94
438.278	67.94
438.5	85.94
438.721	80.94
438.943	82.94
439.165	81.94
439.386	75.94
439.608	78.94
439.829	64.94
440.05	81.94
440.272	73.94
440.493	80.94
440.715	92.94
440.936	76.94
441.158	72.94
441.379	81.94
441.6	62.94
441.822	75.94
442.043	79.94
442.264	83.94
442.486	88.94
442.707	89.94
442.928	76.94
443.149	87.94
443.371	84.94
443.592	92.94
443.813	94.94
444.034	80.94
444.255	81.94
444.476	80.94
444.698	85.94
444.919	73.94
445.14	169.94
445.361	115.94
445.582	109.94
445.803	96.94
446.024	83.94
446.245	95.94
446.466	88.94
446.687	89.94
446.908	83.94
447.129	84.94
447.35	87.94
447.571	75.94
447.792	64.94
448.013	84.94
448.234	84.94
448.455	78.94
448.675	86.94
448.896	69.94
449.117	80.94
449.338	72.94
449.559	88.94
449.779	67.94
450	66.94
450.221	79.94
450.442	78.94
450.662	73.94
450.883	86.94
451.104	82.94
451.324	86.94
451.545	77.94
451.766	78.94
451.986	87.94
452.207	82.94
452.428	78.94
452.648	92.94
452.869	79.94
453.089	96.94
453.31	73.94
453.53	80.94
453.751	75.94
453.971	79.94
454.192	61.94
454.412	84.94
454.633	90.94
454.853	88.94
455.073	92.94
455.294	89.94
455.514	85.94
455.734	73.94
455.955	83.94
456.175	77.94
456.395	80.94
456.616	76.94
456.836	71.94
457.056	77.94
457.276	82.94
457.497	78.94
457.717	84.94
457.937	88.94
458.157	71.94
458.377	84.94
458.598	91.94
458.818	95.94
459.038	85.94
459.258	77.94
459.478	84.94
459.698	97.94
459.918	85.94
460.138	71.94
460.358	83.94
460.578	78.94
460.798	72.94
461.018	78.94
461.238	78.94
461.458	71.94
461.678	96.94
461.898	82.94
462.118	78.94
462.338	83.94
462.558	86.94
462.777	79.94
462.997	81.94
463.217	70.94
463.437	63.94
463.657	83.94
463.876	90.94
464.096	78.94
464.316	84.94
464.536	80.94
464.755	79.94
464.975	84.94
465.195	93.94
465.414	76.94
465.634	84.94
465.854	81.94
466.073	69.94
466.293	81.94
466.512	66.94
466.732	69.94
466.951	86.94
467.171	64.94
467.391	84.94
467.61	89.94
467.829	84.94
468.049	78.94
468.268	84.94
468.488	77.94
468.707	76.94
468.927	86.94
469.146	72.94
469.365	78.94
469.585	90.94
469.804	86.94
470.023	72.94
470.243	80.94
470.462	86.94
470.681	72.94
470.901	67.94
471.12	88.94
471.339	76.94
471.558	78.94
471.777	98.94
471.997	80.94
472.216	78.94
472.435	72.94
472.654	84.94
472.873	90.94
473.092	91.94
473.311	74.94
473.53	72.94
473.749	71.94
473.968	75.94
474.187	89.94
474.406	69.94
474.625	81.94
474.844	71.94
475.063	64.94
475.282	76.94
475.501	87.94
475.72	66.94
475.939	80.94
476.158	72.94
476.377	79.94
476.596	82.94
476.814	84.94
477.033	87.94
477.252	86.94
477.471	84.94
477.69	83.94
477.908	86.94
478.127	82.94
478.346	64.94
478.564	86.94
478.783	77.94
479.002	71.94
479.22	87.94
479.439	77.94
479.658	82.94
479.876	89.94
480.095	93.94
480.313	75.94
480.532	83.94
480.751	75.94
480.969	76.94
481.188	73.94
481.406	98.94
481.624	68.94
481.843	91.94
482.061	75.94
482.28	77.94
482.498	81.94
482.717	83.94
482.935	86.94
483.153	72.94
483.372	83.94
483.59	90.94
483.808	81.94
484.027	71.94
484.245	79.94
484.463	80.94
484.681	99.94
484.9	95.94
485.118	82.94
485.336	82.94
485.554	73.94
485.772	79.94
485.99	83.94
486.209	76.94
486.427	71.94
486.645	86.94
486.863	77.94
487.081	86.94
487.299	87.94
487.517	80.94
487.735	75.94
487.953	78.94
488.171	83.94
488.389	88.94
488.607	73.94
488.825	71.94
489.043	76.94
489.261	68.94
489.479	97.94
489.696	84.94
489.914	91.94
490.132	79.94
490.35	87.94
490.568	76.94
490.786	84.94
491.003	78.94
491.221	81.94
491.439	81.94
491.657	70.94
491.874	79.94
492.092	67.94
492.31	91.94
492.527	85.94
492.745	76.94
492.963	86.94
493.18	93.94
493.398	80.94
493.615	71.94
493.833	71.94
494.05	76.94
494.268	78.94
494.485	77.94
494.703	76.94
494.92	94.94
495.138	64.94
495.355	74.94
495.573	88.94
495.79	96.94
496.008	67.94
496.225	78.94
496.442	64.94
496.66	80.94
496.877	77.94
497.094	92.94
497.312	69.94
497.529	84.94
497.746	77.94
497.963	79.94
498.181	76.94
498.398	80.94
498.615	90.94
498.832	95.94
499.049	80.94
499.267	94.94
499.484	69.94
499.701	71.94
499.918	90.94
500.135	82.94
500.352	86.94
500.569	84.94
500.786	86.94
501.003	83.94
501.22	76.94
501.437	76.94
501.654	78.94
501.871	89.94
502.088	75.94
502.305	94.94
502.522	84.94
502.739	87.94
502.956	90.94
503.172	86.94
503.389	85.94
503.606	90.94
503.823	87.94
504.04	85.94
504.256	76.94
504.473	86.94
504.69	82.94
504.907	85.94
505.123	79.94
505.34	75.94
505.557	72.94
505.773	87.94
505.99	88.94
506.207	79.94
506.423	82.94
506.64	76.94
506.856	62.94
507.073	69.94
507.289	71.94
507.506	59.94
507.722	76.94
507.939	76.94
508.155	83.94
508.372	93.94
508.588	74.94
508.805	92.94
509.021	81.94
509.238	82.94
509.454	55.94
509.67	77.94
509.887	72.94
510.103	90.94
510.319	82.94
510.536	82.94
510.752	88.94
510.968	77.94
511.184	70.94
511.401	85.94
511.617	80.94
511.833	66.94
512.049	56.94
512.265	95.94
512.481	86.94
512.698	78.94
512.914	84.94
513.13	87.94
513.346	75.94
513.562	79.94
513.778	93.94
513.994	77.94
514.21	75.94
514.426	82.94
514.642	74.94
514.858	75.94
515.074	76.94
515.29	76.94
515.506	84.94
515.721	77.94
515.937	78.94
516.153	87.94
516.369	90.94
516.585	78.94
516.801	71.94
517.016	80.94
517.232	74.94
517.448	90.94
517.664	76.94
517.879	84.94
518.095	77.94
518.311	78.94
518.527	80.94
518.742	85.94
518.958	83.94
519.173	71.94
519.389	81.94
519.605	78.94
519.82	75.94
520.036	80.94
