Data from 1600_4_HRD10591_00010.txt Node
Date: Mon Jan 19 13:56:15 EST 2026
User: Yrep
Spectrometer: HR+D1059
Trigger mode: 1
Integration Time (sec): 1.000000E-1
Scans to average: 1
Electric dark correction enabled: true
Nonlinearity correction enabled: false
Boxcar width: 0
XAxis mode: Wavelengths
Number of Pixels in Spectrum: 2048
>>>>>Begin Spectral Data<<<<<
223.165	-22.62
223.4	-22.62
223.635	-22.62
223.869	-12.62
224.104	-13.62
224.338	-12.62
224.573	-21.62
224.808	-15.62
225.042	5.38
225.277	-15.62
225.511	-1.62
225.746	1.38
225.98	7.38
226.215	6.38
226.449	18.38
226.683	17.38
226.918	26.38
227.152	33.38
227.387	33.38
227.621	54.38
227.856	47.38
228.09	50.38
228.324	46.38
228.559	63.38
228.793	69.38
229.027	50.38
229.262	72.38
229.496	67.38
229.73	65.38
229.964	61.38
230.199	67.38
230.433	65.38
230.667	85.38
230.901	93.38
231.136	79.38
231.37	76.38
231.604	66.38
231.838	74.38
232.072	85.38
232.306	80.38
232.541	87.38
232.775	75.38
233.009	79.38
233.243	85.38
233.477	73.38
233.711	91.38
233.945	88.38
234.179	93.38
234.413	93.38
234.647	101.38
234.881	86.38
235.115	85.38
235.349	81.38
235.583	75.38
235.817	79.38
236.051	72.38
236.285	72.38
236.519	75.38
236.753	69.38
236.987	80.38
237.221	97.38
237.455	82.38
237.689	85.38
237.922	75.38
238.156	66.38
238.39	68.38
238.624	78.38
238.858	65.38
239.091	74.38
239.325	76.38
239.559	85.38
239.793	83.38
240.027	71.38
240.26	75.38
240.494	84.38
240.728	71.38
240.961	69.38
241.195	84.38
241.429	80.38
241.662	72.38
241.896	77.38
242.13	76.38
242.363	80.38
242.597	78.38
242.83	78.38
243.064	66.38
243.298	68.38
243.531	98.38
243.765	79.38
243.998	77.38
244.232	93.38
244.465	84.38
244.699	78.38
244.932	83.38
245.166	82.38
245.399	76.38
245.633	87.38
245.866	74.38
246.099	99.38
246.333	91.38
246.566	86.38
246.8	73.38
247.033	73.38
247.266	65.38
247.5	93.38
247.733	75.38
247.966	87.38
248.2	83.38
248.433	69.38
248.666	66.38
248.899	74.38
249.133	78.38
249.366	89.38
249.599	69.38
249.832	90.38
250.066	94.38
250.299	86.38
250.532	82.38
250.765	79.38
250.998	81.38
251.231	85.38
251.465	74.38
251.698	91.38
251.931	75.38
252.164	82.38
252.397	89.38
252.63	71.38
252.863	74.38
253.096	93.38
253.329	86.38
253.562	88.38
253.795	79.38
254.028	98.38
254.261	81.38
254.494	77.38
254.727	85.38
254.96	77.38
255.193	75.38
255.426	81.38
255.659	88.38
255.892	83.38
256.124	82.38
256.357	82.38
256.59	79.38
256.823	76.38
257.056	76.38
257.289	86.38
257.521	72.38
257.754	79.38
257.987	75.38
258.22	84.38
258.452	83.38
258.685	84.38
258.918	77.38
259.151	66.38
259.383	84.38
259.616	91.38
259.849	87.38
260.081	78.38
260.314	88.38
260.547	81.38
260.779	75.38
261.012	85.38
261.244	73.38
261.477	84.38
261.71	65.38
261.942	63.38
262.175	71.38
262.407	82.38
262.64	76.38
262.872	74.38
263.105	79.38
263.337	76.38
263.57	84.38
263.802	71.38
264.035	71.38
264.267	93.38
264.499	86.38
264.732	88.38
264.964	96.38
265.197	97.38
265.429	79.38
265.661	72.38
265.894	92.38
266.126	85.38
266.358	85.38
266.591	84.38
266.823	91.38
267.055	79.38
267.287	88.38
267.52	82.38
267.752	80.38
267.984	72.38
268.216	86.38
268.448	78.38
268.681	95.38
268.913	90.38
269.145	85.38
269.377	95.38
269.609	89.38
269.841	87.38
270.073	85.38
270.306	71.38
270.538	90.38
270.77	85.38
271.002	89.38
271.234	89.38
271.466	91.38
271.698	70.38
271.93	73.38
272.162	86.38
272.394	83.38
272.626	85.38
272.858	90.38
273.09	77.38
273.322	85.38
273.553	76.38
273.785	76.38
274.017	94.38
274.249	85.38
274.481	90.38
274.713	82.38
274.945	92.38
275.176	76.38
275.408	89.38
275.64	67.38
275.872	102.38
276.104	88.38
276.335	87.38
276.567	89.38
276.799	72.38
277.031	79.38
277.262	88.38
277.494	69.38
277.726	86.38
277.957	73.38
278.189	95.38
278.421	81.38
278.652	71.38
278.884	76.38
279.115	81.38
279.347	88.38
279.579	93.38
279.81	90.38
280.042	65.38
280.273	91.38
280.505	84.38
280.736	89.38
280.968	86.38
281.199	86.38
281.431	95.38
281.662	91.38
281.894	107.38
282.125	84.38
282.356	79.38
282.588	85.38
282.819	74.38
283.051	86.38
283.282	83.38
283.513	94.38
283.745	85.38
283.976	98.38
284.207	79.38
284.439	83.38
284.67	88.38
284.901	98.38
285.132	93.38
285.364	101.38
285.595	94.38
285.826	105.38
286.057	95.38
286.288	80.38
286.52	83.38
286.751	87.38
286.982	91.38
287.213	94.38
287.444	82.38
287.675	88.38
287.906	82.38
288.138	95.38
288.369	84.38
288.6	83.38
288.831	83.38
289.062	79.38
289.293	98.38
289.524	76.38
289.755	98.38
289.986	101.38
290.217	84.38
290.448	82.38
290.679	99.38
290.91	88.38
291.141	85.38
291.371	99.38
291.602	82.38
291.833	91.38
292.064	75.38
292.295	90.38
292.526	84.38
292.757	85.38
292.987	83.38
293.218	86.38
293.449	90.38
293.68	90.38
293.91	94.38
294.141	94.38
294.372	99.38
294.603	95.38
294.833	99.38
295.064	75.38
295.295	102.38
295.525	87.38
295.756	74.38
295.987	82.38
296.217	95.38
296.448	83.38
296.679	88.38
296.909	89.38
297.14	86.38
297.37	93.38
297.601	98.38
297.831	88.38
298.062	78.38
298.292	104.38
298.523	86.38
298.753	80.38
298.984	81.38
299.214	79.38
299.445	87.38
299.675	82.38
299.905	99.38
300.136	94.38
300.366	80.38
300.597	84.38
300.827	90.38
301.057	77.38
301.288	89.38
301.518	80.38
301.748	94.38
301.979	113.38
302.209	82.38
302.439	91.38
302.669	76.38
302.9	87.38
303.13	88.38
303.36	75.38
303.59	76.38
303.82	97.38
304.051	86.38
304.281	99.38
304.511	92.38
304.741	94.38
304.971	93.38
305.201	86.38
305.431	102.38
305.661	84.38
305.891	101.38
306.121	75.38
306.352	102.38
306.582	73.38
306.812	91.38
307.042	87.38
307.272	96.38
307.502	93.38
307.731	78.38
307.961	94.38
308.191	93.38
308.421	97.38
308.651	105.38
308.881	84.38
309.111	94.38
309.341	93.38
309.571	99.38
309.8	82.38
310.03	89.38
310.26	88.38
310.49	95.38
310.72	89.38
310.949	79.38
311.179	82.38
311.409	83.38
311.639	95.38
311.868	76.38
312.098	90.38
312.328	84.38
312.557	79.38
312.787	82.38
313.017	90.38
313.246	81.38
313.476	98.38
313.706	89.38
313.935	89.38
314.165	101.38
314.394	81.38
314.624	74.38
314.853	98.38
315.083	75.38
315.312	74.38
315.542	98.38
315.771	97.38
316.001	86.38
316.23	85.38
316.46	80.38
316.689	87.38
316.919	93.38
317.148	98.38
317.377	95.38
317.607	87.38
317.836	93.38
318.065	95.38
318.295	88.38
318.524	81.38
318.753	81.38
318.983	97.38
319.212	90.38
319.441	102.38
319.67	87.38
319.9	99.38
320.129	90.38
320.358	90.38
320.587	86.38
320.816	81.38
321.046	90.38
321.275	96.38
321.504	95.38
321.733	83.38
321.962	90.38
322.191	88.38
322.42	91.38
322.649	82.38
322.878	100.38
323.108	72.38
323.337	110.38
323.566	89.38
323.795	87.38
324.024	90.38
324.253	84.38
324.482	82.38
324.71	92.38
324.939	101.38
325.168	87.38
325.397	89.38
325.626	97.38
325.855	84.38
326.084	86.38
326.313	94.38
326.542	94.38
326.77	88.38
326.999	101.38
327.228	87.38
327.457	86.38
327.686	116.38
327.914	90.38
328.143	93.38
328.372	87.38
328.6	104.38
328.829	89.38
329.058	82.38
329.287	79.38
329.515	85.38
329.744	101.38
329.972	97.38
330.201	94.38
330.43	78.38
330.658	87.38
330.887	81.38
331.115	78.38
331.344	82.38
331.572	100.38
331.801	89.38
332.03	93.38
332.258	80.38
332.486	89.38
332.715	94.38
332.943	84.38
333.172	92.38
333.4	80.38
333.629	94.38
333.857	89.38
334.085	103.38
334.314	84.38
334.542	95.38
334.771	78.38
334.999	85.38
335.227	91.38
335.455	89.38
335.684	94.38
335.912	84.38
336.14	93.38
336.369	92.38
336.597	94.38
336.825	85.38
337.053	84.38
337.281	94.38
337.51	85.38
337.738	77.38
337.966	82.38
338.194	82.38
338.422	78.38
338.65	93.38
338.878	88.38
339.106	79.38
339.334	96.38
339.562	85.38
339.79	93.38
340.018	85.38
340.246	84.38
340.474	80.38
340.702	95.38
340.93	94.38
341.158	76.38
341.386	89.38
341.614	98.38
341.842	97.38
342.07	91.38
342.298	84.38
342.526	86.38
342.754	83.38
342.981	69.38
343.209	98.38
343.437	90.38
343.665	84.38
343.893	88.38
344.12	86.38
344.348	89.38
344.576	92.38
344.804	88.38
345.031	80.38
345.259	79.38
345.487	80.38
345.714	83.38
345.942	85.38
346.17	82.38
346.397	96.38
346.625	97.38
346.853	82.38
347.08	80.38
347.308	87.38
347.535	82.38
347.763	97.38
347.99	95.38
348.218	87.38
348.445	86.38
348.673	87.38
348.9	87.38
349.128	80.38
349.355	81.38
349.583	94.38
349.81	83.38
350.037	81.38
350.265	101.38
350.492	85.38
350.72	75.38
350.947	102.38
351.174	90.38
351.402	80.38
351.629	79.38
351.856	78.38
352.083	93.38
352.311	68.38
352.538	90.38
352.765	92.38
352.992	82.38
353.22	74.38
353.447	81.38
353.674	77.38
353.901	74.38
354.128	86.38
354.355	82.38
354.583	86.38
354.81	80.38
355.037	84.38
355.264	89.38
355.491	75.38
355.718	84.38
355.945	95.38
356.172	77.38
356.399	93.38
356.626	94.38
356.853	85.38
357.08	107.38
357.307	81.38
357.534	89.38
357.761	83.38
357.988	83.38
358.215	98.38
358.441	109.38
358.668	98.38
358.895	89.38
359.122	93.38
359.349	69.38
359.576	85.38
359.802	89.38
360.029	85.38
360.256	96.38
360.483	88.38
360.709	88.38
360.936	95.38
361.163	84.38
361.39	92.38
361.616	97.38
361.843	94.38
362.07	94.38
362.296	80.38
362.523	96.38
362.749	91.38
362.976	102.38
363.203	89.38
363.429	92.38
363.656	93.38
363.882	86.38
364.109	90.38
364.335	111.38
364.562	106.38
364.788	98.38
365.015	103.38
365.241	97.38
365.468	78.38
365.694	99.38
365.92	91.38
366.147	92.38
366.373	83.38
366.599	72.38
366.826	90.38
367.052	85.38
367.278	83.38
367.505	84.38
367.731	100.38
367.957	82.38
368.184	81.38
368.41	84.38
368.636	87.38
368.862	67.38
369.089	97.38
369.315	87.38
369.541	91.38
369.767	82.38
369.993	87.38
370.219	109.38
370.445	86.38
370.672	88.38
370.898	113.38
371.124	83.38
371.35	87.38
371.576	77.38
371.802	87.38
372.028	85.38
372.254	96.38
372.48	86.38
372.706	88.38
372.932	95.38
373.158	109.38
373.384	103.38
373.61	109.38
373.835	95.38
374.061	99.38
374.287	89.38
374.513	100.38
374.739	102.38
374.965	90.38
375.191	101.38
375.416	89.38
375.642	97.38
375.868	103.38
376.094	93.38
376.319	83.38
376.545	80.38
376.771	99.38
376.997	98.38
377.222	69.38
377.448	70.38
377.674	86.38
377.899	96.38
378.125	88.38
378.35	83.38
378.576	85.38
378.802	79.38
379.027	89.38
379.253	102.38
379.478	88.38
379.704	83.38
379.929	96.38
380.155	107.38
380.38	67.38
380.606	85.38
380.831	89.38
381.057	94.38
381.282	81.38
381.507	88.38
381.733	85.38
381.958	91.38
382.184	96.38
382.409	100.38
382.634	80.38
382.86	100.38
383.085	116.38
383.31	102.38
383.535	92.38
383.761	111.38
383.986	119.38
384.211	86.38
384.436	91.38
384.662	98.38
384.887	93.38
385.112	97.38
385.337	91.38
385.562	94.38
385.787	99.38
386.013	96.38
386.238	95.38
386.463	83.38
386.688	103.38
386.913	83.38
387.138	88.38
387.363	84.38
387.588	114.38
387.813	98.38
388.038	85.38
388.263	99.38
388.488	88.38
388.713	83.38
388.938	86.38
389.163	90.38
389.387	76.38
389.612	98.38
389.837	98.38
390.062	90.38
390.287	81.38
390.512	84.38
390.736	92.38
390.961	79.38
391.186	93.38
391.411	88.38
391.636	86.38
391.86	94.38
392.085	92.38
392.31	93.38
392.534	97.38
392.759	100.38
392.984	115.38
393.208	154.38
393.433	232.38
393.658	166.38
393.882	109.38
394.107	111.38
394.331	116.38
394.556	106.38
394.78	94.38
395.005	88.38
395.229	89.38
395.454	104.38
395.678	94.38
395.903	114.38
396.127	120.38
396.352	126.38
396.576	130.38
396.801	175.38
397.025	190.38
397.249	122.38
397.474	103.38
397.698	97.38
397.922	87.38
398.147	90.38
398.371	89.38
398.595	88.38
398.82	83.38
399.044	66.38
399.268	97.38
399.492	79.38
399.717	80.38
399.941	83.38
400.165	91.38
400.389	87.38
400.613	90.38
400.837	91.38
401.062	83.38
401.286	82.38
401.51	90.38
401.734	87.38
401.958	84.38
402.182	84.38
402.406	99.38
402.63	82.38
402.854	79.38
403.078	94.38
403.302	89.38
403.526	83.38
403.75	85.38
403.974	78.38
404.198	84.38
404.422	98.38
404.645	113.38
404.869	91.38
405.093	85.38
405.317	87.38
405.541	82.38
405.765	86.38
405.988	92.38
406.212	97.38
406.436	76.38
406.66	72.38
406.883	90.38
407.107	82.38
407.331	89.38
407.555	79.38
407.778	99.38
408.002	91.38
408.226	98.38
408.449	101.38
408.673	83.38
408.896	85.38
409.12	82.38
409.344	78.38
409.567	79.38
409.791	89.38
410.014	95.38
410.238	101.38
410.461	82.38
410.685	85.38
410.908	77.38
411.132	87.38
411.355	67.38
411.578	84.38
411.802	82.38
412.025	88.38
412.249	78.38
412.472	85.38
412.695	93.38
412.919	91.38
413.142	95.38
413.365	70.38
413.589	74.38
413.812	86.38
414.035	87.38
414.258	79.38
414.482	94.38
414.705	87.38
414.928	81.38
415.151	77.38
415.374	82.38
415.597	74.38
415.821	89.38
416.044	91.38
416.267	98.38
416.49	85.38
416.713	89.38
416.936	78.38
417.159	79.38
417.382	80.38
417.605	82.38
417.828	70.38
418.051	85.38
418.274	93.38
418.497	75.38
418.72	90.38
418.943	91.38
419.166	86.38
419.389	81.38
419.611	93.38
419.834	80.38
420.057	88.38
420.28	92.38
420.503	81.38
420.726	75.38
420.948	78.38
421.171	85.38
421.394	95.38
421.617	114.38
421.839	105.38
422.062	103.38
422.285	118.38
422.507	170.38
422.73	274.38
422.953	222.38
423.175	138.38
423.398	95.38
423.621	83.38
423.843	98.38
424.066	92.38
424.288	73.38
424.511	85.38
424.733	81.38
424.956	80.38
425.178	95.38
425.401	69.38
425.623	88.38
425.846	77.38
426.068	77.38
426.291	88.38
426.513	71.38
426.735	102.38
426.958	83.38
427.18	93.38
427.402	101.38
427.625	75.38
427.847	78.38
428.069	99.38
428.292	102.38
428.514	104.38
428.736	107.38
428.958	109.38
429.181	123.38
429.403	84.38
429.625	85.38
429.847	103.38
430.069	125.38
430.292	130.38
430.514	136.38
430.736	119.38
430.958	103.38
431.18	82.38
431.402	82.38
431.624	87.38
431.846	104.38
432.068	101.38
432.29	89.38
432.512	102.38
432.734	100.38
432.956	80.38
433.178	75.38
433.4	88.38
433.622	95.38
433.844	98.38
434.066	89.38
434.287	82.38
434.509	79.38
434.731	97.38
434.953	89.38
435.175	87.38
435.397	83.38
435.618	90.38
435.84	82.38
436.062	82.38
436.284	78.38
436.505	87.38
436.727	89.38
436.949	66.38
437.17	85.38
437.392	79.38
437.614	82.38
437.835	84.38
438.057	96.38
438.278	95.38
438.5	96.38
438.721	89.38
438.943	86.38
439.165	68.38
439.386	71.38
439.608	71.38
439.829	71.38
440.05	82.38
440.272	79.38
440.493	92.38
440.715	72.38
440.936	73.38
441.158	79.38
441.379	90.38
441.6	88.38
441.822	97.38
442.043	87.38
442.264	90.38
442.486	111.38
442.707	119.38
442.928	110.38
443.149	97.38
443.371	103.38
443.592	156.38
443.813	135.38
444.034	90.38
444.255	80.38
444.476	101.38
444.698	88.38
444.919	90.38
445.14	154.38
445.361	139.38
445.582	182.38
445.803	165.38
446.024	87.38
446.245	88.38
446.466	87.38
446.687	95.38
446.908	89.38
447.129	95.38
447.35	80.38
447.571	71.38
447.792	79.38
448.013	79.38
448.234	92.38
448.455	87.38
448.675	78.38
448.896	76.38
449.117	69.38
449.338	82.38
449.559	79.38
449.779	82.38
450	88.38
450.221	83.38
450.442	80.38
450.662	94.38
450.883	87.38
451.104	95.38
451.324	69.38
451.545	81.38
451.766	74.38
451.986	85.38
452.207	90.38
452.428	73.38
452.648	72.38
452.869	86.38
453.089	87.38
453.31	82.38
453.53	74.38
453.751	78.38
453.971	89.38
454.192	85.38
454.412	84.38
454.633	84.38
454.853	94.38
455.073	93.38
455.294	94.38
455.514	87.38
455.734	82.38
455.955	81.38
456.175	76.38
456.395	89.38
456.616	82.38
456.836	82.38
457.056	84.38
457.276	87.38
457.497	86.38
457.717	88.38
457.937	82.38
458.157	87.38
458.377	103.38
458.598	96.38
458.818	106.38
459.038	89.38
459.258	87.38
459.478	79.38
459.698	70.38
459.918	81.38
460.138	81.38
460.358	82.38
460.578	75.38
460.798	92.38
461.018	111.38
461.238	81.38
461.458	90.38
461.678	85.38
461.898	81.38
462.118	79.38
462.338	94.38
462.558	82.38
462.777	84.38
462.997	83.38
463.217	81.38
463.437	88.38
463.657	90.38
463.876	81.38
464.096	81.38
464.316	92.38
464.536	82.38
464.755	95.38
464.975	72.38
465.195	89.38
465.414	87.38
465.634	86.38
465.854	84.38
466.073	75.38
466.293	84.38
466.512	82.38
466.732	83.38
466.951	76.38
467.171	79.38
467.391	80.38
467.61	74.38
467.829	104.38
468.049	87.38
468.268	80.38
468.488	91.38
468.707	87.38
468.927	70.38
469.146	85.38
469.365	84.38
469.585	80.38
469.804	81.38
470.023	81.38
470.243	97.38
470.462	92.38
470.681	93.38
470.901	86.38
471.12	79.38
471.339	89.38
471.558	86.38
471.777	86.38
471.997	86.38
472.216	94.38
472.435	76.38
472.654	98.38
472.873	83.38
473.092	76.38
473.311	79.38
473.53	86.38
473.749	86.38
473.968	85.38
474.187	83.38
474.406	77.38
474.625	78.38
474.844	92.38
475.063	91.38
475.282	82.38
475.501	85.38
475.72	97.38
475.939	80.38
476.158	87.38
476.377	83.38
476.596	94.38
476.814	81.38
477.033	82.38
477.252	88.38
477.471	90.38
477.69	83.38
477.908	84.38
478.127	85.38
478.346	73.38
478.564	94.38
478.783	89.38
479.002	88.38
479.22	95.38
479.439	85.38
479.658	85.38
479.876	75.38
480.095	94.38
480.313	85.38
480.532	93.38
480.751	93.38
480.969	85.38
481.188	94.38
481.406	90.38
481.624	73.38
481.843	78.38
482.061	79.38
482.28	79.38
482.498	82.38
482.717	97.38
482.935	94.38
483.153	79.38
483.372	88.38
483.59	79.38
483.808	98.38
484.027	98.38
484.245	89.38
484.463	75.38
484.681	96.38
484.9	69.38
485.118	86.38
485.336	69.38
485.554	83.38
485.772	69.38
485.99	66.38
486.209	96.38
486.427	82.38
486.645	85.38
486.863	94.38
487.081	88.38
487.299	89.38
487.517	91.38
487.735	106.38
487.953	123.38
488.171	103.38
488.389	81.38
488.607	90.38
488.825	77.38
489.043	87.38
489.261	95.38
489.479	67.38
489.696	98.38
489.914	86.38
490.132	84.38
490.35	94.38
490.568	76.38
490.786	87.38
491.003	84.38
491.221	84.38
491.439	82.38
491.657	98.38
491.874	90.38
492.092	86.38
492.31	112.38
492.527	103.38
492.745	89.38
492.963	96.38
493.18	81.38
493.398	93.38
493.615	89.38
493.833	88.38
494.05	78.38
494.268	82.38
494.485	85.38
494.703	92.38
494.92	94.38
495.138	93.38
495.355	103.38
495.573	79.38
495.79	91.38
496.008	80.38
496.225	87.38
496.442	86.38
496.66	87.38
496.877	86.38
497.094	99.38
497.312	79.38
497.529	88.38
497.746	72.38
497.963	99.38
498.181	75.38
498.398	97.38
498.615	73.38
498.832	85.38
499.049	94.38
499.267	86.38
499.484	96.38
499.701	89.38
499.918	95.38
500.135	93.38
500.352	88.38
500.569	97.38
500.786	82.38
501.003	105.38
501.22	89.38
501.437	85.38
501.654	85.38
501.871	74.38
502.088	95.38
502.305	87.38
502.522	85.38
502.739	99.38
502.956	97.38
503.172	100.38
503.389	101.38
503.606	96.38
503.823	94.38
504.04	99.38
504.256	106.38
504.473	106.38
504.69	96.38
504.907	88.38
505.123	82.38
505.34	78.38
505.557	91.38
505.773	70.38
505.99	93.38
506.207	97.38
506.423	74.38
506.64	83.38
506.856	81.38
507.073	87.38
507.289	77.38
507.506	98.38
507.722	96.38
507.939	82.38
508.155	101.38
508.372	86.38
508.588	91.38
508.805	80.38
509.021	86.38
509.238	86.38
509.454	83.38
509.67	86.38
509.887	83.38
510.103	85.38
510.319	90.38
510.536	90.38
510.752	94.38
510.968	86.38
511.184	86.38
511.401	80.38
511.617	85.38
511.833	87.38
512.049	77.38
512.265	90.38
512.481	99.38
512.698	86.38
512.914	98.38
513.13	89.38
513.346	83.38
513.562	83.38
513.778	96.38
513.994	85.38
514.21	98.38
514.426	98.38
514.642	98.38
514.858	73.38
515.074	81.38
515.29	95.38
515.506	85.38
515.721	78.38
515.937	101.38
516.153	73.38
516.369	83.38
516.585	80.38
516.801	101.38
517.016	84.38
517.232	92.38
517.448	123.38
517.664	101.38
517.879	93.38
518.095	93.38
518.311	94.38
518.527	126.38
