Data from 1600_4_HRD10591_00030.txt Node
Date: Mon Jan 19 13:56:25 EST 2026
User: Yrep
Spectrometer: HR+D1059
Trigger mode: 1
Integration Time (sec): 1.000000E-1
Scans to average: 1
Electric dark correction enabled: true
Nonlinearity correction enabled: false
Boxcar width: 0
XAxis mode: Wavelengths
Number of Pixels in Spectrum: 2048
>>>>>Begin Spectral Data<<<<<
223.165	-11.56
223.4	-11.56
223.635	-11.56
223.869	-1.56
224.104	-21.56
224.338	-15.56
224.573	0.44
224.808	-5.56
225.042	-12.56
225.277	-25.56
225.511	-3.56
225.746	5.44
225.98	3.44
226.215	4.44
226.449	15.44
226.683	14.44
226.918	20.44
227.152	33.44
227.387	29.44
227.621	35.44
227.856	51.44
228.09	47.44
228.324	40.44
228.559	69.44
228.793	59.44
229.027	67.44
229.262	66.44
229.496	64.44
229.73	64.44
229.964	88.44
230.199	74.44
230.433	65.44
230.667	84.44
230.901	77.44
231.136	79.44
231.37	66.44
231.604	86.44
231.838	77.44
232.072	90.44
232.306	74.44
232.541	66.44
232.775	86.44
233.009	90.44
233.243	80.44
233.477	87.44
233.711	79.44
233.945	81.44
234.179	80.44
234.413	80.44
234.647	77.44
234.881	74.44
235.115	71.44
235.349	76.44
235.583	69.44
235.817	78.44
236.051	79.44
236.285	78.44
236.519	73.44
236.753	79.44
236.987	75.44
237.221	70.44
237.455	75.44
237.689	80.44
237.922	71.44
238.156	85.44
238.39	79.44
238.624	79.44
238.858	66.44
239.091	69.44
239.325	79.44
239.559	85.44
239.793	77.44
240.027	81.44
240.26	66.44
240.494	76.44
240.728	88.44
240.961	71.44
241.195	72.44
241.429	79.44
241.662	77.44
241.896	82.44
242.13	70.44
242.363	77.44
242.597	70.44
242.83	78.44
243.064	58.44
243.298	74.44
243.531	72.44
243.765	87.44
243.998	83.44
244.232	86.44
244.465	80.44
244.699	63.44
244.932	76.44
245.166	82.44
245.399	75.44
245.633	76.44
245.866	68.44
246.099	82.44
246.333	80.44
246.566	73.44
246.8	77.44
247.033	70.44
247.266	75.44
247.5	94.44
247.733	90.44
247.966	80.44
248.2	90.44
248.433	81.44
248.666	70.44
248.899	71.44
249.133	77.44
249.366	76.44
249.599	94.44
249.832	86.44
250.066	70.44
250.299	91.44
250.532	76.44
250.765	62.44
250.998	69.44
251.231	61.44
251.465	58.44
251.698	67.44
251.931	74.44
252.164	86.44
252.397	82.44
252.63	68.44
252.863	71.44
253.096	87.44
253.329	75.44
253.562	76.44
253.795	86.44
254.028	88.44
254.261	81.44
254.494	99.44
254.727	64.44
254.96	74.44
255.193	80.44
255.426	67.44
255.659	74.44
255.892	71.44
256.124	77.44
256.357	82.44
256.59	75.44
256.823	82.44
257.056	72.44
257.289	74.44
257.521	78.44
257.754	72.44
257.987	91.44
258.22	89.44
258.452	93.44
258.685	82.44
258.918	85.44
259.151	66.44
259.383	87.44
259.616	92.44
259.849	86.44
260.081	73.44
260.314	79.44
260.547	66.44
260.779	83.44
261.012	65.44
261.244	72.44
261.477	81.44
261.71	76.44
261.942	86.44
262.175	76.44
262.407	84.44
262.64	69.44
262.872	77.44
263.105	83.44
263.337	89.44
263.57	84.44
263.802	77.44
264.035	96.44
264.267	66.44
264.499	59.44
264.732	82.44
264.964	77.44
265.197	83.44
265.429	87.44
265.661	97.44
265.894	80.44
266.126	89.44
266.358	97.44
266.591	85.44
266.823	78.44
267.055	77.44
267.287	66.44
267.52	99.44
267.752	83.44
267.984	78.44
268.216	83.44
268.448	93.44
268.681	84.44
268.913	78.44
269.145	96.44
269.377	66.44
269.609	70.44
269.841	91.44
270.073	91.44
270.306	72.44
270.538	68.44
270.77	84.44
271.002	84.44
271.234	81.44
271.466	85.44
271.698	78.44
271.93	76.44
272.162	84.44
272.394	82.44
272.626	85.44
272.858	80.44
273.09	89.44
273.322	82.44
273.553	78.44
273.785	85.44
274.017	86.44
274.249	92.44
274.481	83.44
274.713	88.44
274.945	76.44
275.176	86.44
275.408	80.44
275.64	92.44
275.872	81.44
276.104	88.44
276.335	84.44
276.567	71.44
276.799	86.44
277.031	72.44
277.262	70.44
277.494	84.44
277.726	81.44
277.957	86.44
278.189	88.44
278.421	79.44
278.652	85.44
278.884	76.44
279.115	75.44
279.347	80.44
279.579	74.44
279.81	84.44
280.042	85.44
280.273	74.44
280.505	86.44
280.736	90.44
280.968	77.44
281.199	72.44
281.431	62.44
281.662	88.44
281.894	90.44
282.125	94.44
282.356	91.44
282.588	79.44
282.819	78.44
283.051	73.44
283.282	59.44
283.513	76.44
283.745	86.44
283.976	73.44
284.207	77.44
284.439	99.44
284.67	78.44
284.901	90.44
285.132	91.44
285.364	79.44
285.595	74.44
285.826	79.44
286.057	94.44
286.288	87.44
286.52	86.44
286.751	78.44
286.982	96.44
287.213	83.44
287.444	64.44
287.675	70.44
287.906	74.44
288.138	78.44
288.369	93.44
288.6	86.44
288.831	81.44
289.062	74.44
289.293	72.44
289.524	83.44
289.755	90.44
289.986	91.44
290.217	80.44
290.448	88.44
290.679	93.44
290.91	91.44
291.141	73.44
291.371	78.44
291.602	83.44
291.833	86.44
292.064	82.44
292.295	72.44
292.526	72.44
292.757	92.44
292.987	69.44
293.218	86.44
293.449	82.44
293.68	81.44
293.91	82.44
294.141	80.44
294.372	96.44
294.603	98.44
294.833	81.44
295.064	84.44
295.295	91.44
295.525	78.44
295.756	83.44
295.987	97.44
296.217	76.44
296.448	75.44
296.679	86.44
296.909	99.44
297.14	102.44
297.37	90.44
297.601	76.44
297.831	82.44
298.062	78.44
298.292	80.44
298.523	87.44
298.753	75.44
298.984	90.44
299.214	83.44
299.445	87.44
299.675	78.44
299.905	72.44
300.136	86.44
300.366	78.44
300.597	84.44
300.827	99.44
301.057	84.44
301.288	76.44
301.518	91.44
301.748	79.44
301.979	99.44
302.209	87.44
302.439	84.44
302.669	80.44
302.9	89.44
303.13	90.44
303.36	83.44
303.59	84.44
303.82	79.44
304.051	84.44
304.281	88.44
304.511	96.44
304.741	81.44
304.971	66.44
305.201	84.44
305.431	70.44
305.661	78.44
305.891	87.44
306.121	84.44
306.352	73.44
306.582	82.44
306.812	80.44
307.042	79.44
307.272	89.44
307.502	93.44
307.731	80.44
307.961	72.44
308.191	73.44
308.421	90.44
308.651	70.44
308.881	88.44
309.111	81.44
309.341	73.44
309.571	90.44
309.8	77.44
310.03	63.44
310.26	83.44
310.49	86.44
310.72	87.44
310.949	93.44
311.179	77.44
311.409	82.44
311.639	65.44
311.868	106.44
312.098	82.44
312.328	82.44
312.557	87.44
312.787	83.44
313.017	91.44
313.246	95.44
313.476	96.44
313.706	85.44
313.935	96.44
314.165	71.44
314.394	85.44
314.624	91.44
314.853	78.44
315.083	78.44
315.312	85.44
315.542	88.44
315.771	89.44
316.001	90.44
316.23	93.44
316.46	94.44
316.689	89.44
316.919	71.44
317.148	92.44
317.377	82.44
317.607	86.44
317.836	87.44
318.065	78.44
318.295	71.44
318.524	80.44
318.753	88.44
318.983	71.44
319.212	95.44
319.441	70.44
319.67	90.44
319.9	86.44
320.129	87.44
320.358	87.44
320.587	79.44
320.816	83.44
321.046	79.44
321.275	90.44
321.504	95.44
321.733	72.44
321.962	83.44
322.191	72.44
322.42	88.44
322.649	90.44
322.878	84.44
323.108	86.44
323.337	95.44
323.566	84.44
323.795	74.44
324.024	75.44
324.253	85.44
324.482	94.44
324.71	80.44
324.939	94.44
325.168	81.44
325.397	91.44
325.626	86.44
325.855	83.44
326.084	94.44
326.313	89.44
326.542	91.44
326.77	95.44
326.999	78.44
327.228	85.44
327.457	66.44
327.686	92.44
327.914	84.44
328.143	82.44
328.372	66.44
328.6	82.44
328.829	89.44
329.058	98.44
329.287	68.44
329.515	82.44
329.744	89.44
329.972	80.44
330.201	90.44
330.43	78.44
330.658	88.44
330.887	89.44
331.115	73.44
331.344	99.44
331.572	92.44
331.801	75.44
332.03	90.44
332.258	70.44
332.486	82.44
332.715	73.44
332.943	87.44
333.172	82.44
333.4	95.44
333.629	86.44
333.857	77.44
334.085	81.44
334.314	72.44
334.542	76.44
334.771	94.44
334.999	79.44
335.227	94.44
335.455	83.44
335.684	78.44
335.912	76.44
336.14	83.44
336.369	84.44
336.597	73.44
336.825	88.44
337.053	87.44
337.281	79.44
337.51	96.44
337.738	73.44
337.966	78.44
338.194	67.44
338.422	71.44
338.65	81.44
338.878	91.44
339.106	91.44
339.334	83.44
339.562	91.44
339.79	88.44
340.018	72.44
340.246	74.44
340.474	68.44
340.702	64.44
340.93	93.44
341.158	92.44
341.386	90.44
341.614	77.44
341.842	86.44
342.07	80.44
342.298	82.44
342.526	74.44
342.754	101.44
342.981	94.44
343.209	87.44
343.437	94.44
343.665	95.44
343.893	78.44
344.12	102.44
344.348	83.44
344.576	82.44
344.804	86.44
345.031	64.44
345.259	87.44
345.487	76.44
345.714	84.44
345.942	78.44
346.17	82.44
346.397	85.44
346.625	76.44
346.853	87.44
347.08	86.44
347.308	89.44
347.535	76.44
347.763	86.44
347.99	84.44
348.218	75.44
348.445	82.44
348.673	78.44
348.9	99.44
349.128	78.44
349.355	78.44
349.583	87.44
349.81	75.44
350.037	75.44
350.265	69.44
350.492	83.44
350.72	77.44
350.947	86.44
351.174	75.44
351.402	89.44
351.629	78.44
351.856	74.44
352.083	92.44
352.311	96.44
352.538	87.44
352.765	79.44
352.992	85.44
353.22	82.44
353.447	69.44
353.674	86.44
353.901	98.44
354.128	69.44
354.355	69.44
354.583	82.44
354.81	78.44
355.037	86.44
355.264	87.44
355.491	86.44
355.718	83.44
355.945	94.44
356.172	79.44
356.399	100.44
356.626	74.44
356.853	90.44
357.08	83.44
357.307	86.44
357.534	72.44
357.761	86.44
357.988	96.44
358.215	91.44
358.441	83.44
358.668	79.44
358.895	78.44
359.122	84.44
359.349	99.44
359.576	72.44
359.802	84.44
360.029	77.44
360.256	71.44
360.483	69.44
360.709	87.44
360.936	96.44
361.163	81.44
361.39	79.44
361.616	79.44
361.843	91.44
362.07	82.44
362.296	87.44
362.523	70.44
362.749	80.44
362.976	86.44
363.203	89.44
363.429	74.44
363.656	90.44
363.882	73.44
364.109	86.44
364.335	86.44
364.562	72.44
364.788	84.44
365.015	70.44
365.241	83.44
365.468	94.44
365.694	80.44
365.92	83.44
366.147	90.44
366.373	82.44
366.599	70.44
366.826	90.44
367.052	81.44
367.278	83.44
367.505	75.44
367.731	93.44
367.957	98.44
368.184	80.44
368.41	80.44
368.636	75.44
368.862	81.44
369.089	75.44
369.315	87.44
369.541	93.44
369.767	94.44
369.993	95.44
370.219	92.44
370.445	95.44
370.672	94.44
370.898	82.44
371.124	72.44
371.35	83.44
371.576	76.44
371.802	94.44
372.028	81.44
372.254	87.44
372.48	97.44
372.706	86.44
372.932	78.44
373.158	79.44
373.384	92.44
373.61	93.44
373.835	88.44
374.061	107.44
374.287	90.44
374.513	75.44
374.739	79.44
374.965	77.44
375.191	72.44
375.416	76.44
375.642	98.44
375.868	84.44
376.094	79.44
376.319	81.44
376.545	68.44
376.771	86.44
376.997	95.44
377.222	80.44
377.448	82.44
377.674	74.44
377.899	80.44
378.125	76.44
378.35	86.44
378.576	72.44
378.802	74.44
379.027	91.44
379.253	80.44
379.478	75.44
379.704	91.44
379.929	88.44
380.155	80.44
380.38	85.44
380.606	82.44
380.831	93.44
381.057	83.44
381.282	79.44
381.507	82.44
381.733	80.44
381.958	69.44
382.184	70.44
382.409	71.44
382.634	81.44
382.86	84.44
383.085	98.44
383.31	78.44
383.535	86.44
383.761	88.44
383.986	95.44
384.211	78.44
384.436	72.44
384.662	83.44
384.887	84.44
385.112	71.44
385.337	82.44
385.562	92.44
385.787	84.44
386.013	82.44
386.238	85.44
386.463	88.44
386.688	87.44
386.913	80.44
387.138	80.44
387.363	81.44
387.588	86.44
387.813	78.44
388.038	77.44
388.263	80.44
388.488	73.44
388.713	91.44
388.938	78.44
389.163	82.44
389.387	59.44
389.612	80.44
389.837	84.44
390.062	81.44
390.287	80.44
390.512	86.44
390.736	72.44
390.961	74.44
391.186	68.44
391.411	83.44
391.636	80.44
391.86	78.44
392.085	82.44
392.31	82.44
392.534	88.44
392.759	92.44
392.984	95.44
393.208	95.44
393.433	99.44
393.658	87.44
393.882	87.44
394.107	86.44
394.331	93.44
394.556	97.44
394.78	103.44
395.005	86.44
395.229	88.44
395.454	80.44
395.678	87.44
395.903	88.44
396.127	98.44
396.352	83.44
396.576	90.44
396.801	103.44
397.025	100.44
397.249	86.44
397.474	70.44
397.698	80.44
397.922	99.44
398.147	78.44
398.371	81.44
398.595	75.44
398.82	90.44
399.044	83.44
399.268	82.44
399.492	76.44
399.717	76.44
399.941	80.44
400.165	76.44
400.389	83.44
400.613	80.44
400.837	83.44
401.062	83.44
401.286	82.44
401.51	90.44
401.734	80.44
401.958	83.44
402.182	84.44
402.406	78.44
402.63	84.44
402.854	93.44
403.078	90.44
403.302	80.44
403.526	70.44
403.75	76.44
403.974	72.44
404.198	86.44
404.422	94.44
404.645	90.44
404.869	89.44
405.093	82.44
405.317	72.44
405.541	81.44
405.765	79.44
405.988	79.44
406.212	69.44
406.436	78.44
406.66	81.44
406.883	80.44
407.107	66.44
407.331	84.44
407.555	74.44
407.778	91.44
408.002	70.44
408.226	89.44
408.449	66.44
408.673	90.44
408.896	81.44
409.12	76.44
409.344	94.44
409.567	72.44
409.791	88.44
410.014	76.44
410.238	81.44
410.461	71.44
410.685	88.44
410.908	72.44
411.132	69.44
411.355	72.44
411.578	78.44
411.802	74.44
412.025	72.44
412.249	66.44
412.472	75.44
412.695	74.44
412.919	74.44
413.142	97.44
413.365	76.44
413.589	70.44
413.812	86.44
414.035	76.44
414.258	80.44
414.482	82.44
414.705	75.44
414.928	68.44
415.151	76.44
415.374	83.44
415.597	82.44
415.821	81.44
416.044	80.44
416.267	78.44
416.49	90.44
416.713	71.44
416.936	84.44
417.159	82.44
417.382	79.44
417.605	80.44
417.828	78.44
418.051	74.44
418.274	74.44
418.497	72.44
418.72	72.44
418.943	86.44
419.166	84.44
419.389	80.44
419.611	67.44
419.834	80.44
420.057	81.44
420.28	84.44
420.503	83.44
420.726	71.44
420.948	90.44
421.171	81.44
421.394	67.44
421.617	71.44
421.839	84.44
422.062	85.44
422.285	84.44
422.507	101.44
422.73	118.44
422.953	103.44
423.175	98.44
423.398	74.44
423.621	86.44
423.843	80.44
424.066	69.44
424.288	74.44
424.511	87.44
424.733	74.44
424.956	78.44
425.178	72.44
425.401	62.44
425.623	83.44
425.846	69.44
426.068	77.44
426.291	86.44
426.513	86.44
426.735	80.44
426.958	83.44
427.18	85.44
427.402	78.44
427.625	70.44
427.847	70.44
428.069	91.44
428.292	76.44
428.514	71.44
428.736	76.44
428.958	68.44
429.181	86.44
429.403	76.44
429.625	89.44
429.847	96.44
430.069	88.44
430.292	105.44
430.514	82.44
430.736	78.44
430.958	70.44
431.18	82.44
431.402	76.44
431.624	75.44
431.846	70.44
432.068	66.44
432.29	78.44
432.512	94.44
432.734	92.44
432.956	80.44
433.178	86.44
433.4	83.44
433.622	80.44
433.844	78.44
434.066	77.44
434.287	73.44
434.509	89.44
434.731	69.44
434.953	72.44
435.175	76.44
435.397	83.44
435.618	91.44
435.84	83.44
436.062	81.44
436.284	77.44
436.505	90.44
436.727	86.44
436.949	88.44
437.17	83.44
437.392	75.44
437.614	95.44
437.835	78.44
438.057	77.44
438.278	85.44
438.5	95.44
438.721	76.44
438.943	80.44
439.165	78.44
439.386	80.44
439.608	87.44
439.829	76.44
440.05	84.44
440.272	82.44
440.493	83.44
440.715	74.44
440.936	74.44
441.158	78.44
441.379	77.44
441.6	88.44
441.822	84.44
442.043	76.44
442.264	85.44
442.486	77.44
442.707	78.44
442.928	75.44
443.149	77.44
443.371	90.44
443.592	94.44
443.813	92.44
444.034	82.44
444.255	82.44
444.476	74.44
444.698	80.44
444.919	63.44
445.14	144.44
445.361	99.44
445.582	117.44
445.803	85.44
446.024	87.44
446.245	82.44
446.466	86.44
446.687	77.44
446.908	84.44
447.129	86.44
447.35	85.44
447.571	76.44
447.792	76.44
448.013	82.44
448.234	78.44
448.455	73.44
448.675	64.44
448.896	82.44
449.117	77.44
449.338	76.44
449.559	80.44
449.779	64.44
450	93.44
450.221	85.44
450.442	87.44
450.662	79.44
450.883	90.44
451.104	82.44
451.324	79.44
451.545	85.44
451.766	98.44
451.986	66.44
452.207	62.44
452.428	79.44
452.648	87.44
452.869	80.44
453.089	92.44
453.31	67.44
453.53	84.44
453.751	92.44
453.971	75.44
454.192	78.44
454.412	79.44
454.633	88.44
454.853	74.44
455.073	81.44
455.294	72.44
455.514	88.44
455.734	81.44
455.955	74.44
456.175	86.44
456.395	71.44
456.616	78.44
456.836	81.44
457.056	86.44
457.276	76.44
457.497	77.44
457.717	69.44
457.937	84.44
458.157	72.44
458.377	68.44
458.598	76.44
458.818	76.44
459.038	68.44
459.258	80.44
459.478	80.44
459.698	68.44
459.918	95.44
460.138	70.44
460.358	76.44
460.578	85.44
460.798	95.44
461.018	80.44
461.238	86.44
461.458	74.44
461.678	78.44
461.898	86.44
462.118	79.44
462.338	78.44
462.558	80.44
462.777	73.44
462.997	63.44
463.217	90.44
463.437	70.44
463.657	82.44
463.876	86.44
464.096	77.44
464.316	68.44
464.536	85.44
464.755	81.44
464.975	73.44
465.195	71.44
465.414	78.44
465.634	80.44
465.854	67.44
466.073	78.44
466.293	68.44
466.512	78.44
466.732	76.44
466.951	71.44
467.171	82.44
467.391	77.44
467.61	74.44
467.829	76.44
468.049	82.44
468.268	77.44
468.488	81.44
468.707	82.44
468.927	90.44
469.146	84.44
469.365	79.44
469.585	86.44
469.804	63.44
470.023	96.44
470.243	82.44
470.462	89.44
470.681	78.44
470.901	83.44
471.12	80.44
471.339	72.44
471.558	87.44
471.777	81.44
471.997	73.44
472.216	86.44
472.435	96.44
472.654	82.44
472.873	77.44
473.092	78.44
473.311	79.44
473.53	94.44
473.749	95.44
473.968	85.44
474.187	76.44
474.406	83.44
474.625	83.44
474.844	92.44
475.063	80.44
475.282	73.44
475.501	64.44
475.72	92.44
475.939	77.44
476.158	69.44
476.377	78.44
476.596	79.44
476.814	76.44
477.033	84.44
477.252	85.44
477.471	79.44
477.69	77.44
477.908	71.44
478.127	67.44
478.346	83.44
478.564	85.44
478.783	78.44
479.002	86.44
479.22	83.44
479.439	76.44
479.658	81.44
479.876	81.44
480.095	70.44
480.313	98.44
480.532	79.44
480.751	80.44
480.969	81.44
481.188	92.44
481.406	72.44
481.624	82.44
481.843	74.44
482.061	71.44
482.28	74.44
482.498	71.44
482.717	85.44
482.935	81.44
483.153	85.44
483.372	79.44
483.59	68.44
483.808	82.44
484.027	80.44
484.245	84.44
484.463	84.44
484.681	81.44
484.9	77.44
485.118	66.44
485.336	86.44
485.554	91.44
485.772	80.44
485.99	85.44
486.209	93.44
486.427	70.44
486.645	75.44
486.863	79.44
487.081	76.44
487.299	91.44
487.517	86.44
487.735	74.44
487.953	91.44
488.171	78.44
488.389	85.44
488.607	78.44
488.825	80.44
489.043	67.44
489.261	78.44
489.479	86.44
489.696	96.44
489.914	86.44
490.132	83.44
490.35	90.44
490.568	70.44
490.786	84.44
491.003	74.44
491.221	80.44
491.439	70.44
491.657	91.44
491.874	104.44
492.092	85.44
492.31	81.44
492.527	72.44
492.745	76.44
492.963	87.44
493.18	79.44
493.398	79.44
493.615	69.44
493.833	81.44
494.05	78.44
494.268	70.44
494.485	80.44
494.703	82.44
494.92	97.44
495.138	82.44
495.355	88.44
495.573	83.44
495.79	96.44
496.008	82.44
496.225	74.44
496.442	72.44
496.66	86.44
496.877	89.44
497.094	95.44
497.312	84.44
497.529	82.44
497.746	91.44
497.963	84.44
498.181	82.44
498.398	83.44
498.615	76.44
498.832	78.44
499.049	82.44
499.267	88.44
499.484	91.44
499.701	86.44
499.918	82.44
500.135	72.44
500.352	82.44
500.569	67.44
500.786	78.44
501.003	95.44
501.22	74.44
501.437	80.44
501.654	76.44
501.871	76.44
502.088	80.44
502.305	70.44
502.522	93.44
502.739	85.44
502.956	70.44
503.172	84.44
503.389	94.44
503.606	83.44
503.823	80.44
504.04	63.44
504.256	78.44
504.473	84.44
504.69	87.44
504.907	81.44
505.123	74.44
505.34	85.44
505.557	75.44
505.773	91.44
505.99	71.44
506.207	83.44
506.423	78.44
506.64	78.44
506.856	78.44
507.073	77.44
507.289	81.44
507.506	87.44
507.722	75.44
507.939	74.44
508.155	90.44
508.372	73.44
508.588	80.44
508.805	78.44
509.021	80.44
509.238	93.44
509.454	83.44
509.67	74.44
509.887	89.44
510.103	95.44
510.319	90.44
510.536	100.44
510.752	98.44
510.968	86.44
511.184	80.44
511.401	78.44
511.617	87.44
511.833	83.44
512.049	85.44
512.265	70.44
512.481	83.44
512.698	90.44
512.914	86.44
513.13	86.44
513.346	84.44
513.562	75.44
513.778	79.44
513.994	83.44
514.21	83.44
514.426	76.44
514.642	92.44
514.858	88.44
515.074	98.44
515.29	94.44
515.506	87.44
515.721	77.44
515.937	72.44
516.153	66.44
516.369	82.44
516.585	90.44
516.801	77.44
517.016	83.44
517.232	83.44
517.448	92.44
517.664	72.44
517.879	84.44
518.095	78.44
518.311	81.44
518.527	83.44
518.742	80.44
518.958	91.44
519.173	95.44
519.389	78.44
519.605	71.44
519.82	72.44
520.036	81.44
