Data from 2145_2_HRD10591_00025.txt Node
Date: Mon Jan 19 14:22:14 EST 2026
User: Yrep
Spectrometer: HR+D1059
Trigger mode: 1
Integration Time (sec): 1.000000E-1
Scans to average: 1
Electric dark correction enabled: true
Nonlinearity correction enabled: false
Boxcar width: 0
XAxis mode: Wavelengths
Number of Pixels in Spectrum: 2048
>>>>>Begin Spectral Data<<<<<
223.165	-27.25
223.4	-27.25
223.635	-27.25
223.869	-30.25
224.104	-16.25
224.338	-27.25
224.573	-12.25
224.808	-13.25
225.042	-10.25
225.277	-18.25
225.511	1.75
225.746	-0.25
225.98	28.75
226.215	17.75
226.449	8.75
226.683	32.75
226.918	30.75
227.152	34.75
227.387	30.75
227.621	36.75
227.856	47.75
228.09	51.75
228.324	44.75
228.559	57.75
228.793	64.75
229.027	63.75
229.262	71.75
229.496	63.75
229.73	67.75
229.964	67.75
230.199	72.75
230.433	58.75
230.667	72.75
230.901	75.75
231.136	75.75
231.37	81.75
231.604	91.75
231.838	78.75
232.072	89.75
232.306	73.75
232.541	83.75
232.775	65.75
233.009	70.75
233.243	83.75
233.477	89.75
233.711	77.75
233.945	72.75
234.179	81.75
234.413	65.75
234.647	79.75
234.881	67.75
235.115	71.75
235.349	85.75
235.583	75.75
235.817	75.75
236.051	76.75
236.285	75.75
236.519	73.75
236.753	69.75
236.987	91.75
237.221	92.75
237.455	90.75
237.689	81.75
237.922	71.75
238.156	69.75
238.39	84.75
238.624	54.75
238.858	70.75
239.091	62.75
239.325	70.75
239.559	83.75
239.793	73.75
240.027	64.75
240.26	54.75
240.494	68.75
240.728	75.75
240.961	73.75
241.195	76.75
241.429	67.75
241.662	77.75
241.896	67.75
242.13	76.75
242.363	79.75
242.597	73.75
242.83	72.75
243.064	65.75
243.298	76.75
243.531	88.75
243.765	85.75
243.998	65.75
244.232	79.75
244.465	76.75
244.699	77.75
244.932	63.75
245.166	67.75
245.399	84.75
245.633	69.75
245.866	88.75
246.099	78.75
246.333	71.75
246.566	73.75
246.8	74.75
247.033	63.75
247.266	71.75
247.5	66.75
247.733	77.75
247.966	64.75
248.2	88.75
248.433	73.75
248.666	71.75
248.899	81.75
249.133	63.75
249.366	84.75
249.599	81.75
249.832	79.75
250.066	60.75
250.299	78.75
250.532	72.75
250.765	82.75
250.998	78.75
251.231	65.75
251.465	81.75
251.698	85.75
251.931	73.75
252.164	88.75
252.397	77.75
252.63	67.75
252.863	72.75
253.096	83.75
253.329	84.75
253.562	80.75
253.795	78.75
254.028	71.75
254.261	67.75
254.494	89.75
254.727	79.75
254.96	74.75
255.193	79.75
255.426	76.75
255.659	78.75
255.892	85.75
256.124	72.75
256.357	71.75
256.59	74.75
256.823	69.75
257.056	80.75
257.289	72.75
257.521	90.75
257.754	83.75
257.987	84.75
258.22	67.75
258.452	69.75
258.685	60.75
258.918	74.75
259.151	73.75
259.383	93.75
259.616	76.75
259.849	81.75
260.081	82.75
260.314	81.75
260.547	82.75
260.779	75.75
261.012	87.75
261.244	80.75
261.477	77.75
261.71	81.75
261.942	90.75
262.175	73.75
262.407	85.75
262.64	71.75
262.872	74.75
263.105	68.75
263.337	87.75
263.57	77.75
263.802	78.75
264.035	72.75
264.267	75.75
264.499	75.75
264.732	71.75
264.964	76.75
265.197	78.75
265.429	78.75
265.661	90.75
265.894	76.75
266.126	73.75
266.358	65.75
266.591	76.75
266.823	84.75
267.055	83.75
267.287	81.75
267.52	92.75
267.752	85.75
267.984	73.75
268.216	91.75
268.448	85.75
268.681	75.75
268.913	77.75
269.145	95.75
269.377	74.75
269.609	83.75
269.841	90.75
270.073	77.75
270.306	95.75
270.538	63.75
270.77	81.75
271.002	67.75
271.234	101.75
271.466	83.75
271.698	64.75
271.93	69.75
272.162	79.75
272.394	93.75
272.626	71.75
272.858	95.75
273.09	80.75
273.322	75.75
273.553	73.75
273.785	87.75
274.017	75.75
274.249	75.75
274.481	86.75
274.713	64.75
274.945	85.75
275.176	89.75
275.408	85.75
275.64	80.75
275.872	80.75
276.104	79.75
276.335	80.75
276.567	88.75
276.799	92.75
277.031	73.75
277.262	88.75
277.494	77.75
277.726	80.75
277.957	90.75
278.189	76.75
278.421	77.75
278.652	66.75
278.884	81.75
279.115	80.75
279.347	85.75
279.579	94.75
279.81	98.75
280.042	86.75
280.273	65.75
280.505	91.75
280.736	89.75
280.968	88.75
281.199	87.75
281.431	79.75
281.662	84.75
281.894	88.75
282.125	92.75
282.356	67.75
282.588	80.75
282.819	85.75
283.051	72.75
283.282	74.75
283.513	79.75
283.745	72.75
283.976	73.75
284.207	73.75
284.439	88.75
284.67	89.75
284.901	86.75
285.132	91.75
285.364	85.75
285.595	88.75
285.826	90.75
286.057	84.75
286.288	97.75
286.52	86.75
286.751	93.75
286.982	69.75
287.213	83.75
287.444	75.75
287.675	71.75
287.906	93.75
288.138	81.75
288.369	80.75
288.6	76.75
288.831	96.75
289.062	86.75
289.293	91.75
289.524	81.75
289.755	84.75
289.986	91.75
290.217	88.75
290.448	103.75
290.679	81.75
290.91	100.75
291.141	80.75
291.371	85.75
291.602	93.75
291.833	85.75
292.064	81.75
292.295	85.75
292.526	77.75
292.757	84.75
292.987	74.75
293.218	88.75
293.449	75.75
293.68	74.75
293.91	77.75
294.141	71.75
294.372	84.75
294.603	87.75
294.833	75.75
295.064	76.75
295.295	85.75
295.525	83.75
295.756	95.75
295.987	85.75
296.217	92.75
296.448	83.75
296.679	94.75
296.909	84.75
297.14	77.75
297.37	89.75
297.601	77.75
297.831	72.75
298.062	90.75
298.292	76.75
298.523	81.75
298.753	83.75
298.984	83.75
299.214	84.75
299.445	87.75
299.675	84.75
299.905	77.75
300.136	86.75
300.366	73.75
300.597	83.75
300.827	86.75
301.057	83.75
301.288	87.75
301.518	84.75
301.748	88.75
301.979	89.75
302.209	87.75
302.439	80.75
302.669	82.75
302.9	81.75
303.13	82.75
303.36	106.75
303.59	86.75
303.82	80.75
304.051	99.75
304.281	87.75
304.511	86.75
304.741	92.75
304.971	66.75
305.201	87.75
305.431	71.75
305.661	88.75
305.891	74.75
306.121	90.75
306.352	87.75
306.582	81.75
306.812	73.75
307.042	74.75
307.272	98.75
307.502	84.75
307.731	85.75
307.961	87.75
308.191	68.75
308.421	89.75
308.651	97.75
308.881	81.75
309.111	83.75
309.341	84.75
309.571	82.75
309.8	103.75
310.03	83.75
310.26	90.75
310.49	66.75
310.72	66.75
310.949	73.75
311.179	77.75
311.409	95.75
311.639	82.75
311.868	80.75
312.098	95.75
312.328	102.75
312.557	96.75
312.787	93.75
313.017	83.75
313.246	81.75
313.476	75.75
313.706	85.75
313.935	76.75
314.165	83.75
314.394	95.75
314.624	74.75
314.853	77.75
315.083	73.75
315.312	92.75
315.542	92.75
315.771	86.75
316.001	89.75
316.23	96.75
316.46	77.75
316.689	81.75
316.919	80.75
317.148	89.75
317.377	88.75
317.607	92.75
317.836	69.75
318.065	81.75
318.295	83.75
318.524	82.75
318.753	76.75
318.983	84.75
319.212	86.75
319.441	83.75
319.67	90.75
319.9	78.75
320.129	83.75
320.358	84.75
320.587	100.75
320.816	89.75
321.046	84.75
321.275	77.75
321.504	79.75
321.733	100.75
321.962	97.75
322.191	94.75
322.42	83.75
322.649	84.75
322.878	88.75
323.108	83.75
323.337	92.75
323.566	84.75
323.795	84.75
324.024	90.75
324.253	82.75
324.482	87.75
324.71	86.75
324.939	95.75
325.168	91.75
325.397	80.75
325.626	88.75
325.855	76.75
326.084	96.75
326.313	101.75
326.542	78.75
326.77	84.75
326.999	94.75
327.228	80.75
327.457	86.75
327.686	85.75
327.914	75.75
328.143	81.75
328.372	84.75
328.6	85.75
328.829	90.75
329.058	92.75
329.287	90.75
329.515	87.75
329.744	95.75
329.972	96.75
330.201	86.75
330.43	106.75
330.658	82.75
330.887	90.75
331.115	86.75
331.344	87.75
331.572	88.75
331.801	104.75
332.03	93.75
332.258	83.75
332.486	96.75
332.715	76.75
332.943	77.75
333.172	113.75
333.4	69.75
333.629	75.75
333.857	87.75
334.085	91.75
334.314	95.75
334.542	85.75
334.771	103.75
334.999	98.75
335.227	98.75
335.455	68.75
335.684	92.75
335.912	83.75
336.14	96.75
336.369	97.75
336.597	92.75
336.825	73.75
337.053	83.75
337.281	76.75
337.51	91.75
337.738	91.75
337.966	78.75
338.194	77.75
338.422	80.75
338.65	87.75
338.878	89.75
339.106	86.75
339.334	91.75
339.562	85.75
339.79	95.75
340.018	83.75
340.246	89.75
340.474	64.75
340.702	95.75
340.93	96.75
341.158	95.75
341.386	99.75
341.614	82.75
341.842	91.75
342.07	96.75
342.298	92.75
342.526	90.75
342.754	92.75
342.981	84.75
343.209	85.75
343.437	86.75
343.665	80.75
343.893	75.75
344.12	101.75
344.348	100.75
344.576	77.75
344.804	92.75
345.031	90.75
345.259	89.75
345.487	93.75
345.714	73.75
345.942	89.75
346.17	88.75
346.397	81.75
346.625	79.75
346.853	76.75
347.08	70.75
347.308	84.75
347.535	95.75
347.763	85.75
347.99	88.75
348.218	86.75
348.445	96.75
348.673	83.75
348.9	82.75
349.128	73.75
349.355	81.75
349.583	80.75
349.81	89.75
350.037	74.75
350.265	92.75
350.492	95.75
350.72	69.75
350.947	92.75
351.174	96.75
351.402	84.75
351.629	79.75
351.856	93.75
352.083	89.75
352.311	77.75
352.538	81.75
352.765	89.75
352.992	91.75
353.22	76.75
353.447	92.75
353.674	78.75
353.901	98.75
354.128	86.75
354.355	94.75
354.583	81.75
354.81	98.75
355.037	108.75
355.264	83.75
355.491	92.75
355.718	87.75
355.945	90.75
356.172	96.75
356.399	101.75
356.626	72.75
356.853	79.75
357.08	91.75
357.307	91.75
357.534	89.75
357.761	92.75
357.988	82.75
358.215	97.75
358.441	89.75
358.668	83.75
358.895	88.75
359.122	81.75
359.349	79.75
359.576	94.75
359.802	75.75
360.029	93.75
360.256	103.75
360.483	84.75
360.709	78.75
360.936	93.75
361.163	86.75
361.39	83.75
361.616	94.75
361.843	99.75
362.07	93.75
362.296	101.75
362.523	98.75
362.749	95.75
362.976	100.75
363.203	104.75
363.429	100.75
363.656	92.75
363.882	101.75
364.109	105.75
364.335	114.75
364.562	123.75
364.788	88.75
365.015	89.75
365.241	82.75
365.468	77.75
365.694	71.75
365.92	87.75
366.147	87.75
366.373	80.75
366.599	95.75
366.826	83.75
367.052	99.75
367.278	91.75
367.505	75.75
367.731	98.75
367.957	80.75
368.184	80.75
368.41	92.75
368.636	84.75
368.862	96.75
369.089	74.75
369.315	79.75
369.541	90.75
369.767	89.75
369.993	95.75
370.219	85.75
370.445	80.75
370.672	90.75
370.898	94.75
371.124	88.75
371.35	97.75
371.576	84.75
371.802	85.75
372.028	88.75
372.254	91.75
372.48	81.75
372.706	87.75
372.932	75.75
373.158	88.75
373.384	95.75
373.61	101.75
373.835	109.75
374.061	97.75
374.287	91.75
374.513	77.75
374.739	98.75
374.965	104.75
375.191	89.75
375.416	87.75
375.642	90.75
375.868	95.75
376.094	97.75
376.319	106.75
376.545	95.75
376.771	84.75
376.997	85.75
377.222	85.75
377.448	85.75
377.674	90.75
377.899	103.75
378.125	76.75
378.35	89.75
378.576	99.75
378.802	96.75
379.027	104.75
379.253	76.75
379.478	82.75
379.704	71.75
379.929	87.75
380.155	81.75
380.38	77.75
380.606	100.75
380.831	85.75
381.057	91.75
381.282	80.75
381.507	77.75
381.733	104.75
381.958	89.75
382.184	94.75
382.409	86.75
382.634	97.75
382.86	93.75
383.085	90.75
383.31	107.75
383.535	77.75
383.761	87.75
383.986	97.75
384.211	96.75
384.436	95.75
384.662	88.75
384.887	88.75
385.112	88.75
385.337	96.75
385.562	99.75
385.787	92.75
386.013	99.75
386.238	100.75
386.463	97.75
386.688	112.75
386.913	85.75
387.138	98.75
387.363	83.75
387.588	84.75
387.813	92.75
388.038	101.75
388.263	85.75
388.488	90.75
388.713	92.75
388.938	94.75
389.163	91.75
389.387	73.75
389.612	89.75
389.837	95.75
390.062	84.75
390.287	86.75
390.512	88.75
390.736	89.75
390.961	107.75
391.186	89.75
391.411	88.75
391.636	85.75
391.86	99.75
392.085	86.75
392.31	95.75
392.534	92.75
392.759	103.75
392.984	106.75
393.208	176.75
393.433	218.75
393.658	162.75
393.882	109.75
394.107	108.75
394.331	98.75
394.556	117.75
394.78	93.75
395.005	100.75
395.229	87.75
395.454	103.75
395.678	101.75
395.903	114.75
396.127	111.75
396.352	120.75
396.576	132.75
396.801	157.75
397.025	183.75
397.249	144.75
397.474	99.75
397.698	109.75
397.922	90.75
398.147	88.75
398.371	89.75
398.595	83.75
398.82	90.75
399.044	73.75
399.268	100.75
399.492	83.75
399.717	104.75
399.941	106.75
400.165	95.75
400.389	82.75
400.613	86.75
400.837	93.75
401.062	94.75
401.286	82.75
401.51	85.75
401.734	97.75
401.958	82.75
402.182	83.75
402.406	80.75
402.63	90.75
402.854	97.75
403.078	97.75
403.302	87.75
403.526	75.75
403.75	96.75
403.974	92.75
404.198	92.75
404.422	97.75
404.645	96.75
404.869	96.75
405.093	91.75
405.317	98.75
405.541	97.75
405.765	72.75
405.988	82.75
406.212	92.75
406.436	112.75
406.66	78.75
406.883	89.75
407.107	90.75
407.331	93.75
407.555	74.75
407.778	106.75
408.002	89.75
408.226	87.75
408.449	97.75
408.673	91.75
408.896	85.75
409.12	89.75
409.344	98.75
409.567	98.75
409.791	106.75
410.014	100.75
410.238	69.75
410.461	95.75
410.685	69.75
410.908	75.75
411.132	100.75
411.355	87.75
411.578	98.75
411.802	85.75
412.025	97.75
412.249	90.75
412.472	94.75
412.695	90.75
412.919	88.75
413.142	87.75
413.365	83.75
413.589	92.75
413.812	89.75
414.035	97.75
414.258	85.75
414.482	87.75
414.705	81.75
414.928	88.75
415.151	69.75
415.374	91.75
415.597	74.75
415.821	92.75
416.044	80.75
416.267	88.75
416.49	88.75
416.713	84.75
416.936	91.75
417.159	95.75
417.382	96.75
417.605	96.75
417.828	89.75
418.051	84.75
418.274	79.75
418.497	85.75
418.72	97.75
418.943	72.75
419.166	80.75
419.389	92.75
419.611	74.75
419.834	90.75
420.057	87.75
420.28	90.75
420.503	96.75
420.726	84.75
420.948	92.75
421.171	88.75
421.394	95.75
421.617	108.75
421.839	111.75
422.062	127.75
422.285	170.75
422.507	232.75
422.73	281.75
422.953	292.75
423.175	211.75
423.398	135.75
423.621	126.75
423.843	107.75
424.066	99.75
424.288	89.75
424.511	94.75
424.733	95.75
424.956	89.75
425.178	99.75
425.401	81.75
425.623	83.75
425.846	73.75
426.068	89.75
426.291	103.75
426.513	98.75
426.735	66.75
426.958	77.75
427.18	83.75
427.402	91.75
427.625	86.75
427.847	74.75
428.069	85.75
428.292	105.75
428.514	114.75
428.736	109.75
428.958	116.75
429.181	108.75
429.403	96.75
429.625	95.75
429.847	115.75
430.069	130.75
430.292	138.75
430.514	142.75
430.736	109.75
430.958	132.75
431.18	96.75
431.402	102.75
431.624	93.75
431.846	104.75
432.068	108.75
432.29	95.75
432.512	86.75
432.734	80.75
432.956	96.75
433.178	94.75
433.4	89.75
433.622	100.75
433.844	89.75
434.066	91.75
434.287	80.75
434.509	81.75
434.731	76.75
434.953	75.75
435.175	75.75
435.397	91.75
435.618	91.75
435.84	92.75
436.062	97.75
436.284	102.75
436.505	100.75
436.727	67.75
436.949	80.75
437.17	85.75
437.392	91.75
437.614	83.75
437.835	79.75
438.057	78.75
438.278	83.75
438.5	101.75
438.721	87.75
438.943	89.75
439.165	87.75
439.386	77.75
439.608	90.75
439.829	93.75
440.05	92.75
440.272	88.75
440.493	98.75
440.715	68.75
440.936	74.75
441.158	91.75
441.379	81.75
441.6	83.75
441.822	77.75
442.043	92.75
442.264	97.75
442.486	130.75
442.707	153.75
442.928	107.75
443.149	100.75
443.371	133.75
443.592	199.75
443.813	176.75
444.034	100.75
444.255	84.75
444.476	75.75
444.698	87.75
444.919	92.75
445.14	197.75
445.361	176.75
445.582	217.75
445.803	206.75
446.024	115.75
446.245	95.75
446.466	93.75
446.687	79.75
446.908	85.75
447.129	93.75
447.35	88.75
447.571	86.75
447.792	91.75
448.013	104.75
448.234	77.75
448.455	92.75
448.675	85.75
448.896	98.75
449.117	80.75
449.338	79.75
449.559	78.75
449.779	93.75
450	77.75
450.221	91.75
450.442	87.75
450.662	87.75
450.883	82.75
451.104	100.75
451.324	92.75
451.545	82.75
451.766	90.75
451.986	84.75
452.207	92.75
452.428	88.75
452.648	81.75
452.869	106.75
453.089	88.75
453.31	98.75
453.53	74.75
453.751	89.75
453.971	100.75
454.192	83.75
454.412	84.75
454.633	83.75
454.853	77.75
455.073	71.75
455.294	80.75
455.514	94.75
455.734	91.75
455.955	85.75
456.175	96.75
456.395	72.75
456.616	83.75
456.836	76.75
457.056	93.75
457.276	89.75
457.497	90.75
457.717	101.75
457.937	98.75
458.157	123.75
458.377	122.75
458.598	112.75
458.818	134.75
459.038	99.75
459.258	83.75
459.478	88.75
459.698	89.75
459.918	82.75
460.138	77.75
460.358	74.75
460.578	90.75
460.798	120.75
461.018	111.75
461.238	93.75
461.458	80.75
461.678	89.75
461.898	91.75
462.118	76.75
462.338	91.75
462.558	81.75
462.777	74.75
462.997	75.75
463.217	89.75
463.437	92.75
463.657	76.75
463.876	81.75
464.096	66.75
464.316	76.75
464.536	87.75
464.755	93.75
464.975	83.75
465.195	80.75
465.414	82.75
465.634	78.75
465.854	90.75
466.073	90.75
466.293	98.75
466.512	84.75
466.732	89.75
466.951	89.75
467.171	102.75
467.391	76.75
467.61	98.75
467.829	95.75
468.049	91.75
468.268	92.75
468.488	68.75
468.707	84.75
468.927	66.75
469.146	94.75
469.365	75.75
469.585	97.75
469.804	82.75
470.023	100.75
470.243	91.75
470.462	108.75
470.681	88.75
470.901	89.75
471.12	90.75
471.339	99.75
471.558	79.75
471.777	82.75
471.997	88.75
472.216	91.75
472.435	90.75
472.654	81.75
472.873	88.75
473.092	87.75
473.311	87.75
473.53	85.75
473.749	95.75
473.968	83.75
474.187	85.75
474.406	88.75
474.625	87.75
474.844	83.75
475.063	88.75
475.282	85.75
475.501	83.75
475.72	83.75
475.939	92.75
476.158	82.75
476.377	93.75
476.596	94.75
476.814	83.75
477.033	95.75
477.252	88.75
477.471	83.75
477.69	87.75
477.908	82.75
478.127	101.75
478.346	97.75
478.564	84.75
478.783	83.75
479.002	101.75
479.22	74.75
479.439	98.75
479.658	92.75
479.876	82.75
480.095	92.75
480.313	89.75
480.532	98.75
480.751	85.75
480.969	70.75
481.188	87.75
481.406	97.75
481.624	61.75
481.843	89.75
482.061	91.75
482.28	88.75
482.498	101.75
482.717	93.75
482.935	89.75
483.153	81.75
483.372	84.75
483.59	92.75
483.808	91.75
484.027	89.75
484.245	77.75
484.463	76.75
484.681	91.75
484.9	87.75
485.118	72.75
485.336	81.75
485.554	83.75
485.772	83.75
485.99	96.75
486.209	85.75
486.427	95.75
486.645	77.75
486.863	90.75
487.081	91.75
487.299	88.75
487.517	80.75
487.735	107.75
487.953	181.75
488.171	152.75
488.389	102.75
488.607	96.75
488.825	89.75
489.043	71.75
489.261	84.75
489.479	89.75
489.696	99.75
489.914	89.75
490.132	101.75
490.35	103.75
490.568	86.75
490.786	79.75
491.003	91.75
491.221	78.75
491.439	81.75
491.657	82.75
491.874	85.75
492.092	84.75
492.31	85.75
492.527	87.75
492.745	101.75
492.963	79.75
493.18	97.75
493.398	96.75
493.615	96.75
493.833	84.75
494.05	101.75
494.268	89.75
494.485	103.75
494.703	88.75
494.92	100.75
495.138	85.75
495.355	86.75
495.573	74.75
495.79	85.75
496.008	92.75
496.225	82.75
496.442	97.75
496.66	88.75
496.877	99.75
497.094	103.75
497.312	83.75
497.529	97.75
497.746	77.75
497.963	92.75
498.181	81.75
498.398	103.75
498.615	97.75
498.832	82.75
499.049	97.75
499.267	100.75
499.484	89.75
499.701	101.75
499.918	95.75
500.135	105.75
500.352	80.75
500.569	75.75
500.786	81.75
501.003	90.75
501.22	90.75
501.437	81.75
501.654	81.75
501.871	94.75
502.088	81.75
502.305	93.75
502.522	93.75
502.739	99.75
502.956	76.75
503.172	92.75
503.389	85.75
503.606	89.75
503.823	100.75
504.04	96.75
504.256	146.75
504.473	136.75
504.69	77.75
504.907	91.75
505.123	85.75
505.34	94.75
505.557	89.75
505.773	83.75
505.99	71.75
506.207	92.75
506.423	87.75
506.64	88.75
506.856	76.75
507.073	84.75
507.289	96.75
507.506	73.75
507.722	74.75
507.939	83.75
508.155	94.75
508.372	81.75
508.588	84.75
508.805	83.75
509.021	89.75
509.238	88.75
509.454	92.75
509.67	81.75
509.887	100.75
510.103	82.75
510.319	87.75
510.536	87.75
510.752	100.75
510.968	89.75
511.184	99.75
511.401	81.75
511.617	96.75
511.833	70.75
512.049	88.75
512.265	90.75
512.481	82.75
512.698	76.75
512.914	69.75
513.13	89.75
513.346	103.75
513.562	97.75
513.778	80.75
513.994	82.75
514.21	91.75
514.426	97.75
514.642	83.75
514.858	78.75
515.074	90.75
515.29	92.75
515.506	108.75
515.721	106.75
515.937	95.75
516.153	88.75
516.369	68.75
516.585	85.75
516.801	88.75
517.016	115.75
517.232	89.75
517.448	92.75
517.664	85.75
517.879	100.75
518.095	85.75
