Data from 2145_2_HRD10591_00034.txt Node
Date: Mon Jan 19 14:22:19 EST 2026
User: Yrep
Spectrometer: HR+D1059
Trigger mode: 1
Integration Time (sec): 1.000000E-1
Scans to average: 1
Electric dark correction enabled: true
Nonlinearity correction enabled: false
Boxcar width: 0
XAxis mode: Wavelengths
Number of Pixels in Spectrum: 2048
>>>>>Begin Spectral Data<<<<<
223.165	-14.5
223.4	-14.5
223.635	-14.5
223.869	-24.5
224.104	-27.5
224.338	-8.5
224.573	-14.5
224.808	-6.5
225.042	-18.5
225.277	-5.5
225.511	-3.5
225.746	3.5
225.98	15.5
226.215	1.5
226.449	27.5
226.683	22.5
226.918	25.5
227.152	27.5
227.387	35.5
227.621	35.5
227.856	45.5
228.09	45.5
228.324	45.5
228.559	69.5
228.793	66.5
229.027	67.5
229.262	61.5
229.496	55.5
229.73	73.5
229.964	77.5
230.199	65.5
230.433	86.5
230.667	81.5
230.901	93.5
231.136	80.5
231.37	66.5
231.604	66.5
231.838	89.5
232.072	85.5
232.306	87.5
232.541	94.5
232.775	79.5
233.009	82.5
233.243	88.5
233.477	87.5
233.711	85.5
233.945	83.5
234.179	88.5
234.413	77.5
234.647	85.5
234.881	76.5
235.115	78.5
235.349	63.5
235.583	80.5
235.817	79.5
236.051	71.5
236.285	85.5
236.519	85.5
236.753	69.5
236.987	76.5
237.221	70.5
237.455	77.5
237.689	79.5
237.922	72.5
238.156	76.5
238.39	84.5
238.624	64.5
238.858	71.5
239.091	83.5
239.325	69.5
239.559	92.5
239.793	60.5
240.027	81.5
240.26	78.5
240.494	77.5
240.728	71.5
240.961	77.5
241.195	76.5
241.429	75.5
241.662	71.5
241.896	74.5
242.13	87.5
242.363	78.5
242.597	85.5
242.83	73.5
243.064	79.5
243.298	75.5
243.531	76.5
243.765	91.5
243.998	79.5
244.232	78.5
244.465	65.5
244.699	87.5
244.932	69.5
245.166	83.5
245.399	84.5
245.633	77.5
245.866	80.5
246.099	88.5
246.333	80.5
246.566	74.5
246.8	59.5
247.033	74.5
247.266	88.5
247.5	74.5
247.733	84.5
247.966	85.5
248.2	78.5
248.433	83.5
248.666	76.5
248.899	77.5
249.133	79.5
249.366	73.5
249.599	84.5
249.832	92.5
250.066	89.5
250.299	80.5
250.532	78.5
250.765	77.5
250.998	73.5
251.231	77.5
251.465	69.5
251.698	75.5
251.931	79.5
252.164	83.5
252.397	83.5
252.63	87.5
252.863	82.5
253.096	78.5
253.329	81.5
253.562	69.5
253.795	83.5
254.028	91.5
254.261	88.5
254.494	81.5
254.727	83.5
254.96	70.5
255.193	86.5
255.426	94.5
255.659	79.5
255.892	74.5
256.124	80.5
256.357	82.5
256.59	91.5
256.823	86.5
257.056	66.5
257.289	91.5
257.521	78.5
257.754	79.5
257.987	89.5
258.22	87.5
258.452	76.5
258.685	93.5
258.918	76.5
259.151	68.5
259.383	81.5
259.616	86.5
259.849	79.5
260.081	76.5
260.314	82.5
260.547	78.5
260.779	97.5
261.012	82.5
261.244	76.5
261.477	77.5
261.71	85.5
261.942	73.5
262.175	79.5
262.407	76.5
262.64	82.5
262.872	83.5
263.105	85.5
263.337	85.5
263.57	87.5
263.802	88.5
264.035	86.5
264.267	86.5
264.499	83.5
264.732	82.5
264.964	83.5
265.197	90.5
265.429	75.5
265.661	77.5
265.894	85.5
266.126	88.5
266.358	81.5
266.591	85.5
266.823	83.5
267.055	101.5
267.287	83.5
267.52	87.5
267.752	80.5
267.984	75.5
268.216	77.5
268.448	83.5
268.681	91.5
268.913	88.5
269.145	79.5
269.377	76.5
269.609	91.5
269.841	80.5
270.073	82.5
270.306	80.5
270.538	82.5
270.77	80.5
271.002	77.5
271.234	75.5
271.466	81.5
271.698	69.5
271.93	70.5
272.162	70.5
272.394	89.5
272.626	81.5
272.858	70.5
273.09	79.5
273.322	83.5
273.553	82.5
273.785	81.5
274.017	85.5
274.249	83.5
274.481	72.5
274.713	95.5
274.945	99.5
275.176	101.5
275.408	85.5
275.64	90.5
275.872	71.5
276.104	80.5
276.335	95.5
276.567	92.5
276.799	85.5
277.031	93.5
277.262	82.5
277.494	83.5
277.726	77.5
277.957	85.5
278.189	82.5
278.421	93.5
278.652	91.5
278.884	77.5
279.115	83.5
279.347	94.5
279.579	82.5
279.81	94.5
280.042	88.5
280.273	115.5
280.505	75.5
280.736	97.5
280.968	85.5
281.199	87.5
281.431	90.5
281.662	97.5
281.894	68.5
282.125	93.5
282.356	83.5
282.588	89.5
282.819	88.5
283.051	97.5
283.282	85.5
283.513	80.5
283.745	90.5
283.976	93.5
284.207	91.5
284.439	82.5
284.67	85.5
284.901	96.5
285.132	86.5
285.364	95.5
285.595	86.5
285.826	87.5
286.057	89.5
286.288	80.5
286.52	78.5
286.751	89.5
286.982	87.5
287.213	89.5
287.444	71.5
287.675	85.5
287.906	80.5
288.138	83.5
288.369	94.5
288.6	84.5
288.831	85.5
289.062	79.5
289.293	75.5
289.524	82.5
289.755	81.5
289.986	95.5
290.217	75.5
290.448	78.5
290.679	75.5
290.91	78.5
291.141	73.5
291.371	98.5
291.602	77.5
291.833	90.5
292.064	92.5
292.295	91.5
292.526	99.5
292.757	85.5
292.987	73.5
293.218	78.5
293.449	87.5
293.68	89.5
293.91	86.5
294.141	100.5
294.372	85.5
294.603	89.5
294.833	90.5
295.064	83.5
295.295	78.5
295.525	75.5
295.756	90.5
295.987	87.5
296.217	77.5
296.448	75.5
296.679	78.5
296.909	104.5
297.14	78.5
297.37	85.5
297.601	83.5
297.831	101.5
298.062	74.5
298.292	91.5
298.523	81.5
298.753	81.5
298.984	98.5
299.214	73.5
299.445	84.5
299.675	85.5
299.905	82.5
300.136	81.5
300.366	86.5
300.597	88.5
300.827	92.5
301.057	82.5
301.288	89.5
301.518	87.5
301.748	101.5
301.979	94.5
302.209	97.5
302.439	86.5
302.669	78.5
302.9	82.5
303.13	94.5
303.36	93.5
303.59	91.5
303.82	91.5
304.051	89.5
304.281	89.5
304.511	92.5
304.741	90.5
304.971	97.5
305.201	84.5
305.431	81.5
305.661	92.5
305.891	68.5
306.121	83.5
306.352	94.5
306.582	91.5
306.812	85.5
307.042	91.5
307.272	81.5
307.502	85.5
307.731	85.5
307.961	98.5
308.191	85.5
308.421	97.5
308.651	103.5
308.881	87.5
309.111	96.5
309.341	93.5
309.571	93.5
309.8	92.5
310.03	82.5
310.26	79.5
310.49	95.5
310.72	93.5
310.949	79.5
311.179	102.5
311.409	96.5
311.639	90.5
311.868	71.5
312.098	71.5
312.328	86.5
312.557	90.5
312.787	97.5
313.017	95.5
313.246	78.5
313.476	77.5
313.706	92.5
313.935	99.5
314.165	88.5
314.394	99.5
314.624	88.5
314.853	93.5
315.083	88.5
315.312	92.5
315.542	83.5
315.771	80.5
316.001	92.5
316.23	86.5
316.46	85.5
316.689	76.5
316.919	91.5
317.148	85.5
317.377	90.5
317.607	90.5
317.836	94.5
318.065	79.5
318.295	87.5
318.524	77.5
318.753	92.5
318.983	90.5
319.212	97.5
319.441	87.5
319.67	89.5
319.9	84.5
320.129	91.5
320.358	82.5
320.587	83.5
320.816	74.5
321.046	80.5
321.275	89.5
321.504	98.5
321.733	91.5
321.962	97.5
322.191	101.5
322.42	89.5
322.649	84.5
322.878	90.5
323.108	86.5
323.337	92.5
323.566	89.5
323.795	101.5
324.024	86.5
324.253	73.5
324.482	76.5
324.71	90.5
324.939	79.5
325.168	71.5
325.397	84.5
325.626	85.5
325.855	91.5
326.084	78.5
326.313	83.5
326.542	87.5
326.77	90.5
326.999	91.5
327.228	65.5
327.457	85.5
327.686	91.5
327.914	83.5
328.143	88.5
328.372	82.5
328.6	85.5
328.829	100.5
329.058	91.5
329.287	87.5
329.515	83.5
329.744	71.5
329.972	93.5
330.201	103.5
330.43	91.5
330.658	93.5
330.887	86.5
331.115	96.5
331.344	79.5
331.572	90.5
331.801	88.5
332.03	101.5
332.258	97.5
332.486	84.5
332.715	86.5
332.943	79.5
333.172	78.5
333.4	95.5
333.629	79.5
333.857	96.5
334.085	91.5
334.314	77.5
334.542	83.5
334.771	85.5
334.999	86.5
335.227	86.5
335.455	77.5
335.684	85.5
335.912	87.5
336.14	81.5
336.369	101.5
336.597	87.5
336.825	86.5
337.053	85.5
337.281	80.5
337.51	76.5
337.738	89.5
337.966	75.5
338.194	80.5
338.422	83.5
338.65	79.5
338.878	74.5
339.106	94.5
339.334	87.5
339.562	71.5
339.79	93.5
340.018	91.5
340.246	87.5
340.474	86.5
340.702	89.5
340.93	91.5
341.158	95.5
341.386	104.5
341.614	85.5
341.842	83.5
342.07	83.5
342.298	87.5
342.526	101.5
342.754	79.5
342.981	87.5
343.209	91.5
343.437	75.5
343.665	91.5
343.893	85.5
344.12	85.5
344.348	98.5
344.576	93.5
344.804	89.5
345.031	87.5
345.259	90.5
345.487	75.5
345.714	82.5
345.942	91.5
346.17	97.5
346.397	105.5
346.625	91.5
346.853	86.5
347.08	77.5
347.308	96.5
347.535	89.5
347.763	85.5
347.99	84.5
348.218	96.5
348.445	97.5
348.673	90.5
348.9	81.5
349.128	74.5
349.355	91.5
349.583	95.5
349.81	80.5
350.037	86.5
350.265	98.5
350.492	94.5
350.72	89.5
350.947	84.5
351.174	94.5
351.402	89.5
351.629	68.5
351.856	83.5
352.083	85.5
352.311	86.5
352.538	83.5
352.765	89.5
352.992	93.5
353.22	80.5
353.447	80.5
353.674	76.5
353.901	93.5
354.128	75.5
354.355	87.5
354.583	85.5
354.81	74.5
355.037	83.5
355.264	109.5
355.491	79.5
355.718	86.5
355.945	83.5
356.172	86.5
356.399	84.5
356.626	87.5
356.853	90.5
357.08	85.5
357.307	80.5
357.534	94.5
357.761	82.5
357.988	82.5
358.215	84.5
358.441	70.5
358.668	92.5
358.895	67.5
359.122	93.5
359.349	91.5
359.576	71.5
359.802	79.5
360.029	89.5
360.256	86.5
360.483	92.5
360.709	90.5
360.936	88.5
361.163	86.5
361.39	86.5
361.616	89.5
361.843	94.5
362.07	88.5
362.296	76.5
362.523	94.5
362.749	91.5
362.976	120.5
363.203	99.5
363.429	96.5
363.656	91.5
363.882	73.5
364.109	104.5
364.335	110.5
364.562	96.5
364.788	97.5
365.015	97.5
365.241	84.5
365.468	95.5
365.694	85.5
365.92	92.5
366.147	67.5
366.373	79.5
366.599	78.5
366.826	79.5
367.052	84.5
367.278	84.5
367.505	90.5
367.731	84.5
367.957	83.5
368.184	84.5
368.41	78.5
368.636	97.5
368.862	83.5
369.089	86.5
369.315	78.5
369.541	75.5
369.767	94.5
369.993	87.5
370.219	83.5
370.445	78.5
370.672	98.5
370.898	78.5
371.124	97.5
371.35	76.5
371.576	87.5
371.802	85.5
372.028	88.5
372.254	73.5
372.48	80.5
372.706	89.5
372.932	88.5
373.158	79.5
373.384	101.5
373.61	86.5
373.835	85.5
374.061	81.5
374.287	80.5
374.513	71.5
374.739	102.5
374.965	79.5
375.191	84.5
375.416	92.5
375.642	98.5
375.868	89.5
376.094	78.5
376.319	85.5
376.545	88.5
376.771	94.5
376.997	71.5
377.222	69.5
377.448	82.5
377.674	84.5
377.899	85.5
378.125	82.5
378.35	86.5
378.576	80.5
378.802	83.5
379.027	93.5
379.253	71.5
379.478	89.5
379.704	84.5
379.929	77.5
380.155	91.5
380.38	100.5
380.606	80.5
380.831	83.5
381.057	96.5
381.282	81.5
381.507	80.5
381.733	83.5
381.958	76.5
382.184	79.5
382.409	98.5
382.634	91.5
382.86	83.5
383.085	101.5
383.31	85.5
383.535	86.5
383.761	97.5
383.986	84.5
384.211	86.5
384.436	83.5
384.662	86.5
384.887	93.5
385.112	75.5
385.337	97.5
385.562	76.5
385.787	87.5
386.013	81.5
386.238	90.5
386.463	75.5
386.688	103.5
386.913	97.5
387.138	81.5
387.363	83.5
387.588	84.5
387.813	100.5
388.038	100.5
388.263	77.5
388.488	76.5
388.713	81.5
388.938	79.5
389.163	87.5
389.387	83.5
389.612	88.5
389.837	89.5
390.062	74.5
390.287	77.5
390.512	78.5
390.736	78.5
390.961	91.5
391.186	86.5
391.411	90.5
391.636	104.5
391.86	93.5
392.085	87.5
392.31	90.5
392.534	87.5
392.759	98.5
392.984	123.5
393.208	109.5
393.433	150.5
393.658	123.5
393.882	104.5
394.107	90.5
394.331	97.5
394.556	90.5
394.78	88.5
395.005	94.5
395.229	84.5
395.454	94.5
395.678	101.5
395.903	90.5
396.127	123.5
396.352	110.5
396.576	113.5
396.801	135.5
397.025	138.5
397.249	89.5
397.474	95.5
397.698	89.5
397.922	84.5
398.147	95.5
398.371	96.5
398.595	85.5
398.82	79.5
399.044	72.5
399.268	93.5
399.492	83.5
399.717	77.5
399.941	93.5
400.165	84.5
400.389	76.5
400.613	97.5
400.837	100.5
401.062	88.5
401.286	75.5
401.51	103.5
401.734	76.5
401.958	90.5
402.182	84.5
402.406	76.5
402.63	82.5
402.854	79.5
403.078	87.5
403.302	84.5
403.526	91.5
403.75	81.5
403.974	91.5
404.198	88.5
404.422	102.5
404.645	100.5
404.869	101.5
405.093	103.5
405.317	87.5
405.541	75.5
405.765	87.5
405.988	78.5
406.212	73.5
406.436	93.5
406.66	89.5
406.883	80.5
407.107	80.5
407.331	89.5
407.555	101.5
407.778	86.5
408.002	79.5
408.226	92.5
408.449	84.5
408.673	93.5
408.896	90.5
409.12	95.5
409.344	91.5
409.567	85.5
409.791	78.5
410.014	92.5
410.238	84.5
410.461	103.5
410.685	82.5
410.908	84.5
411.132	88.5
411.355	80.5
411.578	97.5
411.802	82.5
412.025	81.5
412.249	74.5
412.472	78.5
412.695	87.5
412.919	90.5
413.142	78.5
413.365	76.5
413.589	94.5
413.812	84.5
414.035	99.5
414.258	76.5
414.482	89.5
414.705	87.5
414.928	92.5
415.151	77.5
415.374	84.5
415.597	83.5
415.821	96.5
416.044	85.5
416.267	84.5
416.49	83.5
416.713	77.5
416.936	90.5
417.159	89.5
417.382	83.5
417.605	86.5
417.828	82.5
418.051	96.5
418.274	89.5
418.497	80.5
418.72	83.5
418.943	80.5
419.166	92.5
419.389	81.5
419.611	105.5
419.834	87.5
420.057	79.5
420.28	87.5
420.503	88.5
420.726	85.5
420.948	97.5
421.171	86.5
421.394	93.5
421.617	94.5
421.839	102.5
422.062	111.5
422.285	122.5
422.507	167.5
422.73	202.5
422.953	195.5
423.175	132.5
423.398	113.5
423.621	114.5
423.843	88.5
424.066	91.5
424.288	104.5
424.511	78.5
424.733	90.5
424.956	81.5
425.178	78.5
425.401	91.5
425.623	86.5
425.846	76.5
426.068	85.5
426.291	90.5
426.513	87.5
426.735	79.5
426.958	92.5
427.18	81.5
427.402	73.5
427.625	86.5
427.847	77.5
428.069	91.5
428.292	100.5
428.514	114.5
428.736	100.5
428.958	113.5
429.181	109.5
429.403	93.5
429.625	110.5
429.847	102.5
430.069	122.5
430.292	125.5
430.514	108.5
430.736	85.5
430.958	109.5
431.18	92.5
431.402	92.5
431.624	90.5
431.846	117.5
432.068	99.5
432.29	85.5
432.512	92.5
432.734	91.5
432.956	91.5
433.178	84.5
433.4	103.5
433.622	79.5
433.844	100.5
434.066	79.5
434.287	69.5
434.509	90.5
434.731	82.5
434.953	86.5
435.175	85.5
435.397	78.5
435.618	101.5
435.84	83.5
436.062	93.5
436.284	92.5
436.505	80.5
436.727	88.5
436.949	80.5
437.17	79.5
437.392	89.5
437.614	87.5
437.835	69.5
438.057	79.5
438.278	90.5
438.5	91.5
438.721	94.5
438.943	85.5
439.165	84.5
439.386	89.5
439.608	83.5
439.829	76.5
440.05	86.5
440.272	76.5
440.493	88.5
440.715	80.5
440.936	83.5
441.158	80.5
441.379	76.5
441.6	84.5
441.822	91.5
442.043	86.5
442.264	99.5
442.486	110.5
442.707	130.5
442.928	109.5
443.149	85.5
443.371	129.5
443.592	159.5
443.813	142.5
444.034	94.5
444.255	89.5
444.476	101.5
444.698	85.5
444.919	95.5
445.14	183.5
445.361	162.5
445.582	183.5
445.803	167.5
446.024	111.5
446.245	95.5
446.466	83.5
446.687	80.5
446.908	86.5
447.129	85.5
447.35	82.5
447.571	86.5
447.792	83.5
448.013	74.5
448.234	73.5
448.455	86.5
448.675	79.5
448.896	86.5
449.117	71.5
449.338	77.5
449.559	73.5
449.779	91.5
450	80.5
450.221	92.5
450.442	89.5
450.662	90.5
450.883	94.5
451.104	84.5
451.324	69.5
451.545	82.5
451.766	81.5
451.986	85.5
452.207	83.5
452.428	73.5
452.648	86.5
452.869	93.5
453.089	78.5
453.31	79.5
453.53	83.5
453.751	79.5
453.971	93.5
454.192	89.5
454.412	81.5
454.633	85.5
454.853	100.5
455.073	65.5
455.294	72.5
455.514	90.5
455.734	99.5
455.955	84.5
456.175	84.5
456.395	89.5
456.616	88.5
456.836	84.5
457.056	83.5
457.276	81.5
457.497	76.5
457.717	83.5
457.937	75.5
458.157	91.5
458.377	95.5
458.598	96.5
458.818	105.5
459.038	92.5
459.258	94.5
459.478	90.5
459.698	86.5
459.918	93.5
460.138	84.5
460.358	90.5
460.578	86.5
460.798	95.5
461.018	95.5
461.238	81.5
461.458	83.5
461.678	66.5
461.898	85.5
462.118	79.5
462.338	87.5
462.558	86.5
462.777	85.5
462.997	83.5
463.217	83.5
463.437	68.5
463.657	72.5
463.876	100.5
464.096	83.5
464.316	71.5
464.536	73.5
464.755	87.5
464.975	106.5
465.195	92.5
465.414	97.5
465.634	81.5
465.854	77.5
466.073	76.5
466.293	71.5
466.512	63.5
466.732	86.5
466.951	87.5
467.171	76.5
467.391	85.5
467.61	81.5
467.829	85.5
468.049	82.5
468.268	92.5
468.488	77.5
468.707	80.5
468.927	90.5
469.146	101.5
469.365	87.5
469.585	70.5
469.804	77.5
470.023	92.5
470.243	93.5
470.462	79.5
470.681	74.5
470.901	100.5
471.12	83.5
471.339	73.5
471.558	97.5
471.777	91.5
471.997	87.5
472.216	90.5
472.435	85.5
472.654	83.5
472.873	87.5
473.092	82.5
473.311	83.5
473.53	90.5
473.749	87.5
473.968	92.5
474.187	87.5
474.406	69.5
474.625	73.5
474.844	83.5
475.063	86.5
475.282	82.5
475.501	82.5
475.72	94.5
475.939	85.5
476.158	73.5
476.377	91.5
476.596	87.5
476.814	93.5
477.033	83.5
477.252	90.5
477.471	94.5
477.69	85.5
477.908	78.5
478.127	83.5
478.346	74.5
478.564	86.5
478.783	85.5
479.002	85.5
479.22	82.5
479.439	96.5
479.658	83.5
479.876	87.5
480.095	76.5
480.313	96.5
480.532	84.5
480.751	79.5
480.969	87.5
481.188	93.5
481.406	79.5
481.624	78.5
481.843	83.5
482.061	87.5
482.28	74.5
482.498	83.5
482.717	82.5
482.935	85.5
483.153	78.5
483.372	79.5
483.59	77.5
483.808	87.5
484.027	79.5
484.245	70.5
484.463	88.5
484.681	87.5
484.9	78.5
485.118	93.5
485.336	89.5
485.554	82.5
485.772	85.5
485.99	92.5
486.209	77.5
486.427	88.5
486.645	88.5
486.863	71.5
487.081	70.5
487.299	91.5
487.517	74.5
487.735	107.5
487.953	120.5
488.171	91.5
488.389	97.5
488.607	93.5
488.825	82.5
489.043	90.5
489.261	92.5
489.479	84.5
489.696	77.5
489.914	79.5
490.132	91.5
490.35	89.5
490.568	89.5
490.786	83.5
491.003	86.5
491.221	76.5
491.439	81.5
491.657	85.5
491.874	86.5
492.092	78.5
492.31	81.5
492.527	69.5
492.745	85.5
492.963	83.5
493.18	83.5
493.398	80.5
493.615	85.5
493.833	80.5
494.05	86.5
494.268	81.5
494.485	89.5
494.703	82.5
494.92	102.5
495.138	89.5
495.355	92.5
495.573	85.5
495.79	86.5
496.008	83.5
496.225	87.5
496.442	94.5
496.66	111.5
496.877	80.5
497.094	95.5
497.312	80.5
497.529	81.5
497.746	92.5
497.963	96.5
498.181	86.5
498.398	94.5
498.615	95.5
498.832	79.5
499.049	95.5
499.267	106.5
499.484	87.5
499.701	76.5
499.918	93.5
500.135	101.5
500.352	74.5
500.569	84.5
500.786	94.5
501.003	110.5
501.22	84.5
501.437	93.5
501.654	86.5
501.871	88.5
502.088	79.5
502.305	69.5
502.522	64.5
502.739	84.5
502.956	88.5
503.172	79.5
503.389	89.5
503.606	83.5
503.823	97.5
504.04	101.5
504.256	97.5
504.473	106.5
504.69	102.5
504.907	82.5
505.123	84.5
505.34	102.5
505.557	72.5
505.773	95.5
505.99	85.5
506.207	87.5
506.423	91.5
506.64	85.5
506.856	82.5
507.073	78.5
507.289	91.5
507.506	100.5
507.722	73.5
507.939	95.5
508.155	92.5
508.372	83.5
508.588	79.5
508.805	94.5
509.021	64.5
509.238	80.5
509.454	87.5
509.67	83.5
509.887	83.5
510.103	81.5
510.319	86.5
510.536	101.5
510.752	105.5
510.968	91.5
511.184	85.5
511.401	65.5
511.617	87.5
511.833	95.5
512.049	83.5
512.265	77.5
512.481	91.5
512.698	94.5
512.914	73.5
513.13	86.5
513.346	80.5
513.562	90.5
513.778	75.5
513.994	76.5
514.21	80.5
514.426	93.5
514.642	97.5
514.858	91.5
515.074	88.5
515.29	77.5
515.506	98.5
515.721	77.5
515.937	87.5
516.153	91.5
516.369	88.5
516.585	82.5
516.801	93.5
517.016	89.5
517.232	83.5
517.448	90.5
517.664	93.5
517.879	81.5
518.095	94.5
518.311	75.5
518.527	97.5
518.742	92.5
518.958	113.5
519.173	119.5
519.389	95.5
519.605	91.5
519.82	79.5
520.036	76.5
520.251	93.5
520.467	80.5
520.682	95.5
520.898	89.5
521.113	94.5
521.329	101.5
521.544	88.5
521.76	77.5
521.975	92.5
522.19	86.5
522.406	94.5
522.621	86.5
522.836	76.5
523.052	86.5
523.267	83.5
523.482	75.5
523.698	76.5
523.913	95.5
524.128	100.5
524.343	84.5
524.559	103.5
524.774	102.5
524.989	93.5
525.204	87.5
525.419	84.5
525.634	73.5
525.849	89.5
526.064	89.5
526.28	155.5
526.495	184.5
526.71	184.5
526.925	141.5
527.14	193.5
527.355	161.5
527.57	108.5
527.785	91.5
527.999	100.5
528.214	78.5
528.429	83.5
528.644	82.5
528.859	84.5
529.074	94.5
529.289	87.5
529.503	87.5
529.718	95.5
529.933	82.5
530.148	75.5
530.363	84.5
530.577	82.5
530.792	83.5
531.007	90.5
531.221	92.5
531.436	74.5
531.651	90.5
531.865	101.5
532.08	90.5
532.295	85.5
532.509	94.5
532.724	91.5
532.938	90.5
533.153	91.5
533.367	87.5
533.582	91.5
533.796	82.5
534.011	88.5
534.225	96.5
534.44	90.5
534.654	98.5
534.868	107.5
535.083	134.5
535.297	115.5
535.511	103.5
535.726	99.5
535.94	93.5
536.154	95.5
536.369	94.5
536.583	101.5
536.797	99.5
537.011	95.5
537.225	78.5
537.44	98.5
537.654	96.5
537.868	86.5
538.082	99.5
538.296	82.5
538.51	85.5
538.724	95.5
