Data from 2145_2_HRD10591_00050.txt Node
Date: Mon Jan 19 14:22:27 EST 2026
User: Yrep
Spectrometer: HR+D1059
Trigger mode: 1
Integration Time (sec): 1.000000E-1
Scans to average: 1
Electric dark correction enabled: true
Nonlinearity correction enabled: false
Boxcar width: 0
XAxis mode: Wavelengths
Number of Pixels in Spectrum: 2048
>>>>>Begin Spectral Data<<<<<
223.165	-21.06
223.4	-21.06
223.635	-21.06
223.869	-16.06
224.104	-15.06
224.338	-29.06
224.573	-14.06
224.808	-20.06
225.042	-5.06
225.277	-9.06
225.511	-1.06
225.746	2.94
225.98	11.94
226.215	10.94
226.449	10.94
226.683	17.94
226.918	30.94
227.152	44.94
227.387	30.94
227.621	45.94
227.856	41.94
228.09	34.94
228.324	41.94
228.559	57.94
228.793	60.94
229.027	51.94
229.262	64.94
229.496	68.94
229.73	54.94
229.964	75.94
230.199	70.94
230.433	59.94
230.667	64.94
230.901	72.94
231.136	83.94
231.37	84.94
231.604	64.94
231.838	82.94
232.072	79.94
232.306	85.94
232.541	77.94
232.775	70.94
233.009	72.94
233.243	69.94
233.477	87.94
233.711	88.94
233.945	80.94
234.179	76.94
234.413	94.94
234.647	74.94
234.881	70.94
235.115	84.94
235.349	78.94
235.583	70.94
235.817	68.94
236.051	70.94
236.285	71.94
236.519	86.94
236.753	74.94
236.987	60.94
237.221	75.94
237.455	77.94
237.689	78.94
237.922	76.94
238.156	67.94
238.39	75.94
238.624	70.94
238.858	70.94
239.091	66.94
239.325	77.94
239.559	66.94
239.793	81.94
240.027	79.94
240.26	83.94
240.494	67.94
240.728	80.94
240.961	71.94
241.195	76.94
241.429	73.94
241.662	63.94
241.896	69.94
242.13	80.94
242.363	63.94
242.597	77.94
242.83	76.94
243.064	73.94
243.298	76.94
243.531	68.94
243.765	75.94
243.998	64.94
244.232	71.94
244.465	82.94
244.699	80.94
244.932	84.94
245.166	85.94
245.399	87.94
245.633	70.94
245.866	56.94
246.099	74.94
246.333	75.94
246.566	84.94
246.8	78.94
247.033	81.94
247.266	73.94
247.5	73.94
247.733	75.94
247.966	68.94
248.2	78.94
248.433	84.94
248.666	82.94
248.899	80.94
249.133	86.94
249.366	79.94
249.599	84.94
249.832	86.94
250.066	84.94
250.299	73.94
250.532	80.94
250.765	79.94
250.998	81.94
251.231	85.94
251.465	73.94
251.698	87.94
251.931	71.94
252.164	90.94
252.397	70.94
252.63	81.94
252.863	74.94
253.096	76.94
253.329	71.94
253.562	76.94
253.795	79.94
254.028	80.94
254.261	88.94
254.494	87.94
254.727	81.94
254.96	78.94
255.193	84.94
255.426	69.94
255.659	73.94
255.892	73.94
256.124	75.94
256.357	90.94
256.59	74.94
256.823	67.94
257.056	75.94
257.289	88.94
257.521	77.94
257.754	76.94
257.987	78.94
258.22	66.94
258.452	84.94
258.685	68.94
258.918	81.94
259.151	72.94
259.383	80.94
259.616	82.94
259.849	58.94
260.081	86.94
260.314	58.94
260.547	80.94
260.779	78.94
261.012	64.94
261.244	77.94
261.477	70.94
261.71	75.94
261.942	84.94
262.175	76.94
262.407	73.94
262.64	84.94
262.872	88.94
263.105	72.94
263.337	76.94
263.57	78.94
263.802	75.94
264.035	76.94
264.267	90.94
264.499	94.94
264.732	80.94
264.964	66.94
265.197	75.94
265.429	82.94
265.661	70.94
265.894	74.94
266.126	79.94
266.358	78.94
266.591	87.94
266.823	76.94
267.055	82.94
267.287	80.94
267.52	79.94
267.752	87.94
267.984	80.94
268.216	66.94
268.448	102.94
268.681	77.94
268.913	86.94
269.145	85.94
269.377	76.94
269.609	77.94
269.841	68.94
270.073	87.94
270.306	79.94
270.538	84.94
270.77	64.94
271.002	92.94
271.234	84.94
271.466	82.94
271.698	87.94
271.93	82.94
272.162	80.94
272.394	75.94
272.626	87.94
272.858	91.94
273.09	72.94
273.322	82.94
273.553	76.94
273.785	88.94
274.017	84.94
274.249	88.94
274.481	87.94
274.713	74.94
274.945	77.94
275.176	77.94
275.408	85.94
275.64	87.94
275.872	78.94
276.104	97.94
276.335	86.94
276.567	87.94
276.799	79.94
277.031	86.94
277.262	95.94
277.494	94.94
277.726	84.94
277.957	81.94
278.189	70.94
278.421	76.94
278.652	84.94
278.884	87.94
279.115	75.94
279.347	95.94
279.579	76.94
279.81	95.94
280.042	92.94
280.273	77.94
280.505	74.94
280.736	91.94
280.968	96.94
281.199	72.94
281.431	79.94
281.662	80.94
281.894	81.94
282.125	74.94
282.356	81.94
282.588	91.94
282.819	75.94
283.051	81.94
283.282	92.94
283.513	88.94
283.745	72.94
283.976	83.94
284.207	87.94
284.439	87.94
284.67	82.94
284.901	90.94
285.132	81.94
285.364	94.94
285.595	80.94
285.826	86.94
286.057	84.94
286.288	82.94
286.52	87.94
286.751	92.94
286.982	89.94
287.213	81.94
287.444	74.94
287.675	87.94
287.906	78.94
288.138	94.94
288.369	86.94
288.6	88.94
288.831	77.94
289.062	82.94
289.293	69.94
289.524	84.94
289.755	68.94
289.986	68.94
290.217	86.94
290.448	65.94
290.679	83.94
290.91	82.94
291.141	94.94
291.371	77.94
291.602	99.94
291.833	81.94
292.064	85.94
292.295	81.94
292.526	96.94
292.757	86.94
292.987	81.94
293.218	79.94
293.449	84.94
293.68	81.94
293.91	85.94
294.141	92.94
294.372	83.94
294.603	94.94
294.833	88.94
295.064	72.94
295.295	86.94
295.525	72.94
295.756	104.94
295.987	86.94
296.217	88.94
296.448	81.94
296.679	94.94
296.909	82.94
297.14	87.94
297.37	82.94
297.601	83.94
297.831	84.94
298.062	83.94
298.292	80.94
298.523	75.94
298.753	89.94
298.984	75.94
299.214	87.94
299.445	88.94
299.675	91.94
299.905	81.94
300.136	80.94
300.366	103.94
300.597	94.94
300.827	94.94
301.057	71.94
301.288	96.94
301.518	84.94
301.748	83.94
301.979	104.94
302.209	86.94
302.439	72.94
302.669	75.94
302.9	98.94
303.13	86.94
303.36	75.94
303.59	88.94
303.82	78.94
304.051	80.94
304.281	91.94
304.511	103.94
304.741	88.94
304.971	80.94
305.201	81.94
305.431	72.94
305.661	77.94
305.891	89.94
306.121	91.94
306.352	72.94
306.582	83.94
306.812	80.94
307.042	82.94
307.272	91.94
307.502	90.94
307.731	80.94
307.961	77.94
308.191	90.94
308.421	82.94
308.651	75.94
308.881	81.94
309.111	83.94
309.341	75.94
309.571	88.94
309.8	87.94
310.03	87.94
310.26	92.94
310.49	95.94
310.72	84.94
310.949	79.94
311.179	74.94
311.409	75.94
311.639	83.94
311.868	88.94
312.098	90.94
312.328	88.94
312.557	88.94
312.787	84.94
313.017	84.94
313.246	92.94
313.476	83.94
313.706	77.94
313.935	82.94
314.165	67.94
314.394	71.94
314.624	87.94
314.853	90.94
315.083	86.94
315.312	75.94
315.542	76.94
315.771	79.94
316.001	80.94
316.23	81.94
316.46	85.94
316.689	89.94
316.919	83.94
317.148	108.94
317.377	83.94
317.607	83.94
317.836	87.94
318.065	88.94
318.295	86.94
318.524	85.94
318.753	95.94
318.983	105.94
319.212	84.94
319.441	91.94
319.67	74.94
319.9	74.94
320.129	86.94
320.358	80.94
320.587	76.94
320.816	73.94
321.046	76.94
321.275	96.94
321.504	100.94
321.733	87.94
321.962	87.94
322.191	92.94
322.42	84.94
322.649	83.94
322.878	81.94
323.108	71.94
323.337	88.94
323.566	100.94
323.795	95.94
324.024	100.94
324.253	82.94
324.482	92.94
324.71	77.94
324.939	84.94
325.168	93.94
325.397	82.94
325.626	77.94
325.855	94.94
326.084	74.94
326.313	74.94
326.542	79.94
326.77	64.94
326.999	76.94
327.228	77.94
327.457	84.94
327.686	82.94
327.914	81.94
328.143	81.94
328.372	68.94
328.6	82.94
328.829	84.94
329.058	94.94
329.287	82.94
329.515	80.94
329.744	90.94
329.972	79.94
330.201	95.94
330.43	85.94
330.658	68.94
330.887	88.94
331.115	97.94
331.344	107.94
331.572	85.94
331.801	90.94
332.03	87.94
332.258	90.94
332.486	101.94
332.715	80.94
332.943	80.94
333.172	83.94
333.4	95.94
333.629	83.94
333.857	80.94
334.085	91.94
334.314	90.94
334.542	84.94
334.771	81.94
334.999	86.94
335.227	81.94
335.455	105.94
335.684	82.94
335.912	81.94
336.14	89.94
336.369	76.94
336.597	84.94
336.825	77.94
337.053	68.94
337.281	89.94
337.51	78.94
337.738	82.94
337.966	85.94
338.194	100.94
338.422	97.94
338.65	84.94
338.878	94.94
339.106	79.94
339.334	80.94
339.562	81.94
339.79	81.94
340.018	87.94
340.246	84.94
340.474	82.94
340.702	88.94
340.93	89.94
341.158	82.94
341.386	88.94
341.614	95.94
341.842	88.94
342.07	80.94
342.298	87.94
342.526	83.94
342.754	87.94
342.981	92.94
343.209	79.94
343.437	92.94
343.665	95.94
343.893	102.94
344.12	77.94
344.348	83.94
344.576	86.94
344.804	96.94
345.031	90.94
345.259	76.94
345.487	84.94
345.714	83.94
345.942	83.94
346.17	86.94
346.397	82.94
346.625	86.94
346.853	96.94
347.08	92.94
347.308	91.94
347.535	74.94
347.763	78.94
347.99	82.94
348.218	90.94
348.445	85.94
348.673	80.94
348.9	80.94
349.128	90.94
349.355	80.94
349.583	82.94
349.81	87.94
350.037	96.94
350.265	90.94
350.492	86.94
350.72	76.94
350.947	74.94
351.174	89.94
351.402	64.94
351.629	68.94
351.856	84.94
352.083	90.94
352.311	84.94
352.538	89.94
352.765	86.94
352.992	85.94
353.22	87.94
353.447	88.94
353.674	89.94
353.901	85.94
354.128	83.94
354.355	91.94
354.583	85.94
354.81	79.94
355.037	94.94
355.264	83.94
355.491	82.94
355.718	85.94
355.945	75.94
356.172	87.94
356.399	84.94
356.626	90.94
356.853	75.94
357.08	107.94
357.307	77.94
357.534	79.94
357.761	83.94
357.988	101.94
358.215	80.94
358.441	74.94
358.668	84.94
358.895	79.94
359.122	77.94
359.349	86.94
359.576	68.94
359.802	91.94
360.029	84.94
360.256	67.94
360.483	88.94
360.709	88.94
360.936	78.94
361.163	92.94
361.39	91.94
361.616	82.94
361.843	93.94
362.07	90.94
362.296	98.94
362.523	80.94
362.749	84.94
362.976	98.94
363.203	99.94
363.429	99.94
363.656	91.94
363.882	96.94
364.109	103.94
364.335	116.94
364.562	111.94
364.788	92.94
365.015	70.94
365.241	90.94
365.468	96.94
365.694	84.94
365.92	78.94
366.147	74.94
366.373	75.94
366.599	89.94
366.826	90.94
367.052	90.94
367.278	83.94
367.505	71.94
367.731	82.94
367.957	82.94
368.184	84.94
368.41	80.94
368.636	82.94
368.862	90.94
369.089	86.94
369.315	79.94
369.541	78.94
369.767	80.94
369.993	83.94
370.219	78.94
370.445	74.94
370.672	84.94
370.898	85.94
371.124	91.94
371.35	82.94
371.576	88.94
371.802	81.94
372.028	82.94
372.254	83.94
372.48	77.94
372.706	96.94
372.932	74.94
373.158	69.94
373.384	91.94
373.61	94.94
373.835	92.94
374.061	84.94
374.287	79.94
374.513	77.94
374.739	85.94
374.965	82.94
375.191	77.94
375.416	75.94
375.642	87.94
375.868	97.94
376.094	84.94
376.319	86.94
376.545	86.94
376.771	89.94
376.997	90.94
377.222	85.94
377.448	86.94
377.674	72.94
377.899	87.94
378.125	68.94
378.35	87.94
378.576	81.94
378.802	71.94
379.027	89.94
379.253	99.94
379.478	84.94
379.704	66.94
379.929	76.94
380.155	86.94
380.38	83.94
380.606	99.94
380.831	84.94
381.057	87.94
381.282	80.94
381.507	100.94
381.733	75.94
381.958	88.94
382.184	85.94
382.409	78.94
382.634	81.94
382.86	88.94
383.085	90.94
383.31	92.94
383.535	81.94
383.761	90.94
383.986	89.94
384.211	89.94
384.436	94.94
384.662	102.94
384.887	88.94
385.112	87.94
385.337	87.94
385.562	72.94
385.787	89.94
386.013	76.94
386.238	98.94
386.463	77.94
386.688	104.94
386.913	70.94
387.138	92.94
387.363	83.94
387.588	96.94
387.813	84.94
388.038	83.94
388.263	90.94
388.488	80.94
388.713	84.94
388.938	91.94
389.163	92.94
389.387	82.94
389.612	75.94
389.837	80.94
390.062	87.94
390.287	81.94
390.512	58.94
390.736	85.94
390.961	76.94
391.186	68.94
391.411	72.94
391.636	83.94
391.86	82.94
392.085	97.94
392.31	94.94
392.534	83.94
392.759	88.94
392.984	110.94
393.208	154.94
393.433	229.94
393.658	169.94
393.882	117.94
394.107	85.94
394.331	104.94
394.556	103.94
394.78	82.94
395.005	88.94
395.229	98.94
395.454	90.94
395.678	106.94
395.903	93.94
396.127	115.94
396.352	121.94
396.576	106.94
396.801	152.94
397.025	187.94
397.249	118.94
397.474	108.94
397.698	96.94
397.922	94.94
398.147	80.94
398.371	95.94
398.595	83.94
398.82	98.94
399.044	82.94
399.268	86.94
399.492	84.94
399.717	98.94
399.941	86.94
400.165	86.94
400.389	82.94
400.613	88.94
400.837	87.94
401.062	83.94
401.286	75.94
401.51	90.94
401.734	92.94
401.958	98.94
402.182	86.94
402.406	82.94
402.63	85.94
402.854	92.94
403.078	82.94
403.302	82.94
403.526	99.94
403.75	96.94
403.974	96.94
404.198	119.94
404.422	156.94
404.645	157.94
404.869	138.94
405.093	100.94
405.317	85.94
405.541	89.94
405.765	85.94
405.988	80.94
406.212	97.94
406.436	72.94
406.66	67.94
406.883	94.94
407.107	88.94
407.331	82.94
407.555	97.94
407.778	94.94
408.002	90.94
408.226	94.94
408.449	82.94
408.673	91.94
408.896	94.94
409.12	82.94
409.344	85.94
409.567	67.94
409.791	90.94
410.014	98.94
410.238	75.94
410.461	86.94
410.685	80.94
410.908	91.94
411.132	91.94
411.355	76.94
411.578	99.94
411.802	101.94
412.025	95.94
412.249	76.94
412.472	83.94
412.695	94.94
412.919	74.94
413.142	96.94
413.365	72.94
413.589	90.94
413.812	94.94
414.035	83.94
414.258	97.94
414.482	72.94
414.705	78.94
414.928	84.94
415.151	86.94
415.374	83.94
415.597	84.94
415.821	79.94
416.044	73.94
416.267	93.94
416.49	77.94
416.713	96.94
416.936	81.94
417.159	75.94
417.382	89.94
417.605	96.94
417.828	90.94
418.051	90.94
418.274	87.94
418.497	88.94
418.72	86.94
418.943	88.94
419.166	92.94
419.389	92.94
419.611	92.94
419.834	81.94
420.057	90.94
420.28	86.94
420.503	74.94
420.726	85.94
420.948	83.94
421.171	83.94
421.394	85.94
421.617	91.94
421.839	100.94
422.062	125.94
422.285	151.94
422.507	255.94
422.73	361.94
422.953	320.94
423.175	183.94
423.398	118.94
423.621	95.94
423.843	94.94
424.066	101.94
424.288	79.94
424.511	84.94
424.733	82.94
424.956	73.94
425.178	71.94
425.401	87.94
425.623	79.94
425.846	84.94
426.068	76.94
426.291	98.94
426.513	85.94
426.735	85.94
426.958	83.94
427.18	90.94
427.402	94.94
427.625	91.94
427.847	85.94
428.069	121.94
428.292	118.94
428.514	132.94
428.736	118.94
428.958	121.94
429.181	125.94
429.403	104.94
429.625	91.94
429.847	114.94
430.069	152.94
430.292	156.94
430.514	150.94
430.736	125.94
430.958	136.94
431.18	84.94
431.402	84.94
431.624	96.94
431.846	105.94
432.068	120.94
432.29	92.94
432.512	93.94
432.734	80.94
432.956	82.94
433.178	86.94
433.4	87.94
433.622	83.94
433.844	74.94
434.066	99.94
434.287	92.94
434.509	80.94
434.731	80.94
434.953	91.94
435.175	87.94
435.397	88.94
435.618	89.94
435.84	99.94
436.062	88.94
436.284	86.94
436.505	81.94
436.727	69.94
436.949	81.94
437.17	73.94
437.392	79.94
437.614	86.94
437.835	83.94
438.057	88.94
438.278	87.94
438.5	84.94
438.721	80.94
438.943	86.94
439.165	90.94
439.386	98.94
439.608	84.94
439.829	75.94
440.05	87.94
440.272	92.94
440.493	90.94
440.715	92.94
440.936	83.94
441.158	74.94
441.379	80.94
441.6	84.94
441.822	87.94
442.043	93.94
442.264	84.94
442.486	127.94
442.707	170.94
442.928	108.94
443.149	100.94
443.371	146.94
443.592	219.94
443.813	202.94
444.034	102.94
444.255	93.94
444.476	78.94
444.698	75.94
444.919	94.94
445.14	169.94
445.361	188.94
445.582	250.94
445.803	218.94
446.024	115.94
446.245	94.94
446.466	88.94
446.687	74.94
446.908	82.94
447.129	75.94
447.35	76.94
447.571	70.94
447.792	76.94
448.013	64.94
448.234	72.94
448.455	85.94
448.675	86.94
448.896	88.94
449.117	83.94
449.338	64.94
449.559	87.94
449.779	68.94
450	82.94
450.221	81.94
450.442	86.94
450.662	75.94
450.883	81.94
451.104	78.94
451.324	78.94
451.545	62.94
451.766	84.94
451.986	77.94
452.207	88.94
452.428	88.94
452.648	95.94
452.869	103.94
453.089	81.94
453.31	80.94
453.53	93.94
453.751	75.94
453.971	89.94
454.192	83.94
454.412	87.94
454.633	94.94
454.853	83.94
455.073	74.94
455.294	86.94
455.514	80.94
455.734	88.94
455.955	94.94
456.175	78.94
456.395	86.94
456.616	88.94
456.836	86.94
457.056	78.94
457.276	83.94
457.497	77.94
457.717	81.94
457.937	96.94
458.157	82.94
458.377	113.94
458.598	106.94
458.818	100.94
459.038	91.94
459.258	87.94
459.478	85.94
459.698	81.94
459.918	93.94
460.138	75.94
460.358	82.94
460.578	86.94
460.798	114.94
461.018	117.94
461.238	105.94
461.458	84.94
461.678	96.94
461.898	80.94
462.118	72.94
462.338	75.94
462.558	77.94
462.777	74.94
462.997	82.94
463.217	78.94
463.437	77.94
463.657	88.94
463.876	91.94
464.096	71.94
464.316	87.94
464.536	82.94
464.755	85.94
464.975	90.94
465.195	78.94
465.414	82.94
465.634	58.94
465.854	70.94
466.073	59.94
466.293	82.94
466.512	86.94
466.732	71.94
466.951	71.94
467.171	79.94
467.391	86.94
467.61	81.94
467.829	83.94
468.049	91.94
468.268	80.94
468.488	78.94
468.707	75.94
468.927	90.94
469.146	90.94
469.365	81.94
469.585	77.94
469.804	83.94
470.023	76.94
470.243	87.94
470.462	83.94
470.681	88.94
470.901	82.94
471.12	77.94
471.339	80.94
471.558	84.94
471.777	92.94
471.997	71.94
472.216	87.94
472.435	80.94
472.654	81.94
472.873	84.94
473.092	80.94
473.311	83.94
473.53	78.94
473.749	80.94
473.968	92.94
474.187	94.94
474.406	94.94
474.625	86.94
474.844	88.94
475.063	76.94
475.282	83.94
475.501	93.94
475.72	88.94
475.939	77.94
476.158	89.94
476.377	86.94
476.596	73.94
476.814	80.94
477.033	83.94
477.252	94.94
477.471	90.94
477.69	94.94
477.908	86.94
478.127	82.94
478.346	87.94
478.564	90.94
478.783	71.94
479.002	80.94
479.22	88.94
479.439	85.94
479.658	73.94
479.876	73.94
480.095	83.94
480.313	57.94
480.532	89.94
480.751	96.94
480.969	90.94
481.188	75.94
481.406	77.94
481.624	64.94
481.843	81.94
482.061	76.94
482.28	86.94
482.498	80.94
482.717	86.94
482.935	84.94
483.153	96.94
483.372	91.94
483.59	84.94
483.808	88.94
484.027	86.94
484.245	85.94
484.463	73.94
484.681	101.94
484.9	88.94
485.118	87.94
485.336	85.94
485.554	66.94
485.772	96.94
485.99	88.94
486.209	84.94
486.427	94.94
486.645	84.94
486.863	94.94
487.081	86.94
487.299	92.94
487.517	94.94
487.735	102.94
487.953	131.94
488.171	111.94
488.389	95.94
488.607	94.94
488.825	85.94
489.043	81.94
489.261	90.94
489.479	71.94
489.696	92.94
489.914	87.94
490.132	84.94
490.35	82.94
490.568	76.94
490.786	88.94
491.003	83.94
491.221	76.94
491.439	77.94
491.657	86.94
491.874	77.94
492.092	89.94
492.31	95.94
492.527	81.94
492.745	91.94
492.963	96.94
493.18	87.94
493.398	83.94
493.615	96.94
493.833	78.94
494.05	92.94
494.268	96.94
494.485	78.94
494.703	82.94
494.92	86.94
495.138	89.94
495.355	84.94
495.573	97.94
495.79	78.94
496.008	93.94
496.225	75.94
496.442	83.94
496.66	74.94
496.877	90.94
497.094	91.94
497.312	80.94
497.529	79.94
497.746	95.94
497.963	86.94
498.181	101.94
498.398	97.94
498.615	90.94
498.832	75.94
499.049	77.94
499.267	98.94
499.484	71.94
499.701	82.94
499.918	98.94
500.135	75.94
500.352	85.94
500.569	82.94
500.786	79.94
501.003	76.94
501.22	90.94
501.437	76.94
501.654	85.94
501.871	75.94
502.088	82.94
502.305	72.94
502.522	90.94
502.739	99.94
502.956	84.94
503.172	96.94
503.389	82.94
503.606	76.94
503.823	95.94
504.04	89.94
504.256	110.94
504.473	104.94
504.69	101.94
504.907	96.94
505.123	95.94
505.34	80.94
505.557	83.94
505.773	98.94
505.99	85.94
506.207	86.94
506.423	80.94
506.64	87.94
506.856	92.94
507.073	92.94
507.289	89.94
507.506	62.94
507.722	95.94
507.939	89.94
508.155	98.94
508.372	106.94
508.588	95.94
508.805	76.94
509.021	88.94
509.238	84.94
509.454	87.94
509.67	75.94
509.887	87.94
510.103	82.94
510.319	98.94
510.536	91.94
510.752	96.94
510.968	84.94
511.184	94.94
511.401	77.94
511.617	86.94
511.833	95.94
512.049	76.94
512.265	88.94
512.481	93.94
512.698	80.94
512.914	90.94
513.13	72.94
513.346	81.94
513.562	82.94
513.778	86.94
513.994	89.94
514.21	80.94
514.426	85.94
514.642	70.94
514.858	86.94
515.074	74.94
515.29	90.94
515.506	92.94
515.721	81.94
515.937	84.94
516.153	84.94
516.369	87.94
516.585	80.94
516.801	90.94
517.016	73.94
517.232	91.94
517.448	95.94
517.664	93.94
517.879	70.94
518.095	85.94
518.311	79.94
518.527	86.94
518.742	95.94
518.958	97.94
