Data from 2145_2_HRD10591_00005.txt Node
Date: Mon Jan 19 14:22:04 EST 2026
User: Yrep
Spectrometer: HR+D1059
Trigger mode: 1
Integration Time (sec): 1.000000E-1
Scans to average: 1
Electric dark correction enabled: true
Nonlinearity correction enabled: false
Boxcar width: 0
XAxis mode: Wavelengths
Number of Pixels in Spectrum: 2048
>>>>>Begin Spectral Data<<<<<
223.165	-6.62
223.4	-6.62
223.635	-6.62
223.869	-12.62
224.104	-24.62
224.338	-20.62
224.573	-15.62
224.808	-9.62
225.042	3.38
225.277	10.38
225.511	-6.62
225.746	1.38
225.98	4.38
226.215	3.38
226.449	21.38
226.683	13.38
226.918	21.38
227.152	17.38
227.387	16.38
227.621	37.38
227.856	47.38
228.09	45.38
228.324	30.38
228.559	56.38
228.793	54.38
229.027	66.38
229.262	74.38
229.496	68.38
229.73	76.38
229.964	59.38
230.199	85.38
230.433	60.38
230.667	90.38
230.901	97.38
231.136	76.38
231.37	77.38
231.604	79.38
231.838	91.38
232.072	78.38
232.306	70.38
232.541	97.38
232.775	80.38
233.009	80.38
233.243	85.38
233.477	80.38
233.711	88.38
233.945	83.38
234.179	78.38
234.413	84.38
234.647	88.38
234.881	66.38
235.115	74.38
235.349	93.38
235.583	63.38
235.817	74.38
236.051	93.38
236.285	87.38
236.519	90.38
236.753	92.38
236.987	75.38
237.221	62.38
237.455	69.38
237.689	83.38
237.922	76.38
238.156	62.38
238.39	79.38
238.624	73.38
238.858	72.38
239.091	74.38
239.325	76.38
239.559	88.38
239.793	79.38
240.027	82.38
240.26	77.38
240.494	79.38
240.728	86.38
240.961	73.38
241.195	76.38
241.429	89.38
241.662	89.38
241.896	75.38
242.13	79.38
242.363	72.38
242.597	76.38
242.83	70.38
243.064	68.38
243.298	77.38
243.531	74.38
243.765	95.38
243.998	72.38
244.232	73.38
244.465	92.38
244.699	74.38
244.932	84.38
245.166	67.38
245.399	62.38
245.633	71.38
245.866	74.38
246.099	69.38
246.333	85.38
246.566	88.38
246.8	82.38
247.033	80.38
247.266	74.38
247.5	81.38
247.733	85.38
247.966	86.38
248.2	77.38
248.433	80.38
248.666	77.38
248.899	87.38
249.133	79.38
249.366	91.38
249.599	77.38
249.832	79.38
250.066	84.38
250.299	82.38
250.532	90.38
250.765	85.38
250.998	80.38
251.231	84.38
251.465	85.38
251.698	84.38
251.931	83.38
252.164	71.38
252.397	71.38
252.63	88.38
252.863	82.38
253.096	90.38
253.329	85.38
253.562	89.38
253.795	67.38
254.028	80.38
254.261	78.38
254.494	80.38
254.727	85.38
254.96	89.38
255.193	74.38
255.426	73.38
255.659	70.38
255.892	60.38
256.124	70.38
256.357	85.38
256.59	86.38
256.823	78.38
257.056	79.38
257.289	82.38
257.521	82.38
257.754	83.38
257.987	70.38
258.22	86.38
258.452	78.38
258.685	77.38
258.918	74.38
259.151	80.38
259.383	74.38
259.616	80.38
259.849	78.38
260.081	83.38
260.314	86.38
260.547	79.38
260.779	80.38
261.012	80.38
261.244	85.38
261.477	91.38
261.71	96.38
261.942	87.38
262.175	84.38
262.407	89.38
262.64	81.38
262.872	96.38
263.105	88.38
263.337	93.38
263.57	86.38
263.802	99.38
264.035	82.38
264.267	78.38
264.499	84.38
264.732	85.38
264.964	79.38
265.197	84.38
265.429	84.38
265.661	92.38
265.894	86.38
266.126	84.38
266.358	78.38
266.591	95.38
266.823	88.38
267.055	79.38
267.287	101.38
267.52	84.38
267.752	77.38
267.984	78.38
268.216	74.38
268.448	76.38
268.681	83.38
268.913	77.38
269.145	74.38
269.377	98.38
269.609	69.38
269.841	95.38
270.073	87.38
270.306	87.38
270.538	92.38
270.77	88.38
271.002	92.38
271.234	80.38
271.466	87.38
271.698	70.38
271.93	69.38
272.162	93.38
272.394	78.38
272.626	89.38
272.858	81.38
273.09	85.38
273.322	84.38
273.553	75.38
273.785	92.38
274.017	62.38
274.249	84.38
274.481	88.38
274.713	85.38
274.945	74.38
275.176	79.38
275.408	70.38
275.64	89.38
275.872	81.38
276.104	84.38
276.335	91.38
276.567	87.38
276.799	94.38
277.031	87.38
277.262	86.38
277.494	80.38
277.726	93.38
277.957	83.38
278.189	88.38
278.421	77.38
278.652	68.38
278.884	78.38
279.115	69.38
279.347	83.38
279.579	92.38
279.81	80.38
280.042	79.38
280.273	77.38
280.505	84.38
280.736	100.38
280.968	86.38
281.199	89.38
281.431	87.38
281.662	84.38
281.894	100.38
282.125	78.38
282.356	68.38
282.588	76.38
282.819	75.38
283.051	92.38
283.282	74.38
283.513	83.38
283.745	81.38
283.976	78.38
284.207	94.38
284.439	82.38
284.67	90.38
284.901	97.38
285.132	95.38
285.364	83.38
285.595	70.38
285.826	96.38
286.057	76.38
286.288	80.38
286.52	83.38
286.751	96.38
286.982	75.38
287.213	69.38
287.444	93.38
287.675	73.38
287.906	92.38
288.138	89.38
288.369	84.38
288.6	97.38
288.831	78.38
289.062	96.38
289.293	88.38
289.524	96.38
289.755	76.38
289.986	89.38
290.217	78.38
290.448	89.38
290.679	77.38
290.91	91.38
291.141	87.38
291.371	98.38
291.602	91.38
291.833	76.38
292.064	88.38
292.295	81.38
292.526	88.38
292.757	79.38
292.987	91.38
293.218	86.38
293.449	76.38
293.68	79.38
293.91	92.38
294.141	82.38
294.372	91.38
294.603	78.38
294.833	76.38
295.064	89.38
295.295	82.38
295.525	86.38
295.756	91.38
295.987	74.38
296.217	66.38
296.448	82.38
296.679	90.38
296.909	90.38
297.14	91.38
297.37	91.38
297.601	86.38
297.831	81.38
298.062	99.38
298.292	77.38
298.523	93.38
298.753	96.38
298.984	88.38
299.214	78.38
299.445	77.38
299.675	98.38
299.905	102.38
300.136	84.38
300.366	94.38
300.597	77.38
300.827	82.38
301.057	85.38
301.288	97.38
301.518	90.38
301.748	98.38
301.979	96.38
302.209	77.38
302.439	98.38
302.669	81.38
302.9	93.38
303.13	91.38
303.36	85.38
303.59	80.38
303.82	98.38
304.051	90.38
304.281	98.38
304.511	88.38
304.741	86.38
304.971	85.38
305.201	79.38
305.431	87.38
305.661	90.38
305.891	71.38
306.121	91.38
306.352	86.38
306.582	81.38
306.812	65.38
307.042	85.38
307.272	107.38
307.502	85.38
307.731	84.38
307.961	92.38
308.191	87.38
308.421	93.38
308.651	84.38
308.881	78.38
309.111	98.38
309.341	84.38
309.571	87.38
309.8	90.38
310.03	86.38
310.26	77.38
310.49	94.38
310.72	78.38
310.949	87.38
311.179	83.38
311.409	86.38
311.639	81.38
311.868	77.38
312.098	100.38
312.328	91.38
312.557	92.38
312.787	82.38
313.017	84.38
313.246	83.38
313.476	105.38
313.706	95.38
313.935	93.38
314.165	75.38
314.394	79.38
314.624	86.38
314.853	85.38
315.083	82.38
315.312	93.38
315.542	90.38
315.771	97.38
316.001	91.38
316.23	92.38
316.46	92.38
316.689	84.38
316.919	79.38
317.148	89.38
317.377	95.38
317.607	84.38
317.836	99.38
318.065	89.38
318.295	101.38
318.524	75.38
318.753	93.38
318.983	83.38
319.212	88.38
319.441	91.38
319.67	80.38
319.9	90.38
320.129	73.38
320.358	93.38
320.587	95.38
320.816	86.38
321.046	90.38
321.275	96.38
321.504	95.38
321.733	77.38
321.962	87.38
322.191	107.38
322.42	83.38
322.649	92.38
322.878	103.38
323.108	78.38
323.337	86.38
323.566	88.38
323.795	77.38
324.024	90.38
324.253	84.38
324.482	96.38
324.71	93.38
324.939	97.38
325.168	68.38
325.397	73.38
325.626	94.38
325.855	84.38
326.084	104.38
326.313	92.38
326.542	66.38
326.77	84.38
326.999	87.38
327.228	103.38
327.457	89.38
327.686	96.38
327.914	82.38
328.143	81.38
328.372	77.38
328.6	74.38
328.829	77.38
329.058	79.38
329.287	93.38
329.515	84.38
329.744	90.38
329.972	85.38
330.201	95.38
330.43	93.38
330.658	83.38
330.887	100.38
331.115	85.38
331.344	90.38
331.572	84.38
331.801	85.38
332.03	84.38
332.258	87.38
332.486	70.38
332.715	89.38
332.943	86.38
333.172	92.38
333.4	90.38
333.629	95.38
333.857	71.38
334.085	96.38
334.314	107.38
334.542	96.38
334.771	102.38
334.999	86.38
335.227	92.38
335.455	86.38
335.684	90.38
335.912	112.38
336.14	89.38
336.369	105.38
336.597	83.38
336.825	97.38
337.053	101.38
337.281	95.38
337.51	83.38
337.738	83.38
337.966	83.38
338.194	76.38
338.422	91.38
338.65	85.38
338.878	76.38
339.106	73.38
339.334	72.38
339.562	94.38
339.79	95.38
340.018	78.38
340.246	84.38
340.474	84.38
340.702	91.38
340.93	88.38
341.158	103.38
341.386	80.38
341.614	77.38
341.842	87.38
342.07	96.38
342.298	77.38
342.526	96.38
342.754	88.38
342.981	88.38
343.209	91.38
343.437	96.38
343.665	88.38
343.893	90.38
344.12	88.38
344.348	91.38
344.576	86.38
344.804	92.38
345.031	74.38
345.259	84.38
345.487	84.38
345.714	86.38
345.942	91.38
346.17	94.38
346.397	84.38
346.625	76.38
346.853	73.38
347.08	84.38
347.308	84.38
347.535	93.38
347.763	101.38
347.99	77.38
348.218	77.38
348.445	89.38
348.673	93.38
348.9	92.38
349.128	85.38
349.355	75.38
349.583	71.38
349.81	84.38
350.037	96.38
350.265	85.38
350.492	106.38
350.72	85.38
350.947	94.38
351.174	99.38
351.402	79.38
351.629	79.38
351.856	84.38
352.083	85.38
352.311	80.38
352.538	86.38
352.765	86.38
352.992	89.38
353.22	92.38
353.447	92.38
353.674	99.38
353.901	84.38
354.128	90.38
354.355	82.38
354.583	90.38
354.81	78.38
355.037	100.38
355.264	77.38
355.491	88.38
355.718	84.38
355.945	82.38
356.172	96.38
356.399	86.38
356.626	85.38
356.853	75.38
357.08	92.38
357.307	80.38
357.534	80.38
357.761	94.38
357.988	105.38
358.215	94.38
358.441	83.38
358.668	90.38
358.895	80.38
359.122	98.38
359.349	107.38
359.576	94.38
359.802	82.38
360.029	85.38
360.256	89.38
360.483	86.38
360.709	83.38
360.936	89.38
361.163	88.38
361.39	93.38
361.616	83.38
361.843	95.38
362.07	103.38
362.296	103.38
362.523	116.38
362.749	128.38
362.976	134.38
363.203	131.38
363.429	114.38
363.656	114.38
363.882	114.38
364.109	138.38
364.335	144.38
364.562	157.38
364.788	117.38
365.015	106.38
365.241	86.38
365.468	97.38
365.694	81.38
365.92	106.38
366.147	112.38
366.373	83.38
366.599	82.38
366.826	101.38
367.052	92.38
367.278	84.38
367.505	93.38
367.731	95.38
367.957	87.38
368.184	103.38
368.41	81.38
368.636	78.38
368.862	86.38
369.089	100.38
369.315	83.38
369.541	92.38
369.767	81.38
369.993	93.38
370.219	96.38
370.445	86.38
370.672	90.38
370.898	92.38
371.124	92.38
371.35	85.38
371.576	86.38
371.802	100.38
372.028	86.38
372.254	79.38
372.48	94.38
372.706	88.38
372.932	69.38
373.158	79.38
373.384	85.38
373.61	107.38
373.835	98.38
374.061	104.38
374.287	96.38
374.513	101.38
374.739	96.38
374.965	92.38
375.191	82.38
375.416	89.38
375.642	81.38
375.868	81.38
376.094	95.38
376.319	94.38
376.545	88.38
376.771	88.38
376.997	82.38
377.222	99.38
377.448	77.38
377.674	90.38
377.899	81.38
378.125	79.38
378.35	93.38
378.576	82.38
378.802	83.38
379.027	92.38
379.253	99.38
379.478	84.38
379.704	92.38
379.929	78.38
380.155	69.38
380.38	83.38
380.606	74.38
380.831	82.38
381.057	105.38
381.282	84.38
381.507	86.38
381.733	97.38
381.958	96.38
382.184	98.38
382.409	96.38
382.634	99.38
382.86	96.38
383.085	94.38
383.31	90.38
383.535	107.38
383.761	105.38
383.986	105.38
384.211	85.38
384.436	86.38
384.662	71.38
384.887	90.38
385.112	98.38
385.337	104.38
385.562	81.38
385.787	99.38
386.013	90.38
386.238	96.38
386.463	97.38
386.688	111.38
386.913	96.38
387.138	83.38
387.363	112.38
387.588	112.38
387.813	94.38
388.038	112.38
388.263	103.38
388.488	93.38
388.713	81.38
388.938	80.38
389.163	94.38
389.387	94.38
389.612	98.38
389.837	88.38
390.062	91.38
390.287	80.38
390.512	91.38
390.736	90.38
390.961	86.38
391.186	98.38
391.411	100.38
391.636	86.38
391.86	80.38
392.085	86.38
392.31	102.38
392.534	114.38
392.759	134.38
392.984	168.38
393.208	237.38
393.433	324.38
393.658	260.38
393.882	145.38
394.107	108.38
394.331	112.38
394.556	124.38
394.78	103.38
395.005	100.38
395.229	102.38
395.454	105.38
395.678	120.38
395.903	125.38
396.127	135.38
396.352	143.38
396.576	186.38
396.801	257.38
397.025	282.38
397.249	176.38
397.474	139.38
397.698	120.38
397.922	118.38
398.147	94.38
398.371	83.38
398.595	97.38
398.82	89.38
399.044	83.38
399.268	96.38
399.492	98.38
399.717	101.38
399.941	98.38
400.165	96.38
400.389	95.38
400.613	89.38
400.837	71.38
401.062	82.38
401.286	93.38
401.51	88.38
401.734	82.38
401.958	81.38
402.182	75.38
402.406	78.38
402.63	77.38
402.854	88.38
403.078	102.38
403.302	86.38
403.526	85.38
403.75	105.38
403.974	76.38
404.198	105.38
404.422	128.38
404.645	129.38
404.869	116.38
405.093	114.38
405.317	112.38
405.541	89.38
405.765	85.38
405.988	86.38
406.212	92.38
406.436	110.38
406.66	101.38
406.883	86.38
407.107	74.38
407.331	70.38
407.555	94.38
407.778	108.38
408.002	107.38
408.226	99.38
408.449	78.38
408.673	79.38
408.896	73.38
409.12	84.38
409.344	98.38
409.567	101.38
409.791	108.38
410.014	124.38
410.238	104.38
410.461	100.38
410.685	99.38
410.908	96.38
411.132	100.38
411.355	104.38
411.578	108.38
411.802	101.38
412.025	87.38
412.249	69.38
412.472	98.38
412.695	79.38
412.919	88.38
413.142	76.38
413.365	90.38
413.589	85.38
413.812	98.38
414.035	103.38
414.258	85.38
414.482	92.38
414.705	84.38
414.928	94.38
415.151	99.38
415.374	91.38
415.597	84.38
415.821	100.38
416.044	87.38
416.267	92.38
416.49	93.38
416.713	85.38
416.936	94.38
417.159	96.38
417.382	102.38
417.605	85.38
417.828	87.38
418.051	73.38
418.274	99.38
418.497	84.38
418.72	92.38
418.943	101.38
419.166	97.38
419.389	93.38
419.611	97.38
419.834	102.38
420.057	97.38
420.28	97.38
420.503	98.38
420.726	89.38
420.948	97.38
421.171	108.38
421.394	109.38
421.617	138.38
421.839	146.38
422.062	144.38
422.285	226.38
422.507	317.38
422.73	378.38
422.953	364.38
423.175	267.38
423.398	170.38
423.621	156.38
423.843	124.38
424.066	117.38
424.288	114.38
424.511	96.38
424.733	106.38
424.956	99.38
425.178	91.38
425.401	103.38
425.623	96.38
425.846	92.38
426.068	98.38
426.291	93.38
426.513	78.38
426.735	87.38
426.958	82.38
427.18	105.38
427.402	86.38
427.625	98.38
427.847	99.38
428.069	108.38
428.292	156.38
428.514	156.38
428.736	131.38
428.958	140.38
429.181	157.38
429.403	117.38
429.625	120.38
429.847	143.38
430.069	198.38
430.292	228.38
430.514	209.38
430.736	167.38
430.958	179.38
431.18	127.38
431.402	107.38
431.624	99.38
431.846	139.38
432.068	173.38
432.29	108.38
432.512	101.38
432.734	94.38
432.956	90.38
433.178	90.38
433.4	84.38
433.622	88.38
433.844	99.38
434.066	98.38
434.287	83.38
434.509	96.38
434.731	78.38
434.953	90.38
435.175	74.38
435.397	96.38
435.618	93.38
435.84	96.38
436.062	87.38
436.284	100.38
436.505	85.38
436.727	68.38
436.949	89.38
437.17	83.38
437.392	84.38
437.614	99.38
437.835	89.38
438.057	102.38
438.278	88.38
438.5	89.38
438.721	87.38
438.943	87.38
439.165	90.38
439.386	80.38
439.608	103.38
439.829	92.38
440.05	86.38
440.272	89.38
440.493	104.38
440.715	87.38
440.936	92.38
441.158	99.38
441.379	86.38
441.6	81.38
441.822	88.38
442.043	94.38
442.264	116.38
442.486	168.38
442.707	213.38
442.928	149.38
443.149	144.38
443.371	222.38
443.592	318.38
443.813	295.38
444.034	134.38
444.255	95.38
444.476	96.38
444.698	97.38
444.919	116.38
445.14	238.38
445.361	281.38
445.582	389.38
445.803	319.38
446.024	160.38
446.245	102.38
446.466	88.38
446.687	93.38
446.908	116.38
447.129	87.38
447.35	82.38
447.571	100.38
447.792	92.38
448.013	88.38
448.234	93.38
448.455	84.38
448.675	99.38
448.896	93.38
449.117	82.38
449.338	82.38
449.559	95.38
449.779	91.38
450	82.38
450.221	94.38
450.442	86.38
450.662	77.38
450.883	94.38
451.104	97.38
451.324	93.38
451.545	84.38
451.766	89.38
451.986	80.38
452.207	100.38
452.428	96.38
452.648	104.38
452.869	113.38
453.089	89.38
453.31	98.38
453.53	90.38
453.751	92.38
453.971	80.38
454.192	75.38
454.412	84.38
454.633	69.38
454.853	91.38
455.073	92.38
455.294	76.38
455.514	86.38
455.734	84.38
455.955	84.38
456.175	99.38
456.395	76.38
456.616	77.38
456.836	77.38
457.056	106.38
457.276	85.38
457.497	91.38
457.717	109.38
457.937	117.38
458.157	134.38
458.377	170.38
458.598	162.38
458.818	168.38
459.038	117.38
459.258	92.38
459.478	77.38
459.698	93.38
459.918	85.38
460.138	90.38
460.358	97.38
460.578	89.38
460.798	129.38
461.018	120.38
461.238	99.38
461.458	92.38
461.678	92.38
461.898	89.38
462.118	100.38
462.338	94.38
462.558	79.38
462.777	76.38
462.997	96.38
463.217	101.38
463.437	86.38
463.657	88.38
463.876	93.38
464.096	93.38
464.316	77.38
464.536	93.38
464.755	92.38
464.975	75.38
465.195	86.38
465.414	90.38
465.634	91.38
465.854	99.38
466.073	95.38
466.293	78.38
466.512	96.38
466.732	88.38
466.951	79.38
467.171	78.38
467.391	90.38
467.61	92.38
467.829	98.38
468.049	77.38
468.268	92.38
468.488	102.38
468.707	99.38
468.927	90.38
469.146	88.38
469.365	76.38
469.585	87.38
469.804	92.38
470.023	94.38
470.243	100.38
470.462	88.38
470.681	85.38
470.901	102.38
471.12	84.38
471.339	81.38
471.558	75.38
471.777	98.38
471.997	73.38
472.216	78.38
472.435	87.38
472.654	84.38
472.873	85.38
473.092	77.38
473.311	77.38
473.53	76.38
473.749	92.38
473.968	78.38
474.187	88.38
474.406	92.38
474.625	92.38
474.844	87.38
475.063	80.38
475.282	77.38
475.501	87.38
475.72	81.38
475.939	85.38
476.158	86.38
476.377	88.38
476.596	88.38
476.814	87.38
477.033	96.38
477.252	82.38
477.471	84.38
477.69	81.38
477.908	87.38
478.127	90.38
478.346	84.38
478.564	91.38
478.783	96.38
479.002	96.38
479.22	78.38
479.439	93.38
479.658	102.38
479.876	104.38
480.095	92.38
480.313	93.38
480.532	91.38
480.751	79.38
480.969	86.38
481.188	92.38
481.406	100.38
481.624	77.38
481.843	92.38
482.061	90.38
482.28	98.38
482.498	77.38
482.717	99.38
482.935	89.38
483.153	100.38
483.372	101.38
483.59	90.38
483.808	82.38
484.027	104.38
484.245	108.38
484.463	84.38
484.681	100.38
484.9	96.38
485.118	97.38
485.336	81.38
485.554	82.38
485.772	93.38
485.99	84.38
486.209	94.38
486.427	98.38
486.645	96.38
486.863	99.38
487.081	98.38
487.299	83.38
487.517	107.38
487.735	151.38
487.953	235.38
488.171	207.38
488.389	124.38
488.607	93.38
488.825	99.38
489.043	89.38
489.261	94.38
489.479	88.38
489.696	91.38
489.914	97.38
490.132	92.38
490.35	93.38
490.568	97.38
490.786	84.38
491.003	82.38
491.221	93.38
491.439	85.38
491.657	83.38
491.874	80.38
492.092	100.38
492.31	98.38
492.527	81.38
492.745	106.38
492.963	84.38
493.18	74.38
493.398	84.38
493.615	84.38
493.833	95.38
494.05	86.38
494.268	83.38
494.485	90.38
494.703	92.38
494.92	85.38
495.138	73.38
495.355	74.38
495.573	91.38
495.79	84.38
496.008	94.38
496.225	87.38
496.442	107.38
496.66	103.38
496.877	87.38
497.094	81.38
497.312	82.38
497.529	86.38
497.746	79.38
497.963	74.38
498.181	86.38
498.398	101.38
498.615	94.38
498.832	91.38
499.049	91.38
499.267	108.38
499.484	97.38
499.701	93.38
499.918	95.38
500.135	91.38
500.352	107.38
500.569	86.38
500.786	85.38
501.003	90.38
501.22	74.38
501.437	75.38
501.654	77.38
501.871	81.38
502.088	100.38
502.305	91.38
502.522	97.38
502.739	96.38
502.956	92.38
503.172	85.38
503.389	96.38
503.606	101.38
503.823	102.38
504.04	115.38
504.256	164.38
504.473	178.38
504.69	129.38
504.907	105.38
505.123	89.38
505.34	86.38
505.557	84.38
505.773	92.38
505.99	96.38
506.207	99.38
506.423	87.38
506.64	91.38
506.856	99.38
507.073	101.38
507.289	68.38
507.506	88.38
507.722	90.38
507.939	101.38
508.155	94.38
508.372	96.38
508.588	87.38
508.805	86.38
509.021	92.38
509.238	88.38
509.454	107.38
509.67	88.38
509.887	91.38
510.103	84.38
510.319	94.38
510.536	103.38
510.752	98.38
510.968	80.38
511.184	85.38
511.401	95.38
511.617	99.38
511.833	96.38
512.049	100.38
512.265	82.38
512.481	103.38
512.698	83.38
512.914	81.38
513.13	102.38
513.346	94.38
513.562	96.38
513.778	78.38
513.994	106.38
514.21	88.38
514.426	91.38
514.642	97.38
514.858	76.38
515.074	84.38
515.29	93.38
515.506	108.38
515.721	98.38
515.937	88.38
516.153	98.38
516.369	98.38
516.585	93.38
516.801	88.38
517.016	93.38
517.232	91.38
