Data from 2145_2_HRD10591_00039.txt Node
Date: Mon Jan 19 14:22:21 EST 2026
User: Yrep
Spectrometer: HR+D1059
Trigger mode: 1
Integration Time (sec): 1.000000E-1
Scans to average: 1
Electric dark correction enabled: true
Nonlinearity correction enabled: false
Boxcar width: 0
XAxis mode: Wavelengths
Number of Pixels in Spectrum: 2048
>>>>>Begin Spectral Data<<<<<
223.165	-14.44
223.4	-14.44
223.635	-14.44
223.869	-25.44
224.104	-26.44
224.338	-13.44
224.573	-9.44
224.808	-13.44
225.042	-2.44
225.277	-0.44
225.511	1.56
225.746	6.56
225.98	4.56
226.215	8.56
226.449	6.56
226.683	23.56
226.918	26.56
227.152	27.56
227.387	32.56
227.621	36.56
227.856	52.56
228.09	50.56
228.324	62.56
228.559	68.56
228.793	56.56
229.027	69.56
229.262	70.56
229.496	69.56
229.73	89.56
229.964	83.56
230.199	80.56
230.433	82.56
230.667	82.56
230.901	83.56
231.136	78.56
231.37	80.56
231.604	86.56
231.838	78.56
232.072	87.56
232.306	78.56
232.541	86.56
232.775	77.56
233.009	77.56
233.243	79.56
233.477	79.56
233.711	95.56
233.945	90.56
234.179	87.56
234.413	79.56
234.647	83.56
234.881	87.56
235.115	82.56
235.349	86.56
235.583	87.56
235.817	83.56
236.051	86.56
236.285	82.56
236.519	76.56
236.753	97.56
236.987	90.56
237.221	87.56
237.455	85.56
237.689	92.56
237.922	96.56
238.156	86.56
238.39	96.56
238.624	76.56
238.858	84.56
239.091	90.56
239.325	84.56
239.559	85.56
239.793	96.56
240.027	88.56
240.26	97.56
240.494	85.56
240.728	91.56
240.961	80.56
241.195	88.56
241.429	73.56
241.662	77.56
241.896	72.56
242.13	84.56
242.363	83.56
242.597	73.56
242.83	87.56
243.064	69.56
243.298	83.56
243.531	74.56
243.765	73.56
243.998	77.56
244.232	90.56
244.465	97.56
244.699	93.56
244.932	97.56
245.166	93.56
245.399	88.56
245.633	83.56
245.866	96.56
246.099	81.56
246.333	79.56
246.566	89.56
246.8	96.56
247.033	80.56
247.266	112.56
247.5	84.56
247.733	86.56
247.966	95.56
248.2	85.56
248.433	99.56
248.666	98.56
248.899	104.56
249.133	97.56
249.366	96.56
249.599	96.56
249.832	79.56
250.066	89.56
250.299	90.56
250.532	95.56
250.765	105.56
250.998	103.56
251.231	101.56
251.465	99.56
251.698	107.56
251.931	105.56
252.164	102.56
252.397	105.56
252.63	96.56
252.863	97.56
253.096	103.56
253.329	112.56
253.562	106.56
253.795	98.56
254.028	103.56
254.261	98.56
254.494	90.56
254.727	101.56
254.96	98.56
255.193	98.56
255.426	93.56
255.659	97.56
255.892	102.56
256.124	88.56
256.357	101.56
256.59	106.56
256.823	99.56
257.056	107.56
257.289	92.56
257.521	103.56
257.754	98.56
257.987	102.56
258.22	98.56
258.452	94.56
258.685	86.56
258.918	88.56
259.151	97.56
259.383	102.56
259.616	90.56
259.849	118.56
260.081	96.56
260.314	94.56
260.547	106.56
260.779	116.56
261.012	114.56
261.244	110.56
261.477	107.56
261.71	93.56
261.942	110.56
262.175	99.56
262.407	105.56
262.64	124.56
262.872	90.56
263.105	115.56
263.337	91.56
263.57	104.56
263.802	108.56
264.035	114.56
264.267	116.56
264.499	110.56
264.732	112.56
264.964	106.56
265.197	108.56
265.429	87.56
265.661	108.56
265.894	125.56
266.126	107.56
266.358	94.56
266.591	117.56
266.823	121.56
267.055	106.56
267.287	115.56
267.52	112.56
267.752	105.56
267.984	120.56
268.216	114.56
268.448	119.56
268.681	99.56
268.913	106.56
269.145	120.56
269.377	126.56
269.609	99.56
269.841	114.56
270.073	112.56
270.306	112.56
270.538	115.56
270.77	110.56
271.002	115.56
271.234	91.56
271.466	118.56
271.698	110.56
271.93	103.56
272.162	127.56
272.394	117.56
272.626	115.56
272.858	125.56
273.09	114.56
273.322	128.56
273.553	123.56
273.785	127.56
274.017	124.56
274.249	120.56
274.481	113.56
274.713	110.56
274.945	133.56
275.176	121.56
275.408	111.56
275.64	132.56
275.872	128.56
276.104	123.56
276.335	114.56
276.567	108.56
276.799	121.56
277.031	117.56
277.262	124.56
277.494	126.56
277.726	101.56
277.957	127.56
278.189	139.56
278.421	134.56
278.652	136.56
278.884	123.56
279.115	154.56
279.347	165.56
279.579	210.56
279.81	225.56
280.042	204.56
280.273	185.56
280.505	193.56
280.736	155.56
280.968	126.56
281.199	130.56
281.431	129.56
281.662	126.56
281.894	120.56
282.125	133.56
282.356	130.56
282.588	113.56
282.819	126.56
283.051	127.56
283.282	136.56
283.513	126.56
283.745	116.56
283.976	124.56
284.207	140.56
284.439	113.56
284.67	132.56
284.901	130.56
285.132	141.56
285.364	156.56
285.595	140.56
285.826	119.56
286.057	125.56
286.288	124.56
286.52	131.56
286.751	129.56
286.982	130.56
287.213	113.56
287.444	143.56
287.675	140.56
287.906	142.56
288.138	153.56
288.369	149.56
288.6	143.56
288.831	132.56
289.062	136.56
289.293	131.56
289.524	138.56
289.755	111.56
289.986	114.56
290.217	139.56
290.448	124.56
290.679	134.56
290.91	128.56
291.141	139.56
291.371	130.56
291.602	135.56
291.833	124.56
292.064	146.56
292.295	129.56
292.526	123.56
292.757	133.56
292.987	134.56
293.218	121.56
293.449	144.56
293.68	123.56
293.91	118.56
294.141	142.56
294.372	135.56
294.603	128.56
294.833	131.56
295.064	131.56
295.295	134.56
295.525	132.56
295.756	135.56
295.987	137.56
296.217	122.56
296.448	139.56
296.679	116.56
296.909	141.56
297.14	145.56
297.37	134.56
297.601	144.56
297.831	139.56
298.062	136.56
298.292	139.56
298.523	133.56
298.753	139.56
298.984	131.56
299.214	134.56
299.445	137.56
299.675	160.56
299.905	164.56
300.136	153.56
300.366	158.56
300.597	146.56
300.827	135.56
301.057	158.56
301.288	153.56
301.518	137.56
301.748	143.56
301.979	168.56
302.209	148.56
302.439	130.56
302.669	146.56
302.9	137.56
303.13	134.56
303.36	129.56
303.59	137.56
303.82	145.56
304.051	149.56
304.281	150.56
304.511	158.56
304.741	147.56
304.971	144.56
305.201	154.56
305.431	150.56
305.661	139.56
305.891	148.56
306.121	154.56
306.352	146.56
306.582	153.56
306.812	143.56
307.042	154.56
307.272	146.56
307.502	139.56
307.731	156.56
307.961	148.56
308.191	155.56
308.421	178.56
308.651	170.56
308.881	164.56
309.111	169.56
309.341	176.56
309.571	182.56
309.8	165.56
310.03	155.56
310.26	155.56
310.49	146.56
310.72	171.56
310.949	156.56
311.179	149.56
311.409	159.56
311.639	165.56
311.868	162.56
312.098	162.56
312.328	155.56
312.557	174.56
312.787	159.56
313.017	163.56
313.246	165.56
313.476	162.56
313.706	189.56
313.935	178.56
314.165	176.56
314.394	195.56
314.624	208.56
314.853	202.56
315.083	222.56
315.312	266.56
315.542	336.56
315.771	438.56
316.001	527.56
316.23	530.56
316.46	427.56
316.689	378.56
316.919	360.56
317.148	347.56
317.377	416.56
317.607	478.56
317.836	609.56
318.065	766.56
318.295	756.56
318.524	584.56
318.753	450.56
318.983	395.56
319.212	333.56
319.441	286.56
319.67	289.56
319.9	261.56
320.129	255.56
320.358	212.56
320.587	220.56
320.816	202.56
321.046	202.56
321.275	202.56
321.504	197.56
321.733	195.56
321.962	192.56
322.191	198.56
322.42	195.56
322.649	192.56
322.878	180.56
323.108	204.56
323.337	183.56
323.566	176.56
323.795	176.56
324.024	185.56
324.253	179.56
324.482	177.56
324.71	186.56
324.939	185.56
325.168	178.56
325.397	156.56
325.626	167.56
325.855	179.56
326.084	164.56
326.313	182.56
326.542	157.56
326.77	160.56
326.999	177.56
327.228	178.56
327.457	180.56
327.686	161.56
327.914	162.56
328.143	156.56
328.372	154.56
328.6	159.56
328.829	160.56
329.058	162.56
329.287	163.56
329.515	175.56
329.744	156.56
329.972	158.56
330.201	178.56
330.43	176.56
330.658	170.56
330.887	166.56
331.115	180.56
331.344	174.56
331.572	180.56
331.801	149.56
332.03	182.56
332.258	153.56
332.486	169.56
332.715	155.56
332.943	166.56
333.172	181.56
333.4	166.56
333.629	182.56
333.857	184.56
334.085	178.56
334.314	183.56
334.542	186.56
334.771	191.56
334.999	184.56
335.227	209.56
335.455	194.56
335.684	198.56
335.912	214.56
336.14	195.56
336.369	178.56
336.597	183.56
336.825	192.56
337.053	179.56
337.281	178.56
337.51	177.56
337.738	188.56
337.966	180.56
338.194	177.56
338.422	176.56
338.65	166.56
338.878	199.56
339.106	165.56
339.334	194.56
339.562	176.56
339.79	172.56
340.018	168.56
340.246	155.56
340.474	168.56
340.702	159.56
340.93	166.56
341.158	165.56
341.386	169.56
341.614	177.56
341.842	178.56
342.07	178.56
342.298	168.56
342.526	174.56
342.754	167.56
342.981	178.56
343.209	164.56
343.437	172.56
343.665	153.56
343.893	181.56
344.12	180.56
344.348	194.56
344.576	175.56
344.804	160.56
345.031	183.56
345.259	171.56
345.487	166.56
345.714	161.56
345.942	167.56
346.17	157.56
346.397	158.56
346.625	171.56
346.853	162.56
347.08	163.56
347.308	168.56
347.535	171.56
347.763	178.56
347.99	161.56
348.218	174.56
348.445	180.56
348.673	162.56
348.9	171.56
349.128	172.56
349.355	169.56
349.583	175.56
349.81	176.56
350.037	170.56
350.265	181.56
350.492	163.56
350.72	173.56
350.947	164.56
351.174	168.56
351.402	174.56
351.629	149.56
351.856	158.56
352.083	139.56
352.311	150.56
352.538	153.56
352.765	161.56
352.992	167.56
353.22	168.56
353.447	154.56
353.674	170.56
353.901	157.56
354.128	181.56
354.355	166.56
354.583	186.56
354.81	176.56
355.037	178.56
355.264	175.56
355.491	163.56
355.718	160.56
355.945	160.56
356.172	163.56
356.399	169.56
356.626	176.56
356.853	161.56
357.08	179.56
357.307	174.56
357.534	180.56
357.761	178.56
357.988	199.56
358.215	184.56
358.441	162.56
358.668	179.56
358.895	180.56
359.122	172.56
359.349	172.56
359.576	174.56
359.802	152.56
360.029	170.56
360.256	178.56
360.483	166.56
360.709	162.56
360.936	181.56
361.163	187.56
361.39	199.56
361.616	193.56
361.843	189.56
362.07	197.56
362.296	200.56
362.523	222.56
362.749	231.56
362.976	236.56
363.203	247.56
363.429	200.56
363.656	189.56
363.882	225.56
364.109	239.56
364.335	270.56
364.562	271.56
364.788	231.56
365.015	185.56
365.241	187.56
365.468	164.56
365.694	190.56
365.92	193.56
366.147	178.56
366.373	180.56
366.599	171.56
366.826	166.56
367.052	181.56
367.278	172.56
367.505	162.56
367.731	183.56
367.957	164.56
368.184	190.56
368.41	196.56
368.636	203.56
368.862	181.56
369.089	182.56
369.315	199.56
369.541	196.56
369.767	201.56
369.993	213.56
370.219	216.56
370.445	290.56
370.672	340.56
370.898	340.56
371.124	277.56
371.35	259.56
371.576	254.56
371.802	217.56
372.028	243.56
372.254	218.56
372.48	246.56
372.706	222.56
372.932	254.56
373.158	271.56
373.384	335.56
373.61	411.56
373.835	475.56
374.061	440.56
374.287	375.56
374.513	312.56
374.739	293.56
374.965	278.56
375.191	263.56
375.416	230.56
375.642	234.56
375.868	222.56
376.094	215.56
376.319	206.56
376.545	198.56
376.771	198.56
376.997	197.56
377.222	191.56
377.448	204.56
377.674	195.56
377.899	198.56
378.125	190.56
378.35	187.56
378.576	186.56
378.802	200.56
379.027	194.56
379.253	190.56
379.478	175.56
379.704	201.56
379.929	205.56
380.155	200.56
380.38	186.56
380.606	185.56
380.831	195.56
381.057	206.56
381.282	194.56
381.507	189.56
381.733	195.56
381.958	201.56
382.184	197.56
382.409	206.56
382.634	214.56
382.86	211.56
383.085	230.56
383.31	232.56
383.535	235.56
383.761	235.56
383.986	219.56
384.211	215.56
384.436	218.56
384.662	209.56
384.887	212.56
385.112	231.56
385.337	213.56
385.562	225.56
385.787	208.56
386.013	216.56
386.238	224.56
386.463	219.56
386.688	249.56
386.913	223.56
387.138	235.56
387.363	258.56
387.588	240.56
387.813	242.56
388.038	242.56
388.263	234.56
388.488	266.56
388.713	232.56
388.938	243.56
389.163	226.56
389.387	255.56
389.612	245.56
389.837	262.56
390.062	288.56
390.287	257.56
390.512	288.56
390.736	297.56
390.961	309.56
391.186	327.56
391.411	346.56
391.636	380.56
391.86	424.56
392.085	468.56
392.31	570.56
392.534	693.56
392.759	907.56
392.984	1272.56
393.208	1807.56
393.433	2146.56
393.658	1747.56
393.882	1090.56
394.107	778.56
394.331	631.56
394.556	564.56
394.78	482.56
395.005	438.56
395.229	418.56
395.454	446.56
395.678	454.56
395.903	554.56
396.127	675.56
396.352	886.56
396.576	1196.56
396.801	1607.56
397.025	1682.56
397.249	1074.56
397.474	702.56
397.698	528.56
397.922	424.56
398.147	362.56
398.371	329.56
398.595	303.56
398.82	298.56
399.044	295.56
399.268	292.56
399.492	282.56
399.717	271.56
399.941	287.56
400.165	256.56
400.389	261.56
400.613	262.56
400.837	255.56
401.062	233.56
401.286	244.56
401.51	243.56
401.734	244.56
401.958	228.56
402.182	229.56
402.406	240.56
402.63	244.56
402.854	225.56
403.078	248.56
403.302	234.56
403.526	227.56
403.75	249.56
403.974	249.56
404.198	281.56
404.422	340.56
404.645	358.56
404.869	322.56
405.093	263.56
405.317	240.56
405.541	248.56
405.765	224.56
405.988	231.56
406.212	229.56
406.436	222.56
406.66	240.56
406.883	218.56
407.107	240.56
407.331	254.56
407.555	282.56
407.778	312.56
408.002	327.56
408.226	235.56
408.449	236.56
408.673	235.56
408.896	216.56
409.12	218.56
409.344	244.56
409.567	256.56
409.791	249.56
410.014	252.56
410.238	235.56
410.461	226.56
410.685	236.56
410.908	233.56
411.132	222.56
411.355	225.56
411.578	231.56
411.802	217.56
412.025	227.56
412.249	241.56
412.472	213.56
412.695	217.56
412.919	230.56
413.142	222.56
413.365	230.56
413.589	217.56
413.812	213.56
414.035	202.56
414.258	204.56
414.482	213.56
414.705	181.56
414.928	205.56
415.151	215.56
415.374	212.56
415.597	201.56
415.821	207.56
416.044	188.56
416.267	208.56
416.49	204.56
416.713	202.56
416.936	192.56
417.159	219.56
417.382	197.56
417.605	199.56
417.828	222.56
418.051	219.56
418.274	219.56
418.497	196.56
418.72	212.56
418.943	207.56
419.166	219.56
419.389	226.56
419.611	229.56
419.834	237.56
420.057	239.56
420.28	225.56
420.503	216.56
420.726	223.56
420.948	240.56
421.171	265.56
421.394	292.56
421.617	343.56
421.839	352.56
422.062	369.56
422.285	497.56
422.507	757.56
422.73	1027.56
422.953	939.56
423.175	666.56
423.398	416.56
423.621	330.56
423.843	305.56
424.066	272.56
424.288	262.56
424.511	235.56
424.733	233.56
424.956	222.56
425.178	224.56
425.401	213.56
425.623	217.56
425.846	205.56
426.068	213.56
426.291	201.56
426.513	225.56
426.735	204.56
426.958	212.56
427.18	222.56
427.402	226.56
427.625	210.56
427.847	245.56
428.069	280.56
428.292	357.56
428.514	405.56
428.736	324.56
428.958	378.56
429.181	368.56
429.403	264.56
429.625	278.56
429.847	380.56
430.069	491.56
430.292	585.56
430.514	538.56
430.736	425.56
430.958	412.56
431.18	287.56
431.402	235.56
431.624	257.56
431.846	357.56
432.068	394.56
432.29	241.56
432.512	222.56
432.734	231.56
432.956	217.56
433.178	191.56
433.4	200.56
433.622	205.56
433.844	196.56
434.066	194.56
434.287	192.56
434.509	182.56
434.731	212.56
434.953	211.56
435.175	198.56
435.397	209.56
435.618	212.56
435.84	197.56
436.062	214.56
436.284	220.56
436.505	194.56
436.727	203.56
436.949	179.56
437.17	193.56
437.392	196.56
437.614	197.56
437.835	212.56
438.057	198.56
438.278	207.56
438.5	214.56
438.721	200.56
438.943	204.56
439.165	198.56
439.386	199.56
439.608	185.56
439.829	180.56
440.05	202.56
440.272	215.56
440.493	204.56
440.715	203.56
440.936	188.56
441.158	205.56
441.379	213.56
441.6	230.56
441.822	237.56
442.043	248.56
442.264	272.56
442.486	380.56
442.707	451.56
442.928	367.56
443.149	345.56
443.371	466.56
443.592	669.56
443.813	603.56
444.034	351.56
444.255	272.56
444.476	266.56
444.698	262.56
444.919	289.56
445.14	444.56
445.361	572.56
445.582	817.56
445.803	708.56
446.024	376.56
446.245	269.56
446.466	240.56
446.687	233.56
446.908	208.56
447.129	227.56
447.35	184.56
447.571	217.56
447.792	194.56
448.013	194.56
448.234	188.56
448.455	202.56
448.675	202.56
448.896	172.56
449.117	193.56
449.338	191.56
449.559	200.56
449.779	193.56
450	190.56
450.221	197.56
450.442	201.56
450.662	187.56
450.883	200.56
451.104	198.56
451.324	190.56
451.545	203.56
451.766	194.56
451.986	182.56
452.207	189.56
452.428	211.56
452.648	203.56
452.869	195.56
453.089	202.56
453.31	199.56
453.53	187.56
453.751	204.56
453.971	196.56
454.192	187.56
454.412	182.56
454.633	187.56
454.853	183.56
455.073	182.56
455.294	170.56
455.514	189.56
455.734	200.56
455.955	188.56
456.175	178.56
456.395	177.56
456.616	191.56
456.836	192.56
457.056	176.56
457.276	169.56
457.497	194.56
457.717	201.56
457.937	247.56
458.157	286.56
458.377	308.56
458.598	310.56
458.818	314.56
459.038	243.56
459.258	223.56
459.478	214.56
459.698	196.56
459.918	209.56
460.138	209.56
460.358	217.56
460.578	221.56
460.798	284.56
461.018	283.56
461.238	219.56
461.458	201.56
461.678	215.56
461.898	207.56
462.118	213.56
462.338	216.56
462.558	209.56
462.777	204.56
462.997	218.56
463.217	207.56
463.437	218.56
463.657	216.56
463.876	219.56
464.096	214.56
464.316	204.56
464.536	210.56
464.755	227.56
464.975	202.56
465.195	204.56
465.414	205.56
465.634	208.56
465.854	202.56
466.073	199.56
466.293	200.56
466.512	203.56
466.732	199.56
466.951	191.56
467.171	187.56
467.391	204.56
467.61	202.56
467.829	199.56
468.049	200.56
468.268	197.56
468.488	174.56
468.707	199.56
468.927	200.56
469.146	195.56
469.365	204.56
469.585	195.56
469.804	208.56
470.023	192.56
470.243	196.56
470.462	204.56
470.681	209.56
470.901	199.56
471.12	209.56
471.339	204.56
471.558	195.56
471.777	211.56
471.997	184.56
472.216	204.56
472.435	200.56
472.654	192.56
472.873	190.56
473.092	189.56
473.311	194.56
473.53	194.56
473.749	196.56
473.968	196.56
474.187	210.56
474.406	190.56
474.625	198.56
474.844	165.56
475.063	213.56
475.282	208.56
475.501	198.56
475.72	181.56
475.939	195.56
476.158	223.56
476.377	198.56
476.596	206.56
476.814	202.56
477.033	209.56
477.252	193.56
477.471	191.56
477.69	199.56
477.908	212.56
478.127	229.56
478.346	220.56
478.564	223.56
478.783	227.56
479.002	231.56
479.22	211.56
479.439	216.56
479.658	210.56
479.876	250.56
480.095	222.56
480.313	208.56
480.532	230.56
480.751	233.56
480.969	233.56
481.188	226.56
481.406	248.56
481.624	230.56
481.843	215.56
482.061	224.56
482.28	241.56
482.498	218.56
482.717	214.56
482.935	233.56
483.153	218.56
483.372	233.56
483.59	210.56
483.808	209.56
484.027	220.56
484.245	223.56
484.463	236.56
484.681	220.56
484.9	244.56
485.118	234.56
485.336	230.56
485.554	219.56
485.772	229.56
485.99	230.56
486.209	215.56
486.427	220.56
486.645	241.56
486.863	236.56
487.081	228.56
487.299	261.56
487.517	252.56
487.735	296.56
487.953	394.56
488.171	379.56
488.389	298.56
488.607	260.56
488.825	239.56
489.043	222.56
489.261	229.56
489.479	230.56
489.696	231.56
489.914	223.56
490.132	223.56
490.35	221.56
490.568	216.56
490.786	212.56
491.003	235.56
491.221	236.56
491.439	227.56
491.657	220.56
491.874	222.56
492.092	246.56
492.31	228.56
492.527	246.56
492.745	226.56
492.963	222.56
493.18	244.56
493.398	250.56
493.615	240.56
493.833	236.56
494.05	244.56
494.268	238.56
494.485	235.56
494.703	247.56
494.92	229.56
495.138	250.56
495.355	230.56
495.573	243.56
495.79	238.56
496.008	235.56
496.225	244.56
496.442	227.56
496.66	242.56
496.877	242.56
497.094	237.56
497.312	221.56
497.529	222.56
497.746	263.56
497.963	252.56
498.181	251.56
498.398	276.56
498.615	281.56
498.832	280.56
499.049	293.56
499.267	298.56
499.484	299.56
499.701	297.56
499.918	323.56
500.135	340.56
500.352	334.56
500.569	334.56
500.786	331.56
501.003	343.56
501.22	332.56
501.437	303.56
501.654	294.56
501.871	288.56
502.088	289.56
502.305	291.56
502.522	294.56
502.739	283.56
502.956	268.56
503.172	255.56
503.389	262.56
503.606	269.56
503.823	259.56
504.04	284.56
504.256	330.56
