Data from 2145_2_HRD10591_00028.txt Node
Date: Mon Jan 19 14:22:16 EST 2026
User: Yrep
Spectrometer: HR+D1059
Trigger mode: 1
Integration Time (sec): 1.000000E-1
Scans to average: 1
Electric dark correction enabled: true
Nonlinearity correction enabled: false
Boxcar width: 0
XAxis mode: Wavelengths
Number of Pixels in Spectrum: 2048
>>>>>Begin Spectral Data<<<<<
223.165	-11.44
223.4	-11.44
223.635	-11.44
223.869	-16.44
224.104	-28.44
224.338	-22.44
224.573	-13.44
224.808	-7.44
225.042	6.56
225.277	3.56
225.511	-3.44
225.746	-6.44
225.98	0.56
226.215	9.56
226.449	19.56
226.683	18.56
226.918	24.56
227.152	26.56
227.387	29.56
227.621	36.56
227.856	38.56
228.09	55.56
228.324	57.56
228.559	51.56
228.793	66.56
229.027	64.56
229.262	74.56
229.496	60.56
229.73	61.56
229.964	62.56
230.199	72.56
230.433	67.56
230.667	80.56
230.901	68.56
231.136	72.56
231.37	76.56
231.604	75.56
231.838	74.56
232.072	76.56
232.306	76.56
232.541	89.56
232.775	80.56
233.009	82.56
233.243	86.56
233.477	89.56
233.711	77.56
233.945	82.56
234.179	82.56
234.413	74.56
234.647	75.56
234.881	76.56
235.115	82.56
235.349	75.56
235.583	78.56
235.817	86.56
236.051	73.56
236.285	78.56
236.519	70.56
236.753	69.56
236.987	71.56
237.221	60.56
237.455	93.56
237.689	86.56
237.922	66.56
238.156	77.56
238.39	77.56
238.624	96.56
238.858	92.56
239.091	77.56
239.325	80.56
239.559	83.56
239.793	89.56
240.027	75.56
240.26	78.56
240.494	84.56
240.728	74.56
240.961	79.56
241.195	77.56
241.429	76.56
241.662	85.56
241.896	72.56
242.13	90.56
242.363	71.56
242.597	73.56
242.83	80.56
243.064	66.56
243.298	61.56
243.531	81.56
243.765	64.56
243.998	59.56
244.232	75.56
244.465	81.56
244.699	79.56
244.932	80.56
245.166	97.56
245.399	73.56
245.633	77.56
245.866	82.56
246.099	64.56
246.333	66.56
246.566	71.56
246.8	68.56
247.033	88.56
247.266	76.56
247.5	87.56
247.733	83.56
247.966	77.56
248.2	75.56
248.433	80.56
248.666	72.56
248.899	72.56
249.133	87.56
249.366	66.56
249.599	82.56
249.832	67.56
250.066	86.56
250.299	71.56
250.532	91.56
250.765	74.56
250.998	73.56
251.231	82.56
251.465	84.56
251.698	91.56
251.931	80.56
252.164	76.56
252.397	76.56
252.63	83.56
252.863	70.56
253.096	76.56
253.329	66.56
253.562	86.56
253.795	96.56
254.028	86.56
254.261	72.56
254.494	80.56
254.727	67.56
254.96	80.56
255.193	74.56
255.426	79.56
255.659	66.56
255.892	75.56
256.124	84.56
256.357	74.56
256.59	61.56
256.823	82.56
257.056	82.56
257.289	70.56
257.521	68.56
257.754	74.56
257.987	84.56
258.22	82.56
258.452	74.56
258.685	68.56
258.918	79.56
259.151	87.56
259.383	91.56
259.616	75.56
259.849	94.56
260.081	80.56
260.314	89.56
260.547	90.56
260.779	90.56
261.012	70.56
261.244	79.56
261.477	82.56
261.71	74.56
261.942	74.56
262.175	77.56
262.407	83.56
262.64	75.56
262.872	92.56
263.105	76.56
263.337	82.56
263.57	88.56
263.802	83.56
264.035	82.56
264.267	70.56
264.499	67.56
264.732	84.56
264.964	78.56
265.197	79.56
265.429	79.56
265.661	87.56
265.894	73.56
266.126	67.56
266.358	68.56
266.591	74.56
266.823	79.56
267.055	73.56
267.287	71.56
267.52	81.56
267.752	78.56
267.984	82.56
268.216	82.56
268.448	69.56
268.681	87.56
268.913	90.56
269.145	94.56
269.377	85.56
269.609	70.56
269.841	74.56
270.073	62.56
270.306	89.56
270.538	75.56
270.77	88.56
271.002	94.56
271.234	94.56
271.466	87.56
271.698	95.56
271.93	80.56
272.162	81.56
272.394	85.56
272.626	73.56
272.858	68.56
273.09	84.56
273.322	79.56
273.553	67.56
273.785	86.56
274.017	76.56
274.249	80.56
274.481	86.56
274.713	60.56
274.945	71.56
275.176	83.56
275.408	82.56
275.64	93.56
275.872	80.56
276.104	76.56
276.335	72.56
276.567	81.56
276.799	77.56
277.031	70.56
277.262	84.56
277.494	102.56
277.726	86.56
277.957	90.56
278.189	81.56
278.421	71.56
278.652	82.56
278.884	78.56
279.115	80.56
279.347	84.56
279.579	86.56
279.81	84.56
280.042	82.56
280.273	70.56
280.505	74.56
280.736	82.56
280.968	76.56
281.199	80.56
281.431	78.56
281.662	89.56
281.894	81.56
282.125	71.56
282.356	76.56
282.588	73.56
282.819	75.56
283.051	71.56
283.282	75.56
283.513	85.56
283.745	81.56
283.976	82.56
284.207	89.56
284.439	84.56
284.67	79.56
284.901	76.56
285.132	70.56
285.364	90.56
285.595	71.56
285.826	76.56
286.057	73.56
286.288	82.56
286.52	70.56
286.751	67.56
286.982	84.56
287.213	89.56
287.444	86.56
287.675	78.56
287.906	79.56
288.138	77.56
288.369	83.56
288.6	66.56
288.831	75.56
289.062	90.56
289.293	93.56
289.524	81.56
289.755	86.56
289.986	91.56
290.217	78.56
290.448	77.56
290.679	82.56
290.91	95.56
291.141	85.56
291.371	92.56
291.602	87.56
291.833	92.56
292.064	85.56
292.295	79.56
292.526	86.56
292.757	83.56
292.987	78.56
293.218	86.56
293.449	83.56
293.68	88.56
293.91	89.56
294.141	84.56
294.372	86.56
294.603	63.56
294.833	88.56
295.064	70.56
295.295	80.56
295.525	81.56
295.756	71.56
295.987	86.56
296.217	75.56
296.448	90.56
296.679	68.56
296.909	83.56
297.14	70.56
297.37	72.56
297.601	68.56
297.831	83.56
298.062	82.56
298.292	75.56
298.523	85.56
298.753	86.56
298.984	67.56
299.214	96.56
299.445	83.56
299.675	77.56
299.905	83.56
300.136	84.56
300.366	88.56
300.597	82.56
300.827	87.56
301.057	82.56
301.288	86.56
301.518	75.56
301.748	77.56
301.979	102.56
302.209	89.56
302.439	75.56
302.669	98.56
302.9	87.56
303.13	88.56
303.36	86.56
303.59	93.56
303.82	86.56
304.051	71.56
304.281	76.56
304.511	85.56
304.741	82.56
304.971	76.56
305.201	91.56
305.431	86.56
305.661	78.56
305.891	89.56
306.121	84.56
306.352	88.56
306.582	83.56
306.812	81.56
307.042	90.56
307.272	76.56
307.502	96.56
307.731	91.56
307.961	83.56
308.191	96.56
308.421	67.56
308.651	89.56
308.881	77.56
309.111	86.56
309.341	89.56
309.571	83.56
309.8	85.56
310.03	84.56
310.26	80.56
310.49	90.56
310.72	85.56
310.949	78.56
311.179	95.56
311.409	98.56
311.639	86.56
311.868	74.56
312.098	90.56
312.328	84.56
312.557	66.56
312.787	80.56
313.017	92.56
313.246	84.56
313.476	83.56
313.706	88.56
313.935	85.56
314.165	82.56
314.394	90.56
314.624	67.56
314.853	73.56
315.083	94.56
315.312	80.56
315.542	83.56
315.771	82.56
316.001	77.56
316.23	73.56
316.46	82.56
316.689	72.56
316.919	69.56
317.148	86.56
317.377	86.56
317.607	81.56
317.836	89.56
318.065	79.56
318.295	81.56
318.524	86.56
318.753	71.56
318.983	85.56
319.212	80.56
319.441	76.56
319.67	82.56
319.9	72.56
320.129	70.56
320.358	84.56
320.587	76.56
320.816	84.56
321.046	81.56
321.275	72.56
321.504	75.56
321.733	91.56
321.962	98.56
322.191	80.56
322.42	78.56
322.649	83.56
322.878	96.56
323.108	86.56
323.337	84.56
323.566	79.56
323.795	94.56
324.024	101.56
324.253	89.56
324.482	94.56
324.71	77.56
324.939	88.56
325.168	75.56
325.397	91.56
325.626	80.56
325.855	92.56
326.084	82.56
326.313	82.56
326.542	91.56
326.77	86.56
326.999	76.56
327.228	94.56
327.457	73.56
327.686	89.56
327.914	91.56
328.143	86.56
328.372	89.56
328.6	72.56
328.829	82.56
329.058	80.56
329.287	73.56
329.515	77.56
329.744	70.56
329.972	86.56
330.201	88.56
330.43	81.56
330.658	83.56
330.887	76.56
331.115	69.56
331.344	85.56
331.572	83.56
331.801	77.56
332.03	67.56
332.258	87.56
332.486	74.56
332.715	75.56
332.943	81.56
333.172	81.56
333.4	84.56
333.629	70.56
333.857	86.56
334.085	90.56
334.314	86.56
334.542	85.56
334.771	80.56
334.999	84.56
335.227	74.56
335.455	86.56
335.684	87.56
335.912	86.56
336.14	73.56
336.369	89.56
336.597	73.56
336.825	88.56
337.053	93.56
337.281	70.56
337.51	78.56
337.738	75.56
337.966	88.56
338.194	71.56
338.422	72.56
338.65	88.56
338.878	100.56
339.106	73.56
339.334	91.56
339.562	90.56
339.79	88.56
340.018	80.56
340.246	79.56
340.474	79.56
340.702	90.56
340.93	82.56
341.158	65.56
341.386	78.56
341.614	73.56
341.842	89.56
342.07	84.56
342.298	74.56
342.526	81.56
342.754	86.56
342.981	86.56
343.209	68.56
343.437	92.56
343.665	88.56
343.893	76.56
344.12	86.56
344.348	79.56
344.576	83.56
344.804	99.56
345.031	86.56
345.259	94.56
345.487	82.56
345.714	74.56
345.942	71.56
346.17	82.56
346.397	68.56
346.625	85.56
346.853	82.56
347.08	76.56
347.308	89.56
347.535	70.56
347.763	88.56
347.99	80.56
348.218	82.56
348.445	84.56
348.673	83.56
348.9	98.56
349.128	75.56
349.355	65.56
349.583	74.56
349.81	75.56
350.037	85.56
350.265	71.56
350.492	83.56
350.72	73.56
350.947	88.56
351.174	96.56
351.402	78.56
351.629	92.56
351.856	84.56
352.083	84.56
352.311	81.56
352.538	78.56
352.765	88.56
352.992	96.56
353.22	83.56
353.447	90.56
353.674	87.56
353.901	86.56
354.128	77.56
354.355	85.56
354.583	83.56
354.81	77.56
355.037	75.56
355.264	75.56
355.491	86.56
355.718	103.56
355.945	71.56
356.172	80.56
356.399	76.56
356.626	67.56
356.853	93.56
357.08	80.56
357.307	65.56
357.534	82.56
357.761	70.56
357.988	99.56
358.215	83.56
358.441	74.56
358.668	90.56
358.895	71.56
359.122	83.56
359.349	81.56
359.576	80.56
359.802	76.56
360.029	80.56
360.256	69.56
360.483	62.56
360.709	83.56
360.936	80.56
361.163	82.56
361.39	77.56
361.616	78.56
361.843	71.56
362.07	92.56
362.296	76.56
362.523	79.56
362.749	76.56
362.976	90.56
363.203	98.56
363.429	76.56
363.656	84.56
363.882	96.56
364.109	88.56
364.335	82.56
364.562	107.56
364.788	82.56
365.015	90.56
365.241	77.56
365.468	76.56
365.694	70.56
365.92	98.56
366.147	88.56
366.373	88.56
366.599	82.56
366.826	74.56
367.052	71.56
367.278	88.56
367.505	85.56
367.731	84.56
367.957	82.56
368.184	81.56
368.41	84.56
368.636	81.56
368.862	85.56
369.089	84.56
369.315	72.56
369.541	91.56
369.767	76.56
369.993	70.56
370.219	67.56
370.445	77.56
370.672	72.56
370.898	84.56
371.124	76.56
371.35	64.56
371.576	84.56
371.802	90.56
372.028	85.56
372.254	81.56
372.48	75.56
372.706	81.56
372.932	78.56
373.158	78.56
373.384	79.56
373.61	98.56
373.835	74.56
374.061	91.56
374.287	72.56
374.513	75.56
374.739	75.56
374.965	88.56
375.191	89.56
375.416	99.56
375.642	75.56
375.868	95.56
376.094	101.56
376.319	77.56
376.545	82.56
376.771	80.56
376.997	83.56
377.222	77.56
377.448	95.56
377.674	79.56
377.899	81.56
378.125	77.56
378.35	87.56
378.576	81.56
378.802	86.56
379.027	74.56
379.253	84.56
379.478	77.56
379.704	81.56
379.929	76.56
380.155	82.56
380.38	76.56
380.606	73.56
380.831	74.56
381.057	88.56
381.282	71.56
381.507	90.56
381.733	88.56
381.958	101.56
382.184	87.56
382.409	88.56
382.634	96.56
382.86	87.56
383.085	72.56
383.31	82.56
383.535	95.56
383.761	78.56
383.986	91.56
384.211	87.56
384.436	80.56
384.662	99.56
384.887	82.56
385.112	84.56
385.337	84.56
385.562	87.56
385.787	83.56
386.013	81.56
386.238	82.56
386.463	91.56
386.688	98.56
386.913	89.56
387.138	90.56
387.363	79.56
387.588	78.56
387.813	92.56
388.038	88.56
388.263	88.56
388.488	71.56
388.713	82.56
388.938	75.56
389.163	78.56
389.387	76.56
389.612	63.56
389.837	96.56
390.062	69.56
390.287	84.56
390.512	85.56
390.736	89.56
390.961	76.56
391.186	79.56
391.411	98.56
391.636	74.56
391.86	81.56
392.085	95.56
392.31	82.56
392.534	78.56
392.759	103.56
392.984	99.56
393.208	108.56
393.433	130.56
393.658	110.56
393.882	88.56
394.107	87.56
394.331	83.56
394.556	90.56
394.78	91.56
395.005	77.56
395.229	75.56
395.454	94.56
395.678	86.56
395.903	87.56
396.127	87.56
396.352	88.56
396.576	94.56
396.801	114.56
397.025	126.56
397.249	94.56
397.474	98.56
397.698	75.56
397.922	82.56
398.147	90.56
398.371	79.56
398.595	72.56
398.82	81.56
399.044	90.56
399.268	78.56
399.492	83.56
399.717	91.56
399.941	77.56
400.165	70.56
400.389	83.56
400.613	72.56
400.837	81.56
401.062	75.56
401.286	83.56
401.51	86.56
401.734	92.56
401.958	76.56
402.182	82.56
402.406	87.56
402.63	79.56
402.854	74.56
403.078	82.56
403.302	91.56
403.526	84.56
403.75	80.56
403.974	81.56
404.198	73.56
404.422	98.56
404.645	90.56
404.869	100.56
405.093	87.56
405.317	81.56
405.541	83.56
405.765	83.56
405.988	80.56
406.212	80.56
406.436	79.56
406.66	77.56
406.883	74.56
407.107	71.56
407.331	83.56
407.555	86.56
407.778	91.56
408.002	84.56
408.226	76.56
408.449	87.56
408.673	71.56
408.896	80.56
409.12	87.56
409.344	74.56
409.567	75.56
409.791	74.56
410.014	84.56
410.238	62.56
410.461	82.56
410.685	73.56
410.908	86.56
411.132	93.56
411.355	79.56
411.578	79.56
411.802	87.56
412.025	74.56
412.249	82.56
412.472	80.56
412.695	95.56
412.919	86.56
413.142	80.56
413.365	84.56
413.589	82.56
413.812	89.56
414.035	97.56
414.258	82.56
414.482	74.56
414.705	92.56
414.928	78.56
415.151	76.56
415.374	82.56
415.597	77.56
415.821	64.56
416.044	74.56
416.267	73.56
416.49	86.56
416.713	84.56
416.936	79.56
417.159	73.56
417.382	84.56
417.605	66.56
417.828	86.56
418.051	76.56
418.274	87.56
418.497	77.56
418.72	81.56
418.943	83.56
419.166	90.56
419.389	79.56
419.611	88.56
419.834	82.56
420.057	93.56
420.28	89.56
420.503	72.56
420.726	87.56
420.948	79.56
421.171	85.56
421.394	93.56
421.617	90.56
421.839	89.56
422.062	90.56
422.285	104.56
422.507	153.56
422.73	179.56
422.953	174.56
423.175	117.56
423.398	89.56
423.621	84.56
423.843	75.56
424.066	90.56
424.288	80.56
424.511	73.56
424.733	75.56
424.956	86.56
425.178	79.56
425.401	81.56
425.623	59.56
425.846	82.56
426.068	82.56
426.291	88.56
426.513	68.56
426.735	83.56
426.958	82.56
427.18	83.56
427.402	90.56
427.625	81.56
427.847	93.56
428.069	75.56
428.292	90.56
428.514	91.56
428.736	83.56
428.958	88.56
429.181	82.56
429.403	92.56
429.625	75.56
429.847	105.56
430.069	105.56
430.292	103.56
430.514	102.56
430.736	96.56
430.958	105.56
431.18	84.56
431.402	84.56
431.624	79.56
431.846	88.56
432.068	83.56
432.29	76.56
432.512	86.56
432.734	84.56
432.956	79.56
433.178	96.56
433.4	90.56
433.622	90.56
433.844	75.56
434.066	75.56
434.287	89.56
434.509	77.56
434.731	84.56
434.953	81.56
435.175	79.56
435.397	94.56
435.618	91.56
435.84	101.56
436.062	71.56
436.284	80.56
436.505	85.56
436.727	78.56
436.949	71.56
437.17	79.56
437.392	62.56
437.614	86.56
437.835	76.56
438.057	81.56
438.278	78.56
438.5	73.56
438.721	94.56
438.943	94.56
439.165	88.56
439.386	83.56
439.608	76.56
439.829	82.56
440.05	81.56
440.272	74.56
440.493	85.56
440.715	66.56
440.936	82.56
441.158	88.56
441.379	97.56
441.6	80.56
441.822	103.56
442.043	76.56
442.264	81.56
442.486	94.56
442.707	103.56
442.928	110.56
443.149	89.56
443.371	106.56
443.592	116.56
443.813	128.56
444.034	82.56
444.255	76.56
444.476	78.56
444.698	102.56
444.919	87.56
445.14	178.56
445.361	132.56
445.582	150.56
445.803	123.56
446.024	103.56
446.245	82.56
446.466	90.56
446.687	71.56
446.908	75.56
447.129	73.56
447.35	88.56
447.571	84.56
447.792	95.56
448.013	74.56
448.234	82.56
448.455	94.56
448.675	92.56
448.896	89.56
449.117	74.56
449.338	64.56
449.559	85.56
449.779	87.56
450	87.56
450.221	87.56
450.442	82.56
450.662	91.56
450.883	73.56
451.104	86.56
451.324	83.56
451.545	98.56
451.766	88.56
451.986	78.56
452.207	77.56
452.428	86.56
452.648	84.56
452.869	90.56
453.089	82.56
453.31	63.56
453.53	92.56
453.751	82.56
453.971	90.56
454.192	75.56
454.412	86.56
454.633	71.56
454.853	92.56
455.073	96.56
455.294	74.56
455.514	75.56
455.734	82.56
455.955	77.56
456.175	90.56
456.395	84.56
456.616	82.56
456.836	72.56
457.056	77.56
457.276	74.56
457.497	82.56
457.717	79.56
457.937	90.56
458.157	80.56
458.377	97.56
458.598	93.56
458.818	85.56
459.038	66.56
459.258	76.56
459.478	86.56
459.698	62.56
459.918	69.56
460.138	79.56
460.358	86.56
460.578	98.56
460.798	82.56
461.018	94.56
461.238	83.56
461.458	74.56
461.678	80.56
461.898	82.56
462.118	82.56
462.338	95.56
462.558	74.56
462.777	75.56
462.997	77.56
463.217	72.56
463.437	66.56
463.657	73.56
463.876	87.56
464.096	88.56
464.316	82.56
464.536	84.56
464.755	84.56
464.975	93.56
465.195	80.56
465.414	71.56
465.634	74.56
465.854	85.56
466.073	91.56
466.293	84.56
466.512	70.56
466.732	80.56
466.951	76.56
467.171	79.56
467.391	84.56
467.61	76.56
467.829	82.56
468.049	77.56
468.268	81.56
468.488	84.56
468.707	98.56
468.927	88.56
469.146	83.56
469.365	84.56
469.585	88.56
469.804	83.56
470.023	81.56
470.243	71.56
470.462	66.56
470.681	78.56
470.901	81.56
471.12	84.56
471.339	83.56
471.558	75.56
471.777	84.56
471.997	88.56
472.216	86.56
472.435	83.56
472.654	85.56
472.873	86.56
473.092	79.56
473.311	90.56
473.53	75.56
473.749	78.56
473.968	94.56
474.187	75.56
474.406	87.56
474.625	94.56
474.844	72.56
475.063	70.56
475.282	88.56
475.501	79.56
475.72	84.56
475.939	94.56
476.158	82.56
476.377	87.56
476.596	84.56
476.814	83.56
477.033	85.56
477.252	73.56
477.471	82.56
477.69	98.56
477.908	86.56
478.127	86.56
478.346	100.56
478.564	97.56
478.783	78.56
479.002	94.56
479.22	89.56
479.439	81.56
479.658	74.56
479.876	91.56
480.095	79.56
480.313	80.56
480.532	83.56
480.751	88.56
480.969	90.56
481.188	85.56
481.406	84.56
481.624	80.56
481.843	81.56
482.061	77.56
482.28	79.56
482.498	68.56
482.717	79.56
482.935	91.56
483.153	103.56
483.372	99.56
483.59	72.56
483.808	88.56
484.027	86.56
484.245	88.56
484.463	87.56
484.681	92.56
484.9	72.56
485.118	83.56
485.336	84.56
485.554	91.56
485.772	79.56
485.99	83.56
486.209	91.56
486.427	75.56
486.645	83.56
486.863	82.56
487.081	90.56
487.299	82.56
487.517	91.56
487.735	97.56
487.953	103.56
488.171	101.56
488.389	88.56
488.607	74.56
488.825	88.56
489.043	90.56
489.261	83.56
489.479	82.56
489.696	92.56
489.914	97.56
490.132	97.56
490.35	88.56
490.568	76.56
490.786	76.56
491.003	84.56
491.221	77.56
491.439	76.56
491.657	85.56
491.874	80.56
492.092	83.56
492.31	89.56
492.527	74.56
492.745	80.56
492.963	78.56
493.18	87.56
493.398	81.56
493.615	92.56
493.833	75.56
494.05	86.56
494.268	80.56
494.485	78.56
494.703	99.56
494.92	92.56
495.138	83.56
495.355	94.56
495.573	87.56
495.79	82.56
496.008	78.56
496.225	100.56
496.442	86.56
496.66	87.56
496.877	84.56
497.094	75.56
497.312	82.56
497.529	88.56
497.746	83.56
497.963	86.56
498.181	80.56
498.398	72.56
498.615	78.56
498.832	85.56
499.049	89.56
499.267	92.56
499.484	83.56
499.701	88.56
499.918	96.56
500.135	75.56
500.352	94.56
500.569	86.56
500.786	74.56
501.003	94.56
501.22	67.56
501.437	74.56
501.654	80.56
501.871	78.56
502.088	75.56
502.305	87.56
502.522	89.56
502.739	88.56
502.956	71.56
503.172	96.56
503.389	89.56
503.606	90.56
503.823	85.56
504.04	102.56
504.256	97.56
504.473	87.56
504.69	70.56
504.907	90.56
505.123	97.56
505.34	91.56
505.557	87.56
505.773	90.56
505.99	94.56
506.207	84.56
506.423	79.56
506.64	84.56
506.856	79.56
507.073	78.56
507.289	88.56
507.506	88.56
507.722	85.56
507.939	81.56
508.155	91.56
508.372	81.56
508.588	86.56
508.805	89.56
509.021	96.56
509.238	90.56
509.454	80.56
509.67	69.56
509.887	76.56
510.103	90.56
510.319	83.56
510.536	92.56
510.752	77.56
510.968	88.56
511.184	86.56
511.401	88.56
511.617	97.56
511.833	87.56
512.049	84.56
512.265	89.56
512.481	77.56
512.698	88.56
512.914	90.56
513.13	98.56
513.346	80.56
513.562	82.56
513.778	89.56
513.994	84.56
514.21	96.56
514.426	80.56
514.642	79.56
514.858	88.56
515.074	87.56
515.29	95.56
515.506	97.56
515.721	88.56
515.937	77.56
516.153	76.56
516.369	88.56
516.585	93.56
516.801	78.56
517.016	81.56
517.232	73.56
517.448	82.56
517.664	88.56
517.879	84.56
518.095	86.56
518.311	81.56
518.527	86.56
518.742	90.56
518.958	95.56
519.173	110.56
519.389	106.56
519.605	69.56
