Data from 2145_2_HRD10591_00038.txt Node
Date: Mon Jan 19 14:22:21 EST 2026
User: Yrep
Spectrometer: HR+D1059
Trigger mode: 1
Integration Time (sec): 1.000000E-1
Scans to average: 1
Electric dark correction enabled: true
Nonlinearity correction enabled: false
Boxcar width: 0
XAxis mode: Wavelengths
Number of Pixels in Spectrum: 2048
>>>>>Begin Spectral Data<<<<<
223.165	-24.75
223.4	-24.75
223.635	-24.75
223.869	-11.75
224.104	-19.75
224.338	-5.75
224.573	-21.75
224.808	-7.75
225.042	-10.75
225.277	-6.75
225.511	7.25
225.746	3.25
225.98	14.25
226.215	3.25
226.449	7.25
226.683	19.25
226.918	13.25
227.152	41.25
227.387	29.25
227.621	40.25
227.856	46.25
228.09	57.25
228.324	50.25
228.559	54.25
228.793	60.25
229.027	59.25
229.262	70.25
229.496	71.25
229.73	68.25
229.964	95.25
230.199	65.25
230.433	59.25
230.667	78.25
230.901	72.25
231.136	93.25
231.37	88.25
231.604	86.25
231.838	74.25
232.072	84.25
232.306	73.25
232.541	85.25
232.775	85.25
233.009	74.25
233.243	84.25
233.477	101.25
233.711	85.25
233.945	82.25
234.179	93.25
234.413	85.25
234.647	82.25
234.881	61.25
235.115	70.25
235.349	81.25
235.583	68.25
235.817	72.25
236.051	74.25
236.285	76.25
236.519	74.25
236.753	73.25
236.987	80.25
237.221	60.25
237.455	69.25
237.689	74.25
237.922	66.25
238.156	86.25
238.39	86.25
238.624	75.25
238.858	82.25
239.091	84.25
239.325	84.25
239.559	74.25
239.793	69.25
240.027	85.25
240.26	79.25
240.494	85.25
240.728	89.25
240.961	82.25
241.195	73.25
241.429	69.25
241.662	72.25
241.896	80.25
242.13	79.25
242.363	63.25
242.597	81.25
242.83	76.25
243.064	75.25
243.298	82.25
243.531	78.25
243.765	72.25
243.998	78.25
244.232	73.25
244.465	73.25
244.699	90.25
244.932	84.25
245.166	81.25
245.399	75.25
245.633	85.25
245.866	90.25
246.099	70.25
246.333	85.25
246.566	81.25
246.8	79.25
247.033	74.25
247.266	82.25
247.5	76.25
247.733	84.25
247.966	76.25
248.2	82.25
248.433	75.25
248.666	74.25
248.899	79.25
249.133	82.25
249.366	100.25
249.599	85.25
249.832	85.25
250.066	80.25
250.299	55.25
250.532	100.25
250.765	82.25
250.998	80.25
251.231	68.25
251.465	71.25
251.698	84.25
251.931	68.25
252.164	88.25
252.397	72.25
252.63	99.25
252.863	75.25
253.096	82.25
253.329	86.25
253.562	87.25
253.795	69.25
254.028	81.25
254.261	74.25
254.494	72.25
254.727	85.25
254.96	84.25
255.193	77.25
255.426	66.25
255.659	76.25
255.892	77.25
256.124	69.25
256.357	88.25
256.59	90.25
256.823	80.25
257.056	93.25
257.289	90.25
257.521	84.25
257.754	81.25
257.987	60.25
258.22	83.25
258.452	91.25
258.685	83.25
258.918	81.25
259.151	97.25
259.383	94.25
259.616	80.25
259.849	84.25
260.081	92.25
260.314	71.25
260.547	73.25
260.779	72.25
261.012	84.25
261.244	84.25
261.477	97.25
261.71	82.25
261.942	83.25
262.175	79.25
262.407	74.25
262.64	84.25
262.872	68.25
263.105	82.25
263.337	79.25
263.57	84.25
263.802	86.25
264.035	87.25
264.267	84.25
264.499	87.25
264.732	79.25
264.964	78.25
265.197	86.25
265.429	78.25
265.661	80.25
265.894	80.25
266.126	90.25
266.358	91.25
266.591	75.25
266.823	84.25
267.055	77.25
267.287	80.25
267.52	82.25
267.752	97.25
267.984	91.25
268.216	98.25
268.448	86.25
268.681	91.25
268.913	82.25
269.145	85.25
269.377	97.25
269.609	83.25
269.841	85.25
270.073	76.25
270.306	79.25
270.538	90.25
270.77	86.25
271.002	82.25
271.234	83.25
271.466	94.25
271.698	84.25
271.93	77.25
272.162	94.25
272.394	84.25
272.626	90.25
272.858	91.25
273.09	68.25
273.322	77.25
273.553	84.25
273.785	85.25
274.017	68.25
274.249	72.25
274.481	84.25
274.713	77.25
274.945	86.25
275.176	86.25
275.408	75.25
275.64	84.25
275.872	81.25
276.104	74.25
276.335	86.25
276.567	82.25
276.799	90.25
277.031	78.25
277.262	81.25
277.494	91.25
277.726	72.25
277.957	80.25
278.189	74.25
278.421	96.25
278.652	84.25
278.884	87.25
279.115	77.25
279.347	80.25
279.579	84.25
279.81	78.25
280.042	97.25
280.273	100.25
280.505	81.25
280.736	82.25
280.968	73.25
281.199	83.25
281.431	90.25
281.662	91.25
281.894	85.25
282.125	74.25
282.356	90.25
282.588	93.25
282.819	90.25
283.051	84.25
283.282	79.25
283.513	85.25
283.745	98.25
283.976	86.25
284.207	80.25
284.439	76.25
284.67	76.25
284.901	77.25
285.132	88.25
285.364	85.25
285.595	90.25
285.826	67.25
286.057	97.25
286.288	82.25
286.52	82.25
286.751	79.25
286.982	92.25
287.213	66.25
287.444	75.25
287.675	88.25
287.906	81.25
288.138	86.25
288.369	91.25
288.6	74.25
288.831	86.25
289.062	92.25
289.293	85.25
289.524	104.25
289.755	84.25
289.986	76.25
290.217	72.25
290.448	93.25
290.679	84.25
290.91	92.25
291.141	83.25
291.371	89.25
291.602	92.25
291.833	83.25
292.064	82.25
292.295	93.25
292.526	91.25
292.757	96.25
292.987	87.25
293.218	88.25
293.449	77.25
293.68	83.25
293.91	76.25
294.141	76.25
294.372	81.25
294.603	80.25
294.833	90.25
295.064	78.25
295.295	96.25
295.525	96.25
295.756	87.25
295.987	89.25
296.217	98.25
296.448	78.25
296.679	87.25
296.909	78.25
297.14	86.25
297.37	87.25
297.601	80.25
297.831	80.25
298.062	89.25
298.292	85.25
298.523	79.25
298.753	89.25
298.984	93.25
299.214	78.25
299.445	90.25
299.675	78.25
299.905	90.25
300.136	92.25
300.366	87.25
300.597	90.25
300.827	91.25
301.057	80.25
301.288	82.25
301.518	89.25
301.748	81.25
301.979	98.25
302.209	84.25
302.439	88.25
302.669	81.25
302.9	79.25
303.13	82.25
303.36	79.25
303.59	79.25
303.82	90.25
304.051	84.25
304.281	95.25
304.511	83.25
304.741	91.25
304.971	92.25
305.201	84.25
305.431	78.25
305.661	70.25
305.891	98.25
306.121	96.25
306.352	84.25
306.582	75.25
306.812	85.25
307.042	80.25
307.272	81.25
307.502	84.25
307.731	87.25
307.961	96.25
308.191	77.25
308.421	85.25
308.651	101.25
308.881	79.25
309.111	88.25
309.341	88.25
309.571	86.25
309.8	83.25
310.03	88.25
310.26	89.25
310.49	82.25
310.72	69.25
310.949	84.25
311.179	93.25
311.409	84.25
311.639	88.25
311.868	79.25
312.098	72.25
312.328	100.25
312.557	89.25
312.787	84.25
313.017	87.25
313.246	85.25
313.476	84.25
313.706	99.25
313.935	75.25
314.165	97.25
314.394	100.25
314.624	84.25
314.853	86.25
315.083	85.25
315.312	96.25
315.542	75.25
315.771	87.25
316.001	78.25
316.23	92.25
316.46	90.25
316.689	95.25
316.919	87.25
317.148	93.25
317.377	87.25
317.607	78.25
317.836	81.25
318.065	81.25
318.295	89.25
318.524	78.25
318.753	100.25
318.983	82.25
319.212	75.25
319.441	79.25
319.67	83.25
319.9	97.25
320.129	93.25
320.358	87.25
320.587	89.25
320.816	83.25
321.046	90.25
321.275	88.25
321.504	82.25
321.733	85.25
321.962	92.25
322.191	80.25
322.42	85.25
322.649	85.25
322.878	104.25
323.108	88.25
323.337	85.25
323.566	79.25
323.795	86.25
324.024	96.25
324.253	99.25
324.482	84.25
324.71	106.25
324.939	87.25
325.168	84.25
325.397	94.25
325.626	95.25
325.855	66.25
326.084	82.25
326.313	83.25
326.542	92.25
326.77	85.25
326.999	85.25
327.228	89.25
327.457	85.25
327.686	94.25
327.914	96.25
328.143	87.25
328.372	91.25
328.6	85.25
328.829	85.25
329.058	90.25
329.287	89.25
329.515	75.25
329.744	102.25
329.972	77.25
330.201	103.25
330.43	83.25
330.658	92.25
330.887	97.25
331.115	78.25
331.344	84.25
331.572	96.25
331.801	83.25
332.03	88.25
332.258	82.25
332.486	73.25
332.715	70.25
332.943	85.25
333.172	84.25
333.4	93.25
333.629	84.25
333.857	76.25
334.085	84.25
334.314	76.25
334.542	99.25
334.771	97.25
334.999	104.25
335.227	95.25
335.455	100.25
335.684	91.25
335.912	81.25
336.14	84.25
336.369	101.25
336.597	80.25
336.825	92.25
337.053	93.25
337.281	94.25
337.51	83.25
337.738	86.25
337.966	79.25
338.194	78.25
338.422	84.25
338.65	81.25
338.878	78.25
339.106	84.25
339.334	86.25
339.562	98.25
339.79	94.25
340.018	87.25
340.246	90.25
340.474	94.25
340.702	87.25
340.93	79.25
341.158	89.25
341.386	106.25
341.614	88.25
341.842	76.25
342.07	84.25
342.298	90.25
342.526	71.25
342.754	76.25
342.981	99.25
343.209	87.25
343.437	85.25
343.665	78.25
343.893	102.25
344.12	85.25
344.348	79.25
344.576	76.25
344.804	94.25
345.031	78.25
345.259	78.25
345.487	82.25
345.714	88.25
345.942	85.25
346.17	84.25
346.397	80.25
346.625	89.25
346.853	82.25
347.08	96.25
347.308	96.25
347.535	89.25
347.763	92.25
347.99	91.25
348.218	101.25
348.445	99.25
348.673	81.25
348.9	75.25
349.128	76.25
349.355	75.25
349.583	90.25
349.81	82.25
350.037	85.25
350.265	92.25
350.492	89.25
350.72	92.25
350.947	89.25
351.174	87.25
351.402	83.25
351.629	84.25
351.856	91.25
352.083	96.25
352.311	95.25
352.538	82.25
352.765	78.25
352.992	96.25
353.22	84.25
353.447	91.25
353.674	89.25
353.901	99.25
354.128	66.25
354.355	83.25
354.583	76.25
354.81	85.25
355.037	96.25
355.264	76.25
355.491	80.25
355.718	68.25
355.945	86.25
356.172	91.25
356.399	94.25
356.626	68.25
356.853	84.25
357.08	74.25
357.307	91.25
357.534	85.25
357.761	95.25
357.988	94.25
358.215	89.25
358.441	102.25
358.668	84.25
358.895	89.25
359.122	84.25
359.349	76.25
359.576	86.25
359.802	88.25
360.029	89.25
360.256	98.25
360.483	83.25
360.709	92.25
360.936	96.25
361.163	95.25
361.39	84.25
361.616	86.25
361.843	94.25
362.07	89.25
362.296	78.25
362.523	102.25
362.749	115.25
362.976	112.25
363.203	121.25
363.429	106.25
363.656	85.25
363.882	93.25
364.109	109.25
364.335	119.25
364.562	128.25
364.788	105.25
365.015	87.25
365.241	93.25
365.468	84.25
365.694	81.25
365.92	92.25
366.147	92.25
366.373	87.25
366.599	84.25
366.826	86.25
367.052	85.25
367.278	98.25
367.505	88.25
367.731	82.25
367.957	86.25
368.184	82.25
368.41	93.25
368.636	85.25
368.862	84.25
369.089	93.25
369.315	74.25
369.541	96.25
369.767	94.25
369.993	97.25
370.219	84.25
370.445	86.25
370.672	95.25
370.898	93.25
371.124	93.25
371.35	97.25
371.576	83.25
371.802	91.25
372.028	89.25
372.254	81.25
372.48	94.25
372.706	94.25
372.932	81.25
373.158	90.25
373.384	100.25
373.61	100.25
373.835	105.25
374.061	87.25
374.287	83.25
374.513	99.25
374.739	79.25
374.965	94.25
375.191	84.25
375.416	89.25
375.642	87.25
375.868	85.25
376.094	93.25
376.319	90.25
376.545	95.25
376.771	99.25
376.997	76.25
377.222	90.25
377.448	85.25
377.674	92.25
377.899	95.25
378.125	98.25
378.35	71.25
378.576	83.25
378.802	84.25
379.027	76.25
379.253	84.25
379.478	90.25
379.704	78.25
379.929	88.25
380.155	85.25
380.38	80.25
380.606	87.25
380.831	98.25
381.057	83.25
381.282	91.25
381.507	78.25
381.733	88.25
381.958	92.25
382.184	96.25
382.409	82.25
382.634	92.25
382.86	88.25
383.085	90.25
383.31	98.25
383.535	98.25
383.761	89.25
383.986	100.25
384.211	91.25
384.436	94.25
384.662	83.25
384.887	97.25
385.112	83.25
385.337	105.25
385.562	90.25
385.787	79.25
386.013	96.25
386.238	106.25
386.463	88.25
386.688	89.25
386.913	78.25
387.138	93.25
387.363	106.25
387.588	96.25
387.813	96.25
388.038	88.25
388.263	100.25
388.488	89.25
388.713	92.25
388.938	91.25
389.163	75.25
389.387	87.25
389.612	101.25
389.837	96.25
390.062	90.25
390.287	90.25
390.512	93.25
390.736	91.25
390.961	94.25
391.186	78.25
391.411	90.25
391.636	93.25
391.86	89.25
392.085	81.25
392.31	99.25
392.534	97.25
392.759	133.25
392.984	122.25
393.208	207.25
393.433	246.25
393.658	198.25
393.882	109.25
394.107	101.25
394.331	102.25
394.556	111.25
394.78	108.25
395.005	105.25
395.229	93.25
395.454	95.25
395.678	93.25
395.903	116.25
396.127	135.25
396.352	140.25
396.576	135.25
396.801	203.25
397.025	212.25
397.249	134.25
397.474	116.25
397.698	98.25
397.922	102.25
398.147	93.25
398.371	82.25
398.595	87.25
398.82	97.25
399.044	96.25
399.268	93.25
399.492	97.25
399.717	87.25
399.941	110.25
400.165	95.25
400.389	83.25
400.613	76.25
400.837	86.25
401.062	85.25
401.286	87.25
401.51	87.25
401.734	90.25
401.958	98.25
402.182	87.25
402.406	77.25
402.63	84.25
402.854	89.25
403.078	98.25
403.302	102.25
403.526	96.25
403.75	90.25
403.974	92.25
404.198	102.25
404.422	135.25
404.645	162.25
404.869	164.25
405.093	106.25
405.317	92.25
405.541	77.25
405.765	86.25
405.988	83.25
406.212	88.25
406.436	77.25
406.66	84.25
406.883	80.25
407.107	94.25
407.331	92.25
407.555	108.25
407.778	106.25
408.002	82.25
408.226	91.25
408.449	77.25
408.673	90.25
408.896	77.25
409.12	70.25
409.344	97.25
409.567	92.25
409.791	100.25
410.014	116.25
410.238	109.25
410.461	101.25
410.685	105.25
410.908	99.25
411.132	105.25
411.355	92.25
411.578	101.25
411.802	88.25
412.025	77.25
412.249	94.25
412.472	90.25
412.695	90.25
412.919	93.25
413.142	87.25
413.365	99.25
413.589	85.25
413.812	91.25
414.035	93.25
414.258	95.25
414.482	90.25
414.705	78.25
414.928	89.25
415.151	80.25
415.374	96.25
415.597	96.25
415.821	85.25
416.044	91.25
416.267	94.25
416.49	83.25
416.713	91.25
416.936	96.25
417.159	92.25
417.382	96.25
417.605	74.25
417.828	87.25
418.051	78.25
418.274	96.25
418.497	81.25
418.72	87.25
418.943	78.25
419.166	86.25
419.389	91.25
419.611	94.25
419.834	86.25
420.057	95.25
420.28	96.25
420.503	100.25
420.726	94.25
420.948	90.25
421.171	86.25
421.394	94.25
421.617	126.25
421.839	117.25
422.062	135.25
422.285	190.25
422.507	316.25
422.73	416.25
422.953	381.25
423.175	240.25
423.398	150.25
423.621	125.25
423.843	110.25
424.066	106.25
424.288	108.25
424.511	95.25
424.733	95.25
424.956	91.25
425.178	78.25
425.401	78.25
425.623	84.25
425.846	88.25
426.068	74.25
426.291	96.25
426.513	95.25
426.735	83.25
426.958	83.25
427.18	102.25
427.402	84.25
427.625	90.25
427.847	95.25
428.069	98.25
428.292	131.25
428.514	141.25
428.736	122.25
428.958	136.25
429.181	136.25
429.403	102.25
429.625	101.25
429.847	138.25
430.069	196.25
430.292	182.25
430.514	179.25
430.736	141.25
430.958	168.25
431.18	107.25
431.402	91.25
431.624	105.25
431.846	137.25
432.068	155.25
432.29	91.25
432.512	103.25
432.734	88.25
432.956	75.25
433.178	89.25
433.4	90.25
433.622	77.25
433.844	90.25
434.066	78.25
434.287	84.25
434.509	99.25
434.731	84.25
434.953	85.25
435.175	94.25
435.397	84.25
435.618	85.25
435.84	94.25
436.062	93.25
436.284	92.25
436.505	99.25
436.727	77.25
436.949	74.25
437.17	78.25
437.392	77.25
437.614	83.25
437.835	86.25
438.057	78.25
438.278	77.25
438.5	84.25
438.721	89.25
438.943	87.25
439.165	86.25
439.386	78.25
439.608	86.25
439.829	85.25
440.05	96.25
440.272	99.25
440.493	97.25
440.715	99.25
440.936	92.25
441.158	84.25
441.379	91.25
441.6	78.25
441.822	90.25
442.043	99.25
442.264	111.25
442.486	157.25
442.707	186.25
442.928	129.25
443.149	137.25
443.371	173.25
443.592	276.25
443.813	246.25
444.034	123.25
444.255	105.25
444.476	101.25
444.698	96.25
444.919	89.25
445.14	222.25
445.361	241.25
445.582	351.25
445.803	270.25
446.024	138.25
446.245	94.25
446.466	87.25
446.687	86.25
446.908	101.25
447.129	99.25
447.35	70.25
447.571	104.25
447.792	74.25
448.013	80.25
448.234	90.25
448.455	86.25
448.675	92.25
448.896	84.25
449.117	90.25
449.338	81.25
449.559	77.25
449.779	87.25
450	80.25
450.221	72.25
450.442	76.25
450.662	87.25
450.883	83.25
451.104	101.25
451.324	84.25
451.545	74.25
451.766	77.25
451.986	82.25
452.207	86.25
452.428	84.25
452.648	85.25
452.869	90.25
453.089	98.25
453.31	86.25
453.53	91.25
453.751	106.25
453.971	85.25
454.192	90.25
454.412	74.25
454.633	83.25
454.853	89.25
455.073	82.25
455.294	77.25
455.514	92.25
455.734	90.25
455.955	85.25
456.175	74.25
456.395	88.25
456.616	86.25
456.836	94.25
457.056	81.25
457.276	88.25
457.497	104.25
457.717	97.25
457.937	92.25
458.157	128.25
458.377	116.25
458.598	122.25
458.818	137.25
459.038	107.25
459.258	91.25
459.478	87.25
459.698	85.25
459.918	73.25
460.138	89.25
460.358	89.25
460.578	88.25
460.798	116.25
461.018	125.25
461.238	109.25
461.458	93.25
461.678	92.25
461.898	91.25
462.118	95.25
462.338	90.25
462.558	83.25
462.777	79.25
462.997	78.25
463.217	88.25
463.437	76.25
463.657	81.25
463.876	88.25
464.096	79.25
464.316	94.25
464.536	92.25
464.755	81.25
464.975	72.25
465.195	86.25
465.414	81.25
465.634	79.25
465.854	91.25
466.073	93.25
466.293	87.25
466.512	79.25
466.732	88.25
466.951	83.25
467.171	83.25
467.391	100.25
467.61	85.25
467.829	85.25
468.049	88.25
468.268	91.25
468.488	94.25
468.707	74.25
468.927	88.25
469.146	88.25
469.365	81.25
469.585	84.25
469.804	89.25
470.023	91.25
470.243	82.25
470.462	89.25
470.681	78.25
470.901	74.25
471.12	79.25
471.339	88.25
471.558	88.25
471.777	78.25
471.997	88.25
472.216	79.25
472.435	85.25
472.654	92.25
472.873	86.25
473.092	79.25
473.311	93.25
473.53	85.25
473.749	90.25
473.968	86.25
474.187	105.25
474.406	80.25
474.625	86.25
474.844	86.25
475.063	102.25
475.282	84.25
475.501	85.25
475.72	82.25
475.939	71.25
476.158	79.25
476.377	75.25
476.596	91.25
476.814	90.25
477.033	86.25
477.252	104.25
477.471	87.25
477.69	91.25
477.908	84.25
478.127	88.25
478.346	84.25
478.564	90.25
478.783	91.25
479.002	72.25
479.22	93.25
479.439	99.25
479.658	95.25
479.876	84.25
480.095	93.25
480.313	89.25
480.532	79.25
480.751	83.25
480.969	78.25
481.188	96.25
481.406	82.25
481.624	92.25
481.843	82.25
482.061	71.25
482.28	85.25
482.498	92.25
482.717	91.25
482.935	98.25
483.153	85.25
483.372	89.25
483.59	93.25
483.808	89.25
484.027	83.25
484.245	80.25
484.463	89.25
484.681	93.25
484.9	85.25
485.118	95.25
485.336	88.25
485.554	88.25
485.772	86.25
485.99	74.25
486.209	82.25
486.427	93.25
486.645	86.25
486.863	80.25
487.081	92.25
487.299	90.25
487.517	104.25
487.735	125.25
487.953	170.25
488.171	168.25
488.389	96.25
488.607	92.25
488.825	99.25
489.043	90.25
489.261	95.25
489.479	90.25
489.696	93.25
489.914	98.25
490.132	61.25
490.35	74.25
490.568	85.25
490.786	90.25
491.003	95.25
491.221	96.25
491.439	94.25
491.657	81.25
491.874	98.25
492.092	97.25
492.31	85.25
492.527	91.25
492.745	88.25
492.963	93.25
493.18	83.25
493.398	93.25
493.615	84.25
493.833	73.25
494.05	88.25
494.268	98.25
494.485	88.25
494.703	85.25
494.92	92.25
495.138	82.25
495.355	80.25
495.573	75.25
495.79	84.25
496.008	101.25
496.225	69.25
496.442	102.25
496.66	87.25
496.877	71.25
497.094	94.25
497.312	97.25
497.529	78.25
497.746	98.25
497.963	91.25
498.181	82.25
498.398	85.25
498.615	86.25
498.832	73.25
499.049	68.25
499.267	93.25
499.484	86.25
499.701	78.25
499.918	97.25
500.135	97.25
500.352	106.25
500.569	81.25
500.786	84.25
501.003	97.25
501.22	86.25
501.437	101.25
501.654	94.25
501.871	100.25
502.088	84.25
502.305	84.25
502.522	79.25
502.739	86.25
502.956	68.25
503.172	88.25
503.389	84.25
503.606	82.25
503.823	99.25
504.04	101.25
504.256	135.25
504.473	134.25
504.69	116.25
504.907	103.25
505.123	86.25
505.34	74.25
505.557	85.25
505.773	78.25
505.99	92.25
506.207	90.25
506.423	90.25
506.64	78.25
506.856	86.25
507.073	90.25
507.289	96.25
507.506	72.25
507.722	86.25
507.939	98.25
508.155	90.25
508.372	70.25
508.588	93.25
508.805	97.25
509.021	100.25
509.238	83.25
509.454	84.25
509.67	93.25
509.887	95.25
510.103	85.25
510.319	90.25
510.536	99.25
510.752	82.25
510.968	85.25
511.184	107.25
511.401	83.25
511.617	94.25
511.833	78.25
512.049	94.25
512.265	99.25
512.481	72.25
512.698	84.25
512.914	83.25
513.13	85.25
513.346	93.25
513.562	85.25
513.778	80.25
513.994	84.25
514.21	84.25
514.426	86.25
514.642	89.25
514.858	91.25
515.074	92.25
515.29	105.25
515.506	94.25
515.721	88.25
515.937	78.25
516.153	97.25
516.369	84.25
516.585	86.25
516.801	72.25
517.016	96.25
517.232	100.25
517.448	97.25
517.664	94.25
517.879	76.25
518.095	81.25
