Data from 2145_2_HRD10591_00048.txt Node
Date: Mon Jan 19 14:22:26 EST 2026
User: Yrep
Spectrometer: HR+D1059
Trigger mode: 1
Integration Time (sec): 1.000000E-1
Scans to average: 1
Electric dark correction enabled: true
Nonlinearity correction enabled: false
Boxcar width: 0
XAxis mode: Wavelengths
Number of Pixels in Spectrum: 2048
>>>>>Begin Spectral Data<<<<<
223.165	-14.5
223.4	-14.5
223.635	-14.5
223.869	-20.5
224.104	-22.5
224.338	-19.5
224.573	-9.5
224.808	-7.5
225.042	-12.5
225.277	-4.5
225.511	-0.5
225.746	5.5
225.98	2.5
226.215	14.5
226.449	19.5
226.683	12.5
226.918	25.5
227.152	31.5
227.387	51.5
227.621	27.5
227.856	33.5
228.09	22.5
228.324	55.5
228.559	36.5
228.793	51.5
229.027	42.5
229.262	55.5
229.496	65.5
229.73	76.5
229.964	59.5
230.199	68.5
230.433	75.5
230.667	59.5
230.901	62.5
231.136	73.5
231.37	73.5
231.604	81.5
231.838	79.5
232.072	80.5
232.306	79.5
232.541	82.5
232.775	55.5
233.009	65.5
233.243	67.5
233.477	72.5
233.711	81.5
233.945	78.5
234.179	77.5
234.413	78.5
234.647	71.5
234.881	89.5
235.115	70.5
235.349	66.5
235.583	69.5
235.817	57.5
236.051	71.5
236.285	72.5
236.519	73.5
236.753	57.5
236.987	70.5
237.221	78.5
237.455	77.5
237.689	71.5
237.922	71.5
238.156	72.5
238.39	66.5
238.624	80.5
238.858	65.5
239.091	72.5
239.325	86.5
239.559	74.5
239.793	72.5
240.027	64.5
240.26	79.5
240.494	61.5
240.728	63.5
240.961	65.5
241.195	69.5
241.429	77.5
241.662	61.5
241.896	58.5
242.13	75.5
242.363	66.5
242.597	57.5
242.83	71.5
243.064	56.5
243.298	62.5
243.531	70.5
243.765	65.5
243.998	68.5
244.232	70.5
244.465	65.5
244.699	72.5
244.932	63.5
245.166	73.5
245.399	72.5
245.633	69.5
245.866	65.5
246.099	60.5
246.333	85.5
246.566	79.5
246.8	73.5
247.033	67.5
247.266	72.5
247.5	65.5
247.733	54.5
247.966	88.5
248.2	62.5
248.433	81.5
248.666	83.5
248.899	72.5
249.133	72.5
249.366	79.5
249.599	82.5
249.832	88.5
250.066	77.5
250.299	80.5
250.532	81.5
250.765	77.5
250.998	76.5
251.231	67.5
251.465	68.5
251.698	45.5
251.931	73.5
252.164	64.5
252.397	78.5
252.63	69.5
252.863	66.5
253.096	79.5
253.329	76.5
253.562	85.5
253.795	79.5
254.028	79.5
254.261	92.5
254.494	71.5
254.727	71.5
254.96	69.5
255.193	68.5
255.426	78.5
255.659	79.5
255.892	69.5
256.124	96.5
256.357	70.5
256.59	68.5
256.823	73.5
257.056	67.5
257.289	71.5
257.521	78.5
257.754	91.5
257.987	75.5
258.22	64.5
258.452	79.5
258.685	91.5
258.918	62.5
259.151	79.5
259.383	81.5
259.616	90.5
259.849	70.5
260.081	74.5
260.314	70.5
260.547	67.5
260.779	75.5
261.012	73.5
261.244	79.5
261.477	90.5
261.71	79.5
261.942	76.5
262.175	73.5
262.407	79.5
262.64	71.5
262.872	80.5
263.105	73.5
263.337	62.5
263.57	84.5
263.802	83.5
264.035	74.5
264.267	68.5
264.499	63.5
264.732	73.5
264.964	70.5
265.197	88.5
265.429	83.5
265.661	87.5
265.894	67.5
266.126	91.5
266.358	81.5
266.591	88.5
266.823	73.5
267.055	85.5
267.287	68.5
267.52	89.5
267.752	79.5
267.984	82.5
268.216	82.5
268.448	83.5
268.681	80.5
268.913	76.5
269.145	83.5
269.377	83.5
269.609	69.5
269.841	79.5
270.073	76.5
270.306	77.5
270.538	82.5
270.77	70.5
271.002	69.5
271.234	88.5
271.466	84.5
271.698	89.5
271.93	77.5
272.162	79.5
272.394	82.5
272.626	88.5
272.858	72.5
273.09	83.5
273.322	73.5
273.553	83.5
273.785	74.5
274.017	74.5
274.249	79.5
274.481	92.5
274.713	83.5
274.945	81.5
275.176	74.5
275.408	87.5
275.64	63.5
275.872	80.5
276.104	65.5
276.335	78.5
276.567	79.5
276.799	73.5
277.031	80.5
277.262	73.5
277.494	77.5
277.726	85.5
277.957	89.5
278.189	74.5
278.421	74.5
278.652	89.5
278.884	71.5
279.115	81.5
279.347	75.5
279.579	76.5
279.81	69.5
280.042	78.5
280.273	77.5
280.505	75.5
280.736	79.5
280.968	67.5
281.199	88.5
281.431	85.5
281.662	71.5
281.894	79.5
282.125	81.5
282.356	74.5
282.588	80.5
282.819	84.5
283.051	80.5
283.282	71.5
283.513	65.5
283.745	64.5
283.976	76.5
284.207	81.5
284.439	71.5
284.67	73.5
284.901	73.5
285.132	84.5
285.364	83.5
285.595	85.5
285.826	77.5
286.057	80.5
286.288	69.5
286.52	70.5
286.751	81.5
286.982	73.5
287.213	81.5
287.444	79.5
287.675	78.5
287.906	103.5
288.138	78.5
288.369	70.5
288.6	86.5
288.831	79.5
289.062	87.5
289.293	88.5
289.524	84.5
289.755	83.5
289.986	77.5
290.217	68.5
290.448	83.5
290.679	70.5
290.91	77.5
291.141	75.5
291.371	91.5
291.602	79.5
291.833	84.5
292.064	86.5
292.295	88.5
292.526	70.5
292.757	86.5
292.987	86.5
293.218	72.5
293.449	99.5
293.68	81.5
293.91	74.5
294.141	75.5
294.372	84.5
294.603	96.5
294.833	83.5
295.064	77.5
295.295	94.5
295.525	85.5
295.756	66.5
295.987	76.5
296.217	98.5
296.448	71.5
296.679	86.5
296.909	67.5
297.14	85.5
297.37	85.5
297.601	86.5
297.831	87.5
298.062	71.5
298.292	79.5
298.523	80.5
298.753	81.5
298.984	80.5
299.214	79.5
299.445	85.5
299.675	83.5
299.905	79.5
300.136	81.5
300.366	90.5
300.597	72.5
300.827	81.5
301.057	76.5
301.288	85.5
301.518	69.5
301.748	79.5
301.979	89.5
302.209	94.5
302.439	74.5
302.669	71.5
302.9	77.5
303.13	73.5
303.36	93.5
303.59	90.5
303.82	68.5
304.051	87.5
304.281	72.5
304.511	72.5
304.741	76.5
304.971	83.5
305.201	85.5
305.431	82.5
305.661	78.5
305.891	67.5
306.121	76.5
306.352	81.5
306.582	84.5
306.812	71.5
307.042	81.5
307.272	75.5
307.502	76.5
307.731	81.5
307.961	95.5
308.191	74.5
308.421	88.5
308.651	77.5
308.881	88.5
309.111	95.5
309.341	77.5
309.571	77.5
309.8	89.5
310.03	100.5
310.26	86.5
310.49	69.5
310.72	88.5
310.949	84.5
311.179	87.5
311.409	87.5
311.639	79.5
311.868	78.5
312.098	83.5
312.328	82.5
312.557	81.5
312.787	77.5
313.017	79.5
313.246	86.5
313.476	82.5
313.706	75.5
313.935	85.5
314.165	86.5
314.394	88.5
314.624	79.5
314.853	73.5
315.083	82.5
315.312	93.5
315.542	87.5
315.771	69.5
316.001	68.5
316.23	88.5
316.46	75.5
316.689	87.5
316.919	87.5
317.148	82.5
317.377	95.5
317.607	82.5
317.836	76.5
318.065	71.5
318.295	83.5
318.524	73.5
318.753	85.5
318.983	100.5
319.212	75.5
319.441	63.5
319.67	80.5
319.9	69.5
320.129	86.5
320.358	76.5
320.587	86.5
320.816	73.5
321.046	85.5
321.275	86.5
321.504	94.5
321.733	76.5
321.962	73.5
322.191	79.5
322.42	81.5
322.649	91.5
322.878	83.5
323.108	69.5
323.337	79.5
323.566	96.5
323.795	77.5
324.024	88.5
324.253	89.5
324.482	77.5
324.71	62.5
324.939	91.5
325.168	80.5
325.397	91.5
325.626	81.5
325.855	69.5
326.084	83.5
326.313	79.5
326.542	83.5
326.77	90.5
326.999	102.5
327.228	84.5
327.457	91.5
327.686	89.5
327.914	68.5
328.143	83.5
328.372	80.5
328.6	77.5
328.829	81.5
329.058	86.5
329.287	76.5
329.515	72.5
329.744	77.5
329.972	78.5
330.201	87.5
330.43	88.5
330.658	81.5
330.887	76.5
331.115	88.5
331.344	69.5
331.572	91.5
331.801	77.5
332.03	63.5
332.258	96.5
332.486	72.5
332.715	81.5
332.943	83.5
333.172	87.5
333.4	83.5
333.629	87.5
333.857	84.5
334.085	68.5
334.314	83.5
334.542	73.5
334.771	79.5
334.999	81.5
335.227	86.5
335.455	77.5
335.684	86.5
335.912	83.5
336.14	87.5
336.369	89.5
336.597	76.5
336.825	76.5
337.053	89.5
337.281	67.5
337.51	84.5
337.738	81.5
337.966	68.5
338.194	73.5
338.422	79.5
338.65	83.5
338.878	85.5
339.106	88.5
339.334	93.5
339.562	72.5
339.79	80.5
340.018	85.5
340.246	88.5
340.474	85.5
340.702	80.5
340.93	68.5
341.158	80.5
341.386	78.5
341.614	74.5
341.842	73.5
342.07	92.5
342.298	84.5
342.526	95.5
342.754	83.5
342.981	89.5
343.209	91.5
343.437	97.5
343.665	79.5
343.893	86.5
344.12	87.5
344.348	75.5
344.576	91.5
344.804	90.5
345.031	75.5
345.259	84.5
345.487	82.5
345.714	81.5
345.942	75.5
346.17	86.5
346.397	88.5
346.625	95.5
346.853	73.5
347.08	72.5
347.308	64.5
347.535	91.5
347.763	71.5
347.99	91.5
348.218	93.5
348.445	89.5
348.673	89.5
348.9	75.5
349.128	89.5
349.355	85.5
349.583	86.5
349.81	74.5
350.037	67.5
350.265	89.5
350.492	82.5
350.72	84.5
350.947	72.5
351.174	74.5
351.402	73.5
351.629	83.5
351.856	66.5
352.083	71.5
352.311	89.5
352.538	83.5
352.765	87.5
352.992	74.5
353.22	85.5
353.447	69.5
353.674	68.5
353.901	70.5
354.128	83.5
354.355	75.5
354.583	75.5
354.81	79.5
355.037	77.5
355.264	92.5
355.491	86.5
355.718	76.5
355.945	91.5
356.172	84.5
356.399	78.5
356.626	86.5
356.853	82.5
357.08	92.5
357.307	87.5
357.534	71.5
357.761	81.5
357.988	84.5
358.215	71.5
358.441	79.5
358.668	70.5
358.895	75.5
359.122	67.5
359.349	80.5
359.576	81.5
359.802	81.5
360.029	89.5
360.256	81.5
360.483	90.5
360.709	75.5
360.936	77.5
361.163	67.5
361.39	77.5
361.616	63.5
361.843	77.5
362.07	100.5
362.296	97.5
362.523	94.5
362.749	102.5
362.976	97.5
363.203	86.5
363.429	109.5
363.656	110.5
363.882	81.5
364.109	107.5
364.335	95.5
364.562	110.5
364.788	99.5
365.015	85.5
365.241	79.5
365.468	87.5
365.694	99.5
365.92	89.5
366.147	85.5
366.373	67.5
366.599	75.5
366.826	104.5
367.052	86.5
367.278	80.5
367.505	77.5
367.731	89.5
367.957	84.5
368.184	87.5
368.41	77.5
368.636	93.5
368.862	74.5
369.089	66.5
369.315	78.5
369.541	73.5
369.767	81.5
369.993	87.5
370.219	84.5
370.445	79.5
370.672	70.5
370.898	70.5
371.124	84.5
371.35	80.5
371.576	83.5
371.802	71.5
372.028	71.5
372.254	83.5
372.48	69.5
372.706	89.5
372.932	85.5
373.158	89.5
373.384	83.5
373.61	86.5
373.835	79.5
374.061	78.5
374.287	92.5
374.513	79.5
374.739	81.5
374.965	79.5
375.191	97.5
375.416	87.5
375.642	84.5
375.868	81.5
376.094	77.5
376.319	79.5
376.545	88.5
376.771	84.5
376.997	89.5
377.222	96.5
377.448	89.5
377.674	68.5
377.899	90.5
378.125	78.5
378.35	78.5
378.576	90.5
378.802	67.5
379.027	86.5
379.253	87.5
379.478	70.5
379.704	83.5
379.929	73.5
380.155	71.5
380.38	74.5
380.606	89.5
380.831	95.5
381.057	95.5
381.282	94.5
381.507	86.5
381.733	85.5
381.958	87.5
382.184	84.5
382.409	89.5
382.634	84.5
382.86	82.5
383.085	87.5
383.31	77.5
383.535	84.5
383.761	82.5
383.986	76.5
384.211	72.5
384.436	82.5
384.662	79.5
384.887	85.5
385.112	90.5
385.337	79.5
385.562	69.5
385.787	74.5
386.013	80.5
386.238	84.5
386.463	91.5
386.688	85.5
386.913	63.5
387.138	94.5
387.363	78.5
387.588	88.5
387.813	93.5
388.038	68.5
388.263	84.5
388.488	80.5
388.713	83.5
388.938	85.5
389.163	75.5
389.387	70.5
389.612	69.5
389.837	73.5
390.062	80.5
390.287	66.5
390.512	88.5
390.736	72.5
390.961	84.5
391.186	96.5
391.411	78.5
391.636	83.5
391.86	82.5
392.085	72.5
392.31	85.5
392.534	93.5
392.759	103.5
392.984	125.5
393.208	173.5
393.433	233.5
393.658	195.5
393.882	107.5
394.107	91.5
394.331	94.5
394.556	97.5
394.78	86.5
395.005	95.5
395.229	77.5
395.454	91.5
395.678	94.5
395.903	109.5
396.127	109.5
396.352	117.5
396.576	129.5
396.801	175.5
397.025	198.5
397.249	135.5
397.474	102.5
397.698	82.5
397.922	84.5
398.147	74.5
398.371	84.5
398.595	92.5
398.82	85.5
399.044	94.5
399.268	79.5
399.492	78.5
399.717	81.5
399.941	76.5
400.165	80.5
400.389	75.5
400.613	85.5
400.837	81.5
401.062	94.5
401.286	80.5
401.51	77.5
401.734	73.5
401.958	74.5
402.182	74.5
402.406	71.5
402.63	81.5
402.854	66.5
403.078	92.5
403.302	91.5
403.526	96.5
403.75	89.5
403.974	91.5
404.198	112.5
404.422	138.5
404.645	155.5
404.869	129.5
405.093	111.5
405.317	82.5
405.541	88.5
405.765	91.5
405.988	84.5
406.212	81.5
406.436	89.5
406.66	85.5
406.883	80.5
407.107	70.5
407.331	99.5
407.555	88.5
407.778	85.5
408.002	100.5
408.226	79.5
408.449	77.5
408.673	83.5
408.896	79.5
409.12	82.5
409.344	88.5
409.567	72.5
409.791	87.5
410.014	84.5
410.238	83.5
410.461	86.5
410.685	84.5
410.908	78.5
411.132	72.5
411.355	83.5
411.578	79.5
411.802	80.5
412.025	89.5
412.249	92.5
412.472	79.5
412.695	76.5
412.919	69.5
413.142	96.5
413.365	79.5
413.589	74.5
413.812	78.5
414.035	76.5
414.258	79.5
414.482	79.5
414.705	88.5
414.928	90.5
415.151	79.5
415.374	87.5
415.597	84.5
415.821	83.5
416.044	86.5
416.267	83.5
416.49	86.5
416.713	92.5
416.936	85.5
417.159	75.5
417.382	78.5
417.605	87.5
417.828	74.5
418.051	79.5
418.274	73.5
418.497	65.5
418.72	71.5
418.943	87.5
419.166	87.5
419.389	78.5
419.611	79.5
419.834	82.5
420.057	75.5
420.28	91.5
420.503	81.5
420.726	86.5
420.948	86.5
421.171	88.5
421.394	92.5
421.617	101.5
421.839	119.5
422.062	123.5
422.285	155.5
422.507	261.5
422.73	365.5
422.953	359.5
423.175	172.5
423.398	132.5
423.621	108.5
423.843	98.5
424.066	92.5
424.288	93.5
424.511	81.5
424.733	84.5
424.956	94.5
425.178	98.5
425.401	82.5
425.623	80.5
425.846	81.5
426.068	86.5
426.291	83.5
426.513	84.5
426.735	75.5
426.958	85.5
427.18	82.5
427.402	73.5
427.625	74.5
427.847	98.5
428.069	96.5
428.292	121.5
428.514	134.5
428.736	119.5
428.958	120.5
429.181	122.5
429.403	88.5
429.625	104.5
429.847	111.5
430.069	160.5
430.292	193.5
430.514	180.5
430.736	128.5
430.958	123.5
431.18	94.5
431.402	87.5
431.624	86.5
431.846	120.5
432.068	134.5
432.29	96.5
432.512	79.5
432.734	70.5
432.956	79.5
433.178	81.5
433.4	81.5
433.622	99.5
433.844	70.5
434.066	87.5
434.287	83.5
434.509	82.5
434.731	71.5
434.953	93.5
435.175	79.5
435.397	81.5
435.618	88.5
435.84	68.5
436.062	72.5
436.284	76.5
436.505	71.5
436.727	66.5
436.949	73.5
437.17	74.5
437.392	81.5
437.614	83.5
437.835	87.5
438.057	78.5
438.278	86.5
438.5	72.5
438.721	84.5
438.943	87.5
439.165	80.5
439.386	87.5
439.608	95.5
439.829	81.5
440.05	83.5
440.272	77.5
440.493	84.5
440.715	81.5
440.936	86.5
441.158	83.5
441.379	73.5
441.6	71.5
441.822	92.5
442.043	88.5
442.264	93.5
442.486	136.5
442.707	172.5
442.928	125.5
443.149	102.5
443.371	144.5
443.592	257.5
443.813	211.5
444.034	111.5
444.255	89.5
444.476	87.5
444.698	90.5
444.919	95.5
445.14	175.5
445.361	194.5
445.582	307.5
445.803	237.5
446.024	115.5
446.245	86.5
446.466	77.5
446.687	78.5
446.908	77.5
447.129	77.5
447.35	71.5
447.571	91.5
447.792	82.5
448.013	84.5
448.234	73.5
448.455	69.5
448.675	85.5
448.896	82.5
449.117	63.5
449.338	75.5
449.559	73.5
449.779	81.5
450	91.5
450.221	88.5
450.442	77.5
450.662	79.5
450.883	87.5
451.104	66.5
451.324	90.5
451.545	69.5
451.766	63.5
451.986	59.5
452.207	98.5
452.428	87.5
452.648	82.5
452.869	80.5
453.089	79.5
453.31	71.5
453.53	79.5
453.751	89.5
453.971	79.5
454.192	71.5
454.412	89.5
454.633	81.5
454.853	79.5
455.073	78.5
455.294	87.5
455.514	74.5
455.734	83.5
455.955	74.5
456.175	67.5
456.395	75.5
456.616	85.5
456.836	84.5
457.056	69.5
457.276	62.5
457.497	73.5
457.717	86.5
457.937	77.5
458.157	91.5
458.377	100.5
458.598	98.5
458.818	108.5
459.038	99.5
459.258	81.5
459.478	61.5
459.698	64.5
459.918	75.5
460.138	62.5
460.358	83.5
460.578	89.5
460.798	132.5
461.018	135.5
461.238	89.5
461.458	71.5
461.678	68.5
461.898	71.5
462.118	92.5
462.338	83.5
462.558	95.5
462.777	76.5
462.997	81.5
463.217	81.5
463.437	81.5
463.657	87.5
463.876	87.5
464.096	87.5
464.316	84.5
464.536	79.5
464.755	70.5
464.975	84.5
465.195	69.5
465.414	78.5
465.634	91.5
465.854	70.5
466.073	88.5
466.293	64.5
466.512	101.5
466.732	67.5
466.951	73.5
467.171	82.5
467.391	79.5
467.61	89.5
467.829	71.5
468.049	74.5
468.268	75.5
468.488	82.5
468.707	70.5
468.927	73.5
469.146	71.5
469.365	73.5
469.585	81.5
469.804	82.5
470.023	82.5
470.243	93.5
470.462	99.5
470.681	93.5
470.901	86.5
471.12	72.5
471.339	73.5
471.558	82.5
471.777	76.5
471.997	67.5
472.216	79.5
472.435	73.5
472.654	87.5
472.873	79.5
473.092	73.5
473.311	81.5
473.53	88.5
473.749	64.5
473.968	79.5
474.187	102.5
474.406	90.5
474.625	85.5
474.844	67.5
475.063	75.5
475.282	69.5
475.501	83.5
475.72	75.5
475.939	67.5
476.158	92.5
476.377	69.5
476.596	71.5
476.814	74.5
477.033	75.5
477.252	87.5
477.471	77.5
477.69	83.5
477.908	79.5
478.127	86.5
478.346	84.5
478.564	81.5
478.783	75.5
479.002	84.5
479.22	77.5
479.439	83.5
479.658	79.5
479.876	68.5
480.095	81.5
480.313	86.5
480.532	79.5
480.751	87.5
480.969	71.5
481.188	70.5
481.406	87.5
481.624	78.5
481.843	74.5
482.061	93.5
482.28	81.5
482.498	70.5
482.717	85.5
482.935	63.5
483.153	79.5
483.372	72.5
483.59	80.5
483.808	93.5
484.027	68.5
484.245	95.5
484.463	79.5
484.681	87.5
484.9	83.5
485.118	79.5
485.336	78.5
485.554	67.5
485.772	88.5
485.99	75.5
486.209	81.5
486.427	80.5
486.645	64.5
486.863	76.5
487.081	86.5
487.299	79.5
487.517	88.5
487.735	83.5
487.953	130.5
488.171	140.5
488.389	92.5
488.607	84.5
488.825	85.5
489.043	80.5
489.261	87.5
489.479	78.5
489.696	97.5
489.914	79.5
490.132	74.5
490.35	82.5
490.568	71.5
490.786	79.5
491.003	85.5
491.221	78.5
491.439	86.5
491.657	82.5
491.874	91.5
492.092	87.5
492.31	87.5
492.527	73.5
492.745	78.5
492.963	97.5
493.18	87.5
493.398	77.5
493.615	83.5
493.833	84.5
494.05	90.5
494.268	89.5
494.485	87.5
494.703	82.5
494.92	79.5
495.138	73.5
495.355	84.5
495.573	94.5
495.79	77.5
496.008	81.5
496.225	84.5
496.442	78.5
496.66	98.5
496.877	100.5
497.094	96.5
497.312	77.5
497.529	96.5
497.746	87.5
497.963	92.5
498.181	91.5
498.398	87.5
498.615	75.5
498.832	79.5
499.049	69.5
499.267	78.5
499.484	84.5
499.701	78.5
499.918	86.5
500.135	98.5
500.352	90.5
500.569	87.5
500.786	77.5
501.003	83.5
501.22	67.5
501.437	80.5
501.654	79.5
501.871	79.5
502.088	93.5
502.305	79.5
502.522	75.5
502.739	83.5
502.956	84.5
503.172	86.5
503.389	70.5
503.606	96.5
503.823	89.5
504.04	97.5
504.256	107.5
504.473	111.5
504.69	93.5
504.907	85.5
505.123	71.5
505.34	79.5
505.557	83.5
505.773	76.5
505.99	87.5
506.207	86.5
506.423	78.5
506.64	87.5
506.856	88.5
507.073	82.5
507.289	73.5
507.506	77.5
507.722	89.5
507.939	85.5
508.155	85.5
508.372	73.5
508.588	85.5
508.805	87.5
509.021	88.5
509.238	93.5
509.454	81.5
509.67	99.5
509.887	91.5
510.103	73.5
510.319	91.5
510.536	79.5
510.752	89.5
510.968	74.5
511.184	97.5
511.401	86.5
511.617	87.5
511.833	81.5
512.049	74.5
512.265	91.5
512.481	80.5
512.698	68.5
512.914	75.5
513.13	73.5
513.346	84.5
513.562	76.5
513.778	75.5
513.994	95.5
514.21	91.5
514.426	78.5
514.642	95.5
514.858	72.5
515.074	91.5
515.29	83.5
515.506	87.5
515.721	78.5
515.937	81.5
516.153	96.5
516.369	77.5
516.585	96.5
516.801	71.5
517.016	85.5
517.232	83.5
517.448	79.5
517.664	78.5
517.879	80.5
518.095	79.5
518.311	84.5
518.527	88.5
518.742	99.5
518.958	111.5
519.173	130.5
519.389	101.5
519.605	92.5
519.82	76.5
520.036	76.5
520.251	88.5
520.467	67.5
520.682	82.5
520.898	84.5
521.113	85.5
521.329	77.5
521.544	76.5
521.76	80.5
521.975	59.5
522.19	79.5
522.406	80.5
522.621	84.5
522.836	87.5
523.052	83.5
523.267	68.5
523.482	69.5
523.698	80.5
523.913	79.5
524.128	84.5
524.343	76.5
524.559	98.5
524.774	93.5
524.989	95.5
525.204	95.5
525.419	90.5
525.634	83.5
525.849	98.5
526.064	105.5
526.28	195.5
526.495	280.5
526.71	297.5
526.925	212.5
527.14	259.5
527.355	239.5
527.57	107.5
527.785	88.5
527.999	87.5
528.214	86.5
528.429	88.5
528.644	82.5
528.859	91.5
529.074	86.5
529.289	89.5
529.503	72.5
529.718	89.5
529.933	87.5
530.148	75.5
530.363	89.5
530.577	85.5
530.792	83.5
531.007	83.5
531.221	75.5
531.436	96.5
531.651	80.5
531.865	93.5
532.08	85.5
532.295	79.5
532.509	94.5
532.724	84.5
532.938	72.5
533.153	93.5
533.367	85.5
533.582	96.5
533.796	104.5
534.011	73.5
534.225	94.5
534.44	88.5
534.654	98.5
534.868	107.5
535.083	147.5
535.297	131.5
535.511	104.5
535.726	92.5
535.94	79.5
536.154	105.5
536.369	84.5
536.583	80.5
536.797	94.5
537.011	84.5
537.225	91.5
537.44	87.5
537.654	85.5
537.868	87.5
538.082	92.5
538.296	88.5
538.51	81.5
538.724	81.5
538.938	73.5
539.153	95.5
539.367	86.5
