Data from 2145_2_HRD10591_00043.txt Node
Date: Mon Jan 19 14:22:23 EST 2026
User: Yrep
Spectrometer: HR+D1059
Trigger mode: 1
Integration Time (sec): 1.000000E-1
Scans to average: 1
Electric dark correction enabled: true
Nonlinearity correction enabled: false
Boxcar width: 0
XAxis mode: Wavelengths
Number of Pixels in Spectrum: 2048
>>>>>Begin Spectral Data<<<<<
223.165	-21.5
223.4	-21.5
223.635	-21.5
223.869	-11.5
224.104	-24.5
224.338	-17.5
224.573	-28.5
224.808	-14.5
225.042	-14.5
225.277	-0.5
225.511	-9.5
225.746	16.5
225.98	10.5
226.215	2.5
226.449	28.5
226.683	22.5
226.918	26.5
227.152	35.5
227.387	38.5
227.621	45.5
227.856	62.5
228.09	63.5
228.324	53.5
228.559	59.5
228.793	55.5
229.027	73.5
229.262	65.5
229.496	82.5
229.73	63.5
229.964	65.5
230.199	75.5
230.433	79.5
230.667	83.5
230.901	75.5
231.136	66.5
231.37	83.5
231.604	71.5
231.838	61.5
232.072	101.5
232.306	78.5
232.541	96.5
232.775	88.5
233.009	70.5
233.243	85.5
233.477	81.5
233.711	76.5
233.945	83.5
234.179	81.5
234.413	80.5
234.647	76.5
234.881	77.5
235.115	78.5
235.349	80.5
235.583	65.5
235.817	75.5
236.051	87.5
236.285	75.5
236.519	93.5
236.753	89.5
236.987	76.5
237.221	86.5
237.455	69.5
237.689	66.5
237.922	84.5
238.156	73.5
238.39	77.5
238.624	73.5
238.858	80.5
239.091	77.5
239.325	87.5
239.559	61.5
239.793	71.5
240.027	89.5
240.26	81.5
240.494	76.5
240.728	79.5
240.961	85.5
241.195	71.5
241.429	73.5
241.662	87.5
241.896	87.5
242.13	75.5
242.363	62.5
242.597	71.5
242.83	90.5
243.064	83.5
243.298	76.5
243.531	87.5
243.765	86.5
243.998	62.5
244.232	71.5
244.465	76.5
244.699	70.5
244.932	74.5
245.166	82.5
245.399	63.5
245.633	86.5
245.866	77.5
246.099	70.5
246.333	88.5
246.566	82.5
246.8	71.5
247.033	82.5
247.266	82.5
247.5	75.5
247.733	89.5
247.966	74.5
248.2	79.5
248.433	65.5
248.666	85.5
248.899	87.5
249.133	90.5
249.366	83.5
249.599	68.5
249.832	83.5
250.066	75.5
250.299	84.5
250.532	79.5
250.765	70.5
250.998	73.5
251.231	85.5
251.465	77.5
251.698	79.5
251.931	85.5
252.164	77.5
252.397	93.5
252.63	87.5
252.863	69.5
253.096	74.5
253.329	76.5
253.562	78.5
253.795	79.5
254.028	72.5
254.261	81.5
254.494	78.5
254.727	80.5
254.96	79.5
255.193	73.5
255.426	78.5
255.659	81.5
255.892	82.5
256.124	71.5
256.357	85.5
256.59	72.5
256.823	88.5
257.056	81.5
257.289	89.5
257.521	84.5
257.754	92.5
257.987	55.5
258.22	85.5
258.452	74.5
258.685	75.5
258.918	93.5
259.151	67.5
259.383	73.5
259.616	91.5
259.849	87.5
260.081	71.5
260.314	87.5
260.547	81.5
260.779	71.5
261.012	88.5
261.244	81.5
261.477	84.5
261.71	80.5
261.942	65.5
262.175	75.5
262.407	82.5
262.64	81.5
262.872	85.5
263.105	83.5
263.337	73.5
263.57	87.5
263.802	89.5
264.035	100.5
264.267	83.5
264.499	77.5
264.732	74.5
264.964	80.5
265.197	83.5
265.429	66.5
265.661	75.5
265.894	89.5
266.126	89.5
266.358	97.5
266.591	62.5
266.823	63.5
267.055	92.5
267.287	79.5
267.52	91.5
267.752	92.5
267.984	87.5
268.216	77.5
268.448	66.5
268.681	94.5
268.913	83.5
269.145	87.5
269.377	87.5
269.609	90.5
269.841	90.5
270.073	76.5
270.306	81.5
270.538	81.5
270.77	69.5
271.002	87.5
271.234	88.5
271.466	89.5
271.698	86.5
271.93	91.5
272.162	76.5
272.394	87.5
272.626	92.5
272.858	79.5
273.09	83.5
273.322	89.5
273.553	91.5
273.785	93.5
274.017	78.5
274.249	67.5
274.481	79.5
274.713	80.5
274.945	78.5
275.176	85.5
275.408	87.5
275.64	78.5
275.872	83.5
276.104	75.5
276.335	77.5
276.567	85.5
276.799	67.5
277.031	84.5
277.262	91.5
277.494	79.5
277.726	78.5
277.957	77.5
278.189	83.5
278.421	91.5
278.652	92.5
278.884	65.5
279.115	87.5
279.347	89.5
279.579	78.5
279.81	89.5
280.042	93.5
280.273	83.5
280.505	99.5
280.736	96.5
280.968	106.5
281.199	77.5
281.431	81.5
281.662	83.5
281.894	92.5
282.125	89.5
282.356	93.5
282.588	98.5
282.819	85.5
283.051	89.5
283.282	80.5
283.513	75.5
283.745	84.5
283.976	83.5
284.207	78.5
284.439	75.5
284.67	89.5
284.901	72.5
285.132	83.5
285.364	79.5
285.595	78.5
285.826	86.5
286.057	80.5
286.288	93.5
286.52	83.5
286.751	97.5
286.982	87.5
287.213	73.5
287.444	85.5
287.675	77.5
287.906	94.5
288.138	98.5
288.369	75.5
288.6	84.5
288.831	81.5
289.062	73.5
289.293	75.5
289.524	95.5
289.755	87.5
289.986	82.5
290.217	88.5
290.448	96.5
290.679	90.5
290.91	80.5
291.141	94.5
291.371	80.5
291.602	75.5
291.833	78.5
292.064	106.5
292.295	86.5
292.526	71.5
292.757	86.5
292.987	87.5
293.218	79.5
293.449	91.5
293.68	76.5
293.91	92.5
294.141	90.5
294.372	83.5
294.603	92.5
294.833	73.5
295.064	86.5
295.295	76.5
295.525	93.5
295.756	99.5
295.987	98.5
296.217	98.5
296.448	86.5
296.679	79.5
296.909	89.5
297.14	79.5
297.37	97.5
297.601	81.5
297.831	91.5
298.062	94.5
298.292	94.5
298.523	91.5
298.753	90.5
298.984	84.5
299.214	79.5
299.445	78.5
299.675	83.5
299.905	97.5
300.136	77.5
300.366	99.5
300.597	100.5
300.827	94.5
301.057	77.5
301.288	100.5
301.518	83.5
301.748	89.5
301.979	96.5
302.209	86.5
302.439	92.5
302.669	93.5
302.9	71.5
303.13	86.5
303.36	91.5
303.59	90.5
303.82	98.5
304.051	106.5
304.281	92.5
304.511	89.5
304.741	90.5
304.971	99.5
305.201	91.5
305.431	91.5
305.661	93.5
305.891	90.5
306.121	87.5
306.352	85.5
306.582	79.5
306.812	94.5
307.042	96.5
307.272	78.5
307.502	79.5
307.731	84.5
307.961	86.5
308.191	87.5
308.421	92.5
308.651	76.5
308.881	85.5
309.111	75.5
309.341	93.5
309.571	75.5
309.8	82.5
310.03	88.5
310.26	76.5
310.49	90.5
310.72	79.5
310.949	97.5
311.179	80.5
311.409	88.5
311.639	82.5
311.868	82.5
312.098	73.5
312.328	85.5
312.557	100.5
312.787	94.5
313.017	77.5
313.246	89.5
313.476	83.5
313.706	87.5
313.935	88.5
314.165	88.5
314.394	102.5
314.624	87.5
314.853	89.5
315.083	82.5
315.312	73.5
315.542	83.5
315.771	86.5
316.001	84.5
316.23	100.5
316.46	84.5
316.689	79.5
316.919	87.5
317.148	86.5
317.377	78.5
317.607	95.5
317.836	89.5
318.065	82.5
318.295	83.5
318.524	78.5
318.753	87.5
318.983	82.5
319.212	97.5
319.441	80.5
319.67	86.5
319.9	82.5
320.129	86.5
320.358	84.5
320.587	73.5
320.816	83.5
321.046	94.5
321.275	101.5
321.504	98.5
321.733	84.5
321.962	95.5
322.191	93.5
322.42	93.5
322.649	92.5
322.878	94.5
323.108	80.5
323.337	76.5
323.566	75.5
323.795	90.5
324.024	89.5
324.253	87.5
324.482	83.5
324.71	80.5
324.939	87.5
325.168	98.5
325.397	86.5
325.626	89.5
325.855	87.5
326.084	71.5
326.313	80.5
326.542	81.5
326.77	94.5
326.999	92.5
327.228	83.5
327.457	85.5
327.686	78.5
327.914	89.5
328.143	85.5
328.372	90.5
328.6	89.5
328.829	87.5
329.058	84.5
329.287	71.5
329.515	74.5
329.744	78.5
329.972	88.5
330.201	90.5
330.43	86.5
330.658	92.5
330.887	83.5
331.115	94.5
331.344	92.5
331.572	83.5
331.801	88.5
332.03	74.5
332.258	76.5
332.486	80.5
332.715	91.5
332.943	85.5
333.172	83.5
333.4	79.5
333.629	81.5
333.857	95.5
334.085	87.5
334.314	99.5
334.542	86.5
334.771	92.5
334.999	72.5
335.227	83.5
335.455	87.5
335.684	95.5
335.912	79.5
336.14	94.5
336.369	80.5
336.597	81.5
336.825	85.5
337.053	95.5
337.281	91.5
337.51	77.5
337.738	92.5
337.966	84.5
338.194	90.5
338.422	83.5
338.65	74.5
338.878	88.5
339.106	81.5
339.334	84.5
339.562	100.5
339.79	89.5
340.018	101.5
340.246	77.5
340.474	84.5
340.702	84.5
340.93	89.5
341.158	84.5
341.386	86.5
341.614	88.5
341.842	80.5
342.07	91.5
342.298	86.5
342.526	91.5
342.754	78.5
342.981	70.5
343.209	85.5
343.437	97.5
343.665	89.5
343.893	95.5
344.12	93.5
344.348	89.5
344.576	80.5
344.804	74.5
345.031	102.5
345.259	71.5
345.487	79.5
345.714	93.5
345.942	85.5
346.17	90.5
346.397	89.5
346.625	85.5
346.853	97.5
347.08	60.5
347.308	83.5
347.535	67.5
347.763	91.5
347.99	82.5
348.218	89.5
348.445	91.5
348.673	89.5
348.9	98.5
349.128	79.5
349.355	93.5
349.583	75.5
349.81	79.5
350.037	82.5
350.265	93.5
350.492	83.5
350.72	107.5
350.947	79.5
351.174	73.5
351.402	85.5
351.629	77.5
351.856	70.5
352.083	86.5
352.311	97.5
352.538	91.5
352.765	87.5
352.992	102.5
353.22	74.5
353.447	71.5
353.674	97.5
353.901	103.5
354.128	90.5
354.355	77.5
354.583	83.5
354.81	82.5
355.037	81.5
355.264	82.5
355.491	85.5
355.718	102.5
355.945	89.5
356.172	87.5
356.399	90.5
356.626	80.5
356.853	83.5
357.08	82.5
357.307	98.5
357.534	90.5
357.761	98.5
357.988	79.5
358.215	97.5
358.441	91.5
358.668	84.5
358.895	82.5
359.122	86.5
359.349	74.5
359.576	75.5
359.802	86.5
360.029	85.5
360.256	74.5
360.483	78.5
360.709	87.5
360.936	94.5
361.163	88.5
361.39	86.5
361.616	97.5
361.843	89.5
362.07	75.5
362.296	91.5
362.523	102.5
362.749	99.5
362.976	103.5
363.203	101.5
363.429	98.5
363.656	86.5
363.882	93.5
364.109	89.5
364.335	116.5
364.562	106.5
364.788	93.5
365.015	84.5
365.241	79.5
365.468	88.5
365.694	90.5
365.92	97.5
366.147	106.5
366.373	87.5
366.599	75.5
366.826	87.5
367.052	83.5
367.278	83.5
367.505	92.5
367.731	93.5
367.957	81.5
368.184	86.5
368.41	86.5
368.636	95.5
368.862	86.5
369.089	96.5
369.315	88.5
369.541	87.5
369.767	97.5
369.993	96.5
370.219	77.5
370.445	75.5
370.672	95.5
370.898	78.5
371.124	88.5
371.35	85.5
371.576	91.5
371.802	85.5
372.028	91.5
372.254	82.5
372.48	88.5
372.706	90.5
372.932	102.5
373.158	100.5
373.384	79.5
373.61	98.5
373.835	99.5
374.061	79.5
374.287	87.5
374.513	71.5
374.739	106.5
374.965	97.5
375.191	101.5
375.416	92.5
375.642	84.5
375.868	83.5
376.094	73.5
376.319	93.5
376.545	92.5
376.771	88.5
376.997	84.5
377.222	79.5
377.448	71.5
377.674	86.5
377.899	79.5
378.125	77.5
378.35	78.5
378.576	85.5
378.802	77.5
379.027	78.5
379.253	82.5
379.478	85.5
379.704	80.5
379.929	88.5
380.155	88.5
380.38	86.5
380.606	86.5
380.831	98.5
381.057	90.5
381.282	83.5
381.507	71.5
381.733	91.5
381.958	84.5
382.184	83.5
382.409	89.5
382.634	86.5
382.86	89.5
383.085	96.5
383.31	89.5
383.535	86.5
383.761	91.5
383.986	83.5
384.211	90.5
384.436	83.5
384.662	83.5
384.887	90.5
385.112	89.5
385.337	93.5
385.562	94.5
385.787	84.5
386.013	94.5
386.238	86.5
386.463	91.5
386.688	99.5
386.913	73.5
387.138	87.5
387.363	94.5
387.588	80.5
387.813	79.5
388.038	94.5
388.263	79.5
388.488	90.5
388.713	82.5
388.938	89.5
389.163	77.5
389.387	91.5
389.612	87.5
389.837	105.5
390.062	100.5
390.287	95.5
390.512	91.5
390.736	80.5
390.961	86.5
391.186	81.5
391.411	98.5
391.636	86.5
391.86	81.5
392.085	92.5
392.31	92.5
392.534	101.5
392.759	88.5
392.984	109.5
393.208	149.5
393.433	199.5
393.658	168.5
393.882	106.5
394.107	108.5
394.331	100.5
394.556	85.5
394.78	86.5
395.005	83.5
395.229	97.5
395.454	100.5
395.678	96.5
395.903	97.5
396.127	112.5
396.352	118.5
396.576	126.5
396.801	164.5
397.025	171.5
397.249	114.5
397.474	102.5
397.698	87.5
397.922	89.5
398.147	85.5
398.371	90.5
398.595	86.5
398.82	97.5
399.044	89.5
399.268	74.5
399.492	79.5
399.717	94.5
399.941	89.5
400.165	90.5
400.389	95.5
400.613	74.5
400.837	87.5
401.062	90.5
401.286	99.5
401.51	87.5
401.734	73.5
401.958	87.5
402.182	98.5
402.406	78.5
402.63	86.5
402.854	85.5
403.078	85.5
403.302	87.5
403.526	98.5
403.75	99.5
403.974	109.5
404.198	98.5
404.422	118.5
404.645	130.5
404.869	117.5
405.093	103.5
405.317	82.5
405.541	94.5
405.765	87.5
405.988	83.5
406.212	97.5
406.436	99.5
406.66	91.5
406.883	76.5
407.107	99.5
407.331	95.5
407.555	97.5
407.778	98.5
408.002	91.5
408.226	81.5
408.449	90.5
408.673	75.5
408.896	77.5
409.12	102.5
409.344	98.5
409.567	99.5
409.791	98.5
410.014	96.5
410.238	92.5
410.461	87.5
410.685	90.5
410.908	87.5
411.132	92.5
411.355	89.5
411.578	89.5
411.802	86.5
412.025	86.5
412.249	86.5
412.472	94.5
412.695	83.5
412.919	80.5
413.142	81.5
413.365	93.5
413.589	89.5
413.812	75.5
414.035	86.5
414.258	86.5
414.482	88.5
414.705	76.5
414.928	101.5
415.151	72.5
415.374	80.5
415.597	93.5
415.821	79.5
416.044	75.5
416.267	89.5
416.49	89.5
416.713	85.5
416.936	88.5
417.159	86.5
417.382	86.5
417.605	78.5
417.828	92.5
418.051	81.5
418.274	82.5
418.497	93.5
418.72	94.5
418.943	81.5
419.166	68.5
419.389	82.5
419.611	82.5
419.834	74.5
420.057	87.5
420.28	87.5
420.503	98.5
420.726	85.5
420.948	83.5
421.171	106.5
421.394	93.5
421.617	109.5
421.839	116.5
422.062	113.5
422.285	149.5
422.507	231.5
422.73	296.5
422.953	273.5
423.175	175.5
423.398	127.5
423.621	110.5
423.843	105.5
424.066	89.5
424.288	104.5
424.511	92.5
424.733	80.5
424.956	83.5
425.178	74.5
425.401	67.5
425.623	99.5
425.846	90.5
426.068	88.5
426.291	84.5
426.513	86.5
426.735	90.5
426.958	93.5
427.18	75.5
427.402	97.5
427.625	92.5
427.847	75.5
428.069	95.5
428.292	113.5
428.514	129.5
428.736	118.5
428.958	124.5
429.181	117.5
429.403	99.5
429.625	100.5
429.847	125.5
430.069	141.5
430.292	165.5
430.514	141.5
430.736	107.5
430.958	134.5
431.18	101.5
431.402	83.5
431.624	103.5
431.846	111.5
432.068	137.5
432.29	91.5
432.512	100.5
432.734	73.5
432.956	81.5
433.178	100.5
433.4	90.5
433.622	83.5
433.844	86.5
434.066	86.5
434.287	84.5
434.509	89.5
434.731	96.5
434.953	62.5
435.175	86.5
435.397	79.5
435.618	89.5
435.84	91.5
436.062	86.5
436.284	79.5
436.505	89.5
436.727	85.5
436.949	76.5
437.17	77.5
437.392	83.5
437.614	81.5
437.835	81.5
438.057	65.5
438.278	91.5
438.5	88.5
438.721	92.5
438.943	86.5
439.165	80.5
439.386	75.5
439.608	80.5
439.829	89.5
440.05	64.5
440.272	90.5
440.493	93.5
440.715	80.5
440.936	80.5
441.158	80.5
441.379	94.5
441.6	85.5
441.822	103.5
442.043	83.5
442.264	105.5
442.486	113.5
442.707	152.5
442.928	115.5
443.149	99.5
443.371	156.5
443.592	235.5
443.813	195.5
444.034	109.5
444.255	104.5
444.476	91.5
444.698	92.5
444.919	94.5
445.14	197.5
445.361	185.5
445.582	249.5
445.803	207.5
446.024	119.5
446.245	119.5
446.466	98.5
446.687	83.5
446.908	90.5
447.129	82.5
447.35	88.5
447.571	72.5
447.792	75.5
448.013	74.5
448.234	81.5
448.455	84.5
448.675	97.5
448.896	80.5
449.117	87.5
449.338	76.5
449.559	101.5
449.779	68.5
450	91.5
450.221	88.5
450.442	75.5
450.662	85.5
450.883	89.5
451.104	79.5
451.324	84.5
451.545	97.5
451.766	73.5
451.986	83.5
452.207	91.5
452.428	86.5
452.648	93.5
452.869	89.5
453.089	90.5
453.31	88.5
453.53	97.5
453.751	91.5
453.971	79.5
454.192	82.5
454.412	94.5
454.633	97.5
454.853	89.5
455.073	89.5
455.294	80.5
455.514	85.5
455.734	91.5
455.955	75.5
456.175	87.5
456.395	86.5
456.616	100.5
456.836	97.5
457.056	79.5
457.276	88.5
457.497	93.5
457.717	76.5
457.937	94.5
458.157	104.5
458.377	113.5
458.598	119.5
458.818	122.5
459.038	109.5
459.258	85.5
459.478	89.5
459.698	109.5
459.918	94.5
460.138	85.5
460.358	84.5
460.578	111.5
460.798	118.5
461.018	117.5
461.238	84.5
461.458	94.5
461.678	73.5
461.898	83.5
462.118	88.5
462.338	80.5
462.558	74.5
462.777	85.5
462.997	81.5
463.217	74.5
463.437	94.5
463.657	89.5
463.876	90.5
464.096	77.5
464.316	87.5
464.536	107.5
464.755	92.5
464.975	75.5
465.195	83.5
465.414	77.5
465.634	80.5
465.854	88.5
466.073	82.5
466.293	81.5
466.512	80.5
466.732	87.5
466.951	88.5
467.171	84.5
467.391	93.5
467.61	86.5
467.829	85.5
468.049	85.5
468.268	96.5
468.488	100.5
468.707	97.5
468.927	86.5
469.146	83.5
469.365	84.5
469.585	82.5
469.804	95.5
470.023	69.5
470.243	84.5
470.462	86.5
470.681	85.5
470.901	74.5
471.12	91.5
471.339	87.5
471.558	68.5
471.777	97.5
471.997	75.5
472.216	84.5
472.435	90.5
472.654	89.5
472.873	95.5
473.092	90.5
473.311	95.5
473.53	71.5
473.749	73.5
473.968	93.5
474.187	86.5
474.406	87.5
474.625	92.5
474.844	85.5
475.063	98.5
475.282	94.5
475.501	89.5
475.72	89.5
475.939	85.5
476.158	92.5
476.377	77.5
476.596	91.5
476.814	95.5
477.033	94.5
477.252	89.5
477.471	83.5
477.69	91.5
477.908	84.5
478.127	106.5
478.346	98.5
478.564	86.5
478.783	88.5
479.002	83.5
479.22	74.5
479.439	83.5
479.658	85.5
479.876	98.5
480.095	81.5
480.313	87.5
480.532	77.5
480.751	87.5
480.969	88.5
481.188	75.5
481.406	91.5
481.624	95.5
481.843	74.5
482.061	88.5
482.28	88.5
482.498	95.5
482.717	98.5
482.935	90.5
483.153	89.5
483.372	81.5
483.59	93.5
483.808	87.5
484.027	83.5
484.245	83.5
484.463	86.5
484.681	94.5
484.9	89.5
485.118	90.5
485.336	93.5
485.554	88.5
485.772	85.5
485.99	88.5
486.209	91.5
486.427	89.5
486.645	75.5
486.863	72.5
487.081	79.5
487.299	93.5
487.517	97.5
487.735	100.5
487.953	139.5
488.171	126.5
488.389	113.5
488.607	105.5
488.825	95.5
489.043	88.5
489.261	67.5
489.479	87.5
489.696	93.5
489.914	86.5
490.132	85.5
490.35	86.5
490.568	80.5
490.786	93.5
491.003	81.5
491.221	90.5
491.439	85.5
491.657	91.5
491.874	93.5
492.092	101.5
492.31	91.5
492.527	85.5
492.745	81.5
492.963	77.5
493.18	87.5
493.398	89.5
493.615	105.5
493.833	80.5
494.05	84.5
494.268	82.5
494.485	93.5
494.703	87.5
494.92	100.5
495.138	94.5
495.355	95.5
495.573	91.5
495.79	86.5
496.008	104.5
496.225	76.5
496.442	93.5
496.66	80.5
496.877	83.5
497.094	105.5
497.312	89.5
497.529	79.5
497.746	88.5
497.963	87.5
498.181	107.5
498.398	91.5
498.615	90.5
498.832	73.5
499.049	91.5
499.267	81.5
499.484	98.5
499.701	82.5
499.918	89.5
500.135	92.5
500.352	91.5
500.569	81.5
500.786	86.5
501.003	90.5
501.22	74.5
501.437	90.5
501.654	94.5
501.871	84.5
502.088	87.5
502.305	87.5
502.522	77.5
502.739	94.5
502.956	83.5
503.172	91.5
503.389	85.5
503.606	93.5
503.823	92.5
504.04	102.5
504.256	129.5
504.473	115.5
504.69	101.5
504.907	91.5
505.123	89.5
505.34	93.5
505.557	99.5
505.773	96.5
505.99	91.5
506.207	90.5
506.423	86.5
506.64	83.5
506.856	91.5
507.073	95.5
507.289	96.5
507.506	84.5
507.722	85.5
507.939	87.5
508.155	81.5
508.372	83.5
508.588	79.5
508.805	99.5
509.021	90.5
509.238	85.5
509.454	81.5
509.67	87.5
509.887	91.5
510.103	85.5
510.319	77.5
510.536	89.5
510.752	83.5
510.968	83.5
511.184	83.5
511.401	88.5
511.617	77.5
511.833	94.5
512.049	90.5
512.265	102.5
512.481	87.5
512.698	81.5
512.914	91.5
513.13	74.5
513.346	86.5
513.562	82.5
513.778	78.5
513.994	85.5
514.21	81.5
514.426	85.5
514.642	89.5
514.858	76.5
515.074	89.5
515.29	91.5
515.506	76.5
515.721	92.5
515.937	87.5
516.153	98.5
516.369	87.5
516.585	83.5
516.801	87.5
517.016	86.5
517.232	87.5
517.448	99.5
517.664	76.5
517.879	81.5
518.095	105.5
518.311	103.5
518.527	106.5
518.742	98.5
518.958	133.5
519.173	131.5
519.389	96.5
519.605	97.5
519.82	89.5
520.036	97.5
520.251	88.5
520.467	75.5
520.682	82.5
520.898	92.5
521.113	87.5
521.329	90.5
521.544	100.5
521.76	89.5
521.975	75.5
522.19	88.5
522.406	87.5
522.621	95.5
522.836	100.5
523.052	105.5
523.267	85.5
523.482	95.5
523.698	79.5
523.913	91.5
524.128	91.5
524.343	99.5
524.559	83.5
524.774	79.5
524.989	89.5
525.204	67.5
525.419	78.5
525.634	85.5
525.849	108.5
526.064	118.5
526.28	175.5
526.495	238.5
526.71	287.5
526.925	202.5
527.14	235.5
527.355	231.5
527.57	98.5
527.785	93.5
527.999	75.5
528.214	84.5
528.429	92.5
528.644	84.5
528.859	83.5
529.074	80.5
529.289	97.5
529.503	102.5
529.718	88.5
529.933	94.5
530.148	100.5
530.363	88.5
530.577	80.5
530.792	100.5
531.007	75.5
531.221	91.5
531.436	86.5
531.651	80.5
531.865	77.5
532.08	100.5
532.295	92.5
532.509	96.5
532.724	100.5
532.938	82.5
533.153	76.5
533.367	77.5
533.582	93.5
533.796	92.5
534.011	83.5
534.225	96.5
534.44	113.5
534.654	100.5
534.868	89.5
535.083	155.5
535.297	142.5
535.511	106.5
535.726	86.5
535.94	94.5
536.154	112.5
536.369	94.5
536.583	94.5
536.797	100.5
537.011	98.5
537.225	83.5
537.44	83.5
537.654	94.5
537.868	88.5
538.082	89.5
538.296	106.5
