Data from 2145_2_HRD10591_00035.txt Node
Date: Mon Jan 19 14:22:19 EST 2026
User: Yrep
Spectrometer: HR+D1059
Trigger mode: 1
Integration Time (sec): 1.000000E-1
Scans to average: 1
Electric dark correction enabled: true
Nonlinearity correction enabled: false
Boxcar width: 0
XAxis mode: Wavelengths
Number of Pixels in Spectrum: 2048
>>>>>Begin Spectral Data<<<<<
223.165	-14.06
223.4	-14.06
223.635	-14.06
223.869	-12.06
224.104	-17.06
224.338	-8.06
224.573	-20.06
224.808	-22.06
225.042	-19.06
225.277	-12.06
225.511	-18.06
225.746	0.94
225.98	2.94
226.215	8.94
226.449	19.94
226.683	43.94
226.918	29.94
227.152	35.94
227.387	39.94
227.621	51.94
227.856	52.94
228.09	59.94
228.324	47.94
228.559	47.94
228.793	53.94
229.027	66.94
229.262	65.94
229.496	53.94
229.73	62.94
229.964	83.94
230.199	75.94
230.433	76.94
230.667	90.94
230.901	76.94
231.136	73.94
231.37	76.94
231.604	83.94
231.838	79.94
232.072	80.94
232.306	91.94
232.541	83.94
232.775	90.94
233.009	86.94
233.243	73.94
233.477	79.94
233.711	92.94
233.945	81.94
234.179	87.94
234.413	85.94
234.647	98.94
234.881	71.94
235.115	75.94
235.349	90.94
235.583	86.94
235.817	77.94
236.051	69.94
236.285	72.94
236.519	86.94
236.753	69.94
236.987	76.94
237.221	77.94
237.455	89.94
237.689	76.94
237.922	77.94
238.156	92.94
238.39	78.94
238.624	73.94
238.858	81.94
239.091	85.94
239.325	90.94
239.559	63.94
239.793	59.94
240.027	81.94
240.26	86.94
240.494	88.94
240.728	75.94
240.961	67.94
241.195	74.94
241.429	92.94
241.662	73.94
241.896	85.94
242.13	75.94
242.363	79.94
242.597	67.94
242.83	65.94
243.064	79.94
243.298	73.94
243.531	77.94
243.765	81.94
243.998	82.94
244.232	81.94
244.465	78.94
244.699	95.94
244.932	73.94
245.166	83.94
245.399	67.94
245.633	91.94
245.866	72.94
246.099	83.94
246.333	94.94
246.566	73.94
246.8	80.94
247.033	71.94
247.266	67.94
247.5	78.94
247.733	76.94
247.966	77.94
248.2	71.94
248.433	91.94
248.666	63.94
248.899	77.94
249.133	85.94
249.366	89.94
249.599	84.94
249.832	82.94
250.066	87.94
250.299	77.94
250.532	73.94
250.765	84.94
250.998	92.94
251.231	74.94
251.465	69.94
251.698	95.94
251.931	84.94
252.164	91.94
252.397	69.94
252.63	78.94
252.863	78.94
253.096	73.94
253.329	84.94
253.562	74.94
253.795	77.94
254.028	76.94
254.261	72.94
254.494	84.94
254.727	96.94
254.96	88.94
255.193	88.94
255.426	81.94
255.659	85.94
255.892	86.94
256.124	85.94
256.357	79.94
256.59	85.94
256.823	75.94
257.056	67.94
257.289	69.94
257.521	72.94
257.754	74.94
257.987	81.94
258.22	90.94
258.452	74.94
258.685	83.94
258.918	63.94
259.151	78.94
259.383	81.94
259.616	76.94
259.849	77.94
260.081	82.94
260.314	77.94
260.547	91.94
260.779	69.94
261.012	81.94
261.244	88.94
261.477	82.94
261.71	84.94
261.942	75.94
262.175	90.94
262.407	83.94
262.64	76.94
262.872	78.94
263.105	65.94
263.337	94.94
263.57	80.94
263.802	96.94
264.035	60.94
264.267	69.94
264.499	71.94
264.732	87.94
264.964	84.94
265.197	76.94
265.429	84.94
265.661	77.94
265.894	72.94
266.126	84.94
266.358	69.94
266.591	73.94
266.823	75.94
267.055	74.94
267.287	69.94
267.52	85.94
267.752	70.94
267.984	77.94
268.216	89.94
268.448	76.94
268.681	76.94
268.913	68.94
269.145	69.94
269.377	91.94
269.609	95.94
269.841	78.94
270.073	75.94
270.306	81.94
270.538	83.94
270.77	72.94
271.002	83.94
271.234	75.94
271.466	74.94
271.698	74.94
271.93	73.94
272.162	71.94
272.394	85.94
272.626	79.94
272.858	72.94
273.09	77.94
273.322	92.94
273.553	91.94
273.785	89.94
274.017	77.94
274.249	87.94
274.481	84.94
274.713	71.94
274.945	76.94
275.176	77.94
275.408	93.94
275.64	85.94
275.872	89.94
276.104	91.94
276.335	90.94
276.567	87.94
276.799	85.94
277.031	83.94
277.262	96.94
277.494	80.94
277.726	73.94
277.957	95.94
278.189	81.94
278.421	84.94
278.652	81.94
278.884	81.94
279.115	80.94
279.347	85.94
279.579	77.94
279.81	87.94
280.042	79.94
280.273	84.94
280.505	74.94
280.736	79.94
280.968	76.94
281.199	73.94
281.431	80.94
281.662	85.94
281.894	75.94
282.125	85.94
282.356	71.94
282.588	62.94
282.819	72.94
283.051	75.94
283.282	73.94
283.513	80.94
283.745	91.94
283.976	82.94
284.207	85.94
284.439	90.94
284.67	91.94
284.901	90.94
285.132	78.94
285.364	79.94
285.595	80.94
285.826	84.94
286.057	96.94
286.288	80.94
286.52	90.94
286.751	83.94
286.982	96.94
287.213	77.94
287.444	74.94
287.675	84.94
287.906	94.94
288.138	112.94
288.369	82.94
288.6	91.94
288.831	73.94
289.062	91.94
289.293	77.94
289.524	81.94
289.755	92.94
289.986	83.94
290.217	72.94
290.448	74.94
290.679	81.94
290.91	83.94
291.141	89.94
291.371	87.94
291.602	87.94
291.833	89.94
292.064	79.94
292.295	82.94
292.526	79.94
292.757	84.94
292.987	70.94
293.218	83.94
293.449	88.94
293.68	79.94
293.91	78.94
294.141	91.94
294.372	94.94
294.603	88.94
294.833	91.94
295.064	87.94
295.295	88.94
295.525	79.94
295.756	81.94
295.987	84.94
296.217	76.94
296.448	95.94
296.679	81.94
296.909	85.94
297.14	87.94
297.37	106.94
297.601	86.94
297.831	82.94
298.062	90.94
298.292	77.94
298.523	88.94
298.753	91.94
298.984	77.94
299.214	90.94
299.445	91.94
299.675	90.94
299.905	90.94
300.136	82.94
300.366	70.94
300.597	76.94
300.827	92.94
301.057	76.94
301.288	98.94
301.518	91.94
301.748	68.94
301.979	87.94
302.209	85.94
302.439	85.94
302.669	83.94
302.9	77.94
303.13	84.94
303.36	92.94
303.59	92.94
303.82	88.94
304.051	91.94
304.281	83.94
304.511	92.94
304.741	81.94
304.971	94.94
305.201	81.94
305.431	78.94
305.661	93.94
305.891	79.94
306.121	90.94
306.352	89.94
306.582	71.94
306.812	91.94
307.042	84.94
307.272	70.94
307.502	87.94
307.731	77.94
307.961	83.94
308.191	73.94
308.421	92.94
308.651	81.94
308.881	75.94
309.111	85.94
309.341	88.94
309.571	83.94
309.8	94.94
310.03	95.94
310.26	84.94
310.49	66.94
310.72	75.94
310.949	93.94
311.179	95.94
311.409	88.94
311.639	77.94
311.868	77.94
312.098	86.94
312.328	87.94
312.557	90.94
312.787	97.94
313.017	86.94
313.246	84.94
313.476	87.94
313.706	76.94
313.935	81.94
314.165	93.94
314.394	85.94
314.624	79.94
314.853	80.94
315.083	82.94
315.312	78.94
315.542	79.94
315.771	80.94
316.001	89.94
316.23	82.94
316.46	81.94
316.689	65.94
316.919	80.94
317.148	77.94
317.377	85.94
317.607	81.94
317.836	80.94
318.065	83.94
318.295	83.94
318.524	85.94
318.753	88.94
318.983	74.94
319.212	89.94
319.441	89.94
319.67	76.94
319.9	97.94
320.129	79.94
320.358	95.94
320.587	88.94
320.816	68.94
321.046	89.94
321.275	66.94
321.504	81.94
321.733	87.94
321.962	77.94
322.191	79.94
322.42	84.94
322.649	80.94
322.878	74.94
323.108	91.94
323.337	95.94
323.566	85.94
323.795	79.94
324.024	96.94
324.253	81.94
324.482	97.94
324.71	76.94
324.939	77.94
325.168	89.94
325.397	103.94
325.626	79.94
325.855	79.94
326.084	79.94
326.313	86.94
326.542	83.94
326.77	95.94
326.999	90.94
327.228	95.94
327.457	85.94
327.686	77.94
327.914	100.94
328.143	80.94
328.372	73.94
328.6	81.94
328.829	90.94
329.058	76.94
329.287	85.94
329.515	84.94
329.744	77.94
329.972	87.94
330.201	80.94
330.43	89.94
330.658	73.94
330.887	68.94
331.115	91.94
331.344	86.94
331.572	70.94
331.801	78.94
332.03	85.94
332.258	72.94
332.486	77.94
332.715	87.94
332.943	79.94
333.172	81.94
333.4	87.94
333.629	78.94
333.857	72.94
334.085	85.94
334.314	76.94
334.542	91.94
334.771	92.94
334.999	95.94
335.227	100.94
335.455	76.94
335.684	85.94
335.912	75.94
336.14	85.94
336.369	83.94
336.597	92.94
336.825	83.94
337.053	75.94
337.281	84.94
337.51	81.94
337.738	73.94
337.966	74.94
338.194	95.94
338.422	76.94
338.65	89.94
338.878	80.94
339.106	96.94
339.334	86.94
339.562	92.94
339.79	83.94
340.018	76.94
340.246	91.94
340.474	77.94
340.702	68.94
340.93	91.94
341.158	75.94
341.386	74.94
341.614	96.94
341.842	78.94
342.07	97.94
342.298	95.94
342.526	77.94
342.754	73.94
342.981	70.94
343.209	93.94
343.437	97.94
343.665	78.94
343.893	68.94
344.12	93.94
344.348	75.94
344.576	85.94
344.804	71.94
345.031	78.94
345.259	88.94
345.487	83.94
345.714	76.94
345.942	81.94
346.17	87.94
346.397	77.94
346.625	71.94
346.853	84.94
347.08	72.94
347.308	88.94
347.535	92.94
347.763	78.94
347.99	84.94
348.218	62.94
348.445	89.94
348.673	84.94
348.9	101.94
349.128	87.94
349.355	78.94
349.583	76.94
349.81	91.94
350.037	80.94
350.265	82.94
350.492	87.94
350.72	92.94
350.947	73.94
351.174	76.94
351.402	73.94
351.629	77.94
351.856	98.94
352.083	80.94
352.311	83.94
352.538	84.94
352.765	82.94
352.992	95.94
353.22	99.94
353.447	72.94
353.674	83.94
353.901	82.94
354.128	76.94
354.355	92.94
354.583	90.94
354.81	87.94
355.037	88.94
355.264	74.94
355.491	91.94
355.718	83.94
355.945	80.94
356.172	86.94
356.399	83.94
356.626	70.94
356.853	93.94
357.08	75.94
357.307	72.94
357.534	73.94
357.761	88.94
357.988	90.94
358.215	81.94
358.441	98.94
358.668	104.94
358.895	86.94
359.122	81.94
359.349	87.94
359.576	79.94
359.802	87.94
360.029	85.94
360.256	71.94
360.483	85.94
360.709	68.94
360.936	93.94
361.163	90.94
361.39	78.94
361.616	81.94
361.843	89.94
362.07	97.94
362.296	98.94
362.523	88.94
362.749	78.94
362.976	87.94
363.203	93.94
363.429	88.94
363.656	100.94
363.882	92.94
364.109	90.94
364.335	91.94
364.562	102.94
364.788	71.94
365.015	75.94
365.241	93.94
365.468	89.94
365.694	78.94
365.92	88.94
366.147	90.94
366.373	89.94
366.599	99.94
366.826	69.94
367.052	85.94
367.278	74.94
367.505	83.94
367.731	82.94
367.957	82.94
368.184	96.94
368.41	91.94
368.636	85.94
368.862	89.94
369.089	76.94
369.315	79.94
369.541	67.94
369.767	79.94
369.993	83.94
370.219	88.94
370.445	74.94
370.672	83.94
370.898	81.94
371.124	80.94
371.35	83.94
371.576	75.94
371.802	78.94
372.028	83.94
372.254	96.94
372.48	80.94
372.706	78.94
372.932	84.94
373.158	76.94
373.384	91.94
373.61	87.94
373.835	72.94
374.061	69.94
374.287	89.94
374.513	87.94
374.739	68.94
374.965	77.94
375.191	76.94
375.416	99.94
375.642	59.94
375.868	91.94
376.094	73.94
376.319	84.94
376.545	88.94
376.771	81.94
376.997	85.94
377.222	74.94
377.448	74.94
377.674	86.94
377.899	84.94
378.125	69.94
378.35	87.94
378.576	84.94
378.802	76.94
379.027	92.94
379.253	86.94
379.478	80.94
379.704	94.94
379.929	75.94
380.155	87.94
380.38	81.94
380.606	84.94
380.831	72.94
381.057	95.94
381.282	85.94
381.507	85.94
381.733	88.94
381.958	91.94
382.184	82.94
382.409	78.94
382.634	87.94
382.86	77.94
383.085	83.94
383.31	91.94
383.535	100.94
383.761	81.94
383.986	95.94
384.211	76.94
384.436	78.94
384.662	91.94
384.887	79.94
385.112	75.94
385.337	75.94
385.562	73.94
385.787	98.94
386.013	80.94
386.238	81.94
386.463	82.94
386.688	95.94
386.913	71.94
387.138	74.94
387.363	80.94
387.588	75.94
387.813	84.94
388.038	85.94
388.263	98.94
388.488	99.94
388.713	86.94
388.938	59.94
389.163	80.94
389.387	93.94
389.612	64.94
389.837	97.94
390.062	71.94
390.287	94.94
390.512	75.94
390.736	72.94
390.961	82.94
391.186	92.94
391.411	76.94
391.636	69.94
391.86	85.94
392.085	78.94
392.31	75.94
392.534	83.94
392.759	95.94
392.984	83.94
393.208	107.94
393.433	114.94
393.658	95.94
393.882	78.94
394.107	86.94
394.331	73.94
394.556	92.94
394.78	89.94
395.005	94.94
395.229	81.94
395.454	85.94
395.678	87.94
395.903	91.94
396.127	90.94
396.352	90.94
396.576	83.94
396.801	92.94
397.025	89.94
397.249	87.94
397.474	92.94
397.698	91.94
397.922	78.94
398.147	89.94
398.371	83.94
398.595	83.94
398.82	76.94
399.044	79.94
399.268	83.94
399.492	83.94
399.717	88.94
399.941	91.94
400.165	87.94
400.389	75.94
400.613	84.94
400.837	86.94
401.062	82.94
401.286	81.94
401.51	63.94
401.734	83.94
401.958	78.94
402.182	87.94
402.406	81.94
402.63	83.94
402.854	89.94
403.078	92.94
403.302	78.94
403.526	90.94
403.75	91.94
403.974	81.94
404.198	85.94
404.422	86.94
404.645	106.94
404.869	93.94
405.093	83.94
405.317	82.94
405.541	81.94
405.765	77.94
405.988	76.94
406.212	70.94
406.436	73.94
406.66	85.94
406.883	84.94
407.107	93.94
407.331	95.94
407.555	89.94
407.778	97.94
408.002	75.94
408.226	96.94
408.449	91.94
408.673	68.94
408.896	93.94
409.12	83.94
409.344	76.94
409.567	84.94
409.791	87.94
410.014	74.94
410.238	86.94
410.461	77.94
410.685	82.94
410.908	92.94
411.132	74.94
411.355	94.94
411.578	79.94
411.802	86.94
412.025	86.94
412.249	68.94
412.472	84.94
412.695	86.94
412.919	66.94
413.142	73.94
413.365	86.94
413.589	68.94
413.812	85.94
414.035	87.94
414.258	74.94
414.482	84.94
414.705	89.94
414.928	74.94
415.151	73.94
415.374	86.94
415.597	86.94
415.821	100.94
416.044	75.94
416.267	92.94
416.49	86.94
416.713	99.94
416.936	79.94
417.159	74.94
417.382	83.94
417.605	74.94
417.828	77.94
418.051	85.94
418.274	75.94
418.497	77.94
418.72	97.94
418.943	70.94
419.166	74.94
419.389	81.94
419.611	86.94
419.834	87.94
420.057	86.94
420.28	86.94
420.503	82.94
420.726	83.94
420.948	93.94
421.171	95.94
421.394	81.94
421.617	95.94
421.839	86.94
422.062	91.94
422.285	116.94
422.507	135.94
422.73	161.94
422.953	152.94
423.175	124.94
423.398	106.94
423.621	94.94
423.843	77.94
424.066	81.94
424.288	81.94
424.511	87.94
424.733	95.94
424.956	92.94
425.178	75.94
425.401	88.94
425.623	83.94
425.846	85.94
426.068	76.94
426.291	68.94
426.513	83.94
426.735	65.94
426.958	86.94
427.18	84.94
427.402	87.94
427.625	82.94
427.847	86.94
428.069	100.94
428.292	96.94
428.514	105.94
428.736	82.94
428.958	87.94
429.181	96.94
429.403	77.94
429.625	93.94
429.847	89.94
430.069	105.94
430.292	123.94
430.514	95.94
430.736	92.94
430.958	96.94
431.18	69.94
431.402	84.94
431.624	85.94
431.846	97.94
432.068	101.94
432.29	89.94
432.512	74.94
432.734	82.94
432.956	89.94
433.178	85.94
433.4	87.94
433.622	75.94
433.844	75.94
434.066	73.94
434.287	91.94
434.509	82.94
434.731	80.94
434.953	87.94
435.175	97.94
435.397	65.94
435.618	83.94
435.84	90.94
436.062	84.94
436.284	79.94
436.505	87.94
436.727	77.94
436.949	75.94
437.17	77.94
437.392	74.94
437.614	72.94
437.835	73.94
438.057	72.94
438.278	69.94
438.5	91.94
438.721	85.94
438.943	72.94
439.165	85.94
439.386	85.94
439.608	75.94
439.829	76.94
440.05	81.94
440.272	79.94
440.493	74.94
440.715	89.94
440.936	92.94
441.158	69.94
441.379	77.94
441.6	81.94
441.822	95.94
442.043	78.94
442.264	95.94
442.486	89.94
442.707	102.94
442.928	81.94
443.149	100.94
443.371	87.94
443.592	119.94
443.813	119.94
444.034	87.94
444.255	81.94
444.476	73.94
444.698	82.94
444.919	85.94
445.14	165.94
445.361	140.94
445.582	138.94
445.803	127.94
446.024	90.94
446.245	70.94
446.466	78.94
446.687	81.94
446.908	82.94
447.129	71.94
447.35	77.94
447.571	82.94
447.792	85.94
448.013	78.94
448.234	73.94
448.455	85.94
448.675	85.94
448.896	67.94
449.117	76.94
449.338	74.94
449.559	76.94
449.779	84.94
450	92.94
450.221	88.94
450.442	85.94
450.662	80.94
450.883	79.94
451.104	81.94
451.324	81.94
451.545	89.94
451.766	79.94
451.986	79.94
452.207	71.94
452.428	89.94
452.648	91.94
452.869	93.94
453.089	92.94
453.31	83.94
453.53	84.94
453.751	88.94
453.971	83.94
454.192	84.94
454.412	86.94
454.633	88.94
454.853	80.94
455.073	83.94
455.294	79.94
455.514	90.94
455.734	94.94
455.955	95.94
456.175	82.94
456.395	81.94
456.616	78.94
456.836	90.94
457.056	85.94
457.276	80.94
457.497	84.94
457.717	65.94
457.937	77.94
458.157	85.94
458.377	85.94
458.598	76.94
458.818	98.94
459.038	83.94
459.258	90.94
459.478	83.94
459.698	80.94
459.918	89.94
460.138	90.94
460.358	79.94
460.578	89.94
460.798	86.94
461.018	86.94
461.238	74.94
461.458	88.94
461.678	87.94
461.898	85.94
462.118	95.94
462.338	92.94
462.558	69.94
462.777	81.94
462.997	85.94
463.217	85.94
463.437	76.94
463.657	67.94
463.876	87.94
464.096	79.94
464.316	72.94
464.536	75.94
464.755	69.94
464.975	85.94
465.195	89.94
465.414	83.94
465.634	47.94
465.854	86.94
466.073	102.94
466.293	81.94
466.512	95.94
466.732	86.94
466.951	85.94
467.171	81.94
467.391	84.94
467.61	92.94
467.829	63.94
468.049	71.94
468.268	72.94
468.488	75.94
468.707	81.94
468.927	78.94
469.146	82.94
469.365	87.94
469.585	85.94
469.804	82.94
470.023	85.94
470.243	86.94
470.462	72.94
470.681	76.94
470.901	78.94
471.12	97.94
471.339	93.94
471.558	77.94
471.777	76.94
471.997	86.94
472.216	79.94
472.435	69.94
472.654	79.94
472.873	89.94
473.092	73.94
473.311	92.94
473.53	81.94
473.749	72.94
473.968	80.94
474.187	88.94
474.406	77.94
474.625	81.94
474.844	94.94
475.063	95.94
475.282	85.94
475.501	87.94
475.72	88.94
475.939	94.94
476.158	71.94
476.377	77.94
476.596	94.94
476.814	68.94
477.033	72.94
477.252	84.94
477.471	77.94
477.69	87.94
477.908	75.94
478.127	85.94
478.346	85.94
478.564	82.94
478.783	78.94
479.002	59.94
479.22	85.94
479.439	84.94
479.658	75.94
479.876	78.94
480.095	88.94
480.313	76.94
480.532	92.94
480.751	89.94
480.969	70.94
481.188	82.94
481.406	86.94
481.624	85.94
481.843	81.94
482.061	72.94
482.28	82.94
482.498	93.94
482.717	82.94
482.935	69.94
483.153	86.94
483.372	85.94
483.59	97.94
483.808	87.94
484.027	89.94
484.245	81.94
484.463	83.94
484.681	87.94
484.9	86.94
485.118	74.94
485.336	79.94
485.554	75.94
485.772	89.94
485.99	91.94
486.209	84.94
486.427	78.94
486.645	85.94
486.863	98.94
487.081	101.94
487.299	88.94
487.517	99.94
487.735	79.94
487.953	97.94
488.171	100.94
488.389	99.94
488.607	80.94
488.825	77.94
489.043	88.94
489.261	88.94
489.479	82.94
489.696	86.94
489.914	78.94
490.132	101.94
490.35	93.94
490.568	76.94
490.786	83.94
491.003	83.94
491.221	86.94
491.439	77.94
491.657	86.94
491.874	93.94
492.092	80.94
492.31	93.94
492.527	87.94
492.745	99.94
492.963	81.94
493.18	92.94
493.398	99.94
493.615	77.94
493.833	63.94
494.05	85.94
494.268	78.94
494.485	85.94
494.703	81.94
494.92	73.94
495.138	79.94
495.355	85.94
495.573	73.94
495.79	77.94
496.008	72.94
496.225	83.94
496.442	97.94
496.66	76.94
496.877	81.94
497.094	79.94
497.312	78.94
497.529	80.94
497.746	78.94
497.963	85.94
498.181	84.94
498.398	96.94
498.615	91.94
498.832	79.94
499.049	64.94
499.267	81.94
499.484	84.94
499.701	76.94
499.918	86.94
500.135	88.94
500.352	89.94
500.569	89.94
500.786	90.94
501.003	80.94
501.22	84.94
501.437	83.94
501.654	80.94
501.871	84.94
502.088	94.94
502.305	85.94
502.522	81.94
502.739	86.94
502.956	76.94
503.172	89.94
503.389	69.94
503.606	77.94
503.823	74.94
504.04	88.94
504.256	103.94
504.473	96.94
504.69	91.94
504.907	84.94
505.123	87.94
505.34	80.94
505.557	88.94
505.773	89.94
505.99	90.94
506.207	90.94
506.423	80.94
506.64	85.94
506.856	79.94
507.073	77.94
507.289	87.94
507.506	83.94
507.722	91.94
507.939	81.94
508.155	81.94
508.372	87.94
508.588	72.94
508.805	72.94
509.021	87.94
509.238	96.94
509.454	81.94
509.67	96.94
509.887	89.94
510.103	74.94
510.319	79.94
510.536	93.94
510.752	92.94
510.968	85.94
511.184	90.94
511.401	85.94
511.617	91.94
511.833	87.94
512.049	89.94
512.265	101.94
512.481	81.94
512.698	87.94
512.914	86.94
513.13	95.94
513.346	74.94
513.562	89.94
513.778	86.94
513.994	77.94
514.21	74.94
514.426	74.94
514.642	80.94
514.858	91.94
515.074	87.94
515.29	68.94
515.506	79.94
515.721	77.94
515.937	75.94
516.153	92.94
516.369	95.94
516.585	85.94
516.801	87.94
517.016	83.94
517.232	90.94
517.448	82.94
517.664	80.94
517.879	73.94
518.095	80.94
518.311	82.94
518.527	97.94
518.742	79.94
518.958	90.94
519.173	98.94
519.389	97.94
519.605	90.94
519.82	83.94
