Data from 2145_2_HRD10591_00020.txt Node
Date: Mon Jan 19 14:22:12 EST 2026
User: Yrep
Spectrometer: HR+D1059
Trigger mode: 1
Integration Time (sec): 1.000000E-1
Scans to average: 1
Electric dark correction enabled: true
Nonlinearity correction enabled: false
Boxcar width: 0
XAxis mode: Wavelengths
Number of Pixels in Spectrum: 2048
>>>>>Begin Spectral Data<<<<<
223.165	-5.75
223.4	-5.75
223.635	-5.75
223.869	-25.75
224.104	-18.75
224.338	-16.75
224.573	-11.75
224.808	-12.75
225.042	-8.75
225.277	2.25
225.511	-0.75
225.746	1.25
225.98	-6.75
226.215	6.25
226.449	19.25
226.683	17.25
226.918	29.25
227.152	32.25
227.387	43.25
227.621	48.25
227.856	37.25
228.09	40.25
228.324	57.25
228.559	52.25
228.793	53.25
229.027	68.25
229.262	58.25
229.496	66.25
229.73	77.25
229.964	77.25
230.199	78.25
230.433	84.25
230.667	68.25
230.901	77.25
231.136	91.25
231.37	77.25
231.604	77.25
231.838	91.25
232.072	84.25
232.306	86.25
232.541	78.25
232.775	86.25
233.009	76.25
233.243	78.25
233.477	83.25
233.711	83.25
233.945	101.25
234.179	77.25
234.413	76.25
234.647	77.25
234.881	60.25
235.115	70.25
235.349	80.25
235.583	79.25
235.817	65.25
236.051	82.25
236.285	64.25
236.519	92.25
236.753	81.25
236.987	76.25
237.221	85.25
237.455	86.25
237.689	78.25
237.922	77.25
238.156	75.25
238.39	81.25
238.624	61.25
238.858	68.25
239.091	77.25
239.325	72.25
239.559	84.25
239.793	90.25
240.027	80.25
240.26	83.25
240.494	79.25
240.728	63.25
240.961	71.25
241.195	70.25
241.429	76.25
241.662	82.25
241.896	75.25
242.13	82.25
242.363	64.25
242.597	83.25
242.83	70.25
243.064	88.25
243.298	78.25
243.531	91.25
243.765	70.25
243.998	78.25
244.232	73.25
244.465	88.25
244.699	69.25
244.932	63.25
245.166	83.25
245.399	69.25
245.633	83.25
245.866	80.25
246.099	78.25
246.333	76.25
246.566	81.25
246.8	83.25
247.033	71.25
247.266	86.25
247.5	67.25
247.733	69.25
247.966	68.25
248.2	68.25
248.433	75.25
248.666	69.25
248.899	69.25
249.133	78.25
249.366	94.25
249.599	86.25
249.832	70.25
250.066	88.25
250.299	90.25
250.532	81.25
250.765	88.25
250.998	84.25
251.231	78.25
251.465	81.25
251.698	73.25
251.931	81.25
252.164	78.25
252.397	76.25
252.63	83.25
252.863	85.25
253.096	75.25
253.329	66.25
253.562	72.25
253.795	78.25
254.028	72.25
254.261	83.25
254.494	78.25
254.727	80.25
254.96	77.25
255.193	85.25
255.426	76.25
255.659	85.25
255.892	83.25
256.124	85.25
256.357	63.25
256.59	77.25
256.823	78.25
257.056	75.25
257.289	77.25
257.521	77.25
257.754	83.25
257.987	64.25
258.22	96.25
258.452	74.25
258.685	66.25
258.918	77.25
259.151	90.25
259.383	80.25
259.616	85.25
259.849	75.25
260.081	76.25
260.314	78.25
260.547	76.25
260.779	85.25
261.012	66.25
261.244	93.25
261.477	84.25
261.71	82.25
261.942	84.25
262.175	87.25
262.407	65.25
262.64	80.25
262.872	72.25
263.105	91.25
263.337	82.25
263.57	76.25
263.802	91.25
264.035	91.25
264.267	82.25
264.499	83.25
264.732	76.25
264.964	75.25
265.197	78.25
265.429	72.25
265.661	89.25
265.894	85.25
266.126	61.25
266.358	74.25
266.591	69.25
266.823	84.25
267.055	83.25
267.287	73.25
267.52	84.25
267.752	91.25
267.984	87.25
268.216	71.25
268.448	85.25
268.681	103.25
268.913	83.25
269.145	80.25
269.377	89.25
269.609	96.25
269.841	76.25
270.073	74.25
270.306	86.25
270.538	83.25
270.77	91.25
271.002	78.25
271.234	77.25
271.466	78.25
271.698	84.25
271.93	94.25
272.162	84.25
272.394	71.25
272.626	84.25
272.858	91.25
273.09	74.25
273.322	87.25
273.553	80.25
273.785	78.25
274.017	78.25
274.249	89.25
274.481	73.25
274.713	85.25
274.945	77.25
275.176	68.25
275.408	79.25
275.64	79.25
275.872	70.25
276.104	93.25
276.335	82.25
276.567	85.25
276.799	90.25
277.031	103.25
277.262	87.25
277.494	87.25
277.726	72.25
277.957	59.25
278.189	76.25
278.421	93.25
278.652	92.25
278.884	88.25
279.115	79.25
279.347	90.25
279.579	86.25
279.81	81.25
280.042	89.25
280.273	82.25
280.505	86.25
280.736	91.25
280.968	96.25
281.199	80.25
281.431	89.25
281.662	71.25
281.894	84.25
282.125	86.25
282.356	76.25
282.588	64.25
282.819	88.25
283.051	95.25
283.282	82.25
283.513	82.25
283.745	77.25
283.976	84.25
284.207	74.25
284.439	75.25
284.67	89.25
284.901	78.25
285.132	86.25
285.364	84.25
285.595	89.25
285.826	84.25
286.057	84.25
286.288	82.25
286.52	85.25
286.751	76.25
286.982	86.25
287.213	101.25
287.444	78.25
287.675	79.25
287.906	84.25
288.138	82.25
288.369	86.25
288.6	90.25
288.831	82.25
289.062	82.25
289.293	88.25
289.524	83.25
289.755	90.25
289.986	88.25
290.217	91.25
290.448	90.25
290.679	76.25
290.91	90.25
291.141	80.25
291.371	79.25
291.602	84.25
291.833	74.25
292.064	78.25
292.295	86.25
292.526	87.25
292.757	90.25
292.987	83.25
293.218	82.25
293.449	96.25
293.68	87.25
293.91	72.25
294.141	93.25
294.372	76.25
294.603	85.25
294.833	93.25
295.064	91.25
295.295	88.25
295.525	89.25
295.756	91.25
295.987	80.25
296.217	93.25
296.448	77.25
296.679	86.25
296.909	78.25
297.14	93.25
297.37	89.25
297.601	82.25
297.831	90.25
298.062	92.25
298.292	79.25
298.523	68.25
298.753	85.25
298.984	88.25
299.214	82.25
299.445	83.25
299.675	87.25
299.905	98.25
300.136	90.25
300.366	96.25
300.597	83.25
300.827	90.25
301.057	91.25
301.288	93.25
301.518	90.25
301.748	86.25
301.979	108.25
302.209	81.25
302.439	86.25
302.669	89.25
302.9	83.25
303.13	92.25
303.36	81.25
303.59	98.25
303.82	81.25
304.051	90.25
304.281	79.25
304.511	94.25
304.741	89.25
304.971	92.25
305.201	90.25
305.431	75.25
305.661	88.25
305.891	90.25
306.121	84.25
306.352	78.25
306.582	94.25
306.812	90.25
307.042	84.25
307.272	88.25
307.502	78.25
307.731	84.25
307.961	97.25
308.191	83.25
308.421	110.25
308.651	98.25
308.881	87.25
309.111	81.25
309.341	97.25
309.571	99.25
309.8	95.25
310.03	96.25
310.26	102.25
310.49	74.25
310.72	96.25
310.949	71.25
311.179	79.25
311.409	88.25
311.639	89.25
311.868	88.25
312.098	86.25
312.328	82.25
312.557	88.25
312.787	85.25
313.017	86.25
313.246	105.25
313.476	93.25
313.706	83.25
313.935	90.25
314.165	95.25
314.394	84.25
314.624	88.25
314.853	104.25
315.083	85.25
315.312	96.25
315.542	82.25
315.771	84.25
316.001	76.25
316.23	101.25
316.46	93.25
316.689	76.25
316.919	86.25
317.148	86.25
317.377	95.25
317.607	80.25
317.836	88.25
318.065	91.25
318.295	94.25
318.524	97.25
318.753	85.25
318.983	76.25
319.212	83.25
319.441	91.25
319.67	85.25
319.9	85.25
320.129	85.25
320.358	77.25
320.587	78.25
320.816	78.25
321.046	88.25
321.275	78.25
321.504	94.25
321.733	90.25
321.962	79.25
322.191	81.25
322.42	79.25
322.649	84.25
322.878	103.25
323.108	96.25
323.337	92.25
323.566	91.25
323.795	80.25
324.024	79.25
324.253	88.25
324.482	76.25
324.71	79.25
324.939	89.25
325.168	90.25
325.397	83.25
325.626	79.25
325.855	79.25
326.084	79.25
326.313	90.25
326.542	72.25
326.77	99.25
326.999	72.25
327.228	89.25
327.457	94.25
327.686	79.25
327.914	98.25
328.143	93.25
328.372	87.25
328.6	92.25
328.829	121.25
329.058	88.25
329.287	89.25
329.515	78.25
329.744	94.25
329.972	85.25
330.201	85.25
330.43	92.25
330.658	75.25
330.887	90.25
331.115	90.25
331.344	84.25
331.572	92.25
331.801	82.25
332.03	86.25
332.258	81.25
332.486	87.25
332.715	85.25
332.943	98.25
333.172	92.25
333.4	102.25
333.629	88.25
333.857	88.25
334.085	83.25
334.314	93.25
334.542	88.25
334.771	96.25
334.999	99.25
335.227	99.25
335.455	106.25
335.684	84.25
335.912	90.25
336.14	100.25
336.369	104.25
336.597	103.25
336.825	102.25
337.053	82.25
337.281	98.25
337.51	76.25
337.738	93.25
337.966	82.25
338.194	94.25
338.422	86.25
338.65	90.25
338.878	72.25
339.106	94.25
339.334	101.25
339.562	96.25
339.79	75.25
340.018	70.25
340.246	82.25
340.474	84.25
340.702	75.25
340.93	100.25
341.158	81.25
341.386	86.25
341.614	86.25
341.842	88.25
342.07	74.25
342.298	84.25
342.526	92.25
342.754	79.25
342.981	94.25
343.209	90.25
343.437	96.25
343.665	99.25
343.893	88.25
344.12	91.25
344.348	99.25
344.576	89.25
344.804	90.25
345.031	87.25
345.259	102.25
345.487	85.25
345.714	77.25
345.942	102.25
346.17	97.25
346.397	87.25
346.625	82.25
346.853	86.25
347.08	85.25
347.308	81.25
347.535	86.25
347.763	96.25
347.99	106.25
348.218	86.25
348.445	67.25
348.673	94.25
348.9	102.25
349.128	92.25
349.355	82.25
349.583	98.25
349.81	91.25
350.037	82.25
350.265	81.25
350.492	85.25
350.72	91.25
350.947	91.25
351.174	79.25
351.402	90.25
351.629	101.25
351.856	83.25
352.083	89.25
352.311	79.25
352.538	94.25
352.765	83.25
352.992	80.25
353.22	83.25
353.447	86.25
353.674	85.25
353.901	89.25
354.128	102.25
354.355	91.25
354.583	103.25
354.81	98.25
355.037	88.25
355.264	79.25
355.491	100.25
355.718	94.25
355.945	79.25
356.172	86.25
356.399	91.25
356.626	89.25
356.853	100.25
357.08	100.25
357.307	83.25
357.534	77.25
357.761	81.25
357.988	92.25
358.215	87.25
358.441	94.25
358.668	92.25
358.895	89.25
359.122	84.25
359.349	90.25
359.576	85.25
359.802	76.25
360.029	73.25
360.256	94.25
360.483	92.25
360.709	86.25
360.936	99.25
361.163	84.25
361.39	84.25
361.616	85.25
361.843	92.25
362.07	85.25
362.296	98.25
362.523	107.25
362.749	108.25
362.976	110.25
363.203	118.25
363.429	130.25
363.656	105.25
363.882	115.25
364.109	102.25
364.335	138.25
364.562	144.25
364.788	104.25
365.015	100.25
365.241	105.25
365.468	97.25
365.694	84.25
365.92	92.25
366.147	75.25
366.373	90.25
366.599	77.25
366.826	91.25
367.052	95.25
367.278	80.25
367.505	88.25
367.731	91.25
367.957	78.25
368.184	74.25
368.41	98.25
368.636	105.25
368.862	84.25
369.089	74.25
369.315	78.25
369.541	89.25
369.767	96.25
369.993	91.25
370.219	90.25
370.445	97.25
370.672	107.25
370.898	89.25
371.124	91.25
371.35	82.25
371.576	96.25
371.802	80.25
372.028	102.25
372.254	98.25
372.48	88.25
372.706	95.25
372.932	80.25
373.158	88.25
373.384	90.25
373.61	93.25
373.835	106.25
374.061	92.25
374.287	102.25
374.513	98.25
374.739	83.25
374.965	94.25
375.191	94.25
375.416	81.25
375.642	93.25
375.868	86.25
376.094	88.25
376.319	101.25
376.545	94.25
376.771	81.25
376.997	101.25
377.222	95.25
377.448	95.25
377.674	97.25
377.899	94.25
378.125	84.25
378.35	99.25
378.576	82.25
378.802	92.25
379.027	89.25
379.253	88.25
379.478	84.25
379.704	87.25
379.929	92.25
380.155	92.25
380.38	104.25
380.606	99.25
380.831	93.25
381.057	95.25
381.282	89.25
381.507	106.25
381.733	112.25
381.958	94.25
382.184	90.25
382.409	92.25
382.634	101.25
382.86	95.25
383.085	107.25
383.31	98.25
383.535	98.25
383.761	86.25
383.986	99.25
384.211	91.25
384.436	98.25
384.662	100.25
384.887	81.25
385.112	89.25
385.337	92.25
385.562	98.25
385.787	100.25
386.013	93.25
386.238	89.25
386.463	79.25
386.688	106.25
386.913	78.25
387.138	100.25
387.363	96.25
387.588	98.25
387.813	109.25
388.038	110.25
388.263	104.25
388.488	93.25
388.713	104.25
388.938	87.25
389.163	89.25
389.387	86.25
389.612	90.25
389.837	94.25
390.062	94.25
390.287	85.25
390.512	99.25
390.736	88.25
390.961	86.25
391.186	95.25
391.411	94.25
391.636	100.25
391.86	105.25
392.085	97.25
392.31	92.25
392.534	93.25
392.759	102.25
392.984	142.25
393.208	179.25
393.433	264.25
393.658	208.25
393.882	137.25
394.107	107.25
394.331	119.25
394.556	125.25
394.78	115.25
395.005	94.25
395.229	95.25
395.454	108.25
395.678	101.25
395.903	130.25
396.127	128.25
396.352	148.25
396.576	154.25
396.801	200.25
397.025	229.25
397.249	152.25
397.474	132.25
397.698	117.25
397.922	114.25
398.147	94.25
398.371	78.25
398.595	89.25
398.82	85.25
399.044	89.25
399.268	83.25
399.492	100.25
399.717	91.25
399.941	88.25
400.165	93.25
400.389	97.25
400.613	88.25
400.837	91.25
401.062	97.25
401.286	87.25
401.51	88.25
401.734	87.25
401.958	88.25
402.182	100.25
402.406	86.25
402.63	88.25
402.854	89.25
403.078	96.25
403.302	94.25
403.526	89.25
403.75	105.25
403.974	97.25
404.198	74.25
404.422	94.25
404.645	101.25
404.869	107.25
405.093	111.25
405.317	91.25
405.541	103.25
405.765	102.25
405.988	92.25
406.212	105.25
406.436	81.25
406.66	90.25
406.883	74.25
407.107	84.25
407.331	86.25
407.555	86.25
407.778	122.25
408.002	112.25
408.226	89.25
408.449	101.25
408.673	83.25
408.896	101.25
409.12	88.25
409.344	107.25
409.567	110.25
409.791	107.25
410.014	110.25
410.238	108.25
410.461	78.25
410.685	84.25
410.908	82.25
411.132	81.25
411.355	85.25
411.578	93.25
411.802	98.25
412.025	70.25
412.249	103.25
412.472	88.25
412.695	89.25
412.919	73.25
413.142	76.25
413.365	91.25
413.589	96.25
413.812	85.25
414.035	104.25
414.258	92.25
414.482	93.25
414.705	81.25
414.928	90.25
415.151	84.25
415.374	88.25
415.597	91.25
415.821	78.25
416.044	81.25
416.267	86.25
416.49	90.25
416.713	87.25
416.936	90.25
417.159	93.25
417.382	90.25
417.605	72.25
417.828	93.25
418.051	88.25
418.274	98.25
418.497	96.25
418.72	92.25
418.943	96.25
419.166	79.25
419.389	112.25
419.611	89.25
419.834	97.25
420.057	97.25
420.28	100.25
420.503	88.25
420.726	88.25
420.948	91.25
421.171	95.25
421.394	101.25
421.617	130.25
421.839	124.25
422.062	163.25
422.285	194.25
422.507	293.25
422.73	328.25
422.953	326.25
423.175	249.25
423.398	184.25
423.621	148.25
423.843	120.25
424.066	118.25
424.288	114.25
424.511	92.25
424.733	95.25
424.956	92.25
425.178	105.25
425.401	93.25
425.623	95.25
425.846	105.25
426.068	87.25
426.291	94.25
426.513	97.25
426.735	90.25
426.958	92.25
427.18	82.25
427.402	92.25
427.625	103.25
427.847	91.25
428.069	97.25
428.292	137.25
428.514	143.25
428.736	126.25
428.958	130.25
429.181	129.25
429.403	92.25
429.625	100.25
429.847	133.25
430.069	168.25
430.292	192.25
430.514	176.25
430.736	137.25
430.958	128.25
431.18	100.25
431.402	93.25
431.624	114.25
431.846	122.25
432.068	124.25
432.29	102.25
432.512	106.25
432.734	80.25
432.956	95.25
433.178	80.25
433.4	91.25
433.622	92.25
433.844	107.25
434.066	86.25
434.287	86.25
434.509	88.25
434.731	84.25
434.953	87.25
435.175	85.25
435.397	102.25
435.618	96.25
435.84	101.25
436.062	92.25
436.284	88.25
436.505	91.25
436.727	76.25
436.949	88.25
437.17	85.25
437.392	75.25
437.614	85.25
437.835	80.25
438.057	92.25
438.278	89.25
438.5	88.25
438.721	87.25
438.943	85.25
439.165	71.25
439.386	81.25
439.608	98.25
439.829	96.25
440.05	101.25
440.272	87.25
440.493	88.25
440.715	77.25
440.936	84.25
441.158	78.25
441.379	83.25
441.6	88.25
441.822	83.25
442.043	90.25
442.264	92.25
442.486	136.25
442.707	178.25
442.928	136.25
443.149	97.25
443.371	158.25
443.592	249.25
443.813	206.25
444.034	113.25
444.255	91.25
444.476	96.25
444.698	94.25
444.919	104.25
445.14	197.25
445.361	237.25
445.582	291.25
445.803	238.25
446.024	126.25
446.245	92.25
446.466	95.25
446.687	84.25
446.908	92.25
447.129	96.25
447.35	78.25
447.571	74.25
447.792	87.25
448.013	82.25
448.234	77.25
448.455	89.25
448.675	85.25
448.896	82.25
449.117	85.25
449.338	98.25
449.559	99.25
449.779	87.25
450	99.25
450.221	96.25
450.442	93.25
450.662	91.25
450.883	79.25
451.104	89.25
451.324	76.25
451.545	85.25
451.766	91.25
451.986	90.25
452.207	88.25
452.428	96.25
452.648	91.25
452.869	114.25
453.089	76.25
453.31	102.25
453.53	93.25
453.751	82.25
453.971	99.25
454.192	90.25
454.412	85.25
454.633	83.25
454.853	90.25
455.073	97.25
455.294	94.25
455.514	89.25
455.734	97.25
455.955	84.25
456.175	77.25
456.395	88.25
456.616	92.25
456.836	94.25
457.056	85.25
457.276	87.25
457.497	90.25
457.717	93.25
457.937	123.25
458.157	132.25
458.377	138.25
458.598	142.25
458.818	146.25
459.038	104.25
459.258	85.25
459.478	89.25
459.698	85.25
459.918	89.25
460.138	84.25
460.358	98.25
460.578	96.25
460.798	130.25
461.018	123.25
461.238	96.25
461.458	76.25
461.678	84.25
461.898	92.25
462.118	93.25
462.338	81.25
462.558	93.25
462.777	92.25
462.997	102.25
463.217	88.25
463.437	65.25
463.657	84.25
463.876	96.25
464.096	85.25
464.316	93.25
464.536	92.25
464.755	78.25
464.975	92.25
465.195	100.25
465.414	82.25
465.634	91.25
465.854	80.25
466.073	89.25
466.293	86.25
466.512	89.25
466.732	78.25
466.951	91.25
467.171	96.25
467.391	108.25
467.61	90.25
467.829	90.25
468.049	92.25
468.268	99.25
468.488	80.25
468.707	93.25
468.927	94.25
469.146	86.25
469.365	87.25
469.585	84.25
469.804	80.25
470.023	83.25
470.243	86.25
470.462	81.25
470.681	90.25
470.901	91.25
471.12	94.25
471.339	88.25
471.558	89.25
471.777	79.25
471.997	100.25
472.216	87.25
472.435	94.25
472.654	85.25
472.873	88.25
473.092	97.25
473.311	90.25
473.53	82.25
473.749	96.25
473.968	106.25
474.187	91.25
474.406	98.25
474.625	83.25
474.844	99.25
475.063	75.25
475.282	82.25
475.501	85.25
475.72	76.25
475.939	98.25
476.158	88.25
476.377	79.25
476.596	84.25
476.814	95.25
477.033	86.25
477.252	80.25
477.471	86.25
477.69	94.25
477.908	82.25
478.127	87.25
478.346	96.25
478.564	85.25
478.783	104.25
479.002	99.25
479.22	80.25
479.439	95.25
479.658	79.25
479.876	92.25
480.095	96.25
480.313	100.25
480.532	83.25
480.751	98.25
480.969	83.25
481.188	90.25
481.406	85.25
481.624	95.25
481.843	86.25
482.061	86.25
482.28	84.25
482.498	78.25
482.717	82.25
482.935	96.25
483.153	91.25
483.372	97.25
483.59	93.25
483.808	105.25
484.027	86.25
484.245	106.25
484.463	80.25
484.681	89.25
484.9	113.25
485.118	81.25
485.336	93.25
485.554	108.25
485.772	87.25
485.99	92.25
486.209	100.25
486.427	102.25
486.645	89.25
486.863	91.25
487.081	87.25
487.299	103.25
487.517	96.25
487.735	117.25
487.953	228.25
488.171	181.25
488.389	94.25
488.607	93.25
488.825	79.25
489.043	89.25
489.261	97.25
489.479	92.25
489.696	96.25
489.914	85.25
490.132	96.25
490.35	95.25
490.568	99.25
490.786	84.25
491.003	78.25
491.221	102.25
491.439	98.25
491.657	97.25
491.874	92.25
492.092	88.25
492.31	82.25
492.527	102.25
492.745	88.25
492.963	84.25
493.18	101.25
493.398	71.25
493.615	91.25
493.833	82.25
494.05	87.25
494.268	80.25
494.485	93.25
494.703	95.25
494.92	93.25
495.138	81.25
495.355	83.25
495.573	101.25
495.79	101.25
496.008	84.25
496.225	90.25
496.442	91.25
496.66	80.25
496.877	92.25
497.094	92.25
497.312	81.25
497.529	94.25
497.746	96.25
497.963	92.25
498.181	96.25
498.398	112.25
498.615	97.25
498.832	97.25
499.049	100.25
499.267	93.25
499.484	102.25
499.701	79.25
499.918	83.25
500.135	92.25
500.352	94.25
500.569	93.25
500.786	87.25
501.003	84.25
501.22	92.25
501.437	100.25
501.654	93.25
501.871	97.25
502.088	86.25
502.305	77.25
502.522	86.25
502.739	88.25
502.956	85.25
503.172	93.25
503.389	102.25
503.606	97.25
503.823	91.25
504.04	130.25
504.256	158.25
504.473	159.25
504.69	109.25
504.907	84.25
505.123	80.25
505.34	79.25
505.557	99.25
505.773	101.25
505.99	73.25
506.207	101.25
506.423	94.25
506.64	89.25
506.856	101.25
507.073	75.25
507.289	94.25
507.506	101.25
507.722	84.25
507.939	88.25
508.155	91.25
508.372	93.25
508.588	93.25
508.805	101.25
509.021	78.25
509.238	85.25
509.454	89.25
509.67	90.25
509.887	74.25
510.103	71.25
510.319	102.25
510.536	87.25
510.752	75.25
510.968	74.25
511.184	84.25
511.401	84.25
511.617	93.25
511.833	87.25
512.049	82.25
512.265	80.25
512.481	86.25
512.698	84.25
512.914	84.25
513.13	94.25
513.346	93.25
513.562	95.25
513.778	90.25
513.994	87.25
514.21	96.25
514.426	86.25
514.642	105.25
514.858	76.25
515.074	98.25
515.29	95.25
515.506	92.25
515.721	82.25
515.937	93.25
516.153	88.25
516.369	92.25
516.585	97.25
516.801	96.25
517.016	92.25
517.232	88.25
517.448	112.25
