Data from 2145_2_HRD10591_00021.txt Node
Date: Mon Jan 19 14:22:12 EST 2026
User: Yrep
Spectrometer: HR+D1059
Trigger mode: 1
Integration Time (sec): 1.000000E-1
Scans to average: 1
Electric dark correction enabled: true
Nonlinearity correction enabled: false
Boxcar width: 0
XAxis mode: Wavelengths
Number of Pixels in Spectrum: 2048
>>>>>Begin Spectral Data<<<<<
223.165	-6.12
223.4	-6.12
223.635	-6.12
223.869	-30.12
224.104	-22.12
224.338	-20.12
224.573	-13.12
224.808	-13.12
225.042	-0.12
225.277	-2.12
225.511	-2.12
225.746	-1.12
225.98	-1.12
226.215	11.88
226.449	9.88
226.683	19.88
226.918	29.88
227.152	39.88
227.387	44.88
227.621	34.88
227.856	42.88
228.09	55.88
228.324	61.88
228.559	65.88
228.793	59.88
229.027	63.88
229.262	62.88
229.496	66.88
229.73	59.88
229.964	74.88
230.199	63.88
230.433	61.88
230.667	69.88
230.901	79.88
231.136	69.88
231.37	80.88
231.604	72.88
231.838	68.88
232.072	73.88
232.306	84.88
232.541	83.88
232.775	89.88
233.009	65.88
233.243	85.88
233.477	79.88
233.711	87.88
233.945	77.88
234.179	81.88
234.413	97.88
234.647	69.88
234.881	74.88
235.115	62.88
235.349	74.88
235.583	90.88
235.817	82.88
236.051	85.88
236.285	65.88
236.519	71.88
236.753	75.88
236.987	78.88
237.221	85.88
237.455	81.88
237.689	82.88
237.922	79.88
238.156	80.88
238.39	83.88
238.624	73.88
238.858	87.88
239.091	67.88
239.325	76.88
239.559	100.88
239.793	79.88
240.027	88.88
240.26	73.88
240.494	88.88
240.728	75.88
240.961	78.88
241.195	74.88
241.429	79.88
241.662	88.88
241.896	83.88
242.13	83.88
242.363	82.88
242.597	73.88
242.83	81.88
243.064	80.88
243.298	81.88
243.531	67.88
243.765	94.88
243.998	78.88
244.232	85.88
244.465	89.88
244.699	85.88
244.932	80.88
245.166	82.88
245.399	89.88
245.633	79.88
245.866	75.88
246.099	70.88
246.333	69.88
246.566	74.88
246.8	69.88
247.033	77.88
247.266	76.88
247.5	75.88
247.733	81.88
247.966	81.88
248.2	86.88
248.433	77.88
248.666	95.88
248.899	89.88
249.133	66.88
249.366	93.88
249.599	82.88
249.832	85.88
250.066	103.88
250.299	78.88
250.532	78.88
250.765	84.88
250.998	71.88
251.231	68.88
251.465	88.88
251.698	71.88
251.931	76.88
252.164	85.88
252.397	75.88
252.63	85.88
252.863	83.88
253.096	93.88
253.329	79.88
253.562	87.88
253.795	72.88
254.028	67.88
254.261	91.88
254.494	83.88
254.727	86.88
254.96	95.88
255.193	89.88
255.426	86.88
255.659	73.88
255.892	83.88
256.124	77.88
256.357	74.88
256.59	82.88
256.823	79.88
257.056	95.88
257.289	92.88
257.521	78.88
257.754	100.88
257.987	73.88
258.22	85.88
258.452	78.88
258.685	88.88
258.918	86.88
259.151	76.88
259.383	89.88
259.616	82.88
259.849	87.88
260.081	89.88
260.314	72.88
260.547	86.88
260.779	88.88
261.012	80.88
261.244	83.88
261.477	79.88
261.71	85.88
261.942	93.88
262.175	88.88
262.407	82.88
262.64	62.88
262.872	71.88
263.105	87.88
263.337	93.88
263.57	92.88
263.802	76.88
264.035	68.88
264.267	86.88
264.499	78.88
264.732	81.88
264.964	76.88
265.197	77.88
265.429	83.88
265.661	92.88
265.894	92.88
266.126	77.88
266.358	82.88
266.591	83.88
266.823	80.88
267.055	87.88
267.287	81.88
267.52	90.88
267.752	80.88
267.984	75.88
268.216	90.88
268.448	80.88
268.681	99.88
268.913	91.88
269.145	78.88
269.377	88.88
269.609	78.88
269.841	85.88
270.073	99.88
270.306	89.88
270.538	85.88
270.77	72.88
271.002	87.88
271.234	77.88
271.466	82.88
271.698	89.88
271.93	94.88
272.162	93.88
272.394	90.88
272.626	80.88
272.858	85.88
273.09	74.88
273.322	70.88
273.553	70.88
273.785	75.88
274.017	94.88
274.249	89.88
274.481	93.88
274.713	76.88
274.945	85.88
275.176	83.88
275.408	88.88
275.64	77.88
275.872	87.88
276.104	75.88
276.335	87.88
276.567	82.88
276.799	85.88
277.031	80.88
277.262	79.88
277.494	75.88
277.726	82.88
277.957	87.88
278.189	89.88
278.421	85.88
278.652	95.88
278.884	77.88
279.115	94.88
279.347	87.88
279.579	90.88
279.81	78.88
280.042	88.88
280.273	82.88
280.505	79.88
280.736	90.88
280.968	85.88
281.199	85.88
281.431	85.88
281.662	76.88
281.894	85.88
282.125	75.88
282.356	85.88
282.588	84.88
282.819	79.88
283.051	78.88
283.282	89.88
283.513	95.88
283.745	72.88
283.976	92.88
284.207	88.88
284.439	86.88
284.67	88.88
284.901	98.88
285.132	92.88
285.364	90.88
285.595	61.88
285.826	79.88
286.057	93.88
286.288	78.88
286.52	83.88
286.751	98.88
286.982	87.88
287.213	74.88
287.444	89.88
287.675	73.88
287.906	85.88
288.138	89.88
288.369	83.88
288.6	77.88
288.831	99.88
289.062	79.88
289.293	92.88
289.524	92.88
289.755	82.88
289.986	92.88
290.217	86.88
290.448	90.88
290.679	97.88
290.91	94.88
291.141	83.88
291.371	83.88
291.602	78.88
291.833	83.88
292.064	79.88
292.295	72.88
292.526	78.88
292.757	93.88
292.987	99.88
293.218	83.88
293.449	95.88
293.68	101.88
293.91	85.88
294.141	85.88
294.372	84.88
294.603	84.88
294.833	94.88
295.064	80.88
295.295	86.88
295.525	74.88
295.756	87.88
295.987	91.88
296.217	79.88
296.448	83.88
296.679	80.88
296.909	91.88
297.14	83.88
297.37	86.88
297.601	90.88
297.831	82.88
298.062	94.88
298.292	84.88
298.523	92.88
298.753	90.88
298.984	113.88
299.214	97.88
299.445	91.88
299.675	93.88
299.905	93.88
300.136	90.88
300.366	88.88
300.597	86.88
300.827	90.88
301.057	103.88
301.288	86.88
301.518	83.88
301.748	90.88
301.979	101.88
302.209	102.88
302.439	81.88
302.669	84.88
302.9	79.88
303.13	85.88
303.36	89.88
303.59	73.88
303.82	90.88
304.051	77.88
304.281	95.88
304.511	98.88
304.741	77.88
304.971	83.88
305.201	89.88
305.431	87.88
305.661	92.88
305.891	90.88
306.121	86.88
306.352	85.88
306.582	83.88
306.812	88.88
307.042	89.88
307.272	84.88
307.502	85.88
307.731	82.88
307.961	85.88
308.191	94.88
308.421	98.88
308.651	101.88
308.881	89.88
309.111	92.88
309.341	101.88
309.571	94.88
309.8	95.88
310.03	103.88
310.26	90.88
310.49	89.88
310.72	66.88
310.949	85.88
311.179	75.88
311.409	75.88
311.639	107.88
311.868	84.88
312.098	86.88
312.328	95.88
312.557	90.88
312.787	84.88
313.017	82.88
313.246	77.88
313.476	92.88
313.706	93.88
313.935	85.88
314.165	97.88
314.394	90.88
314.624	91.88
314.853	83.88
315.083	88.88
315.312	72.88
315.542	80.88
315.771	78.88
316.001	101.88
316.23	94.88
316.46	88.88
316.689	86.88
316.919	85.88
317.148	92.88
317.377	83.88
317.607	99.88
317.836	78.88
318.065	87.88
318.295	93.88
318.524	87.88
318.753	91.88
318.983	85.88
319.212	79.88
319.441	102.88
319.67	81.88
319.9	79.88
320.129	89.88
320.358	89.88
320.587	82.88
320.816	78.88
321.046	91.88
321.275	97.88
321.504	74.88
321.733	90.88
321.962	86.88
322.191	91.88
322.42	91.88
322.649	95.88
322.878	92.88
323.108	83.88
323.337	89.88
323.566	90.88
323.795	79.88
324.024	97.88
324.253	81.88
324.482	80.88
324.71	95.88
324.939	90.88
325.168	97.88
325.397	98.88
325.626	85.88
325.855	73.88
326.084	97.88
326.313	85.88
326.542	85.88
326.77	82.88
326.999	74.88
327.228	83.88
327.457	101.88
327.686	92.88
327.914	84.88
328.143	77.88
328.372	75.88
328.6	80.88
328.829	77.88
329.058	85.88
329.287	87.88
329.515	88.88
329.744	108.88
329.972	93.88
330.201	92.88
330.43	94.88
330.658	81.88
330.887	84.88
331.115	84.88
331.344	100.88
331.572	97.88
331.801	84.88
332.03	83.88
332.258	89.88
332.486	84.88
332.715	97.88
332.943	89.88
333.172	84.88
333.4	90.88
333.629	85.88
333.857	81.88
334.085	92.88
334.314	95.88
334.542	107.88
334.771	98.88
334.999	90.88
335.227	95.88
335.455	87.88
335.684	116.88
335.912	102.88
336.14	102.88
336.369	82.88
336.597	96.88
336.825	79.88
337.053	84.88
337.281	89.88
337.51	71.88
337.738	97.88
337.966	79.88
338.194	84.88
338.422	85.88
338.65	85.88
338.878	77.88
339.106	82.88
339.334	80.88
339.562	90.88
339.79	83.88
340.018	82.88
340.246	85.88
340.474	80.88
340.702	83.88
340.93	75.88
341.158	96.88
341.386	77.88
341.614	94.88
341.842	73.88
342.07	79.88
342.298	84.88
342.526	90.88
342.754	88.88
342.981	86.88
343.209	85.88
343.437	102.88
343.665	101.88
343.893	100.88
344.12	91.88
344.348	95.88
344.576	91.88
344.804	75.88
345.031	97.88
345.259	91.88
345.487	87.88
345.714	75.88
345.942	85.88
346.17	77.88
346.397	77.88
346.625	84.88
346.853	91.88
347.08	83.88
347.308	85.88
347.535	84.88
347.763	87.88
347.99	89.88
348.218	96.88
348.445	86.88
348.673	75.88
348.9	77.88
349.128	101.88
349.355	88.88
349.583	93.88
349.81	83.88
350.037	85.88
350.265	95.88
350.492	92.88
350.72	77.88
350.947	89.88
351.174	85.88
351.402	87.88
351.629	88.88
351.856	83.88
352.083	99.88
352.311	103.88
352.538	77.88
352.765	89.88
352.992	89.88
353.22	90.88
353.447	93.88
353.674	92.88
353.901	77.88
354.128	77.88
354.355	77.88
354.583	94.88
354.81	105.88
355.037	88.88
355.264	91.88
355.491	66.88
355.718	91.88
355.945	95.88
356.172	92.88
356.399	105.88
356.626	93.88
356.853	88.88
357.08	91.88
357.307	105.88
357.534	92.88
357.761	90.88
357.988	86.88
358.215	90.88
358.441	77.88
358.668	77.88
358.895	97.88
359.122	92.88
359.349	101.88
359.576	95.88
359.802	89.88
360.029	99.88
360.256	67.88
360.483	86.88
360.709	77.88
360.936	104.88
361.163	98.88
361.39	86.88
361.616	78.88
361.843	93.88
362.07	89.88
362.296	95.88
362.523	103.88
362.749	114.88
362.976	102.88
363.203	118.88
363.429	103.88
363.656	106.88
363.882	109.88
364.109	112.88
364.335	133.88
364.562	140.88
364.788	104.88
365.015	102.88
365.241	91.88
365.468	81.88
365.694	91.88
365.92	89.88
366.147	76.88
366.373	84.88
366.599	79.88
366.826	95.88
367.052	91.88
367.278	93.88
367.505	78.88
367.731	85.88
367.957	77.88
368.184	82.88
368.41	94.88
368.636	95.88
368.862	103.88
369.089	94.88
369.315	89.88
369.541	83.88
369.767	94.88
369.993	80.88
370.219	77.88
370.445	102.88
370.672	78.88
370.898	86.88
371.124	78.88
371.35	92.88
371.576	89.88
371.802	79.88
372.028	87.88
372.254	79.88
372.48	87.88
372.706	93.88
372.932	93.88
373.158	86.88
373.384	102.88
373.61	93.88
373.835	79.88
374.061	83.88
374.287	85.88
374.513	103.88
374.739	89.88
374.965	91.88
375.191	91.88
375.416	95.88
375.642	84.88
375.868	94.88
376.094	90.88
376.319	90.88
376.545	103.88
376.771	94.88
376.997	71.88
377.222	82.88
377.448	91.88
377.674	93.88
377.899	88.88
378.125	98.88
378.35	91.88
378.576	77.88
378.802	93.88
379.027	81.88
379.253	92.88
379.478	85.88
379.704	92.88
379.929	91.88
380.155	92.88
380.38	84.88
380.606	87.88
380.831	90.88
381.057	94.88
381.282	74.88
381.507	80.88
381.733	93.88
381.958	87.88
382.184	98.88
382.409	93.88
382.634	106.88
382.86	97.88
383.085	101.88
383.31	93.88
383.535	80.88
383.761	89.88
383.986	89.88
384.211	87.88
384.436	83.88
384.662	87.88
384.887	81.88
385.112	72.88
385.337	91.88
385.562	93.88
385.787	106.88
386.013	97.88
386.238	88.88
386.463	84.88
386.688	109.88
386.913	97.88
387.138	98.88
387.363	94.88
387.588	100.88
387.813	94.88
388.038	101.88
388.263	101.88
388.488	90.88
388.713	89.88
388.938	94.88
389.163	91.88
389.387	94.88
389.612	103.88
389.837	100.88
390.062	92.88
390.287	78.88
390.512	93.88
390.736	102.88
390.961	89.88
391.186	106.88
391.411	85.88
391.636	89.88
391.86	95.88
392.085	84.88
392.31	105.88
392.534	85.88
392.759	111.88
392.984	134.88
393.208	165.88
393.433	229.88
393.658	178.88
393.882	108.88
394.107	105.88
394.331	117.88
394.556	107.88
394.78	101.88
395.005	89.88
395.229	93.88
395.454	99.88
395.678	108.88
395.903	116.88
396.127	123.88
396.352	120.88
396.576	129.88
396.801	170.88
397.025	193.88
397.249	135.88
397.474	123.88
397.698	93.88
397.922	97.88
398.147	95.88
398.371	76.88
398.595	100.88
398.82	98.88
399.044	83.88
399.268	98.88
399.492	88.88
399.717	82.88
399.941	94.88
400.165	98.88
400.389	104.88
400.613	82.88
400.837	91.88
401.062	107.88
401.286	89.88
401.51	82.88
401.734	101.88
401.958	98.88
402.182	87.88
402.406	97.88
402.63	91.88
402.854	94.88
403.078	83.88
403.302	82.88
403.526	81.88
403.75	92.88
403.974	87.88
404.198	89.88
404.422	106.88
404.645	110.88
404.869	97.88
405.093	98.88
405.317	99.88
405.541	86.88
405.765	87.88
405.988	88.88
406.212	107.88
406.436	97.88
406.66	98.88
406.883	89.88
407.107	82.88
407.331	87.88
407.555	99.88
407.778	90.88
408.002	104.88
408.226	80.88
408.449	92.88
408.673	83.88
408.896	89.88
409.12	89.88
409.344	100.88
409.567	101.88
409.791	113.88
410.014	99.88
410.238	102.88
410.461	97.88
410.685	91.88
410.908	90.88
411.132	89.88
411.355	93.88
411.578	101.88
411.802	85.88
412.025	80.88
412.249	96.88
412.472	102.88
412.695	98.88
412.919	87.88
413.142	89.88
413.365	93.88
413.589	90.88
413.812	82.88
414.035	86.88
414.258	86.88
414.482	77.88
414.705	80.88
414.928	90.88
415.151	100.88
415.374	85.88
415.597	92.88
415.821	79.88
416.044	82.88
416.267	83.88
416.49	79.88
416.713	88.88
416.936	78.88
417.159	105.88
417.382	85.88
417.605	95.88
417.828	93.88
418.051	93.88
418.274	88.88
418.497	99.88
418.72	100.88
418.943	91.88
419.166	88.88
419.389	97.88
419.611	97.88
419.834	81.88
420.057	98.88
420.28	108.88
420.503	82.88
420.726	117.88
420.948	85.88
421.171	116.88
421.394	115.88
421.617	117.88
421.839	136.88
422.062	144.88
422.285	174.88
422.507	258.88
422.73	294.88
422.953	287.88
423.175	226.88
423.398	149.88
423.621	131.88
423.843	110.88
424.066	113.88
424.288	99.88
424.511	107.88
424.733	105.88
424.956	84.88
425.178	95.88
425.401	89.88
425.623	94.88
425.846	98.88
426.068	90.88
426.291	94.88
426.513	79.88
426.735	84.88
426.958	85.88
427.18	79.88
427.402	94.88
427.625	99.88
427.847	113.88
428.069	117.88
428.292	122.88
428.514	144.88
428.736	112.88
428.958	127.88
429.181	123.88
429.403	95.88
429.625	103.88
429.847	110.88
430.069	152.88
430.292	162.88
430.514	156.88
430.736	135.88
430.958	140.88
431.18	99.88
431.402	87.88
431.624	106.88
431.846	118.88
432.068	125.88
432.29	95.88
432.512	96.88
432.734	91.88
432.956	86.88
433.178	93.88
433.4	88.88
433.622	78.88
433.844	98.88
434.066	88.88
434.287	80.88
434.509	84.88
434.731	102.88
434.953	87.88
435.175	88.88
435.397	87.88
435.618	107.88
435.84	95.88
436.062	107.88
436.284	85.88
436.505	105.88
436.727	85.88
436.949	82.88
437.17	85.88
437.392	83.88
437.614	86.88
437.835	85.88
438.057	91.88
438.278	92.88
438.5	92.88
438.721	96.88
438.943	94.88
439.165	81.88
439.386	87.88
439.608	91.88
439.829	95.88
440.05	101.88
440.272	94.88
440.493	95.88
440.715	89.88
440.936	94.88
441.158	92.88
441.379	85.88
441.6	95.88
441.822	101.88
442.043	104.88
442.264	105.88
442.486	123.88
442.707	161.88
442.928	123.88
443.149	107.88
443.371	157.88
443.592	221.88
443.813	200.88
444.034	111.88
444.255	109.88
444.476	89.88
444.698	96.88
444.919	89.88
445.14	197.88
445.361	179.88
445.582	235.88
445.803	215.88
446.024	115.88
446.245	103.88
446.466	99.88
446.687	93.88
446.908	93.88
447.129	69.88
447.35	74.88
447.571	85.88
447.792	75.88
448.013	85.88
448.234	97.88
448.455	87.88
448.675	88.88
448.896	85.88
449.117	98.88
449.338	86.88
449.559	98.88
449.779	93.88
450	83.88
450.221	109.88
450.442	96.88
450.662	72.88
450.883	92.88
451.104	81.88
451.324	77.88
451.545	84.88
451.766	99.88
451.986	82.88
452.207	93.88
452.428	83.88
452.648	92.88
452.869	113.88
453.089	101.88
453.31	95.88
453.53	92.88
453.751	90.88
453.971	84.88
454.192	65.88
454.412	78.88
454.633	85.88
454.853	102.88
455.073	82.88
455.294	83.88
455.514	90.88
455.734	89.88
455.955	78.88
456.175	85.88
456.395	91.88
456.616	82.88
456.836	85.88
457.056	95.88
457.276	86.88
457.497	97.88
457.717	81.88
457.937	114.88
458.157	131.88
458.377	138.88
458.598	124.88
458.818	129.88
459.038	94.88
459.258	97.88
459.478	90.88
459.698	78.88
459.918	85.88
460.138	94.88
460.358	93.88
460.578	99.88
460.798	116.88
461.018	131.88
461.238	82.88
461.458	88.88
461.678	94.88
461.898	94.88
462.118	101.88
462.338	87.88
462.558	93.88
462.777	96.88
462.997	97.88
463.217	78.88
463.437	77.88
463.657	87.88
463.876	84.88
464.096	86.88
464.316	87.88
464.536	86.88
464.755	94.88
464.975	105.88
465.195	77.88
465.414	82.88
465.634	76.88
465.854	76.88
466.073	91.88
466.293	97.88
466.512	89.88
466.732	88.88
466.951	96.88
467.171	97.88
467.391	90.88
467.61	96.88
467.829	94.88
468.049	75.88
468.268	102.88
468.488	97.88
468.707	105.88
468.927	81.88
469.146	95.88
469.365	87.88
469.585	91.88
469.804	93.88
470.023	83.88
470.243	93.88
470.462	99.88
470.681	88.88
470.901	75.88
471.12	87.88
471.339	83.88
471.558	90.88
471.777	79.88
471.997	94.88
472.216	85.88
472.435	88.88
472.654	97.88
472.873	94.88
473.092	86.88
473.311	85.88
473.53	74.88
473.749	78.88
473.968	87.88
474.187	97.88
474.406	80.88
474.625	102.88
474.844	85.88
475.063	89.88
475.282	78.88
475.501	97.88
475.72	90.88
475.939	91.88
476.158	79.88
476.377	82.88
476.596	83.88
476.814	95.88
477.033	82.88
477.252	74.88
477.471	73.88
477.69	84.88
477.908	67.88
478.127	86.88
478.346	101.88
478.564	92.88
478.783	90.88
479.002	77.88
479.22	71.88
479.439	86.88
479.658	93.88
479.876	77.88
480.095	101.88
480.313	77.88
480.532	87.88
480.751	93.88
480.969	89.88
481.188	109.88
481.406	82.88
481.624	82.88
481.843	89.88
482.061	83.88
482.28	90.88
482.498	99.88
482.717	92.88
482.935	85.88
483.153	94.88
483.372	89.88
483.59	89.88
483.808	101.88
484.027	84.88
484.245	97.88
484.463	87.88
484.681	94.88
484.9	90.88
485.118	99.88
485.336	101.88
485.554	98.88
485.772	84.88
485.99	93.88
486.209	83.88
486.427	83.88
486.645	94.88
486.863	94.88
487.081	87.88
487.299	102.88
487.517	107.88
487.735	117.88
487.953	197.88
488.171	165.88
488.389	95.88
488.607	94.88
488.825	99.88
489.043	93.88
489.261	77.88
489.479	92.88
489.696	90.88
489.914	82.88
490.132	108.88
490.35	93.88
490.568	85.88
490.786	86.88
491.003	105.88
491.221	93.88
491.439	106.88
491.657	79.88
491.874	77.88
492.092	81.88
492.31	85.88
492.527	73.88
492.745	102.88
492.963	80.88
493.18	86.88
493.398	105.88
493.615	93.88
493.833	91.88
494.05	91.88
494.268	86.88
494.485	87.88
494.703	90.88
494.92	72.88
495.138	78.88
495.355	95.88
495.573	94.88
495.79	90.88
496.008	89.88
496.225	97.88
496.442	97.88
496.66	86.88
496.877	79.88
497.094	99.88
497.312	98.88
497.529	95.88
497.746	106.88
497.963	84.88
498.181	94.88
498.398	108.88
498.615	90.88
498.832	81.88
499.049	91.88
499.267	101.88
499.484	89.88
499.701	105.88
499.918	94.88
500.135	101.88
500.352	97.88
500.569	90.88
500.786	95.88
501.003	108.88
501.22	75.88
501.437	79.88
501.654	97.88
501.871	92.88
502.088	91.88
502.305	90.88
502.522	87.88
502.739	101.88
502.956	79.88
503.172	76.88
503.389	77.88
503.606	75.88
503.823	95.88
504.04	111.88
504.256	153.88
504.473	140.88
504.69	115.88
504.907	101.88
505.123	93.88
505.34	77.88
505.557	105.88
505.773	89.88
505.99	82.88
506.207	71.88
506.423	99.88
506.64	98.88
506.856	94.88
507.073	90.88
507.289	74.88
507.506	92.88
507.722	93.88
507.939	82.88
508.155	73.88
508.372	90.88
508.588	77.88
508.805	89.88
509.021	99.88
509.238	100.88
509.454	85.88
509.67	95.88
509.887	83.88
510.103	88.88
510.319	86.88
510.536	95.88
510.752	94.88
510.968	92.88
511.184	84.88
511.401	87.88
511.617	91.88
511.833	91.88
512.049	86.88
512.265	91.88
512.481	85.88
512.698	106.88
512.914	86.88
513.13	83.88
513.346	90.88
513.562	102.88
513.778	80.88
513.994	93.88
514.21	85.88
514.426	91.88
514.642	85.88
514.858	85.88
515.074	93.88
515.29	92.88
515.506	79.88
515.721	87.88
515.937	95.88
516.153	85.88
516.369	92.88
516.585	103.88
516.801	99.88
517.016	97.88
517.232	106.88
517.448	92.88
