Data from 2145_2_HRD10591_00026.txt Node
Date: Mon Jan 19 14:22:15 EST 2026
User: Yrep
Spectrometer: HR+D1059
Trigger mode: 1
Integration Time (sec): 1.000000E-1
Scans to average: 1
Electric dark correction enabled: true
Nonlinearity correction enabled: false
Boxcar width: 0
XAxis mode: Wavelengths
Number of Pixels in Spectrum: 2048
>>>>>Begin Spectral Data<<<<<
223.165	-11.19
223.4	-11.19
223.635	-11.19
223.869	-17.19
224.104	-19.19
224.338	-9.19
224.573	-15.19
224.808	-27.19
225.042	1.81
225.277	-8.19
225.511	8.81
225.746	5.81
225.98	2.81
226.215	4.81
226.449	16.81
226.683	12.81
226.918	18.81
227.152	34.81
227.387	50.81
227.621	32.81
227.856	34.81
228.09	43.81
228.324	53.81
228.559	54.81
228.793	46.81
229.027	55.81
229.262	56.81
229.496	63.81
229.73	82.81
229.964	69.81
230.199	60.81
230.433	72.81
230.667	82.81
230.901	66.81
231.136	67.81
231.37	72.81
231.604	70.81
231.838	85.81
232.072	76.81
232.306	82.81
232.541	74.81
232.775	82.81
233.009	84.81
233.243	92.81
233.477	75.81
233.711	88.81
233.945	85.81
234.179	84.81
234.413	86.81
234.647	84.81
234.881	85.81
235.115	85.81
235.349	87.81
235.583	77.81
235.817	82.81
236.051	78.81
236.285	72.81
236.519	74.81
236.753	68.81
236.987	67.81
237.221	72.81
237.455	73.81
237.689	68.81
237.922	68.81
238.156	74.81
238.39	68.81
238.624	71.81
238.858	64.81
239.091	74.81
239.325	66.81
239.559	84.81
239.793	83.81
240.027	80.81
240.26	71.81
240.494	90.81
240.728	84.81
240.961	67.81
241.195	72.81
241.429	68.81
241.662	83.81
241.896	70.81
242.13	75.81
242.363	80.81
242.597	83.81
242.83	61.81
243.064	72.81
243.298	91.81
243.531	80.81
243.765	86.81
243.998	79.81
244.232	74.81
244.465	73.81
244.699	91.81
244.932	76.81
245.166	80.81
245.399	60.81
245.633	80.81
245.866	82.81
246.099	67.81
246.333	70.81
246.566	73.81
246.8	80.81
247.033	86.81
247.266	74.81
247.5	72.81
247.733	76.81
247.966	67.81
248.2	71.81
248.433	86.81
248.666	95.81
248.899	76.81
249.133	80.81
249.366	73.81
249.599	78.81
249.832	80.81
250.066	79.81
250.299	79.81
250.532	79.81
250.765	92.81
250.998	87.81
251.231	76.81
251.465	80.81
251.698	86.81
251.931	68.81
252.164	73.81
252.397	82.81
252.63	66.81
252.863	75.81
253.096	70.81
253.329	80.81
253.562	58.81
253.795	77.81
254.028	64.81
254.261	77.81
254.494	64.81
254.727	74.81
254.96	83.81
255.193	81.81
255.426	96.81
255.659	73.81
255.892	70.81
256.124	68.81
256.357	78.81
256.59	72.81
256.823	76.81
257.056	74.81
257.289	75.81
257.521	76.81
257.754	72.81
257.987	80.81
258.22	90.81
258.452	81.81
258.685	65.81
258.918	87.81
259.151	94.81
259.383	59.81
259.616	80.81
259.849	75.81
260.081	76.81
260.314	83.81
260.547	70.81
260.779	89.81
261.012	73.81
261.244	74.81
261.477	78.81
261.71	88.81
261.942	79.81
262.175	87.81
262.407	82.81
262.64	94.81
262.872	83.81
263.105	68.81
263.337	78.81
263.57	68.81
263.802	82.81
264.035	89.81
264.267	93.81
264.499	82.81
264.732	68.81
264.964	78.81
265.197	83.81
265.429	73.81
265.661	74.81
265.894	74.81
266.126	80.81
266.358	76.81
266.591	89.81
266.823	85.81
267.055	76.81
267.287	95.81
267.52	90.81
267.752	82.81
267.984	77.81
268.216	80.81
268.448	79.81
268.681	86.81
268.913	64.81
269.145	75.81
269.377	83.81
269.609	67.81
269.841	75.81
270.073	79.81
270.306	86.81
270.538	78.81
270.77	84.81
271.002	79.81
271.234	93.81
271.466	88.81
271.698	84.81
271.93	69.81
272.162	77.81
272.394	87.81
272.626	86.81
272.858	78.81
273.09	90.81
273.322	69.81
273.553	81.81
273.785	81.81
274.017	69.81
274.249	78.81
274.481	96.81
274.713	80.81
274.945	85.81
275.176	80.81
275.408	76.81
275.64	84.81
275.872	78.81
276.104	96.81
276.335	70.81
276.567	68.81
276.799	86.81
277.031	88.81
277.262	94.81
277.494	76.81
277.726	86.81
277.957	84.81
278.189	75.81
278.421	68.81
278.652	71.81
278.884	70.81
279.115	71.81
279.347	75.81
279.579	79.81
279.81	74.81
280.042	88.81
280.273	80.81
280.505	95.81
280.736	76.81
280.968	78.81
281.199	85.81
281.431	98.81
281.662	84.81
281.894	77.81
282.125	76.81
282.356	92.81
282.588	83.81
282.819	84.81
283.051	75.81
283.282	94.81
283.513	92.81
283.745	98.81
283.976	78.81
284.207	81.81
284.439	86.81
284.67	75.81
284.901	79.81
285.132	92.81
285.364	62.81
285.595	74.81
285.826	83.81
286.057	79.81
286.288	83.81
286.52	92.81
286.751	91.81
286.982	90.81
287.213	95.81
287.444	90.81
287.675	86.81
287.906	84.81
288.138	88.81
288.369	84.81
288.6	82.81
288.831	75.81
289.062	71.81
289.293	86.81
289.524	80.81
289.755	76.81
289.986	70.81
290.217	78.81
290.448	63.81
290.679	82.81
290.91	83.81
291.141	82.81
291.371	84.81
291.602	86.81
291.833	96.81
292.064	80.81
292.295	79.81
292.526	70.81
292.757	80.81
292.987	86.81
293.218	98.81
293.449	76.81
293.68	82.81
293.91	80.81
294.141	78.81
294.372	72.81
294.603	80.81
294.833	76.81
295.064	84.81
295.295	71.81
295.525	73.81
295.756	86.81
295.987	89.81
296.217	90.81
296.448	87.81
296.679	83.81
296.909	81.81
297.14	72.81
297.37	96.81
297.601	82.81
297.831	85.81
298.062	85.81
298.292	75.81
298.523	80.81
298.753	88.81
298.984	75.81
299.214	80.81
299.445	70.81
299.675	78.81
299.905	91.81
300.136	91.81
300.366	89.81
300.597	86.81
300.827	82.81
301.057	81.81
301.288	88.81
301.518	90.81
301.748	88.81
301.979	102.81
302.209	85.81
302.439	87.81
302.669	85.81
302.9	73.81
303.13	76.81
303.36	84.81
303.59	69.81
303.82	87.81
304.051	90.81
304.281	82.81
304.511	84.81
304.741	83.81
304.971	80.81
305.201	89.81
305.431	94.81
305.661	80.81
305.891	86.81
306.121	78.81
306.352	82.81
306.582	99.81
306.812	92.81
307.042	84.81
307.272	81.81
307.502	91.81
307.731	87.81
307.961	98.81
308.191	100.81
308.421	87.81
308.651	81.81
308.881	82.81
309.111	89.81
309.341	75.81
309.571	71.81
309.8	95.81
310.03	96.81
310.26	81.81
310.49	71.81
310.72	82.81
310.949	91.81
311.179	82.81
311.409	72.81
311.639	77.81
311.868	81.81
312.098	88.81
312.328	82.81
312.557	98.81
312.787	71.81
313.017	89.81
313.246	82.81
313.476	86.81
313.706	84.81
313.935	70.81
314.165	86.81
314.394	81.81
314.624	91.81
314.853	77.81
315.083	74.81
315.312	77.81
315.542	76.81
315.771	74.81
316.001	86.81
316.23	88.81
316.46	86.81
316.689	83.81
316.919	78.81
317.148	84.81
317.377	80.81
317.607	62.81
317.836	74.81
318.065	90.81
318.295	94.81
318.524	80.81
318.753	82.81
318.983	85.81
319.212	89.81
319.441	87.81
319.67	90.81
319.9	98.81
320.129	84.81
320.358	97.81
320.587	92.81
320.816	81.81
321.046	92.81
321.275	101.81
321.504	77.81
321.733	86.81
321.962	84.81
322.191	90.81
322.42	100.81
322.649	88.81
322.878	80.81
323.108	84.81
323.337	79.81
323.566	89.81
323.795	73.81
324.024	74.81
324.253	89.81
324.482	86.81
324.71	86.81
324.939	89.81
325.168	88.81
325.397	83.81
325.626	77.81
325.855	98.81
326.084	82.81
326.313	92.81
326.542	91.81
326.77	71.81
326.999	88.81
327.228	85.81
327.457	84.81
327.686	79.81
327.914	76.81
328.143	86.81
328.372	88.81
328.6	72.81
328.829	93.81
329.058	88.81
329.287	83.81
329.515	73.81
329.744	87.81
329.972	91.81
330.201	83.81
330.43	76.81
330.658	93.81
330.887	86.81
331.115	90.81
331.344	76.81
331.572	76.81
331.801	77.81
332.03	92.81
332.258	77.81
332.486	76.81
332.715	75.81
332.943	95.81
333.172	93.81
333.4	100.81
333.629	80.81
333.857	101.81
334.085	104.81
334.314	90.81
334.542	63.81
334.771	80.81
334.999	83.81
335.227	94.81
335.455	88.81
335.684	92.81
335.912	98.81
336.14	96.81
336.369	77.81
336.597	86.81
336.825	97.81
337.053	80.81
337.281	97.81
337.51	86.81
337.738	69.81
337.966	89.81
338.194	76.81
338.422	90.81
338.65	84.81
338.878	97.81
339.106	84.81
339.334	89.81
339.562	94.81
339.79	81.81
340.018	75.81
340.246	89.81
340.474	71.81
340.702	82.81
340.93	75.81
341.158	74.81
341.386	81.81
341.614	91.81
341.842	74.81
342.07	79.81
342.298	88.81
342.526	74.81
342.754	83.81
342.981	73.81
343.209	97.81
343.437	97.81
343.665	81.81
343.893	74.81
344.12	89.81
344.348	71.81
344.576	93.81
344.804	91.81
345.031	67.81
345.259	76.81
345.487	80.81
345.714	75.81
345.942	81.81
346.17	82.81
346.397	82.81
346.625	85.81
346.853	76.81
347.08	78.81
347.308	82.81
347.535	83.81
347.763	82.81
347.99	86.81
348.218	92.81
348.445	72.81
348.673	75.81
348.9	87.81
349.128	97.81
349.355	79.81
349.583	82.81
349.81	97.81
350.037	70.81
350.265	78.81
350.492	78.81
350.72	74.81
350.947	77.81
351.174	86.81
351.402	84.81
351.629	97.81
351.856	76.81
352.083	86.81
352.311	78.81
352.538	84.81
352.765	74.81
352.992	74.81
353.22	67.81
353.447	78.81
353.674	84.81
353.901	84.81
354.128	83.81
354.355	82.81
354.583	101.81
354.81	76.81
355.037	82.81
355.264	73.81
355.491	79.81
355.718	87.81
355.945	83.81
356.172	85.81
356.399	78.81
356.626	91.81
356.853	77.81
357.08	77.81
357.307	77.81
357.534	90.81
357.761	75.81
357.988	68.81
358.215	92.81
358.441	82.81
358.668	80.81
358.895	84.81
359.122	75.81
359.349	57.81
359.576	82.81
359.802	71.81
360.029	75.81
360.256	79.81
360.483	82.81
360.709	90.81
360.936	85.81
361.163	87.81
361.39	78.81
361.616	71.81
361.843	84.81
362.07	80.81
362.296	90.81
362.523	92.81
362.749	76.81
362.976	95.81
363.203	85.81
363.429	82.81
363.656	92.81
363.882	96.81
364.109	95.81
364.335	99.81
364.562	91.81
364.788	90.81
365.015	103.81
365.241	74.81
365.468	91.81
365.694	86.81
365.92	94.81
366.147	79.81
366.373	70.81
366.599	82.81
366.826	88.81
367.052	84.81
367.278	80.81
367.505	80.81
367.731	87.81
367.957	84.81
368.184	87.81
368.41	83.81
368.636	76.81
368.862	90.81
369.089	71.81
369.315	80.81
369.541	87.81
369.767	80.81
369.993	87.81
370.219	79.81
370.445	81.81
370.672	84.81
370.898	78.81
371.124	83.81
371.35	79.81
371.576	55.81
371.802	80.81
372.028	89.81
372.254	95.81
372.48	86.81
372.706	90.81
372.932	68.81
373.158	71.81
373.384	84.81
373.61	72.81
373.835	94.81
374.061	82.81
374.287	80.81
374.513	95.81
374.739	81.81
374.965	92.81
375.191	90.81
375.416	76.81
375.642	95.81
375.868	94.81
376.094	70.81
376.319	73.81
376.545	81.81
376.771	86.81
376.997	84.81
377.222	93.81
377.448	81.81
377.674	83.81
377.899	76.81
378.125	71.81
378.35	108.81
378.576	88.81
378.802	76.81
379.027	81.81
379.253	88.81
379.478	82.81
379.704	84.81
379.929	78.81
380.155	66.81
380.38	84.81
380.606	77.81
380.831	80.81
381.057	83.81
381.282	66.81
381.507	75.81
381.733	81.81
381.958	77.81
382.184	86.81
382.409	87.81
382.634	74.81
382.86	78.81
383.085	99.81
383.31	87.81
383.535	89.81
383.761	96.81
383.986	90.81
384.211	83.81
384.436	83.81
384.662	72.81
384.887	90.81
385.112	62.81
385.337	80.81
385.562	73.81
385.787	82.81
386.013	90.81
386.238	86.81
386.463	57.81
386.688	87.81
386.913	79.81
387.138	84.81
387.363	86.81
387.588	95.81
387.813	90.81
388.038	74.81
388.263	82.81
388.488	83.81
388.713	82.81
388.938	95.81
389.163	88.81
389.387	83.81
389.612	85.81
389.837	70.81
390.062	74.81
390.287	79.81
390.512	74.81
390.736	82.81
390.961	85.81
391.186	82.81
391.411	92.81
391.636	74.81
391.86	68.81
392.085	94.81
392.31	90.81
392.534	80.81
392.759	89.81
392.984	92.81
393.208	114.81
393.433	136.81
393.658	108.81
393.882	99.81
394.107	73.81
394.331	88.81
394.556	106.81
394.78	84.81
395.005	90.81
395.229	94.81
395.454	87.81
395.678	90.81
395.903	101.81
396.127	96.81
396.352	88.81
396.576	93.81
396.801	126.81
397.025	120.81
397.249	107.81
397.474	105.81
397.698	86.81
397.922	84.81
398.147	90.81
398.371	83.81
398.595	72.81
398.82	77.81
399.044	80.81
399.268	67.81
399.492	84.81
399.717	82.81
399.941	92.81
400.165	76.81
400.389	69.81
400.613	84.81
400.837	74.81
401.062	63.81
401.286	81.81
401.51	93.81
401.734	81.81
401.958	83.81
402.182	93.81
402.406	87.81
402.63	82.81
402.854	77.81
403.078	72.81
403.302	81.81
403.526	89.81
403.75	83.81
403.974	77.81
404.198	68.81
404.422	72.81
404.645	86.81
404.869	90.81
405.093	79.81
405.317	84.81
405.541	89.81
405.765	88.81
405.988	86.81
406.212	68.81
406.436	84.81
406.66	85.81
406.883	94.81
407.107	75.81
407.331	64.81
407.555	84.81
407.778	76.81
408.002	93.81
408.226	83.81
408.449	80.81
408.673	89.81
408.896	82.81
409.12	75.81
409.344	86.81
409.567	92.81
409.791	85.81
410.014	80.81
410.238	92.81
410.461	78.81
410.685	82.81
410.908	86.81
411.132	79.81
411.355	72.81
411.578	82.81
411.802	66.81
412.025	83.81
412.249	76.81
412.472	76.81
412.695	78.81
412.919	82.81
413.142	82.81
413.365	68.81
413.589	72.81
413.812	87.81
414.035	83.81
414.258	81.81
414.482	87.81
414.705	86.81
414.928	91.81
415.151	91.81
415.374	92.81
415.597	87.81
415.821	79.81
416.044	78.81
416.267	77.81
416.49	88.81
416.713	78.81
416.936	70.81
417.159	67.81
417.382	76.81
417.605	81.81
417.828	88.81
418.051	72.81
418.274	80.81
418.497	78.81
418.72	75.81
418.943	86.81
419.166	72.81
419.389	82.81
419.611	72.81
419.834	84.81
420.057	70.81
420.28	84.81
420.503	86.81
420.726	85.81
420.948	67.81
421.171	80.81
421.394	104.81
421.617	94.81
421.839	91.81
422.062	99.81
422.285	99.81
422.507	151.81
422.73	181.81
422.953	166.81
423.175	129.81
423.398	106.81
423.621	108.81
423.843	93.81
424.066	87.81
424.288	82.81
424.511	76.81
424.733	87.81
424.956	78.81
425.178	95.81
425.401	89.81
425.623	79.81
425.846	84.81
426.068	91.81
426.291	71.81
426.513	84.81
426.735	86.81
426.958	82.81
427.18	99.81
427.402	84.81
427.625	70.81
427.847	79.81
428.069	87.81
428.292	91.81
428.514	103.81
428.736	89.81
428.958	93.81
429.181	106.81
429.403	79.81
429.625	83.81
429.847	93.81
430.069	106.81
430.292	114.81
430.514	114.81
430.736	91.81
430.958	105.81
431.18	76.81
431.402	85.81
431.624	72.81
431.846	80.81
432.068	84.81
432.29	87.81
432.512	87.81
432.734	82.81
432.956	79.81
433.178	85.81
433.4	80.81
433.622	81.81
433.844	86.81
434.066	65.81
434.287	73.81
434.509	81.81
434.731	94.81
434.953	79.81
435.175	78.81
435.397	69.81
435.618	86.81
435.84	95.81
436.062	81.81
436.284	79.81
436.505	83.81
436.727	87.81
436.949	100.81
437.17	89.81
437.392	70.81
437.614	70.81
437.835	76.81
438.057	81.81
438.278	83.81
438.5	87.81
438.721	84.81
438.943	85.81
439.165	62.81
439.386	82.81
439.608	82.81
439.829	79.81
440.05	88.81
440.272	96.81
440.493	80.81
440.715	70.81
440.936	86.81
441.158	83.81
441.379	87.81
441.6	85.81
441.822	78.81
442.043	94.81
442.264	82.81
442.486	103.81
442.707	117.81
442.928	101.81
443.149	84.81
443.371	100.81
443.592	143.81
443.813	115.81
444.034	89.81
444.255	106.81
444.476	72.81
444.698	86.81
444.919	84.81
445.14	194.81
445.361	137.81
445.582	148.81
445.803	131.81
446.024	94.81
446.245	93.81
446.466	83.81
446.687	78.81
446.908	84.81
447.129	87.81
447.35	65.81
447.571	87.81
447.792	86.81
448.013	87.81
448.234	84.81
448.455	83.81
448.675	75.81
448.896	74.81
449.117	77.81
449.338	73.81
449.559	80.81
449.779	77.81
450	76.81
450.221	69.81
450.442	80.81
450.662	84.81
450.883	73.81
451.104	100.81
451.324	87.81
451.545	84.81
451.766	80.81
451.986	91.81
452.207	79.81
452.428	88.81
452.648	90.81
452.869	96.81
453.089	91.81
453.31	74.81
453.53	76.81
453.751	81.81
453.971	84.81
454.192	89.81
454.412	73.81
454.633	76.81
454.853	68.81
455.073	69.81
455.294	62.81
455.514	86.81
455.734	79.81
455.955	70.81
456.175	67.81
456.395	75.81
456.616	78.81
456.836	86.81
457.056	80.81
457.276	88.81
457.497	76.81
457.717	84.81
457.937	92.81
458.157	104.81
458.377	98.81
458.598	98.81
458.818	90.81
459.038	97.81
459.258	78.81
459.478	90.81
459.698	84.81
459.918	88.81
460.138	72.81
460.358	75.81
460.578	82.81
460.798	92.81
461.018	106.81
461.238	101.81
461.458	78.81
461.678	80.81
461.898	87.81
462.118	95.81
462.338	78.81
462.558	82.81
462.777	92.81
462.997	77.81
463.217	88.81
463.437	82.81
463.657	74.81
463.876	71.81
464.096	68.81
464.316	89.81
464.536	66.81
464.755	86.81
464.975	72.81
465.195	75.81
465.414	88.81
465.634	87.81
465.854	84.81
466.073	77.81
466.293	84.81
466.512	84.81
466.732	83.81
466.951	90.81
467.171	84.81
467.391	68.81
467.61	82.81
467.829	72.81
468.049	80.81
468.268	102.81
468.488	80.81
468.707	90.81
468.927	74.81
469.146	65.81
469.365	82.81
469.585	85.81
469.804	74.81
470.023	75.81
470.243	88.81
470.462	94.81
470.681	81.81
470.901	95.81
471.12	88.81
471.339	72.81
471.558	86.81
471.777	73.81
471.997	90.81
472.216	102.81
472.435	73.81
472.654	84.81
472.873	88.81
473.092	62.81
473.311	85.81
473.53	84.81
473.749	70.81
473.968	78.81
474.187	81.81
474.406	95.81
474.625	98.81
474.844	88.81
475.063	84.81
475.282	77.81
475.501	84.81
475.72	94.81
475.939	74.81
476.158	87.81
476.377	84.81
476.596	89.81
476.814	99.81
477.033	90.81
477.252	82.81
477.471	82.81
477.69	77.81
477.908	81.81
478.127	80.81
478.346	89.81
478.564	86.81
478.783	78.81
479.002	80.81
479.22	80.81
479.439	69.81
479.658	88.81
479.876	81.81
480.095	82.81
480.313	84.81
480.532	77.81
480.751	85.81
480.969	94.81
481.188	76.81
481.406	73.81
481.624	84.81
481.843	74.81
482.061	78.81
482.28	84.81
482.498	87.81
482.717	71.81
482.935	81.81
483.153	86.81
483.372	82.81
483.59	88.81
483.808	97.81
484.027	80.81
484.245	100.81
484.463	89.81
484.681	92.81
484.9	89.81
485.118	91.81
485.336	85.81
485.554	76.81
485.772	97.81
485.99	93.81
486.209	94.81
486.427	94.81
486.645	87.81
486.863	89.81
487.081	99.81
487.299	81.81
487.517	91.81
487.735	88.81
487.953	126.81
488.171	116.81
488.389	86.81
488.607	91.81
488.825	93.81
489.043	85.81
489.261	94.81
489.479	87.81
489.696	92.81
489.914	81.81
490.132	82.81
490.35	82.81
490.568	88.81
490.786	93.81
491.003	88.81
491.221	88.81
491.439	82.81
491.657	72.81
491.874	90.81
492.092	98.81
492.31	86.81
492.527	79.81
492.745	83.81
492.963	88.81
493.18	94.81
493.398	90.81
493.615	80.81
493.833	90.81
494.05	80.81
494.268	93.81
494.485	74.81
494.703	82.81
494.92	98.81
495.138	68.81
495.355	83.81
495.573	81.81
495.79	73.81
496.008	92.81
496.225	77.81
496.442	94.81
496.66	72.81
496.877	72.81
497.094	91.81
497.312	95.81
497.529	90.81
497.746	84.81
497.963	92.81
498.181	80.81
498.398	92.81
498.615	94.81
498.832	86.81
499.049	77.81
499.267	81.81
499.484	85.81
499.701	93.81
499.918	87.81
500.135	98.81
500.352	82.81
500.569	74.81
500.786	87.81
501.003	78.81
501.22	78.81
501.437	83.81
501.654	82.81
501.871	80.81
502.088	85.81
502.305	75.81
502.522	92.81
502.739	100.81
502.956	91.81
503.172	89.81
503.389	86.81
503.606	71.81
503.823	86.81
504.04	96.81
504.256	106.81
504.473	111.81
504.69	95.81
504.907	82.81
505.123	82.81
505.34	77.81
505.557	80.81
505.773	91.81
505.99	84.81
506.207	77.81
506.423	102.81
506.64	97.81
506.856	87.81
507.073	82.81
507.289	60.81
507.506	85.81
507.722	72.81
507.939	92.81
508.155	98.81
508.372	71.81
508.588	73.81
508.805	97.81
509.021	83.81
509.238	82.81
509.454	76.81
509.67	96.81
509.887	92.81
510.103	95.81
510.319	82.81
510.536	88.81
510.752	96.81
510.968	98.81
511.184	93.81
511.401	91.81
511.617	98.81
511.833	90.81
512.049	87.81
512.265	87.81
512.481	85.81
512.698	84.81
512.914	91.81
513.13	87.81
513.346	96.81
513.562	96.81
513.778	94.81
513.994	98.81
514.21	80.81
514.426	87.81
514.642	88.81
514.858	91.81
515.074	83.81
515.29	96.81
515.506	78.81
515.721	82.81
515.937	76.81
516.153	96.81
516.369	69.81
516.585	91.81
516.801	88.81
517.016	73.81
517.232	86.81
517.448	84.81
517.664	96.81
517.879	86.81
518.095	90.81
518.311	88.81
518.527	92.81
518.742	93.81
518.958	120.81
519.173	123.81
519.389	88.81
519.605	82.81
