Data from 2145_2_HRD10591_00033.txt Node
Date: Mon Jan 19 14:22:18 EST 2026
User: Yrep
Spectrometer: HR+D1059
Trigger mode: 1
Integration Time (sec): 1.000000E-1
Scans to average: 1
Electric dark correction enabled: true
Nonlinearity correction enabled: false
Boxcar width: 0
XAxis mode: Wavelengths
Number of Pixels in Spectrum: 2048
>>>>>Begin Spectral Data<<<<<
223.165	-9.12
223.4	-9.12
223.635	-9.12
223.869	-20.12
224.104	-13.12
224.338	-31.12
224.573	-10.12
224.808	-11.12
225.042	-2.12
225.277	-0.12
225.511	2.88
225.746	-2.12
225.98	-4.12
226.215	10.88
226.449	20.88
226.683	16.88
226.918	18.88
227.152	32.88
227.387	42.88
227.621	56.88
227.856	48.88
228.09	50.88
228.324	44.88
228.559	46.88
228.793	66.88
229.027	73.88
229.262	80.88
229.496	76.88
229.73	70.88
229.964	64.88
230.199	65.88
230.433	65.88
230.667	81.88
230.901	88.88
231.136	79.88
231.37	70.88
231.604	77.88
231.838	81.88
232.072	74.88
232.306	86.88
232.541	66.88
232.775	85.88
233.009	82.88
233.243	76.88
233.477	78.88
233.711	83.88
233.945	75.88
234.179	87.88
234.413	77.88
234.647	84.88
234.881	81.88
235.115	90.88
235.349	84.88
235.583	89.88
235.817	75.88
236.051	79.88
236.285	76.88
236.519	72.88
236.753	70.88
236.987	90.88
237.221	72.88
237.455	79.88
237.689	88.88
237.922	69.88
238.156	77.88
238.39	75.88
238.624	72.88
238.858	83.88
239.091	76.88
239.325	72.88
239.559	72.88
239.793	90.88
240.027	86.88
240.26	83.88
240.494	82.88
240.728	86.88
240.961	69.88
241.195	74.88
241.429	74.88
241.662	99.88
241.896	86.88
242.13	67.88
242.363	71.88
242.597	66.88
242.83	83.88
243.064	84.88
243.298	80.88
243.531	84.88
243.765	68.88
243.998	86.88
244.232	88.88
244.465	80.88
244.699	84.88
244.932	77.88
245.166	84.88
245.399	81.88
245.633	95.88
245.866	71.88
246.099	82.88
246.333	78.88
246.566	81.88
246.8	84.88
247.033	70.88
247.266	81.88
247.5	82.88
247.733	90.88
247.966	79.88
248.2	78.88
248.433	70.88
248.666	76.88
248.899	80.88
249.133	81.88
249.366	76.88
249.599	79.88
249.832	58.88
250.066	82.88
250.299	76.88
250.532	81.88
250.765	82.88
250.998	81.88
251.231	84.88
251.465	88.88
251.698	90.88
251.931	73.88
252.164	84.88
252.397	86.88
252.63	70.88
252.863	78.88
253.096	81.88
253.329	83.88
253.562	74.88
253.795	80.88
254.028	94.88
254.261	77.88
254.494	74.88
254.727	88.88
254.96	71.88
255.193	90.88
255.426	70.88
255.659	89.88
255.892	90.88
256.124	76.88
256.357	76.88
256.59	94.88
256.823	91.88
257.056	83.88
257.289	92.88
257.521	79.88
257.754	92.88
257.987	79.88
258.22	73.88
258.452	88.88
258.685	96.88
258.918	85.88
259.151	74.88
259.383	74.88
259.616	77.88
259.849	81.88
260.081	92.88
260.314	80.88
260.547	86.88
260.779	86.88
261.012	78.88
261.244	94.88
261.477	82.88
261.71	83.88
261.942	85.88
262.175	88.88
262.407	82.88
262.64	92.88
262.872	64.88
263.105	87.88
263.337	87.88
263.57	78.88
263.802	94.88
264.035	85.88
264.267	87.88
264.499	69.88
264.732	93.88
264.964	94.88
265.197	76.88
265.429	84.88
265.661	75.88
265.894	76.88
266.126	89.88
266.358	102.88
266.591	78.88
266.823	88.88
267.055	90.88
267.287	79.88
267.52	85.88
267.752	86.88
267.984	89.88
268.216	93.88
268.448	96.88
268.681	84.88
268.913	86.88
269.145	79.88
269.377	86.88
269.609	77.88
269.841	86.88
270.073	86.88
270.306	64.88
270.538	68.88
270.77	87.88
271.002	88.88
271.234	86.88
271.466	97.88
271.698	80.88
271.93	86.88
272.162	74.88
272.394	75.88
272.626	79.88
272.858	79.88
273.09	90.88
273.322	69.88
273.553	94.88
273.785	87.88
274.017	94.88
274.249	80.88
274.481	91.88
274.713	87.88
274.945	91.88
275.176	73.88
275.408	90.88
275.64	81.88
275.872	82.88
276.104	83.88
276.335	81.88
276.567	79.88
276.799	78.88
277.031	84.88
277.262	79.88
277.494	76.88
277.726	79.88
277.957	86.88
278.189	75.88
278.421	77.88
278.652	76.88
278.884	86.88
279.115	82.88
279.347	106.88
279.579	88.88
279.81	98.88
280.042	76.88
280.273	78.88
280.505	94.88
280.736	82.88
280.968	81.88
281.199	92.88
281.431	86.88
281.662	99.88
281.894	86.88
282.125	91.88
282.356	77.88
282.588	85.88
282.819	84.88
283.051	98.88
283.282	95.88
283.513	90.88
283.745	92.88
283.976	83.88
284.207	90.88
284.439	86.88
284.67	81.88
284.901	90.88
285.132	98.88
285.364	90.88
285.595	82.88
285.826	88.88
286.057	72.88
286.288	81.88
286.52	70.88
286.751	94.88
286.982	89.88
287.213	84.88
287.444	91.88
287.675	77.88
287.906	88.88
288.138	80.88
288.369	87.88
288.6	71.88
288.831	83.88
289.062	91.88
289.293	85.88
289.524	78.88
289.755	87.88
289.986	82.88
290.217	90.88
290.448	80.88
290.679	75.88
290.91	90.88
291.141	112.88
291.371	90.88
291.602	96.88
291.833	105.88
292.064	89.88
292.295	94.88
292.526	83.88
292.757	83.88
292.987	88.88
293.218	79.88
293.449	98.88
293.68	90.88
293.91	80.88
294.141	88.88
294.372	90.88
294.603	85.88
294.833	86.88
295.064	77.88
295.295	77.88
295.525	81.88
295.756	82.88
295.987	80.88
296.217	71.88
296.448	90.88
296.679	84.88
296.909	94.88
297.14	79.88
297.37	101.88
297.601	100.88
297.831	89.88
298.062	96.88
298.292	109.88
298.523	87.88
298.753	94.88
298.984	82.88
299.214	89.88
299.445	89.88
299.675	71.88
299.905	98.88
300.136	96.88
300.366	82.88
300.597	96.88
300.827	84.88
301.057	85.88
301.288	97.88
301.518	94.88
301.748	74.88
301.979	93.88
302.209	83.88
302.439	78.88
302.669	88.88
302.9	78.88
303.13	76.88
303.36	94.88
303.59	88.88
303.82	93.88
304.051	84.88
304.281	79.88
304.511	87.88
304.741	86.88
304.971	72.88
305.201	85.88
305.431	83.88
305.661	90.88
305.891	94.88
306.121	85.88
306.352	85.88
306.582	81.88
306.812	69.88
307.042	90.88
307.272	82.88
307.502	84.88
307.731	89.88
307.961	82.88
308.191	98.88
308.421	96.88
308.651	88.88
308.881	97.88
309.111	91.88
309.341	95.88
309.571	81.88
309.8	78.88
310.03	92.88
310.26	78.88
310.49	88.88
310.72	95.88
310.949	87.88
311.179	81.88
311.409	81.88
311.639	93.88
311.868	90.88
312.098	91.88
312.328	98.88
312.557	79.88
312.787	87.88
313.017	86.88
313.246	88.88
313.476	90.88
313.706	84.88
313.935	92.88
314.165	86.88
314.394	82.88
314.624	86.88
314.853	89.88
315.083	86.88
315.312	98.88
315.542	91.88
315.771	112.88
316.001	72.88
316.23	84.88
316.46	98.88
316.689	78.88
316.919	94.88
317.148	82.88
317.377	90.88
317.607	111.88
317.836	86.88
318.065	87.88
318.295	84.88
318.524	87.88
318.753	89.88
318.983	87.88
319.212	94.88
319.441	86.88
319.67	78.88
319.9	92.88
320.129	80.88
320.358	88.88
320.587	90.88
320.816	87.88
321.046	82.88
321.275	74.88
321.504	76.88
321.733	93.88
321.962	90.88
322.191	88.88
322.42	80.88
322.649	90.88
322.878	74.88
323.108	81.88
323.337	90.88
323.566	86.88
323.795	84.88
324.024	98.88
324.253	79.88
324.482	86.88
324.71	89.88
324.939	101.88
325.168	87.88
325.397	78.88
325.626	77.88
325.855	81.88
326.084	95.88
326.313	96.88
326.542	92.88
326.77	91.88
326.999	96.88
327.228	83.88
327.457	88.88
327.686	81.88
327.914	71.88
328.143	73.88
328.372	95.88
328.6	72.88
328.829	87.88
329.058	81.88
329.287	98.88
329.515	80.88
329.744	99.88
329.972	79.88
330.201	99.88
330.43	90.88
330.658	88.88
330.887	94.88
331.115	83.88
331.344	81.88
331.572	79.88
331.801	99.88
332.03	70.88
332.258	89.88
332.486	83.88
332.715	84.88
332.943	82.88
333.172	92.88
333.4	93.88
333.629	89.88
333.857	89.88
334.085	86.88
334.314	95.88
334.542	92.88
334.771	96.88
334.999	90.88
335.227	98.88
335.455	91.88
335.684	98.88
335.912	75.88
336.14	80.88
336.369	94.88
336.597	92.88
336.825	80.88
337.053	83.88
337.281	93.88
337.51	77.88
337.738	88.88
337.966	92.88
338.194	78.88
338.422	117.88
338.65	106.88
338.878	78.88
339.106	84.88
339.334	99.88
339.562	101.88
339.79	88.88
340.018	78.88
340.246	81.88
340.474	88.88
340.702	85.88
340.93	94.88
341.158	90.88
341.386	94.88
341.614	94.88
341.842	90.88
342.07	89.88
342.298	79.88
342.526	83.88
342.754	89.88
342.981	86.88
343.209	84.88
343.437	99.88
343.665	90.88
343.893	88.88
344.12	89.88
344.348	98.88
344.576	82.88
344.804	91.88
345.031	84.88
345.259	85.88
345.487	94.88
345.714	93.88
345.942	80.88
346.17	83.88
346.397	86.88
346.625	84.88
346.853	87.88
347.08	100.88
347.308	93.88
347.535	80.88
347.763	92.88
347.99	86.88
348.218	99.88
348.445	78.88
348.673	80.88
348.9	85.88
349.128	95.88
349.355	85.88
349.583	89.88
349.81	99.88
350.037	93.88
350.265	77.88
350.492	94.88
350.72	88.88
350.947	78.88
351.174	81.88
351.402	82.88
351.629	76.88
351.856	95.88
352.083	80.88
352.311	82.88
352.538	90.88
352.765	91.88
352.992	92.88
353.22	77.88
353.447	80.88
353.674	88.88
353.901	100.88
354.128	88.88
354.355	92.88
354.583	82.88
354.81	80.88
355.037	94.88
355.264	101.88
355.491	90.88
355.718	96.88
355.945	88.88
356.172	75.88
356.399	88.88
356.626	99.88
356.853	92.88
357.08	88.88
357.307	105.88
357.534	88.88
357.761	86.88
357.988	80.88
358.215	89.88
358.441	108.88
358.668	86.88
358.895	71.88
359.122	80.88
359.349	83.88
359.576	92.88
359.802	94.88
360.029	94.88
360.256	87.88
360.483	84.88
360.709	103.88
360.936	93.88
361.163	80.88
361.39	82.88
361.616	84.88
361.843	100.88
362.07	85.88
362.296	94.88
362.523	97.88
362.749	90.88
362.976	100.88
363.203	108.88
363.429	86.88
363.656	91.88
363.882	111.88
364.109	112.88
364.335	120.88
364.562	116.88
364.788	85.88
365.015	94.88
365.241	79.88
365.468	100.88
365.694	70.88
365.92	93.88
366.147	102.88
366.373	82.88
366.599	90.88
366.826	82.88
367.052	79.88
367.278	79.88
367.505	96.88
367.731	94.88
367.957	88.88
368.184	96.88
368.41	92.88
368.636	85.88
368.862	99.88
369.089	79.88
369.315	86.88
369.541	92.88
369.767	103.88
369.993	85.88
370.219	95.88
370.445	96.88
370.672	89.88
370.898	72.88
371.124	78.88
371.35	74.88
371.576	98.88
371.802	91.88
372.028	98.88
372.254	77.88
372.48	76.88
372.706	92.88
372.932	86.88
373.158	86.88
373.384	99.88
373.61	94.88
373.835	88.88
374.061	87.88
374.287	80.88
374.513	99.88
374.739	98.88
374.965	100.88
375.191	88.88
375.416	87.88
375.642	88.88
375.868	95.88
376.094	80.88
376.319	72.88
376.545	82.88
376.771	84.88
376.997	87.88
377.222	78.88
377.448	76.88
377.674	80.88
377.899	82.88
378.125	88.88
378.35	101.88
378.576	87.88
378.802	83.88
379.027	92.88
379.253	102.88
379.478	96.88
379.704	90.88
379.929	92.88
380.155	99.88
380.38	94.88
380.606	80.88
380.831	104.88
381.057	103.88
381.282	90.88
381.507	86.88
381.733	86.88
381.958	89.88
382.184	80.88
382.409	92.88
382.634	88.88
382.86	98.88
383.085	86.88
383.31	86.88
383.535	92.88
383.761	88.88
383.986	95.88
384.211	103.88
384.436	94.88
384.662	86.88
384.887	90.88
385.112	83.88
385.337	75.88
385.562	90.88
385.787	86.88
386.013	96.88
386.238	90.88
386.463	89.88
386.688	100.88
386.913	83.88
387.138	82.88
387.363	87.88
387.588	92.88
387.813	103.88
388.038	98.88
388.263	90.88
388.488	80.88
388.713	102.88
388.938	76.88
389.163	84.88
389.387	93.88
389.612	89.88
389.837	80.88
390.062	93.88
390.287	76.88
390.512	78.88
390.736	90.88
390.961	89.88
391.186	81.88
391.411	84.88
391.636	95.88
391.86	93.88
392.085	92.88
392.31	82.88
392.534	83.88
392.759	108.88
392.984	108.88
393.208	146.88
393.433	158.88
393.658	143.88
393.882	112.88
394.107	98.88
394.331	108.88
394.556	109.88
394.78	107.88
395.005	96.88
395.229	81.88
395.454	90.88
395.678	94.88
395.903	87.88
396.127	90.88
396.352	109.88
396.576	114.88
396.801	136.88
397.025	150.88
397.249	117.88
397.474	112.88
397.698	112.88
397.922	89.88
398.147	76.88
398.371	95.88
398.595	79.88
398.82	101.88
399.044	96.88
399.268	90.88
399.492	84.88
399.717	101.88
399.941	107.88
400.165	93.88
400.389	84.88
400.613	73.88
400.837	90.88
401.062	84.88
401.286	101.88
401.51	94.88
401.734	81.88
401.958	88.88
402.182	84.88
402.406	78.88
402.63	87.88
402.854	80.88
403.078	91.88
403.302	90.88
403.526	90.88
403.75	101.88
403.974	90.88
404.198	98.88
404.422	106.88
404.645	115.88
404.869	109.88
405.093	95.88
405.317	97.88
405.541	104.88
405.765	96.88
405.988	98.88
406.212	106.88
406.436	94.88
406.66	94.88
406.883	84.88
407.107	100.88
407.331	93.88
407.555	78.88
407.778	90.88
408.002	103.88
408.226	85.88
408.449	86.88
408.673	80.88
408.896	79.88
409.12	87.88
409.344	90.88
409.567	109.88
409.791	90.88
410.014	88.88
410.238	89.88
410.461	93.88
410.685	87.88
410.908	76.88
411.132	90.88
411.355	98.88
411.578	83.88
411.802	90.88
412.025	88.88
412.249	81.88
412.472	85.88
412.695	100.88
412.919	86.88
413.142	90.88
413.365	77.88
413.589	88.88
413.812	82.88
414.035	82.88
414.258	86.88
414.482	71.88
414.705	77.88
414.928	90.88
415.151	102.88
415.374	96.88
415.597	89.88
415.821	86.88
416.044	96.88
416.267	83.88
416.49	82.88
416.713	81.88
416.936	96.88
417.159	88.88
417.382	98.88
417.605	92.88
417.828	98.88
418.051	86.88
418.274	80.88
418.497	87.88
418.72	90.88
418.943	87.88
419.166	95.88
419.389	81.88
419.611	94.88
419.834	63.88
420.057	84.88
420.28	99.88
420.503	79.88
420.726	87.88
420.948	101.88
421.171	98.88
421.394	99.88
421.617	106.88
421.839	101.88
422.062	114.88
422.285	148.88
422.507	190.88
422.73	228.88
422.953	246.88
423.175	161.88
423.398	127.88
423.621	100.88
423.843	116.88
424.066	109.88
424.288	86.88
424.511	92.88
424.733	93.88
424.956	96.88
425.178	86.88
425.401	82.88
425.623	86.88
425.846	86.88
426.068	87.88
426.291	89.88
426.513	78.88
426.735	93.88
426.958	92.88
427.18	81.88
427.402	94.88
427.625	86.88
427.847	96.88
428.069	80.88
428.292	110.88
428.514	123.88
428.736	97.88
428.958	115.88
429.181	102.88
429.403	84.88
429.625	96.88
429.847	106.88
430.069	132.88
430.292	148.88
430.514	135.88
430.736	132.88
430.958	103.88
431.18	83.88
431.402	86.88
431.624	91.88
431.846	92.88
432.068	117.88
432.29	79.88
432.512	96.88
432.734	79.88
432.956	111.88
433.178	88.88
433.4	79.88
433.622	90.88
433.844	84.88
434.066	93.88
434.287	102.88
434.509	79.88
434.731	79.88
434.953	96.88
435.175	86.88
435.397	94.88
435.618	86.88
435.84	96.88
436.062	88.88
436.284	98.88
436.505	93.88
436.727	90.88
436.949	80.88
437.17	86.88
437.392	105.88
437.614	84.88
437.835	92.88
438.057	85.88
438.278	94.88
438.5	96.88
438.721	85.88
438.943	86.88
439.165	106.88
439.386	88.88
439.608	89.88
439.829	74.88
440.05	82.88
440.272	73.88
440.493	80.88
440.715	89.88
440.936	78.88
441.158	94.88
441.379	78.88
441.6	94.88
441.822	96.88
442.043	95.88
442.264	100.88
442.486	110.88
442.707	136.88
442.928	100.88
443.149	92.88
443.371	114.88
443.592	164.88
443.813	166.88
444.034	112.88
444.255	90.88
444.476	90.88
444.698	86.88
444.919	86.88
445.14	178.88
445.361	177.88
445.582	202.88
445.803	175.88
446.024	121.88
446.245	93.88
446.466	92.88
446.687	96.88
446.908	96.88
447.129	86.88
447.35	84.88
447.571	99.88
447.792	92.88
448.013	86.88
448.234	100.88
448.455	93.88
448.675	83.88
448.896	83.88
449.117	98.88
449.338	79.88
449.559	84.88
449.779	95.88
450	92.88
450.221	99.88
450.442	78.88
450.662	76.88
450.883	88.88
451.104	82.88
451.324	90.88
451.545	77.88
451.766	87.88
451.986	89.88
452.207	98.88
452.428	94.88
452.648	107.88
452.869	94.88
453.089	96.88
453.31	84.88
453.53	80.88
453.751	91.88
453.971	86.88
454.192	84.88
454.412	87.88
454.633	88.88
454.853	85.88
455.073	85.88
455.294	92.88
455.514	90.88
455.734	95.88
455.955	94.88
456.175	88.88
456.395	93.88
456.616	77.88
456.836	71.88
457.056	89.88
457.276	78.88
457.497	91.88
457.717	98.88
457.937	91.88
458.157	115.88
458.377	110.88
458.598	105.88
458.818	119.88
459.038	82.88
459.258	89.88
459.478	87.88
459.698	89.88
459.918	89.88
460.138	88.88
460.358	88.88
460.578	107.88
460.798	102.88
461.018	94.88
461.238	108.88
461.458	79.88
461.678	87.88
461.898	95.88
462.118	86.88
462.338	85.88
462.558	87.88
462.777	84.88
462.997	90.88
463.217	99.88
463.437	90.88
463.657	70.88
463.876	84.88
464.096	87.88
464.316	95.88
464.536	81.88
464.755	100.88
464.975	84.88
465.195	88.88
465.414	83.88
465.634	76.88
465.854	78.88
466.073	81.88
466.293	86.88
466.512	92.88
466.732	89.88
466.951	83.88
467.171	85.88
467.391	86.88
467.61	93.88
467.829	86.88
468.049	85.88
468.268	95.88
468.488	86.88
468.707	68.88
468.927	81.88
469.146	85.88
469.365	94.88
469.585	83.88
469.804	87.88
470.023	79.88
470.243	87.88
470.462	83.88
470.681	94.88
470.901	71.88
471.12	94.88
471.339	98.88
471.558	85.88
471.777	102.88
471.997	82.88
472.216	99.88
472.435	94.88
472.654	88.88
472.873	100.88
473.092	76.88
473.311	79.88
473.53	99.88
473.749	91.88
473.968	99.88
474.187	86.88
474.406	81.88
474.625	95.88
474.844	80.88
475.063	82.88
475.282	86.88
475.501	91.88
475.72	83.88
475.939	82.88
476.158	96.88
476.377	88.88
476.596	75.88
476.814	74.88
477.033	75.88
477.252	92.88
477.471	95.88
477.69	88.88
477.908	90.88
478.127	104.88
478.346	84.88
478.564	92.88
478.783	89.88
479.002	99.88
479.22	87.88
479.439	80.88
479.658	92.88
479.876	89.88
480.095	96.88
480.313	93.88
480.532	88.88
480.751	81.88
480.969	78.88
481.188	82.88
481.406	84.88
481.624	91.88
481.843	88.88
482.061	81.88
482.28	80.88
482.498	79.88
482.717	87.88
482.935	94.88
483.153	82.88
483.372	95.88
483.59	81.88
483.808	97.88
484.027	91.88
484.245	95.88
484.463	93.88
484.681	93.88
484.9	107.88
485.118	97.88
485.336	87.88
485.554	84.88
485.772	81.88
485.99	83.88
486.209	87.88
486.427	78.88
486.645	89.88
486.863	89.88
487.081	88.88
487.299	89.88
487.517	112.88
487.735	102.88
487.953	142.88
488.171	127.88
488.389	98.88
488.607	82.88
488.825	100.88
489.043	84.88
489.261	97.88
489.479	95.88
489.696	91.88
489.914	75.88
490.132	87.88
490.35	73.88
490.568	86.88
490.786	89.88
491.003	94.88
491.221	88.88
491.439	78.88
491.657	77.88
491.874	101.88
492.092	76.88
492.31	95.88
492.527	87.88
492.745	80.88
492.963	90.88
493.18	80.88
493.398	88.88
493.615	91.88
493.833	85.88
494.05	88.88
494.268	86.88
494.485	87.88
494.703	77.88
494.92	102.88
495.138	100.88
495.355	79.88
495.573	87.88
495.79	85.88
496.008	102.88
496.225	95.88
496.442	91.88
496.66	106.88
496.877	98.88
497.094	100.88
497.312	99.88
497.529	93.88
497.746	102.88
497.963	104.88
498.181	112.88
498.398	99.88
498.615	89.88
498.832	101.88
499.049	84.88
499.267	100.88
499.484	93.88
499.701	91.88
499.918	91.88
500.135	87.88
500.352	97.88
500.569	87.88
500.786	78.88
501.003	100.88
501.22	80.88
501.437	96.88
501.654	83.88
501.871	96.88
502.088	102.88
502.305	90.88
502.522	90.88
502.739	91.88
502.956	94.88
503.172	90.88
503.389	94.88
503.606	87.88
503.823	86.88
504.04	100.88
504.256	114.88
504.473	110.88
504.69	94.88
504.907	88.88
505.123	100.88
505.34	95.88
505.557	99.88
505.773	95.88
505.99	86.88
506.207	84.88
506.423	102.88
506.64	90.88
506.856	103.88
507.073	81.88
507.289	94.88
507.506	72.88
507.722	93.88
507.939	92.88
508.155	103.88
508.372	95.88
508.588	84.88
508.805	79.88
509.021	91.88
509.238	102.88
509.454	84.88
509.67	88.88
509.887	79.88
510.103	89.88
510.319	82.88
510.536	83.88
510.752	86.88
510.968	105.88
511.184	94.88
511.401	90.88
511.617	107.88
511.833	93.88
512.049	84.88
512.265	86.88
512.481	95.88
512.698	87.88
512.914	85.88
513.13	88.88
513.346	94.88
513.562	92.88
513.778	96.88
513.994	102.88
514.21	90.88
514.426	98.88
514.642	91.88
514.858	82.88
515.074	85.88
515.29	100.88
515.506	78.88
515.721	84.88
515.937	99.88
516.153	99.88
516.369	102.88
516.585	91.88
516.801	85.88
517.016	102.88
517.232	77.88
517.448	87.88
517.664	88.88
517.879	84.88
518.095	102.88
