Data from 2145_2_HRD10591_00007.txt Node
Date: Mon Jan 19 14:22:05 EST 2026
User: Yrep
Spectrometer: HR+D1059
Trigger mode: 1
Integration Time (sec): 1.000000E-1
Scans to average: 1
Electric dark correction enabled: true
Nonlinearity correction enabled: false
Boxcar width: 0
XAxis mode: Wavelengths
Number of Pixels in Spectrum: 2048
>>>>>Begin Spectral Data<<<<<
223.165	-15.75
223.4	-15.75
223.635	-15.75
223.869	-26.75
224.104	-25.75
224.338	-10.75
224.573	-24.75
224.808	-3.75
225.042	4.25
225.277	9.25
225.511	-9.75
225.746	3.25
225.98	10.25
226.215	17.25
226.449	8.25
226.683	19.25
226.918	19.25
227.152	26.25
227.387	32.25
227.621	35.25
227.856	46.25
228.09	50.25
228.324	52.25
228.559	42.25
228.793	54.25
229.027	63.25
229.262	55.25
229.496	64.25
229.73	69.25
229.964	73.25
230.199	65.25
230.433	69.25
230.667	56.25
230.901	81.25
231.136	81.25
231.37	64.25
231.604	67.25
231.838	76.25
232.072	84.25
232.306	73.25
232.541	77.25
232.775	75.25
233.009	93.25
233.243	80.25
233.477	77.25
233.711	79.25
233.945	73.25
234.179	83.25
234.413	77.25
234.647	67.25
234.881	74.25
235.115	67.25
235.349	80.25
235.583	93.25
235.817	80.25
236.051	79.25
236.285	60.25
236.519	79.25
236.753	75.25
236.987	71.25
237.221	79.25
237.455	63.25
237.689	55.25
237.922	68.25
238.156	75.25
238.39	67.25
238.624	75.25
238.858	78.25
239.091	78.25
239.325	72.25
239.559	81.25
239.793	67.25
240.027	66.25
240.26	55.25
240.494	72.25
240.728	78.25
240.961	81.25
241.195	71.25
241.429	74.25
241.662	66.25
241.896	81.25
242.13	81.25
242.363	80.25
242.597	68.25
242.83	68.25
243.064	65.25
243.298	84.25
243.531	68.25
243.765	70.25
243.998	78.25
244.232	83.25
244.465	84.25
244.699	62.25
244.932	80.25
245.166	70.25
245.399	63.25
245.633	79.25
245.866	60.25
246.099	73.25
246.333	75.25
246.566	75.25
246.8	62.25
247.033	77.25
247.266	63.25
247.5	56.25
247.733	73.25
247.966	69.25
248.2	81.25
248.433	71.25
248.666	75.25
248.899	68.25
249.133	74.25
249.366	74.25
249.599	80.25
249.832	87.25
250.066	79.25
250.299	64.25
250.532	75.25
250.765	77.25
250.998	75.25
251.231	75.25
251.465	72.25
251.698	69.25
251.931	65.25
252.164	67.25
252.397	57.25
252.63	78.25
252.863	87.25
253.096	71.25
253.329	68.25
253.562	78.25
253.795	77.25
254.028	74.25
254.261	73.25
254.494	63.25
254.727	61.25
254.96	79.25
255.193	90.25
255.426	77.25
255.659	81.25
255.892	77.25
256.124	80.25
256.357	88.25
256.59	77.25
256.823	81.25
257.056	65.25
257.289	73.25
257.521	73.25
257.754	86.25
257.987	65.25
258.22	88.25
258.452	69.25
258.685	63.25
258.918	72.25
259.151	77.25
259.383	75.25
259.616	89.25
259.849	77.25
260.081	68.25
260.314	87.25
260.547	66.25
260.779	73.25
261.012	75.25
261.244	82.25
261.477	83.25
261.71	86.25
261.942	84.25
262.175	92.25
262.407	64.25
262.64	76.25
262.872	83.25
263.105	59.25
263.337	87.25
263.57	91.25
263.802	79.25
264.035	77.25
264.267	76.25
264.499	85.25
264.732	81.25
264.964	71.25
265.197	60.25
265.429	70.25
265.661	80.25
265.894	85.25
266.126	67.25
266.358	85.25
266.591	77.25
266.823	79.25
267.055	69.25
267.287	81.25
267.52	71.25
267.752	90.25
267.984	84.25
268.216	69.25
268.448	89.25
268.681	87.25
268.913	81.25
269.145	77.25
269.377	90.25
269.609	83.25
269.841	65.25
270.073	74.25
270.306	79.25
270.538	85.25
270.77	74.25
271.002	87.25
271.234	76.25
271.466	70.25
271.698	83.25
271.93	89.25
272.162	75.25
272.394	64.25
272.626	80.25
272.858	72.25
273.09	74.25
273.322	95.25
273.553	76.25
273.785	81.25
274.017	80.25
274.249	88.25
274.481	80.25
274.713	87.25
274.945	80.25
275.176	89.25
275.408	80.25
275.64	72.25
275.872	86.25
276.104	77.25
276.335	89.25
276.567	88.25
276.799	76.25
277.031	73.25
277.262	61.25
277.494	82.25
277.726	63.25
277.957	73.25
278.189	57.25
278.421	76.25
278.652	77.25
278.884	74.25
279.115	76.25
279.347	78.25
279.579	70.25
279.81	73.25
280.042	77.25
280.273	76.25
280.505	62.25
280.736	63.25
280.968	81.25
281.199	89.25
281.431	82.25
281.662	70.25
281.894	87.25
282.125	76.25
282.356	77.25
282.588	80.25
282.819	83.25
283.051	78.25
283.282	76.25
283.513	89.25
283.745	87.25
283.976	86.25
284.207	80.25
284.439	71.25
284.67	95.25
284.901	79.25
285.132	88.25
285.364	77.25
285.595	86.25
285.826	87.25
286.057	77.25
286.288	87.25
286.52	82.25
286.751	83.25
286.982	95.25
287.213	84.25
287.444	68.25
287.675	82.25
287.906	81.25
288.138	82.25
288.369	79.25
288.6	75.25
288.831	94.25
289.062	81.25
289.293	83.25
289.524	91.25
289.755	84.25
289.986	89.25
290.217	66.25
290.448	81.25
290.679	75.25
290.91	87.25
291.141	80.25
291.371	77.25
291.602	81.25
291.833	87.25
292.064	92.25
292.295	79.25
292.526	79.25
292.757	85.25
292.987	75.25
293.218	71.25
293.449	79.25
293.68	79.25
293.91	86.25
294.141	84.25
294.372	58.25
294.603	56.25
294.833	77.25
295.064	79.25
295.295	97.25
295.525	96.25
295.756	83.25
295.987	72.25
296.217	83.25
296.448	79.25
296.679	67.25
296.909	88.25
297.14	86.25
297.37	81.25
297.601	94.25
297.831	73.25
298.062	87.25
298.292	81.25
298.523	59.25
298.753	65.25
298.984	82.25
299.214	81.25
299.445	95.25
299.675	80.25
299.905	83.25
300.136	89.25
300.366	94.25
300.597	88.25
300.827	84.25
301.057	86.25
301.288	79.25
301.518	90.25
301.748	81.25
301.979	82.25
302.209	85.25
302.439	74.25
302.669	80.25
302.9	81.25
303.13	83.25
303.36	92.25
303.59	77.25
303.82	85.25
304.051	87.25
304.281	74.25
304.511	82.25
304.741	84.25
304.971	81.25
305.201	78.25
305.431	74.25
305.661	83.25
305.891	87.25
306.121	85.25
306.352	85.25
306.582	72.25
306.812	90.25
307.042	75.25
307.272	89.25
307.502	73.25
307.731	84.25
307.961	82.25
308.191	78.25
308.421	91.25
308.651	97.25
308.881	77.25
309.111	93.25
309.341	76.25
309.571	73.25
309.8	88.25
310.03	93.25
310.26	84.25
310.49	83.25
310.72	83.25
310.949	78.25
311.179	72.25
311.409	77.25
311.639	77.25
311.868	73.25
312.098	86.25
312.328	77.25
312.557	59.25
312.787	72.25
313.017	69.25
313.246	74.25
313.476	87.25
313.706	83.25
313.935	81.25
314.165	85.25
314.394	79.25
314.624	89.25
314.853	92.25
315.083	104.25
315.312	79.25
315.542	71.25
315.771	87.25
316.001	84.25
316.23	98.25
316.46	75.25
316.689	77.25
316.919	91.25
317.148	76.25
317.377	84.25
317.607	60.25
317.836	72.25
318.065	89.25
318.295	87.25
318.524	73.25
318.753	84.25
318.983	83.25
319.212	76.25
319.441	79.25
319.67	94.25
319.9	77.25
320.129	79.25
320.358	71.25
320.587	79.25
320.816	85.25
321.046	85.25
321.275	92.25
321.504	72.25
321.733	76.25
321.962	60.25
322.191	85.25
322.42	84.25
322.649	91.25
322.878	91.25
323.108	86.25
323.337	102.25
323.566	89.25
323.795	84.25
324.024	85.25
324.253	88.25
324.482	79.25
324.71	90.25
324.939	91.25
325.168	80.25
325.397	71.25
325.626	89.25
325.855	70.25
326.084	82.25
326.313	86.25
326.542	86.25
326.77	76.25
326.999	79.25
327.228	71.25
327.457	96.25
327.686	73.25
327.914	73.25
328.143	79.25
328.372	82.25
328.6	75.25
328.829	92.25
329.058	81.25
329.287	81.25
329.515	68.25
329.744	73.25
329.972	91.25
330.201	79.25
330.43	76.25
330.658	91.25
330.887	79.25
331.115	79.25
331.344	80.25
331.572	97.25
331.801	80.25
332.03	84.25
332.258	79.25
332.486	65.25
332.715	92.25
332.943	72.25
333.172	87.25
333.4	65.25
333.629	79.25
333.857	83.25
334.085	85.25
334.314	89.25
334.542	93.25
334.771	91.25
334.999	91.25
335.227	85.25
335.455	84.25
335.684	89.25
335.912	92.25
336.14	95.25
336.369	79.25
336.597	84.25
336.825	77.25
337.053	82.25
337.281	87.25
337.51	97.25
337.738	99.25
337.966	71.25
338.194	77.25
338.422	79.25
338.65	78.25
338.878	88.25
339.106	72.25
339.334	87.25
339.562	87.25
339.79	77.25
340.018	81.25
340.246	95.25
340.474	88.25
340.702	81.25
340.93	70.25
341.158	82.25
341.386	76.25
341.614	83.25
341.842	97.25
342.07	75.25
342.298	82.25
342.526	74.25
342.754	97.25
342.981	73.25
343.209	89.25
343.437	86.25
343.665	83.25
343.893	93.25
344.12	99.25
344.348	92.25
344.576	93.25
344.804	63.25
345.031	75.25
345.259	72.25
345.487	79.25
345.714	83.25
345.942	92.25
346.17	73.25
346.397	81.25
346.625	92.25
346.853	83.25
347.08	79.25
347.308	91.25
347.535	90.25
347.763	86.25
347.99	78.25
348.218	83.25
348.445	75.25
348.673	84.25
348.9	81.25
349.128	83.25
349.355	93.25
349.583	81.25
349.81	90.25
350.037	87.25
350.265	71.25
350.492	81.25
350.72	81.25
350.947	91.25
351.174	83.25
351.402	76.25
351.629	97.25
351.856	82.25
352.083	88.25
352.311	94.25
352.538	85.25
352.765	83.25
352.992	94.25
353.22	77.25
353.447	85.25
353.674	101.25
353.901	87.25
354.128	85.25
354.355	84.25
354.583	92.25
354.81	88.25
355.037	86.25
355.264	88.25
355.491	70.25
355.718	79.25
355.945	75.25
356.172	81.25
356.399	91.25
356.626	84.25
356.853	99.25
357.08	72.25
357.307	91.25
357.534	63.25
357.761	73.25
357.988	83.25
358.215	78.25
358.441	90.25
358.668	82.25
358.895	94.25
359.122	75.25
359.349	77.25
359.576	86.25
359.802	84.25
360.029	79.25
360.256	86.25
360.483	87.25
360.709	97.25
360.936	91.25
361.163	81.25
361.39	79.25
361.616	84.25
361.843	84.25
362.07	97.25
362.296	102.25
362.523	108.25
362.749	115.25
362.976	109.25
363.203	126.25
363.429	118.25
363.656	99.25
363.882	95.25
364.109	103.25
364.335	133.25
364.562	132.25
364.788	104.25
365.015	100.25
365.241	87.25
365.468	87.25
365.694	81.25
365.92	84.25
366.147	93.25
366.373	79.25
366.599	81.25
366.826	80.25
367.052	96.25
367.278	79.25
367.505	87.25
367.731	84.25
367.957	91.25
368.184	72.25
368.41	81.25
368.636	79.25
368.862	82.25
369.089	92.25
369.315	62.25
369.541	82.25
369.767	81.25
369.993	86.25
370.219	87.25
370.445	77.25
370.672	75.25
370.898	86.25
371.124	73.25
371.35	79.25
371.576	91.25
371.802	87.25
372.028	90.25
372.254	95.25
372.48	85.25
372.706	90.25
372.932	83.25
373.158	89.25
373.384	91.25
373.61	85.25
373.835	82.25
374.061	85.25
374.287	94.25
374.513	76.25
374.739	102.25
374.965	85.25
375.191	86.25
375.416	85.25
375.642	85.25
375.868	88.25
376.094	80.25
376.319	88.25
376.545	80.25
376.771	80.25
376.997	90.25
377.222	85.25
377.448	84.25
377.674	84.25
377.899	88.25
378.125	95.25
378.35	80.25
378.576	82.25
378.802	91.25
379.027	97.25
379.253	101.25
379.478	71.25
379.704	77.25
379.929	88.25
380.155	87.25
380.38	80.25
380.606	87.25
380.831	86.25
381.057	79.25
381.282	89.25
381.507	104.25
381.733	100.25
381.958	101.25
382.184	98.25
382.409	99.25
382.634	94.25
382.86	79.25
383.085	84.25
383.31	80.25
383.535	94.25
383.761	91.25
383.986	87.25
384.211	79.25
384.436	68.25
384.662	88.25
384.887	85.25
385.112	91.25
385.337	81.25
385.562	81.25
385.787	84.25
386.013	81.25
386.238	90.25
386.463	93.25
386.688	105.25
386.913	87.25
387.138	75.25
387.363	92.25
387.588	100.25
387.813	79.25
388.038	89.25
388.263	84.25
388.488	90.25
388.713	86.25
388.938	78.25
389.163	73.25
389.387	75.25
389.612	93.25
389.837	91.25
390.062	77.25
390.287	93.25
390.512	101.25
390.736	74.25
390.961	87.25
391.186	69.25
391.411	79.25
391.636	70.25
391.86	96.25
392.085	93.25
392.31	91.25
392.534	97.25
392.759	111.25
392.984	131.25
393.208	215.25
393.433	265.25
393.658	215.25
393.882	119.25
394.107	101.25
394.331	109.25
394.556	113.25
394.78	87.25
395.005	115.25
395.229	92.25
395.454	99.25
395.678	114.25
395.903	107.25
396.127	100.25
396.352	123.25
396.576	157.25
396.801	215.25
397.025	243.25
397.249	148.25
397.474	127.25
397.698	88.25
397.922	104.25
398.147	98.25
398.371	83.25
398.595	75.25
398.82	71.25
399.044	83.25
399.268	91.25
399.492	81.25
399.717	95.25
399.941	96.25
400.165	80.25
400.389	65.25
400.613	92.25
400.837	85.25
401.062	77.25
401.286	69.25
401.51	77.25
401.734	69.25
401.958	72.25
402.182	81.25
402.406	89.25
402.63	77.25
402.854	89.25
403.078	82.25
403.302	75.25
403.526	83.25
403.75	91.25
403.974	83.25
404.198	94.25
404.422	123.25
404.645	114.25
404.869	114.25
405.093	94.25
405.317	81.25
405.541	88.25
405.765	91.25
405.988	96.25
406.212	88.25
406.436	93.25
406.66	71.25
406.883	86.25
407.107	81.25
407.331	83.25
407.555	83.25
407.778	105.25
408.002	91.25
408.226	83.25
408.449	85.25
408.673	86.25
408.896	98.25
409.12	95.25
409.344	101.25
409.567	97.25
409.791	111.25
410.014	104.25
410.238	92.25
410.461	89.25
410.685	73.25
410.908	96.25
411.132	100.25
411.355	74.25
411.578	96.25
411.802	86.25
412.025	65.25
412.249	95.25
412.472	89.25
412.695	80.25
412.919	74.25
413.142	67.25
413.365	83.25
413.589	70.25
413.812	79.25
414.035	84.25
414.258	96.25
414.482	77.25
414.705	75.25
414.928	91.25
415.151	82.25
415.374	72.25
415.597	79.25
415.821	95.25
416.044	78.25
416.267	86.25
416.49	86.25
416.713	74.25
416.936	83.25
417.159	72.25
417.382	84.25
417.605	82.25
417.828	73.25
418.051	94.25
418.274	83.25
418.497	81.25
418.72	80.25
418.943	95.25
419.166	88.25
419.389	84.25
419.611	81.25
419.834	76.25
420.057	98.25
420.28	86.25
420.503	85.25
420.726	87.25
420.948	91.25
421.171	108.25
421.394	84.25
421.617	104.25
421.839	140.25
422.062	139.25
422.285	171.25
422.507	256.25
422.73	315.25
422.953	284.25
423.175	216.25
423.398	151.25
423.621	136.25
423.843	115.25
424.066	111.25
424.288	102.25
424.511	88.25
424.733	105.25
424.956	87.25
425.178	77.25
425.401	84.25
425.623	79.25
425.846	89.25
426.068	88.25
426.291	92.25
426.513	94.25
426.735	77.25
426.958	93.25
427.18	83.25
427.402	85.25
427.625	77.25
427.847	81.25
428.069	99.25
428.292	124.25
428.514	132.25
428.736	108.25
428.958	136.25
429.181	132.25
429.403	110.25
429.625	104.25
429.847	129.25
430.069	172.25
430.292	180.25
430.514	185.25
430.736	123.25
430.958	136.25
431.18	105.25
431.402	107.25
431.624	102.25
431.846	121.25
432.068	140.25
432.29	90.25
432.512	81.25
432.734	91.25
432.956	85.25
433.178	67.25
433.4	79.25
433.622	77.25
433.844	80.25
434.066	73.25
434.287	81.25
434.509	67.25
434.731	94.25
434.953	73.25
435.175	74.25
435.397	92.25
435.618	79.25
435.84	90.25
436.062	105.25
436.284	93.25
436.505	81.25
436.727	80.25
436.949	98.25
437.17	73.25
437.392	78.25
437.614	88.25
437.835	92.25
438.057	90.25
438.278	80.25
438.5	63.25
438.721	82.25
438.943	81.25
439.165	84.25
439.386	79.25
439.608	83.25
439.829	82.25
440.05	82.25
440.272	77.25
440.493	93.25
440.715	88.25
440.936	84.25
441.158	81.25
441.379	82.25
441.6	75.25
441.822	97.25
442.043	97.25
442.264	99.25
442.486	129.25
442.707	181.25
442.928	133.25
443.149	111.25
443.371	165.25
443.592	262.25
443.813	226.25
444.034	108.25
444.255	97.25
444.476	83.25
444.698	91.25
444.919	91.25
445.14	194.25
445.361	235.25
445.582	315.25
445.803	268.25
446.024	131.25
446.245	107.25
446.466	84.25
446.687	84.25
446.908	77.25
447.129	72.25
447.35	83.25
447.571	85.25
447.792	80.25
448.013	87.25
448.234	87.25
448.455	82.25
448.675	88.25
448.896	79.25
449.117	71.25
449.338	76.25
449.559	80.25
449.779	80.25
450	70.25
450.221	75.25
450.442	76.25
450.662	89.25
450.883	87.25
451.104	71.25
451.324	82.25
451.545	86.25
451.766	69.25
451.986	89.25
452.207	85.25
452.428	92.25
452.648	91.25
452.869	91.25
453.089	81.25
453.31	93.25
453.53	74.25
453.751	80.25
453.971	91.25
454.192	92.25
454.412	82.25
454.633	79.25
454.853	79.25
455.073	74.25
455.294	93.25
455.514	81.25
455.734	81.25
455.955	84.25
456.175	87.25
456.395	74.25
456.616	76.25
456.836	84.25
457.056	81.25
457.276	96.25
457.497	91.25
457.717	96.25
457.937	125.25
458.157	135.25
458.377	127.25
458.598	143.25
458.818	153.25
459.038	116.25
459.258	88.25
459.478	87.25
459.698	79.25
459.918	82.25
460.138	68.25
460.358	93.25
460.578	90.25
460.798	97.25
461.018	97.25
461.238	86.25
461.458	91.25
461.678	79.25
461.898	77.25
462.118	74.25
462.338	89.25
462.558	92.25
462.777	79.25
462.997	85.25
463.217	82.25
463.437	94.25
463.657	89.25
463.876	73.25
464.096	77.25
464.316	88.25
464.536	65.25
464.755	85.25
464.975	83.25
465.195	84.25
465.414	79.25
465.634	83.25
465.854	74.25
466.073	77.25
466.293	75.25
466.512	86.25
466.732	73.25
466.951	84.25
467.171	77.25
467.391	80.25
467.61	81.25
467.829	80.25
468.049	79.25
468.268	86.25
468.488	72.25
468.707	71.25
468.927	81.25
469.146	65.25
469.365	75.25
469.585	76.25
469.804	83.25
470.023	83.25
470.243	87.25
470.462	82.25
470.681	80.25
470.901	85.25
471.12	67.25
471.339	83.25
471.558	78.25
471.777	72.25
471.997	91.25
472.216	91.25
472.435	81.25
472.654	73.25
472.873	83.25
473.092	83.25
473.311	79.25
473.53	72.25
473.749	79.25
473.968	91.25
474.187	81.25
474.406	85.25
474.625	85.25
474.844	98.25
475.063	76.25
475.282	75.25
475.501	84.25
475.72	79.25
475.939	92.25
476.158	79.25
476.377	74.25
476.596	86.25
476.814	86.25
477.033	88.25
477.252	81.25
477.471	95.25
477.69	64.25
477.908	68.25
478.127	78.25
478.346	68.25
478.564	95.25
478.783	77.25
479.002	81.25
479.22	85.25
479.439	91.25
479.658	94.25
479.876	81.25
480.095	77.25
480.313	78.25
480.532	95.25
480.751	88.25
480.969	81.25
481.188	86.25
481.406	82.25
481.624	71.25
481.843	88.25
482.061	81.25
482.28	85.25
482.498	91.25
482.717	95.25
482.935	96.25
483.153	88.25
483.372	97.25
483.59	87.25
483.808	86.25
484.027	89.25
484.245	91.25
484.463	93.25
484.681	99.25
484.9	80.25
485.118	89.25
485.336	71.25
485.554	65.25
485.772	76.25
485.99	79.25
486.209	85.25
486.427	90.25
486.645	92.25
486.863	81.25
487.081	83.25
487.299	96.25
487.517	98.25
487.735	115.25
487.953	204.25
488.171	174.25
488.389	108.25
488.607	80.25
488.825	78.25
489.043	87.25
489.261	74.25
489.479	84.25
489.696	88.25
489.914	82.25
490.132	79.25
490.35	91.25
490.568	85.25
490.786	83.25
491.003	99.25
491.221	83.25
491.439	85.25
491.657	83.25
491.874	84.25
492.092	88.25
492.31	78.25
492.527	89.25
492.745	101.25
492.963	88.25
493.18	80.25
493.398	86.25
493.615	85.25
493.833	93.25
494.05	75.25
494.268	92.25
494.485	89.25
494.703	79.25
494.92	72.25
495.138	87.25
495.355	72.25
495.573	77.25
495.79	81.25
496.008	71.25
496.225	86.25
496.442	87.25
496.66	93.25
496.877	88.25
497.094	98.25
497.312	83.25
497.529	85.25
497.746	86.25
497.963	80.25
498.181	82.25
498.398	76.25
498.615	81.25
498.832	101.25
499.049	97.25
499.267	96.25
499.484	97.25
499.701	91.25
499.918	88.25
500.135	85.25
500.352	73.25
500.569	73.25
500.786	85.25
501.003	86.25
501.22	67.25
501.437	81.25
501.654	98.25
501.871	90.25
502.088	92.25
502.305	96.25
502.522	89.25
502.739	80.25
502.956	67.25
503.172	88.25
503.389	90.25
503.606	83.25
503.823	82.25
504.04	113.25
504.256	158.25
504.473	157.25
504.69	107.25
504.907	99.25
505.123	83.25
505.34	89.25
505.557	79.25
505.773	81.25
505.99	77.25
506.207	77.25
506.423	92.25
506.64	79.25
506.856	86.25
507.073	80.25
507.289	86.25
507.506	84.25
507.722	69.25
507.939	96.25
508.155	82.25
508.372	77.25
508.588	102.25
508.805	82.25
509.021	73.25
509.238	79.25
509.454	89.25
509.67	83.25
509.887	89.25
510.103	96.25
510.319	85.25
510.536	91.25
510.752	85.25
510.968	76.25
511.184	87.25
511.401	72.25
511.617	83.25
511.833	79.25
512.049	86.25
512.265	81.25
512.481	94.25
512.698	81.25
512.914	88.25
513.13	80.25
513.346	84.25
513.562	77.25
513.778	81.25
513.994	79.25
514.21	94.25
514.426	108.25
514.642	91.25
514.858	79.25
515.074	79.25
515.29	81.25
515.506	95.25
515.721	71.25
515.937	102.25
516.153	84.25
516.369	68.25
516.585	73.25
516.801	86.25
517.016	83.25
517.232	88.25
517.448	79.25
517.664	91.25
517.879	86.25
518.095	93.25
518.311	79.25
518.527	101.25
518.742	110.25
