Data from 2145_2_HRD10591_00012.txt Node
Date: Mon Jan 19 14:22:08 EST 2026
User: Yrep
Spectrometer: HR+D1059
Trigger mode: 1
Integration Time (sec): 1.000000E-1
Scans to average: 1
Electric dark correction enabled: true
Nonlinearity correction enabled: false
Boxcar width: 0
XAxis mode: Wavelengths
Number of Pixels in Spectrum: 2048
>>>>>Begin Spectral Data<<<<<
223.165	-12
223.4	-12
223.635	-12
223.869	-12
224.104	-14
224.338	-29
224.573	-28
224.808	-16
225.042	-8
225.277	3
225.511	2
225.746	17
225.98	3
226.215	6
226.449	24
226.683	23
226.918	18
227.152	23
227.387	37
227.621	51
227.856	34
228.09	46
228.324	64
228.559	79
228.793	54
229.027	50
229.262	62
229.496	69
229.73	72
229.964	74
230.199	74
230.433	72
230.667	81
230.901	86
231.136	75
231.37	73
231.604	75
231.838	89
232.072	100
232.306	60
232.541	70
232.775	83
233.009	84
233.243	78
233.477	88
233.711	87
233.945	84
234.179	86
234.413	70
234.647	78
234.881	87
235.115	72
235.349	69
235.583	72
235.817	76
236.051	69
236.285	82
236.519	80
236.753	81
236.987	84
237.221	63
237.455	89
237.689	82
237.922	63
238.156	78
238.39	78
238.624	65
238.858	68
239.091	76
239.325	82
239.559	68
239.793	81
240.027	82
240.26	84
240.494	94
240.728	70
240.961	77
241.195	84
241.429	93
241.662	69
241.896	79
242.13	77
242.363	86
242.597	71
242.83	83
243.064	86
243.298	77
243.531	74
243.765	86
243.998	89
244.232	93
244.465	92
244.699	60
244.932	69
245.166	79
245.399	88
245.633	79
245.866	61
246.099	73
246.333	78
246.566	94
246.8	75
247.033	71
247.266	84
247.5	84
247.733	91
247.966	74
248.2	86
248.433	78
248.666	84
248.899	72
249.133	82
249.366	74
249.599	68
249.832	86
250.066	89
250.299	72
250.532	74
250.765	81
250.998	64
251.231	85
251.465	84
251.698	78
251.931	84
252.164	80
252.397	84
252.63	86
252.863	71
253.096	80
253.329	75
253.562	78
253.795	81
254.028	88
254.261	78
254.494	78
254.727	86
254.96	89
255.193	73
255.426	79
255.659	82
255.892	74
256.124	90
256.357	92
256.59	81
256.823	70
257.056	71
257.289	71
257.521	88
257.754	99
257.987	80
258.22	70
258.452	68
258.685	83
258.918	78
259.151	72
259.383	76
259.616	61
259.849	70
260.081	69
260.314	81
260.547	68
260.779	73
261.012	75
261.244	85
261.477	68
261.71	74
261.942	79
262.175	84
262.407	65
262.64	85
262.872	67
263.105	70
263.337	90
263.57	88
263.802	88
264.035	86
264.267	83
264.499	80
264.732	79
264.964	67
265.197	80
265.429	82
265.661	87
265.894	76
266.126	92
266.358	101
266.591	84
266.823	88
267.055	80
267.287	77
267.52	80
267.752	72
267.984	79
268.216	84
268.448	90
268.681	92
268.913	77
269.145	81
269.377	93
269.609	92
269.841	77
270.073	93
270.306	91
270.538	79
270.77	79
271.002	74
271.234	74
271.466	93
271.698	86
271.93	86
272.162	77
272.394	82
272.626	70
272.858	89
273.09	85
273.322	69
273.553	86
273.785	99
274.017	93
274.249	84
274.481	78
274.713	84
274.945	83
275.176	82
275.408	97
275.64	82
275.872	81
276.104	76
276.335	76
276.567	77
276.799	85
277.031	86
277.262	92
277.494	79
277.726	75
277.957	82
278.189	73
278.421	82
278.652	98
278.884	73
279.115	94
279.347	75
279.579	82
279.81	87
280.042	78
280.273	100
280.505	85
280.736	85
280.968	71
281.199	82
281.431	79
281.662	88
281.894	84
282.125	77
282.356	96
282.588	85
282.819	90
283.051	78
283.282	89
283.513	82
283.745	90
283.976	99
284.207	78
284.439	77
284.67	91
284.901	85
285.132	81
285.364	80
285.595	74
285.826	76
286.057	81
286.288	91
286.52	99
286.751	82
286.982	94
287.213	85
287.444	84
287.675	83
287.906	88
288.138	71
288.369	82
288.6	76
288.831	92
289.062	86
289.293	85
289.524	91
289.755	79
289.986	77
290.217	82
290.448	89
290.679	76
290.91	82
291.141	84
291.371	109
291.602	92
291.833	72
292.064	90
292.295	70
292.526	66
292.757	76
292.987	82
293.218	95
293.449	85
293.68	94
293.91	70
294.141	81
294.372	80
294.603	70
294.833	95
295.064	100
295.295	73
295.525	88
295.756	84
295.987	91
296.217	87
296.448	91
296.679	73
296.909	87
297.14	91
297.37	72
297.601	86
297.831	69
298.062	76
298.292	84
298.523	72
298.753	77
298.984	76
299.214	87
299.445	88
299.675	89
299.905	84
300.136	78
300.366	89
300.597	87
300.827	84
301.057	86
301.288	84
301.518	78
301.748	82
301.979	100
302.209	76
302.439	79
302.669	84
302.9	90
303.13	83
303.36	81
303.59	91
303.82	77
304.051	88
304.281	72
304.511	70
304.741	102
304.971	72
305.201	84
305.431	88
305.661	77
305.891	93
306.121	73
306.352	92
306.582	94
306.812	78
307.042	80
307.272	73
307.502	87
307.731	92
307.961	82
308.191	89
308.421	91
308.651	91
308.881	85
309.111	87
309.341	90
309.571	93
309.8	98
310.03	86
310.26	102
310.49	86
310.72	91
310.949	94
311.179	89
311.409	92
311.639	89
311.868	82
312.098	86
312.328	91
312.557	92
312.787	85
313.017	101
313.246	84
313.476	83
313.706	79
313.935	95
314.165	84
314.394	93
314.624	97
314.853	93
315.083	82
315.312	77
315.542	82
315.771	85
316.001	83
316.23	84
316.46	84
316.689	83
316.919	85
317.148	82
317.377	89
317.607	89
317.836	99
318.065	86
318.295	79
318.524	84
318.753	94
318.983	86
319.212	84
319.441	76
319.67	94
319.9	79
320.129	93
320.358	96
320.587	90
320.816	83
321.046	93
321.275	76
321.504	80
321.733	72
321.962	78
322.191	66
322.42	81
322.649	93
322.878	94
323.108	107
323.337	78
323.566	85
323.795	84
324.024	70
324.253	89
324.482	90
324.71	83
324.939	90
325.168	96
325.397	88
325.626	85
325.855	82
326.084	83
326.313	81
326.542	73
326.77	90
326.999	96
327.228	96
327.457	97
327.686	99
327.914	86
328.143	97
328.372	84
328.6	91
328.829	92
329.058	87
329.287	94
329.515	77
329.744	84
329.972	96
330.201	97
330.43	84
330.658	96
330.887	96
331.115	82
331.344	88
331.572	94
331.801	69
332.03	88
332.258	74
332.486	86
332.715	90
332.943	82
333.172	93
333.4	88
333.629	84
333.857	89
334.085	78
334.314	92
334.542	90
334.771	95
334.999	87
335.227	91
335.455	92
335.684	102
335.912	102
336.14	97
336.369	96
336.597	85
336.825	89
337.053	79
337.281	85
337.51	78
337.738	89
337.966	85
338.194	82
338.422	87
338.65	78
338.878	84
339.106	83
339.334	98
339.562	81
339.79	83
340.018	93
340.246	84
340.474	70
340.702	96
340.93	91
341.158	78
341.386	79
341.614	78
341.842	68
342.07	83
342.298	103
342.526	94
342.754	84
342.981	81
343.209	77
343.437	108
343.665	95
343.893	89
344.12	88
344.348	84
344.576	84
344.804	85
345.031	85
345.259	85
345.487	76
345.714	80
345.942	85
346.17	88
346.397	67
346.625	84
346.853	86
347.08	93
347.308	106
347.535	98
347.763	89
347.99	90
348.218	92
348.445	81
348.673	74
348.9	91
349.128	91
349.355	87
349.583	82
349.81	91
350.037	74
350.265	85
350.492	93
350.72	93
350.947	90
351.174	96
351.402	80
351.629	96
351.856	70
352.083	96
352.311	91
352.538	68
352.765	88
352.992	92
353.22	81
353.447	95
353.674	86
353.901	93
354.128	84
354.355	73
354.583	84
354.81	92
355.037	104
355.264	88
355.491	90
355.718	82
355.945	85
356.172	90
356.399	69
356.626	84
356.853	91
357.08	88
357.307	90
357.534	80
357.761	94
357.988	85
358.215	84
358.441	86
358.668	77
358.895	79
359.122	102
359.349	88
359.576	89
359.802	99
360.029	85
360.256	87
360.483	96
360.709	90
360.936	89
361.163	68
361.39	90
361.616	91
361.843	91
362.07	81
362.296	109
362.523	91
362.749	110
362.976	112
363.203	116
363.429	90
363.656	104
363.882	96
364.109	114
364.335	130
364.562	128
364.788	98
365.015	86
365.241	98
365.468	107
365.694	102
365.92	99
366.147	93
366.373	98
366.599	93
366.826	76
367.052	83
367.278	89
367.505	78
367.731	100
367.957	69
368.184	85
368.41	99
368.636	82
368.862	92
369.089	88
369.315	81
369.541	98
369.767	83
369.993	90
370.219	83
370.445	73
370.672	94
370.898	98
371.124	89
371.35	84
371.576	89
371.802	76
372.028	100
372.254	94
372.48	81
372.706	82
372.932	98
373.158	82
373.384	96
373.61	81
373.835	93
374.061	92
374.287	94
374.513	91
374.739	82
374.965	72
375.191	92
375.416	93
375.642	105
375.868	77
376.094	105
376.319	98
376.545	97
376.771	90
376.997	81
377.222	85
377.448	88
377.674	78
377.899	88
378.125	84
378.35	92
378.576	95
378.802	78
379.027	86
379.253	79
379.478	76
379.704	95
379.929	82
380.155	86
380.38	78
380.606	81
380.831	80
381.057	105
381.282	100
381.507	92
381.733	92
381.958	93
382.184	82
382.409	96
382.634	90
382.86	98
383.085	114
383.31	89
383.535	99
383.761	74
383.986	91
384.211	90
384.436	90
384.662	99
384.887	100
385.112	83
385.337	89
385.562	99
385.787	80
386.013	80
386.238	83
386.463	96
386.688	102
386.913	105
387.138	94
387.363	84
387.588	86
387.813	92
388.038	88
388.263	86
388.488	92
388.713	82
388.938	92
389.163	73
389.387	94
389.612	95
389.837	106
390.062	90
390.287	85
390.512	104
390.736	92
390.961	76
391.186	70
391.411	85
391.636	93
391.86	98
392.085	110
392.31	102
392.534	91
392.759	96
392.984	122
393.208	180
393.433	203
393.658	192
393.882	132
394.107	120
394.331	122
394.556	112
394.78	96
395.005	92
395.229	92
395.454	91
395.678	93
395.903	120
396.127	120
396.352	126
396.576	123
396.801	189
397.025	206
397.249	138
397.474	118
397.698	99
397.922	100
398.147	91
398.371	96
398.595	99
398.82	88
399.044	92
399.268	93
399.492	77
399.717	86
399.941	89
400.165	85
400.389	79
400.613	105
400.837	107
401.062	82
401.286	80
401.51	85
401.734	82
401.958	91
402.182	86
402.406	88
402.63	73
402.854	88
403.078	81
403.302	104
403.526	91
403.75	92
403.974	86
404.198	73
404.422	132
404.645	135
404.869	109
405.093	100
405.317	95
405.541	86
405.765	93
405.988	90
406.212	77
406.436	85
406.66	90
406.883	85
407.107	89
407.331	91
407.555	98
407.778	100
408.002	98
408.226	88
408.449	86
408.673	93
408.896	94
409.12	93
409.344	94
409.567	97
409.791	96
410.014	111
410.238	92
410.461	80
410.685	68
410.908	89
411.132	87
411.355	84
411.578	88
411.802	94
412.025	98
412.249	82
412.472	82
412.695	93
412.919	77
413.142	89
413.365	97
413.589	84
413.812	72
414.035	92
414.258	86
414.482	85
414.705	81
414.928	97
415.151	85
415.374	93
415.597	93
415.821	86
416.044	94
416.267	78
416.49	77
416.713	85
416.936	80
417.159	87
417.382	86
417.605	84
417.828	84
418.051	85
418.274	90
418.497	93
418.72	87
418.943	88
419.166	85
419.389	99
419.611	87
419.834	94
420.057	90
420.28	104
420.503	90
420.726	92
420.948	90
421.171	102
421.394	112
421.617	117
421.839	111
422.062	137
422.285	176
422.507	250
422.73	308
422.953	290
423.175	205
423.398	156
423.621	122
423.843	97
424.066	90
424.288	94
424.511	99
424.733	98
424.956	84
425.178	75
425.401	98
425.623	86
425.846	82
426.068	89
426.291	79
426.513	76
426.735	95
426.958	92
427.18	87
427.402	92
427.625	97
427.847	80
428.069	105
428.292	126
428.514	146
428.736	110
428.958	123
429.181	133
429.403	100
429.625	106
429.847	126
430.069	141
430.292	164
430.514	153
430.736	131
430.958	154
431.18	104
431.402	93
431.624	98
431.846	109
432.068	134
432.29	93
432.512	89
432.734	98
432.956	99
433.178	76
433.4	83
433.622	90
433.844	82
434.066	94
434.287	88
434.509	94
434.731	76
434.953	81
435.175	74
435.397	85
435.618	93
435.84	86
436.062	84
436.284	98
436.505	79
436.727	82
436.949	95
437.17	78
437.392	79
437.614	82
437.835	78
438.057	77
438.278	92
438.5	84
438.721	84
438.943	83
439.165	92
439.386	85
439.608	91
439.829	90
440.05	101
440.272	90
440.493	83
440.715	78
440.936	82
441.158	100
441.379	87
441.6	91
441.822	90
442.043	89
442.264	112
442.486	151
442.707	163
442.928	132
443.149	116
443.371	159
443.592	236
443.813	213
444.034	116
444.255	108
444.476	93
444.698	99
444.919	93
445.14	200
445.361	209
445.582	274
445.803	237
446.024	119
446.245	100
446.466	84
446.687	83
446.908	83
447.129	85
447.35	81
447.571	85
447.792	82
448.013	94
448.234	90
448.455	78
448.675	89
448.896	78
449.117	84
449.338	85
449.559	86
449.779	95
450	96
450.221	90
450.442	89
450.662	89
450.883	83
451.104	89
451.324	91
451.545	86
451.766	88
451.986	77
452.207	100
452.428	95
452.648	79
452.869	91
453.089	87
453.31	90
453.53	79
453.751	94
453.971	94
454.192	98
454.412	83
454.633	82
454.853	81
455.073	89
455.294	89
455.514	86
455.734	69
455.955	91
456.175	86
456.395	76
456.616	75
456.836	83
457.056	88
457.276	78
457.497	86
457.717	94
457.937	114
458.157	135
458.377	129
458.598	135
458.818	126
459.038	96
459.258	84
459.478	68
459.698	78
459.918	83
460.138	82
460.358	77
460.578	85
460.798	124
461.018	112
461.238	79
461.458	88
461.678	84
461.898	79
462.118	94
462.338	82
462.558	78
462.777	74
462.997	66
463.217	76
463.437	68
463.657	78
463.876	72
464.096	96
464.316	83
464.536	82
464.755	93
464.975	82
465.195	101
465.414	98
465.634	84
465.854	84
466.073	90
466.293	89
466.512	92
466.732	88
466.951	76
467.171	87
467.391	86
467.61	72
467.829	78
468.049	97
468.268	80
468.488	86
468.707	89
468.927	79
469.146	84
469.365	93
469.585	78
469.804	87
470.023	93
470.243	94
470.462	101
470.681	97
470.901	94
471.12	91
471.339	96
471.558	74
471.777	93
471.997	92
472.216	98
472.435	84
472.654	89
472.873	76
473.092	94
473.311	92
473.53	77
473.749	93
473.968	84
474.187	82
474.406	98
474.625	82
474.844	85
475.063	89
475.282	85
475.501	89
475.72	88
475.939	75
476.158	81
476.377	85
476.596	85
476.814	92
477.033	78
477.252	87
477.471	80
477.69	74
477.908	90
478.127	87
478.346	86
478.564	97
478.783	80
479.002	76
479.22	94
479.439	86
479.658	95
479.876	76
480.095	80
480.313	92
480.532	89
480.751	73
480.969	90
481.188	84
481.406	90
481.624	85
481.843	88
482.061	90
482.28	89
482.498	91
482.717	82
482.935	88
483.153	88
483.372	96
483.59	104
483.808	98
484.027	92
484.245	100
484.463	101
484.681	102
484.9	98
485.118	94
485.336	90
485.554	72
485.772	104
485.99	88
486.209	88
486.427	70
486.645	82
486.863	98
487.081	79
487.299	103
487.517	104
487.735	124
487.953	173
488.171	166
488.389	99
488.607	76
488.825	87
489.043	78
489.261	80
489.479	84
489.696	92
489.914	73
490.132	96
490.35	98
490.568	95
490.786	101
491.003	90
491.221	86
491.439	80
491.657	95
491.874	85
492.092	90
492.31	77
492.527	95
492.745	74
492.963	100
493.18	96
493.398	77
493.615	85
493.833	83
494.05	93
494.268	92
494.485	82
494.703	98
494.92	79
495.138	97
495.355	89
495.573	88
495.79	91
496.008	104
496.225	92
496.442	96
496.66	77
496.877	88
497.094	87
497.312	69
497.529	94
497.746	77
497.963	86
498.181	103
498.398	87
498.615	92
498.832	107
499.049	103
499.267	90
499.484	96
499.701	90
499.918	92
500.135	98
500.352	91
500.569	74
500.786	90
501.003	88
501.22	93
501.437	92
501.654	96
501.871	84
502.088	89
502.305	98
502.522	92
502.739	91
502.956	94
503.172	102
503.389	79
503.606	93
503.823	100
504.04	106
504.256	143
504.473	138
504.69	101
504.907	93
505.123	91
505.34	88
505.557	92
505.773	93
505.99	101
506.207	93
506.423	97
506.64	89
506.856	94
507.073	82
507.289	85
507.506	96
507.722	89
507.939	74
508.155	98
508.372	97
508.588	102
508.805	105
509.021	74
509.238	95
509.454	83
509.67	80
509.887	77
510.103	94
510.319	87
510.536	102
510.752	99
510.968	85
511.184	90
511.401	84
511.617	92
511.833	94
512.049	94
512.265	92
512.481	94
512.698	76
512.914	78
513.13	86
513.346	90
513.562	92
513.778	87
513.994	86
514.21	96
514.426	82
514.642	87
514.858	70
515.074	84
515.29	100
515.506	92
515.721	89
515.937	78
516.153	95
516.369	87
516.585	94
516.801	89
517.016	103
517.232	96
517.448	90
517.664	89
517.879	90
518.095	105
518.311	96
518.527	110
518.742	115
518.958	166
519.173	163
519.389	118
519.605	89
519.82	96
520.036	94
520.251	91
520.467	82
520.682	89
520.898	87
521.113	100
521.329	98
521.544	82
521.76	89
521.975	81
522.19	92
522.406	106
522.621	92
522.836	90
523.052	84
523.267	92
523.482	100
523.698	90
523.913	88
524.128	93
524.343	85
524.559	89
524.774	89
524.989	89
525.204	97
525.419	114
525.634	104
525.849	121
526.064	139
526.28	231
526.495	335
526.71	337
526.925	215
527.14	286
527.355	256
527.57	105
527.785	85
527.999	100
528.214	103
528.429	87
528.644	94
528.859	88
529.074	86
529.289	90
529.503	100
529.718	90
529.933	98
530.148	99
530.363	85
530.577	93
530.792	99
531.007	96
531.221	103
531.436	101
531.651	94
531.865	90
532.08	99
532.295	92
532.509	97
532.724	88
532.938	104
533.153	101
533.367	96
533.582	98
533.796	106
534.011	99
534.225	109
534.44	112
534.654	100
534.868	102
535.083	175
535.297	150
535.511	108
535.726	98
535.94	110
536.154	105
536.369	109
536.583	93
536.797	99
537.011	93
537.225	106
537.44	96
537.654	104
537.868	94
538.082	97
538.296	93
538.51	98
538.724	106
538.938	107
539.153	98
539.367	99
539.581	104
539.795	101
540.009	116
540.222	105
540.436	91
540.65	100
540.864	116
541.078	95
541.292	116
541.506	102
541.72	93
541.934	101
542.147	101
542.361	117
542.575	97
542.789	101
543.002	100
543.216	111
543.43	97
543.644	96
543.857	98
544.071	104
544.285	98
544.498	98
544.712	100
544.925	97
545.139	110
545.352	99
545.566	92
545.779	109
545.993	118
546.206	88
546.42	108
546.633	118
546.847	129
547.06	139
547.274	141
547.487	165
547.7	164
547.914	176
548.127	165
548.34	190
548.554	190
548.767	195
548.98	171
549.193	192
549.407	180
549.62	196
549.833	207
550.046	232
550.259	247
550.473	234
550.686	250
550.899	264
551.112	289
551.325	317
551.538	310
551.751	301
551.964	270
552.177	294
552.39	289
552.603	291
552.816	286
553.029	285
553.242	267
553.455	282
553.667	304
553.88	307
554.093	344
554.306	316
554.519	335
554.732	324
554.944	316
555.157	303
555.37	296
555.583	279
555.795	270
556.008	260
556.221	227
556.433	240
556.646	230
556.859	245
557.071	198
557.284	205
557.496	198
557.709	181
557.921	177
558.134	179
558.346	224
558.559	200
558.771	170
558.984	310
559.196	369
559.409	231
559.621	302
559.833	225
560.046	285
560.258	245
560.47	265
560.683	166
560.895	125
561.107	113
561.32	113
561.532	112
561.744	118
561.956	117
562.168	116
562.381	108
562.593	101
562.805	126
563.017	119
563.229	111
563.441	109
563.653	101
563.865	115
564.077	96
564.289	98
564.501	98
564.713	99
564.925	118
565.137	109
565.349	100
565.561	109
565.773	104
565.985	103
566.197	95
566.408	88
566.62	106
566.832	112
567.044	93
567.255	109
567.467	113
567.679	104
567.891	112
568.102	112
568.314	86
568.526	116
568.737	105
568.949	110
569.161	109
569.372	114
569.584	104
569.795	107
570.007	108
570.218	92
570.43	101
570.641	86
570.853	102
571.064	93
571.276	105
571.487	92
571.698	112
571.91	109
572.121	100
572.333	83
572.544	115
572.755	111
572.966	99
573.178	101
573.389	102
573.6	113
573.811	98
574.023	120
574.234	103
574.445	105
574.656	104
574.867	93
575.078	107
575.289	94
575.501	108
575.712	96
575.923	100
576.134	96
576.345	108
576.556	93
576.767	90
576.978	94
577.188	87
577.399	108
577.61	96
577.821	93
578.032	96
578.243	86
578.454	107
578.665	94
578.875	99
579.086	96
579.297	109
579.508	102
579.718	83
579.929	98
580.14	105
580.35	110
580.561	107
580.772	99
580.982	93
581.193	100
581.403	96
581.614	99
581.825	112
582.035	107
582.246	102
582.456	103
582.667	92
582.877	98
583.087	105
583.298	97
583.508	133
583.719	103
583.929	110
584.139	103
584.35	95
584.56	92
584.77	86
584.981	98
