Data from 2145_2_HRD10591_00027.txt Node
Date: Mon Jan 19 14:22:15 EST 2026
User: Yrep
Spectrometer: HR+D1059
Trigger mode: 1
Integration Time (sec): 1.000000E-1
Scans to average: 1
Electric dark correction enabled: true
Nonlinearity correction enabled: false
Boxcar width: 0
XAxis mode: Wavelengths
Number of Pixels in Spectrum: 2048
>>>>>Begin Spectral Data<<<<<
223.165	-18.38
223.4	-18.38
223.635	-18.38
223.869	-25.38
224.104	-13.38
224.338	-21.38
224.573	-19.38
224.808	-17.38
225.042	-1.38
225.277	-1.38
225.511	-3.38
225.746	-0.38
225.98	2.62
226.215	17.62
226.449	23.62
226.683	15.62
226.918	31.62
227.152	30.62
227.387	16.62
227.621	39.62
227.856	40.62
228.09	53.62
228.324	51.62
228.559	62.62
228.793	70.62
229.027	57.62
229.262	49.62
229.496	66.62
229.73	60.62
229.964	68.62
230.199	63.62
230.433	64.62
230.667	78.62
230.901	72.62
231.136	74.62
231.37	74.62
231.604	66.62
231.838	79.62
232.072	73.62
232.306	90.62
232.541	79.62
232.775	88.62
233.009	65.62
233.243	83.62
233.477	76.62
233.711	85.62
233.945	94.62
234.179	73.62
234.413	88.62
234.647	81.62
234.881	77.62
235.115	83.62
235.349	64.62
235.583	94.62
235.817	70.62
236.051	89.62
236.285	76.62
236.519	62.62
236.753	65.62
236.987	80.62
237.221	74.62
237.455	74.62
237.689	83.62
237.922	79.62
238.156	76.62
238.39	82.62
238.624	65.62
238.858	69.62
239.091	65.62
239.325	65.62
239.559	81.62
239.793	79.62
240.027	89.62
240.26	64.62
240.494	68.62
240.728	84.62
240.961	80.62
241.195	87.62
241.429	74.62
241.662	75.62
241.896	69.62
242.13	68.62
242.363	76.62
242.597	82.62
242.83	69.62
243.064	80.62
243.298	77.62
243.531	66.62
243.765	77.62
243.998	70.62
244.232	84.62
244.465	82.62
244.699	79.62
244.932	78.62
245.166	83.62
245.399	69.62
245.633	78.62
245.866	86.62
246.099	76.62
246.333	60.62
246.566	82.62
246.8	82.62
247.033	84.62
247.266	66.62
247.5	78.62
247.733	80.62
247.966	72.62
248.2	70.62
248.433	79.62
248.666	73.62
248.899	93.62
249.133	82.62
249.366	64.62
249.599	71.62
249.832	84.62
250.066	87.62
250.299	58.62
250.532	83.62
250.765	72.62
250.998	62.62
251.231	77.62
251.465	89.62
251.698	77.62
251.931	74.62
252.164	89.62
252.397	88.62
252.63	86.62
252.863	67.62
253.096	84.62
253.329	84.62
253.562	67.62
253.795	79.62
254.028	56.62
254.261	70.62
254.494	77.62
254.727	75.62
254.96	72.62
255.193	83.62
255.426	75.62
255.659	81.62
255.892	76.62
256.124	77.62
256.357	76.62
256.59	90.62
256.823	75.62
257.056	74.62
257.289	68.62
257.521	75.62
257.754	64.62
257.987	76.62
258.22	76.62
258.452	81.62
258.685	72.62
258.918	78.62
259.151	74.62
259.383	83.62
259.616	69.62
259.849	79.62
260.081	80.62
260.314	70.62
260.547	82.62
260.779	78.62
261.012	73.62
261.244	80.62
261.477	74.62
261.71	74.62
261.942	68.62
262.175	69.62
262.407	80.62
262.64	73.62
262.872	76.62
263.105	73.62
263.337	83.62
263.57	77.62
263.802	77.62
264.035	93.62
264.267	80.62
264.499	68.62
264.732	72.62
264.964	85.62
265.197	81.62
265.429	69.62
265.661	76.62
265.894	82.62
266.126	74.62
266.358	67.62
266.591	78.62
266.823	75.62
267.055	87.62
267.287	84.62
267.52	75.62
267.752	76.62
267.984	92.62
268.216	79.62
268.448	71.62
268.681	85.62
268.913	96.62
269.145	87.62
269.377	83.62
269.609	64.62
269.841	71.62
270.073	86.62
270.306	79.62
270.538	71.62
270.77	86.62
271.002	86.62
271.234	81.62
271.466	77.62
271.698	84.62
271.93	79.62
272.162	79.62
272.394	81.62
272.626	74.62
272.858	86.62
273.09	84.62
273.322	103.62
273.553	82.62
273.785	88.62
274.017	78.62
274.249	88.62
274.481	91.62
274.713	76.62
274.945	91.62
275.176	76.62
275.408	80.62
275.64	75.62
275.872	86.62
276.104	64.62
276.335	86.62
276.567	87.62
276.799	86.62
277.031	80.62
277.262	81.62
277.494	77.62
277.726	84.62
277.957	79.62
278.189	89.62
278.421	75.62
278.652	73.62
278.884	81.62
279.115	83.62
279.347	83.62
279.579	95.62
279.81	84.62
280.042	72.62
280.273	66.62
280.505	80.62
280.736	76.62
280.968	90.62
281.199	94.62
281.431	82.62
281.662	86.62
281.894	84.62
282.125	69.62
282.356	78.62
282.588	85.62
282.819	75.62
283.051	71.62
283.282	76.62
283.513	85.62
283.745	85.62
283.976	86.62
284.207	76.62
284.439	76.62
284.67	83.62
284.901	76.62
285.132	88.62
285.364	84.62
285.595	91.62
285.826	97.62
286.057	82.62
286.288	93.62
286.52	84.62
286.751	82.62
286.982	72.62
287.213	84.62
287.444	82.62
287.675	88.62
287.906	88.62
288.138	94.62
288.369	86.62
288.6	67.62
288.831	80.62
289.062	75.62
289.293	74.62
289.524	72.62
289.755	86.62
289.986	87.62
290.217	93.62
290.448	77.62
290.679	72.62
290.91	91.62
291.141	80.62
291.371	82.62
291.602	75.62
291.833	82.62
292.064	71.62
292.295	74.62
292.526	82.62
292.757	75.62
292.987	66.62
293.218	82.62
293.449	84.62
293.68	90.62
293.91	73.62
294.141	84.62
294.372	64.62
294.603	75.62
294.833	91.62
295.064	79.62
295.295	72.62
295.525	83.62
295.756	92.62
295.987	78.62
296.217	87.62
296.448	86.62
296.679	101.62
296.909	72.62
297.14	75.62
297.37	76.62
297.601	74.62
297.831	80.62
298.062	78.62
298.292	95.62
298.523	91.62
298.753	83.62
298.984	88.62
299.214	77.62
299.445	75.62
299.675	82.62
299.905	81.62
300.136	78.62
300.366	100.62
300.597	91.62
300.827	91.62
301.057	80.62
301.288	95.62
301.518	94.62
301.748	85.62
301.979	86.62
302.209	83.62
302.439	87.62
302.669	89.62
302.9	74.62
303.13	74.62
303.36	78.62
303.59	66.62
303.82	80.62
304.051	92.62
304.281	96.62
304.511	83.62
304.741	77.62
304.971	92.62
305.201	99.62
305.431	91.62
305.661	95.62
305.891	82.62
306.121	85.62
306.352	71.62
306.582	79.62
306.812	90.62
307.042	91.62
307.272	82.62
307.502	74.62
307.731	70.62
307.961	79.62
308.191	80.62
308.421	80.62
308.651	83.62
308.881	79.62
309.111	83.62
309.341	82.62
309.571	82.62
309.8	76.62
310.03	81.62
310.26	84.62
310.49	76.62
310.72	73.62
310.949	80.62
311.179	93.62
311.409	83.62
311.639	86.62
311.868	89.62
312.098	91.62
312.328	78.62
312.557	82.62
312.787	72.62
313.017	82.62
313.246	89.62
313.476	86.62
313.706	97.62
313.935	66.62
314.165	71.62
314.394	90.62
314.624	94.62
314.853	87.62
315.083	93.62
315.312	87.62
315.542	82.62
315.771	71.62
316.001	66.62
316.23	98.62
316.46	80.62
316.689	86.62
316.919	87.62
317.148	86.62
317.377	93.62
317.607	77.62
317.836	77.62
318.065	89.62
318.295	65.62
318.524	74.62
318.753	78.62
318.983	78.62
319.212	78.62
319.441	84.62
319.67	88.62
319.9	75.62
320.129	88.62
320.358	83.62
320.587	81.62
320.816	88.62
321.046	66.62
321.275	72.62
321.504	68.62
321.733	83.62
321.962	88.62
322.191	75.62
322.42	70.62
322.649	81.62
322.878	94.62
323.108	74.62
323.337	81.62
323.566	88.62
323.795	86.62
324.024	83.62
324.253	71.62
324.482	86.62
324.71	82.62
324.939	81.62
325.168	93.62
325.397	87.62
325.626	79.62
325.855	81.62
326.084	94.62
326.313	72.62
326.542	83.62
326.77	79.62
326.999	92.62
327.228	104.62
327.457	86.62
327.686	82.62
327.914	96.62
328.143	88.62
328.372	96.62
328.6	72.62
328.829	64.62
329.058	64.62
329.287	80.62
329.515	80.62
329.744	85.62
329.972	81.62
330.201	80.62
330.43	90.62
330.658	92.62
330.887	73.62
331.115	92.62
331.344	87.62
331.572	81.62
331.801	82.62
332.03	91.62
332.258	90.62
332.486	85.62
332.715	90.62
332.943	83.62
333.172	88.62
333.4	86.62
333.629	66.62
333.857	85.62
334.085	84.62
334.314	80.62
334.542	99.62
334.771	83.62
334.999	67.62
335.227	91.62
335.455	74.62
335.684	107.62
335.912	93.62
336.14	91.62
336.369	95.62
336.597	94.62
336.825	103.62
337.053	95.62
337.281	79.62
337.51	86.62
337.738	87.62
337.966	73.62
338.194	95.62
338.422	89.62
338.65	92.62
338.878	70.62
339.106	87.62
339.334	87.62
339.562	80.62
339.79	83.62
340.018	79.62
340.246	83.62
340.474	66.62
340.702	77.62
340.93	83.62
341.158	81.62
341.386	80.62
341.614	82.62
341.842	77.62
342.07	83.62
342.298	73.62
342.526	88.62
342.754	87.62
342.981	86.62
343.209	92.62
343.437	96.62
343.665	83.62
343.893	90.62
344.12	81.62
344.348	72.62
344.576	94.62
344.804	91.62
345.031	83.62
345.259	70.62
345.487	73.62
345.714	76.62
345.942	83.62
346.17	68.62
346.397	76.62
346.625	88.62
346.853	93.62
347.08	72.62
347.308	75.62
347.535	84.62
347.763	76.62
347.99	90.62
348.218	84.62
348.445	85.62
348.673	78.62
348.9	83.62
349.128	73.62
349.355	75.62
349.583	75.62
349.81	62.62
350.037	62.62
350.265	79.62
350.492	83.62
350.72	89.62
350.947	83.62
351.174	71.62
351.402	85.62
351.629	84.62
351.856	90.62
352.083	80.62
352.311	79.62
352.538	88.62
352.765	82.62
352.992	81.62
353.22	86.62
353.447	89.62
353.674	77.62
353.901	96.62
354.128	72.62
354.355	73.62
354.583	87.62
354.81	71.62
355.037	84.62
355.264	83.62
355.491	82.62
355.718	82.62
355.945	84.62
356.172	90.62
356.399	72.62
356.626	93.62
356.853	89.62
357.08	91.62
357.307	90.62
357.534	102.62
357.761	82.62
357.988	92.62
358.215	72.62
358.441	81.62
358.668	75.62
358.895	86.62
359.122	72.62
359.349	74.62
359.576	82.62
359.802	74.62
360.029	89.62
360.256	89.62
360.483	101.62
360.709	84.62
360.936	83.62
361.163	81.62
361.39	83.62
361.616	90.62
361.843	95.62
362.07	80.62
362.296	92.62
362.523	80.62
362.749	94.62
362.976	110.62
363.203	107.62
363.429	100.62
363.656	99.62
363.882	83.62
364.109	107.62
364.335	113.62
364.562	118.62
364.788	102.62
365.015	90.62
365.241	76.62
365.468	91.62
365.694	89.62
365.92	82.62
366.147	76.62
366.373	71.62
366.599	75.62
366.826	99.62
367.052	89.62
367.278	100.62
367.505	81.62
367.731	97.62
367.957	72.62
368.184	80.62
368.41	85.62
368.636	84.62
368.862	88.62
369.089	79.62
369.315	85.62
369.541	81.62
369.767	84.62
369.993	83.62
370.219	80.62
370.445	91.62
370.672	82.62
370.898	91.62
371.124	80.62
371.35	65.62
371.576	81.62
371.802	92.62
372.028	76.62
372.254	95.62
372.48	90.62
372.706	90.62
372.932	80.62
373.158	95.62
373.384	83.62
373.61	93.62
373.835	98.62
374.061	83.62
374.287	82.62
374.513	76.62
374.739	78.62
374.965	78.62
375.191	99.62
375.416	85.62
375.642	103.62
375.868	93.62
376.094	88.62
376.319	75.62
376.545	82.62
376.771	84.62
376.997	82.62
377.222	82.62
377.448	79.62
377.674	84.62
377.899	79.62
378.125	83.62
378.35	82.62
378.576	91.62
378.802	80.62
379.027	80.62
379.253	94.62
379.478	78.62
379.704	80.62
379.929	74.62
380.155	90.62
380.38	80.62
380.606	86.62
380.831	76.62
381.057	76.62
381.282	81.62
381.507	95.62
381.733	79.62
381.958	88.62
382.184	72.62
382.409	102.62
382.634	84.62
382.86	84.62
383.085	83.62
383.31	97.62
383.535	87.62
383.761	92.62
383.986	96.62
384.211	97.62
384.436	89.62
384.662	88.62
384.887	77.62
385.112	82.62
385.337	81.62
385.562	87.62
385.787	76.62
386.013	85.62
386.238	90.62
386.463	85.62
386.688	92.62
386.913	77.62
387.138	80.62
387.363	83.62
387.588	88.62
387.813	99.62
388.038	89.62
388.263	90.62
388.488	88.62
388.713	87.62
388.938	90.62
389.163	79.62
389.387	72.62
389.612	85.62
389.837	92.62
390.062	82.62
390.287	89.62
390.512	98.62
390.736	80.62
390.961	90.62
391.186	90.62
391.411	81.62
391.636	97.62
391.86	92.62
392.085	90.62
392.31	80.62
392.534	95.62
392.759	94.62
392.984	119.62
393.208	162.62
393.433	197.62
393.658	174.62
393.882	109.62
394.107	103.62
394.331	104.62
394.556	105.62
394.78	82.62
395.005	77.62
395.229	80.62
395.454	100.62
395.678	103.62
395.903	102.62
396.127	110.62
396.352	128.62
396.576	114.62
396.801	152.62
397.025	161.62
397.249	114.62
397.474	100.62
397.698	90.62
397.922	94.62
398.147	78.62
398.371	71.62
398.595	80.62
398.82	99.62
399.044	92.62
399.268	90.62
399.492	84.62
399.717	87.62
399.941	85.62
400.165	92.62
400.389	98.62
400.613	92.62
400.837	77.62
401.062	88.62
401.286	76.62
401.51	82.62
401.734	74.62
401.958	83.62
402.182	90.62
402.406	87.62
402.63	76.62
402.854	84.62
403.078	81.62
403.302	84.62
403.526	84.62
403.75	89.62
403.974	76.62
404.198	87.62
404.422	87.62
404.645	95.62
404.869	84.62
405.093	76.62
405.317	75.62
405.541	74.62
405.765	75.62
405.988	81.62
406.212	75.62
406.436	84.62
406.66	90.62
406.883	72.62
407.107	80.62
407.331	81.62
407.555	84.62
407.778	95.62
408.002	95.62
408.226	95.62
408.449	94.62
408.673	91.62
408.896	82.62
409.12	102.62
409.344	103.62
409.567	100.62
409.791	90.62
410.014	92.62
410.238	95.62
410.461	87.62
410.685	84.62
410.908	98.62
411.132	95.62
411.355	92.62
411.578	70.62
411.802	81.62
412.025	69.62
412.249	79.62
412.472	90.62
412.695	82.62
412.919	76.62
413.142	96.62
413.365	75.62
413.589	83.62
413.812	84.62
414.035	94.62
414.258	76.62
414.482	89.62
414.705	79.62
414.928	84.62
415.151	88.62
415.374	69.62
415.597	84.62
415.821	92.62
416.044	70.62
416.267	92.62
416.49	86.62
416.713	89.62
416.936	89.62
417.159	76.62
417.382	78.62
417.605	89.62
417.828	80.62
418.051	80.62
418.274	84.62
418.497	88.62
418.72	73.62
418.943	83.62
419.166	84.62
419.389	77.62
419.611	62.62
419.834	73.62
420.057	100.62
420.28	77.62
420.503	92.62
420.726	81.62
420.948	90.62
421.171	97.62
421.394	102.62
421.617	104.62
421.839	132.62
422.062	113.62
422.285	137.62
422.507	209.62
422.73	258.62
422.953	231.62
423.175	171.62
423.398	138.62
423.621	98.62
423.843	88.62
424.066	89.62
424.288	92.62
424.511	87.62
424.733	78.62
424.956	90.62
425.178	91.62
425.401	85.62
425.623	104.62
425.846	75.62
426.068	90.62
426.291	84.62
426.513	77.62
426.735	86.62
426.958	86.62
427.18	83.62
427.402	85.62
427.625	92.62
427.847	90.62
428.069	100.62
428.292	104.62
428.514	121.62
428.736	99.62
428.958	115.62
429.181	114.62
429.403	83.62
429.625	81.62
429.847	91.62
430.069	138.62
430.292	151.62
430.514	144.62
430.736	114.62
430.958	103.62
431.18	95.62
431.402	84.62
431.624	91.62
431.846	100.62
432.068	113.62
432.29	82.62
432.512	92.62
432.734	86.62
432.956	84.62
433.178	89.62
433.4	63.62
433.622	85.62
433.844	83.62
434.066	89.62
434.287	83.62
434.509	77.62
434.731	85.62
434.953	71.62
435.175	96.62
435.397	77.62
435.618	83.62
435.84	84.62
436.062	89.62
436.284	90.62
436.505	87.62
436.727	88.62
436.949	75.62
437.17	84.62
437.392	92.62
437.614	77.62
437.835	74.62
438.057	58.62
438.278	72.62
438.5	80.62
438.721	77.62
438.943	71.62
439.165	84.62
439.386	80.62
439.608	88.62
439.829	82.62
440.05	100.62
440.272	97.62
440.493	82.62
440.715	77.62
440.936	76.62
441.158	82.62
441.379	78.62
441.6	73.62
441.822	87.62
442.043	66.62
442.264	93.62
442.486	134.62
442.707	139.62
442.928	112.62
443.149	106.62
443.371	129.62
443.592	182.62
443.813	175.62
444.034	112.62
444.255	101.62
444.476	84.62
444.698	92.62
444.919	95.62
445.14	187.62
445.361	192.62
445.582	229.62
445.803	193.62
446.024	107.62
446.245	96.62
446.466	88.62
446.687	85.62
446.908	74.62
447.129	87.62
447.35	69.62
447.571	87.62
447.792	70.62
448.013	66.62
448.234	82.62
448.455	82.62
448.675	94.62
448.896	81.62
449.117	72.62
449.338	84.62
449.559	82.62
449.779	72.62
450	76.62
450.221	88.62
450.442	98.62
450.662	98.62
450.883	95.62
451.104	97.62
451.324	90.62
451.545	74.62
451.766	80.62
451.986	84.62
452.207	66.62
452.428	80.62
452.648	96.62
452.869	86.62
453.089	84.62
453.31	85.62
453.53	98.62
453.751	89.62
453.971	76.62
454.192	76.62
454.412	73.62
454.633	88.62
454.853	87.62
455.073	76.62
455.294	76.62
455.514	69.62
455.734	68.62
455.955	87.62
456.175	84.62
456.395	92.62
456.616	81.62
456.836	80.62
457.056	82.62
457.276	82.62
457.497	89.62
457.717	72.62
457.937	94.62
458.157	116.62
458.377	118.62
458.598	114.62
458.818	113.62
459.038	99.62
459.258	83.62
459.478	82.62
459.698	90.62
459.918	88.62
460.138	100.62
460.358	94.62
460.578	102.62
460.798	118.62
461.018	114.62
461.238	83.62
461.458	74.62
461.678	66.62
461.898	79.62
462.118	93.62
462.338	71.62
462.558	77.62
462.777	79.62
462.997	86.62
463.217	72.62
463.437	80.62
463.657	77.62
463.876	81.62
464.096	90.62
464.316	58.62
464.536	94.62
464.755	83.62
464.975	76.62
465.195	72.62
465.414	86.62
465.634	83.62
465.854	84.62
466.073	79.62
466.293	64.62
466.512	84.62
466.732	76.62
466.951	79.62
467.171	71.62
467.391	79.62
467.61	91.62
467.829	93.62
468.049	74.62
468.268	59.62
468.488	89.62
468.707	75.62
468.927	85.62
469.146	70.62
469.365	86.62
469.585	84.62
469.804	76.62
470.023	86.62
470.243	89.62
470.462	92.62
470.681	87.62
470.901	94.62
471.12	91.62
471.339	76.62
471.558	80.62
471.777	83.62
471.997	104.62
472.216	84.62
472.435	75.62
472.654	83.62
472.873	82.62
473.092	85.62
473.311	78.62
473.53	79.62
473.749	97.62
473.968	88.62
474.187	72.62
474.406	87.62
474.625	79.62
474.844	84.62
475.063	89.62
475.282	89.62
475.501	67.62
475.72	81.62
475.939	80.62
476.158	88.62
476.377	79.62
476.596	86.62
476.814	79.62
477.033	73.62
477.252	82.62
477.471	74.62
477.69	84.62
477.908	90.62
478.127	101.62
478.346	90.62
478.564	85.62
478.783	80.62
479.002	84.62
479.22	88.62
479.439	85.62
479.658	86.62
479.876	76.62
480.095	79.62
480.313	74.62
480.532	84.62
480.751	95.62
480.969	90.62
481.188	71.62
481.406	100.62
481.624	80.62
481.843	79.62
482.061	89.62
482.28	91.62
482.498	76.62
482.717	89.62
482.935	89.62
483.153	96.62
483.372	94.62
483.59	82.62
483.808	86.62
484.027	95.62
484.245	84.62
484.463	84.62
484.681	84.62
484.9	86.62
485.118	89.62
485.336	97.62
485.554	83.62
485.772	83.62
485.99	76.62
486.209	77.62
486.427	74.62
486.645	82.62
486.863	84.62
487.081	84.62
487.299	79.62
487.517	99.62
487.735	114.62
487.953	180.62
488.171	123.62
488.389	94.62
488.607	82.62
488.825	94.62
489.043	78.62
489.261	94.62
489.479	90.62
489.696	70.62
489.914	83.62
490.132	80.62
490.35	84.62
490.568	92.62
490.786	86.62
491.003	82.62
491.221	92.62
491.439	92.62
491.657	81.62
491.874	89.62
492.092	70.62
492.31	73.62
492.527	85.62
492.745	96.62
492.963	96.62
493.18	77.62
493.398	95.62
493.615	80.62
493.833	76.62
494.05	78.62
494.268	70.62
494.485	89.62
494.703	86.62
494.92	80.62
495.138	86.62
495.355	100.62
495.573	90.62
495.79	85.62
496.008	90.62
496.225	67.62
496.442	95.62
496.66	103.62
496.877	83.62
497.094	91.62
497.312	79.62
497.529	80.62
497.746	77.62
497.963	90.62
498.181	65.62
498.398	98.62
498.615	97.62
498.832	94.62
499.049	91.62
499.267	90.62
499.484	82.62
499.701	83.62
499.918	86.62
500.135	99.62
500.352	91.62
500.569	69.62
500.786	94.62
501.003	86.62
501.22	84.62
501.437	93.62
501.654	88.62
501.871	106.62
502.088	81.62
502.305	91.62
502.522	91.62
502.739	82.62
502.956	95.62
503.172	92.62
503.389	83.62
503.606	99.62
503.823	89.62
504.04	74.62
504.256	139.62
504.473	117.62
504.69	92.62
504.907	87.62
505.123	80.62
505.34	86.62
505.557	75.62
505.773	70.62
505.99	85.62
506.207	92.62
506.423	80.62
506.64	88.62
506.856	91.62
507.073	94.62
507.289	80.62
507.506	94.62
507.722	88.62
507.939	69.62
508.155	87.62
508.372	82.62
508.588	79.62
508.805	95.62
509.021	79.62
509.238	83.62
509.454	91.62
509.67	83.62
509.887	90.62
510.103	89.62
510.319	79.62
510.536	80.62
510.752	73.62
510.968	95.62
511.184	86.62
511.401	82.62
511.617	86.62
511.833	91.62
512.049	89.62
512.265	69.62
512.481	84.62
512.698	84.62
512.914	82.62
513.13	82.62
513.346	87.62
513.562	82.62
513.778	82.62
513.994	91.62
514.21	92.62
514.426	89.62
514.642	83.62
514.858	92.62
515.074	90.62
515.29	79.62
515.506	78.62
515.721	62.62
515.937	79.62
516.153	68.62
516.369	89.62
516.585	92.62
516.801	76.62
517.016	81.62
517.232	90.62
517.448	106.62
517.664	82.62
517.879	77.62
518.095	73.62
518.311	88.62
518.527	97.62
518.742	94.62
518.958	132.62
