Data from 2145_2_HRD10591_00045.txt Node
Date: Mon Jan 19 14:22:24 EST 2026
User: Yrep
Spectrometer: HR+D1059
Trigger mode: 1
Integration Time (sec): 1.000000E-1
Scans to average: 1
Electric dark correction enabled: true
Nonlinearity correction enabled: false
Boxcar width: 0
XAxis mode: Wavelengths
Number of Pixels in Spectrum: 2048
>>>>>Begin Spectral Data<<<<<
223.165	-21.88
223.4	-21.88
223.635	-21.88
223.869	-11.88
224.104	-18.88
224.338	-11.88
224.573	-5.88
224.808	-9.88
225.042	-9.88
225.277	-19.88
225.511	-4.88
225.746	3.12
225.98	-2.88
226.215	15.12
226.449	17.12
226.683	26.12
226.918	24.12
227.152	32.12
227.387	38.12
227.621	46.12
227.856	47.12
228.09	66.12
228.324	52.12
228.559	71.12
228.793	70.12
229.027	68.12
229.262	59.12
229.496	78.12
229.73	73.12
229.964	75.12
230.199	78.12
230.433	81.12
230.667	78.12
230.901	80.12
231.136	71.12
231.37	80.12
231.604	86.12
231.838	80.12
232.072	67.12
232.306	79.12
232.541	89.12
232.775	70.12
233.009	81.12
233.243	90.12
233.477	85.12
233.711	79.12
233.945	75.12
234.179	80.12
234.413	72.12
234.647	84.12
234.881	80.12
235.115	80.12
235.349	85.12
235.583	86.12
235.817	72.12
236.051	81.12
236.285	75.12
236.519	65.12
236.753	86.12
236.987	86.12
237.221	80.12
237.455	74.12
237.689	77.12
237.922	76.12
238.156	77.12
238.39	75.12
238.624	77.12
238.858	60.12
239.091	81.12
239.325	78.12
239.559	72.12
239.793	76.12
240.027	72.12
240.26	79.12
240.494	63.12
240.728	72.12
240.961	78.12
241.195	76.12
241.429	86.12
241.662	59.12
241.896	66.12
242.13	75.12
242.363	74.12
242.597	75.12
242.83	62.12
243.064	66.12
243.298	75.12
243.531	87.12
243.765	81.12
243.998	65.12
244.232	75.12
244.465	86.12
244.699	74.12
244.932	81.12
245.166	74.12
245.399	81.12
245.633	84.12
245.866	77.12
246.099	83.12
246.333	82.12
246.566	86.12
246.8	75.12
247.033	82.12
247.266	66.12
247.5	83.12
247.733	70.12
247.966	88.12
248.2	84.12
248.433	69.12
248.666	90.12
248.899	74.12
249.133	77.12
249.366	85.12
249.599	79.12
249.832	82.12
250.066	86.12
250.299	94.12
250.532	80.12
250.765	71.12
250.998	77.12
251.231	75.12
251.465	76.12
251.698	84.12
251.931	78.12
252.164	92.12
252.397	82.12
252.63	87.12
252.863	91.12
253.096	78.12
253.329	72.12
253.562	83.12
253.795	84.12
254.028	72.12
254.261	98.12
254.494	90.12
254.727	79.12
254.96	90.12
255.193	84.12
255.426	71.12
255.659	71.12
255.892	78.12
256.124	83.12
256.357	78.12
256.59	81.12
256.823	78.12
257.056	80.12
257.289	76.12
257.521	89.12
257.754	76.12
257.987	84.12
258.22	88.12
258.452	94.12
258.685	94.12
258.918	86.12
259.151	86.12
259.383	76.12
259.616	82.12
259.849	75.12
260.081	87.12
260.314	87.12
260.547	88.12
260.779	75.12
261.012	66.12
261.244	87.12
261.477	91.12
261.71	74.12
261.942	84.12
262.175	76.12
262.407	80.12
262.64	81.12
262.872	93.12
263.105	74.12
263.337	87.12
263.57	86.12
263.802	76.12
264.035	90.12
264.267	84.12
264.499	91.12
264.732	77.12
264.964	87.12
265.197	74.12
265.429	90.12
265.661	76.12
265.894	90.12
266.126	86.12
266.358	86.12
266.591	62.12
266.823	87.12
267.055	86.12
267.287	78.12
267.52	74.12
267.752	80.12
267.984	93.12
268.216	80.12
268.448	93.12
268.681	90.12
268.913	91.12
269.145	74.12
269.377	79.12
269.609	92.12
269.841	96.12
270.073	89.12
270.306	87.12
270.538	80.12
270.77	69.12
271.002	69.12
271.234	96.12
271.466	88.12
271.698	86.12
271.93	75.12
272.162	100.12
272.394	88.12
272.626	91.12
272.858	79.12
273.09	81.12
273.322	95.12
273.553	92.12
273.785	86.12
274.017	90.12
274.249	85.12
274.481	92.12
274.713	81.12
274.945	90.12
275.176	91.12
275.408	74.12
275.64	98.12
275.872	71.12
276.104	72.12
276.335	84.12
276.567	77.12
276.799	96.12
277.031	77.12
277.262	80.12
277.494	75.12
277.726	76.12
277.957	88.12
278.189	89.12
278.421	96.12
278.652	75.12
278.884	76.12
279.115	92.12
279.347	83.12
279.579	66.12
279.81	92.12
280.042	91.12
280.273	80.12
280.505	80.12
280.736	77.12
280.968	96.12
281.199	70.12
281.431	93.12
281.662	99.12
281.894	96.12
282.125	103.12
282.356	82.12
282.588	86.12
282.819	72.12
283.051	80.12
283.282	84.12
283.513	72.12
283.745	90.12
283.976	74.12
284.207	89.12
284.439	95.12
284.67	86.12
284.901	98.12
285.132	83.12
285.364	95.12
285.595	87.12
285.826	94.12
286.057	73.12
286.288	93.12
286.52	85.12
286.751	106.12
286.982	107.12
287.213	86.12
287.444	86.12
287.675	84.12
287.906	88.12
288.138	86.12
288.369	91.12
288.6	98.12
288.831	67.12
289.062	85.12
289.293	94.12
289.524	82.12
289.755	91.12
289.986	102.12
290.217	103.12
290.448	78.12
290.679	83.12
290.91	88.12
291.141	77.12
291.371	84.12
291.602	83.12
291.833	79.12
292.064	92.12
292.295	92.12
292.526	81.12
292.757	87.12
292.987	94.12
293.218	84.12
293.449	82.12
293.68	85.12
293.91	81.12
294.141	88.12
294.372	83.12
294.603	98.12
294.833	88.12
295.064	90.12
295.295	98.12
295.525	90.12
295.756	94.12
295.987	90.12
296.217	90.12
296.448	83.12
296.679	76.12
296.909	98.12
297.14	92.12
297.37	98.12
297.601	92.12
297.831	76.12
298.062	93.12
298.292	84.12
298.523	75.12
298.753	86.12
298.984	79.12
299.214	99.12
299.445	90.12
299.675	99.12
299.905	94.12
300.136	94.12
300.366	95.12
300.597	86.12
300.827	76.12
301.057	102.12
301.288	102.12
301.518	83.12
301.748	103.12
301.979	99.12
302.209	88.12
302.439	98.12
302.669	84.12
302.9	82.12
303.13	88.12
303.36	94.12
303.59	87.12
303.82	98.12
304.051	99.12
304.281	98.12
304.511	92.12
304.741	86.12
304.971	84.12
305.201	93.12
305.431	86.12
305.661	84.12
305.891	99.12
306.121	87.12
306.352	70.12
306.582	95.12
306.812	79.12
307.042	75.12
307.272	95.12
307.502	94.12
307.731	91.12
307.961	98.12
308.191	99.12
308.421	93.12
308.651	97.12
308.881	74.12
309.111	94.12
309.341	111.12
309.571	104.12
309.8	92.12
310.03	92.12
310.26	81.12
310.49	77.12
310.72	72.12
310.949	80.12
311.179	83.12
311.409	76.12
311.639	93.12
311.868	88.12
312.098	77.12
312.328	100.12
312.557	97.12
312.787	84.12
313.017	92.12
313.246	85.12
313.476	93.12
313.706	93.12
313.935	81.12
314.165	93.12
314.394	83.12
314.624	89.12
314.853	98.12
315.083	93.12
315.312	86.12
315.542	92.12
315.771	104.12
316.001	101.12
316.23	87.12
316.46	89.12
316.689	89.12
316.919	85.12
317.148	83.12
317.377	92.12
317.607	92.12
317.836	98.12
318.065	86.12
318.295	92.12
318.524	94.12
318.753	89.12
318.983	82.12
319.212	82.12
319.441	74.12
319.67	76.12
319.9	96.12
320.129	93.12
320.358	91.12
320.587	100.12
320.816	104.12
321.046	99.12
321.275	92.12
321.504	90.12
321.733	92.12
321.962	89.12
322.191	109.12
322.42	93.12
322.649	94.12
322.878	94.12
323.108	84.12
323.337	102.12
323.566	105.12
323.795	90.12
324.024	87.12
324.253	86.12
324.482	97.12
324.71	100.12
324.939	93.12
325.168	106.12
325.397	89.12
325.626	86.12
325.855	77.12
326.084	86.12
326.313	86.12
326.542	101.12
326.77	99.12
326.999	88.12
327.228	100.12
327.457	100.12
327.686	93.12
327.914	101.12
328.143	86.12
328.372	101.12
328.6	96.12
328.829	103.12
329.058	89.12
329.287	95.12
329.515	91.12
329.744	82.12
329.972	108.12
330.201	85.12
330.43	101.12
330.658	95.12
330.887	91.12
331.115	89.12
331.344	96.12
331.572	89.12
331.801	90.12
332.03	107.12
332.258	72.12
332.486	83.12
332.715	87.12
332.943	80.12
333.172	87.12
333.4	93.12
333.629	80.12
333.857	100.12
334.085	102.12
334.314	86.12
334.542	90.12
334.771	99.12
334.999	93.12
335.227	92.12
335.455	90.12
335.684	101.12
335.912	100.12
336.14	104.12
336.369	102.12
336.597	98.12
336.825	111.12
337.053	102.12
337.281	84.12
337.51	90.12
337.738	88.12
337.966	97.12
338.194	93.12
338.422	84.12
338.65	85.12
338.878	96.12
339.106	81.12
339.334	91.12
339.562	89.12
339.79	91.12
340.018	72.12
340.246	88.12
340.474	102.12
340.702	83.12
340.93	80.12
341.158	86.12
341.386	87.12
341.614	83.12
341.842	89.12
342.07	99.12
342.298	78.12
342.526	82.12
342.754	79.12
342.981	90.12
343.209	77.12
343.437	109.12
343.665	74.12
343.893	105.12
344.12	105.12
344.348	94.12
344.576	99.12
344.804	105.12
345.031	90.12
345.259	95.12
345.487	84.12
345.714	96.12
345.942	79.12
346.17	94.12
346.397	83.12
346.625	91.12
346.853	81.12
347.08	77.12
347.308	85.12
347.535	99.12
347.763	91.12
347.99	94.12
348.218	90.12
348.445	93.12
348.673	92.12
348.9	111.12
349.128	95.12
349.355	88.12
349.583	96.12
349.81	86.12
350.037	98.12
350.265	88.12
350.492	90.12
350.72	96.12
350.947	93.12
351.174	94.12
351.402	87.12
351.629	86.12
351.856	99.12
352.083	82.12
352.311	81.12
352.538	96.12
352.765	92.12
352.992	90.12
353.22	96.12
353.447	102.12
353.674	84.12
353.901	87.12
354.128	93.12
354.355	85.12
354.583	81.12
354.81	105.12
355.037	91.12
355.264	95.12
355.491	94.12
355.718	87.12
355.945	107.12
356.172	90.12
356.399	93.12
356.626	87.12
356.853	98.12
357.08	81.12
357.307	89.12
357.534	95.12
357.761	117.12
357.988	110.12
358.215	96.12
358.441	85.12
358.668	97.12
358.895	77.12
359.122	81.12
359.349	90.12
359.576	86.12
359.802	101.12
360.029	94.12
360.256	100.12
360.483	77.12
360.709	95.12
360.936	88.12
361.163	88.12
361.39	99.12
361.616	90.12
361.843	99.12
362.07	102.12
362.296	121.12
362.523	120.12
362.749	146.12
362.976	126.12
363.203	134.12
363.429	124.12
363.656	105.12
363.882	95.12
364.109	131.12
364.335	168.12
364.562	168.12
364.788	115.12
365.015	87.12
365.241	99.12
365.468	100.12
365.694	96.12
365.92	100.12
366.147	84.12
366.373	95.12
366.599	90.12
366.826	95.12
367.052	94.12
367.278	100.12
367.505	85.12
367.731	91.12
367.957	98.12
368.184	78.12
368.41	91.12
368.636	78.12
368.862	78.12
369.089	86.12
369.315	78.12
369.541	94.12
369.767	87.12
369.993	86.12
370.219	94.12
370.445	91.12
370.672	86.12
370.898	93.12
371.124	88.12
371.35	91.12
371.576	95.12
371.802	91.12
372.028	101.12
372.254	98.12
372.48	89.12
372.706	94.12
372.932	94.12
373.158	100.12
373.384	100.12
373.61	110.12
373.835	115.12
374.061	100.12
374.287	86.12
374.513	93.12
374.739	107.12
374.965	108.12
375.191	103.12
375.416	94.12
375.642	92.12
375.868	93.12
376.094	98.12
376.319	92.12
376.545	94.12
376.771	80.12
376.997	79.12
377.222	87.12
377.448	103.12
377.674	88.12
377.899	93.12
378.125	71.12
378.35	78.12
378.576	76.12
378.802	93.12
379.027	93.12
379.253	92.12
379.478	91.12
379.704	77.12
379.929	94.12
380.155	89.12
380.38	95.12
380.606	83.12
380.831	107.12
381.057	89.12
381.282	76.12
381.507	73.12
381.733	94.12
381.958	110.12
382.184	126.12
382.409	95.12
382.634	106.12
382.86	93.12
383.085	103.12
383.31	103.12
383.535	100.12
383.761	94.12
383.986	118.12
384.211	102.12
384.436	100.12
384.662	89.12
384.887	98.12
385.112	94.12
385.337	98.12
385.562	98.12
385.787	95.12
386.013	106.12
386.238	100.12
386.463	104.12
386.688	100.12
386.913	102.12
387.138	102.12
387.363	101.12
387.588	103.12
387.813	100.12
388.038	94.12
388.263	97.12
388.488	94.12
388.713	106.12
388.938	87.12
389.163	105.12
389.387	93.12
389.612	92.12
389.837	94.12
390.062	95.12
390.287	105.12
390.512	90.12
390.736	90.12
390.961	100.12
391.186	86.12
391.411	94.12
391.636	82.12
391.86	95.12
392.085	114.12
392.31	100.12
392.534	122.12
392.759	129.12
392.984	187.12
393.208	309.12
393.433	443.12
393.658	348.12
393.882	169.12
394.107	123.12
394.331	143.12
394.556	142.12
394.78	129.12
395.005	117.12
395.229	120.12
395.454	114.12
395.678	121.12
395.903	152.12
396.127	156.12
396.352	192.12
396.576	215.12
396.801	318.12
397.025	365.12
397.249	208.12
397.474	131.12
397.698	116.12
397.922	99.12
398.147	108.12
398.371	92.12
398.595	103.12
398.82	103.12
399.044	94.12
399.268	90.12
399.492	86.12
399.717	74.12
399.941	103.12
400.165	84.12
400.389	87.12
400.613	97.12
400.837	93.12
401.062	106.12
401.286	93.12
401.51	95.12
401.734	98.12
401.958	95.12
402.182	74.12
402.406	102.12
402.63	118.12
402.854	110.12
403.078	102.12
403.302	109.12
403.526	93.12
403.75	99.12
403.974	114.12
404.198	140.12
404.422	206.12
404.645	232.12
404.869	203.12
405.093	135.12
405.317	103.12
405.541	87.12
405.765	79.12
405.988	92.12
406.212	96.12
406.436	92.12
406.66	102.12
406.883	94.12
407.107	101.12
407.331	94.12
407.555	109.12
407.778	124.12
408.002	123.12
408.226	91.12
408.449	101.12
408.673	94.12
408.896	92.12
409.12	97.12
409.344	110.12
409.567	107.12
409.791	118.12
410.014	114.12
410.238	97.12
410.461	97.12
410.685	114.12
410.908	108.12
411.132	99.12
411.355	110.12
411.578	100.12
411.802	79.12
412.025	87.12
412.249	93.12
412.472	85.12
412.695	78.12
412.919	100.12
413.142	90.12
413.365	95.12
413.589	92.12
413.812	85.12
414.035	81.12
414.258	102.12
414.482	103.12
414.705	86.12
414.928	96.12
415.151	94.12
415.374	95.12
415.597	87.12
415.821	100.12
416.044	104.12
416.267	78.12
416.49	86.12
416.713	91.12
416.936	109.12
417.159	94.12
417.382	88.12
417.605	80.12
417.828	87.12
418.051	93.12
418.274	103.12
418.497	77.12
418.72	78.12
418.943	95.12
419.166	91.12
419.389	80.12
419.611	89.12
419.834	121.12
420.057	102.12
420.28	91.12
420.503	108.12
420.726	96.12
420.948	99.12
421.171	115.12
421.394	135.12
421.617	148.12
421.839	165.12
422.062	189.12
422.285	254.12
422.507	455.12
422.73	578.12
422.953	553.12
423.175	337.12
423.398	212.12
423.621	138.12
423.843	136.12
424.066	116.12
424.288	104.12
424.511	114.12
424.733	118.12
424.956	101.12
425.178	99.12
425.401	90.12
425.623	95.12
425.846	90.12
426.068	81.12
426.291	76.12
426.513	89.12
426.735	93.12
426.958	91.12
427.18	105.12
427.402	92.12
427.625	90.12
427.847	91.12
428.069	120.12
428.292	178.12
428.514	218.12
428.736	156.12
428.958	186.12
429.181	204.12
429.403	115.12
429.625	128.12
429.847	175.12
430.069	253.12
430.292	303.12
430.514	270.12
430.736	222.12
430.958	206.12
431.18	123.12
431.402	94.12
431.624	116.12
431.846	164.12
432.068	204.12
432.29	105.12
432.512	95.12
432.734	91.12
432.956	96.12
433.178	106.12
433.4	85.12
433.622	94.12
433.844	97.12
434.066	91.12
434.287	82.12
434.509	85.12
434.731	81.12
434.953	100.12
435.175	93.12
435.397	88.12
435.618	100.12
435.84	107.12
436.062	102.12
436.284	89.12
436.505	86.12
436.727	85.12
436.949	91.12
437.17	105.12
437.392	93.12
437.614	96.12
437.835	83.12
438.057	95.12
438.278	95.12
438.5	93.12
438.721	99.12
438.943	90.12
439.165	97.12
439.386	92.12
439.608	98.12
439.829	82.12
440.05	104.12
440.272	79.12
440.493	92.12
440.715	88.12
440.936	98.12
441.158	95.12
441.379	80.12
441.6	91.12
441.822	109.12
442.043	107.12
442.264	127.12
442.486	201.12
442.707	296.12
442.928	177.12
443.149	148.12
443.371	254.12
443.592	434.12
443.813	388.12
444.034	153.12
444.255	117.12
444.476	114.12
444.698	119.12
444.919	119.12
445.14	244.12
445.361	344.12
445.582	534.12
445.803	474.12
446.024	190.12
446.245	127.12
446.466	101.12
446.687	91.12
446.908	87.12
447.129	88.12
447.35	98.12
447.571	92.12
447.792	86.12
448.013	92.12
448.234	99.12
448.455	87.12
448.675	91.12
448.896	86.12
449.117	76.12
449.338	77.12
449.559	91.12
449.779	88.12
450	78.12
450.221	74.12
450.442	87.12
450.662	86.12
450.883	79.12
451.104	92.12
451.324	81.12
451.545	98.12
451.766	100.12
451.986	85.12
452.207	91.12
452.428	98.12
452.648	98.12
452.869	112.12
453.089	92.12
453.31	84.12
453.53	96.12
453.751	94.12
453.971	101.12
454.192	100.12
454.412	100.12
454.633	81.12
454.853	90.12
455.073	90.12
455.294	91.12
455.514	98.12
455.734	79.12
455.955	79.12
456.175	86.12
456.395	90.12
456.616	84.12
456.836	99.12
457.056	91.12
457.276	91.12
457.497	95.12
457.717	106.12
457.937	127.12
458.157	160.12
458.377	157.12
458.598	154.12
458.818	172.12
459.038	116.12
459.258	87.12
459.478	96.12
459.698	97.12
459.918	93.12
460.138	92.12
460.358	97.12
460.578	93.12
460.798	169.12
461.018	161.12
461.238	114.12
461.458	90.12
461.678	88.12
461.898	89.12
462.118	102.12
462.338	87.12
462.558	83.12
462.777	80.12
462.997	95.12
463.217	77.12
463.437	84.12
463.657	92.12
463.876	86.12
464.096	93.12
464.316	78.12
464.536	90.12
464.755	95.12
464.975	86.12
465.195	82.12
465.414	85.12
465.634	94.12
465.854	84.12
466.073	85.12
466.293	84.12
466.512	77.12
466.732	81.12
466.951	86.12
467.171	93.12
467.391	90.12
467.61	94.12
467.829	79.12
468.049	97.12
468.268	84.12
468.488	103.12
468.707	92.12
468.927	89.12
469.146	93.12
469.365	88.12
469.585	80.12
469.804	94.12
470.023	86.12
470.243	90.12
470.462	88.12
470.681	102.12
470.901	76.12
471.12	84.12
471.339	79.12
471.558	90.12
471.777	97.12
471.997	88.12
472.216	92.12
472.435	89.12
472.654	93.12
472.873	92.12
473.092	85.12
473.311	109.12
473.53	83.12
473.749	103.12
473.968	97.12
474.187	91.12
474.406	85.12
474.625	92.12
474.844	77.12
475.063	96.12
475.282	89.12
475.501	91.12
475.72	108.12
475.939	89.12
476.158	92.12
476.377	87.12
476.596	103.12
476.814	90.12
477.033	97.12
477.252	83.12
477.471	101.12
477.69	98.12
477.908	82.12
478.127	87.12
478.346	90.12
478.564	93.12
478.783	87.12
479.002	87.12
479.22	86.12
479.439	95.12
479.658	85.12
479.876	91.12
480.095	76.12
480.313	99.12
480.532	102.12
480.751	104.12
480.969	102.12
481.188	95.12
481.406	106.12
481.624	85.12
481.843	97.12
482.061	86.12
482.28	80.12
482.498	89.12
482.717	75.12
482.935	92.12
483.153	98.12
483.372	110.12
483.59	109.12
483.808	101.12
484.027	93.12
484.245	101.12
484.463	95.12
484.681	96.12
484.9	72.12
485.118	80.12
485.336	89.12
485.554	100.12
485.772	96.12
485.99	107.12
486.209	94.12
486.427	80.12
486.645	89.12
486.863	96.12
487.081	88.12
487.299	105.12
487.517	110.12
487.735	133.12
487.953	231.12
488.171	219.12
488.389	123.12
488.607	100.12
488.825	106.12
489.043	98.12
489.261	98.12
489.479	107.12
489.696	90.12
489.914	98.12
490.132	96.12
490.35	96.12
490.568	86.12
490.786	89.12
491.003	86.12
491.221	92.12
491.439	105.12
491.657	94.12
491.874	96.12
492.092	91.12
492.31	98.12
492.527	84.12
492.745	94.12
492.963	85.12
493.18	99.12
493.398	100.12
493.615	82.12
493.833	79.12
494.05	92.12
494.268	86.12
494.485	85.12
494.703	95.12
494.92	94.12
495.138	83.12
495.355	88.12
495.573	98.12
495.79	106.12
496.008	103.12
496.225	94.12
496.442	104.12
496.66	96.12
496.877	92.12
497.094	107.12
497.312	79.12
497.529	99.12
497.746	90.12
497.963	90.12
498.181	86.12
498.398	95.12
498.615	88.12
498.832	102.12
499.049	91.12
499.267	99.12
499.484	94.12
499.701	95.12
499.918	96.12
500.135	89.12
500.352	83.12
500.569	85.12
500.786	90.12
501.003	101.12
501.22	92.12
501.437	99.12
501.654	87.12
501.871	93.12
502.088	92.12
502.305	103.12
502.522	100.12
502.739	84.12
502.956	100.12
503.172	97.12
503.389	90.12
503.606	87.12
503.823	97.12
504.04	111.12
504.256	153.12
504.473	158.12
504.69	125.12
504.907	100.12
505.123	101.12
505.34	94.12
505.557	94.12
505.773	103.12
505.99	81.12
506.207	85.12
506.423	98.12
506.64	84.12
506.856	88.12
507.073	90.12
507.289	105.12
507.506	88.12
507.722	88.12
507.939	100.12
508.155	89.12
508.372	90.12
508.588	98.12
508.805	98.12
509.021	90.12
509.238	106.12
509.454	98.12
509.67	86.12
509.887	89.12
510.103	103.12
510.319	93.12
510.536	102.12
510.752	97.12
510.968	89.12
511.184	81.12
511.401	89.12
511.617	98.12
511.833	94.12
512.049	97.12
512.265	98.12
512.481	86.12
512.698	100.12
512.914	95.12
513.13	93.12
513.346	85.12
513.562	93.12
513.778	94.12
513.994	83.12
514.21	86.12
514.426	94.12
514.642	96.12
514.858	106.12
515.074	83.12
515.29	100.12
515.506	87.12
515.721	102.12
515.937	104.12
