Data from 2145_2_HRD10591_00030.txt Node
Date: Mon Jan 19 14:22:17 EST 2026
User: Yrep
Spectrometer: HR+D1059
Trigger mode: 1
Integration Time (sec): 1.000000E-1
Scans to average: 1
Electric dark correction enabled: true
Nonlinearity correction enabled: false
Boxcar width: 0
XAxis mode: Wavelengths
Number of Pixels in Spectrum: 2048
>>>>>Begin Spectral Data<<<<<
223.165	-16.5
223.4	-16.5
223.635	-16.5
223.869	-26.5
224.104	-17.5
224.338	-28.5
224.573	-5.5
224.808	2.5
225.042	-6.5
225.277	-14.5
225.511	-5.5
225.746	-1.5
225.98	8.5
226.215	9.5
226.449	21.5
226.683	24.5
226.918	27.5
227.152	28.5
227.387	46.5
227.621	30.5
227.856	50.5
228.09	38.5
228.324	60.5
228.559	52.5
228.793	74.5
229.027	52.5
229.262	81.5
229.496	76.5
229.73	72.5
229.964	63.5
230.199	64.5
230.433	70.5
230.667	76.5
230.901	74.5
231.136	86.5
231.37	77.5
231.604	84.5
231.838	82.5
232.072	79.5
232.306	82.5
232.541	77.5
232.775	82.5
233.009	87.5
233.243	87.5
233.477	77.5
233.711	73.5
233.945	88.5
234.179	90.5
234.413	81.5
234.647	87.5
234.881	76.5
235.115	77.5
235.349	76.5
235.583	69.5
235.817	69.5
236.051	81.5
236.285	69.5
236.519	68.5
236.753	77.5
236.987	86.5
237.221	78.5
237.455	74.5
237.689	73.5
237.922	79.5
238.156	74.5
238.39	62.5
238.624	66.5
238.858	82.5
239.091	78.5
239.325	73.5
239.559	70.5
239.793	90.5
240.027	76.5
240.26	69.5
240.494	58.5
240.728	70.5
240.961	68.5
241.195	78.5
241.429	78.5
241.662	68.5
241.896	68.5
242.13	79.5
242.363	69.5
242.597	81.5
242.83	58.5
243.064	83.5
243.298	70.5
243.531	70.5
243.765	79.5
243.998	76.5
244.232	72.5
244.465	66.5
244.699	58.5
244.932	86.5
245.166	74.5
245.399	83.5
245.633	70.5
245.866	78.5
246.099	78.5
246.333	72.5
246.566	72.5
246.8	82.5
247.033	78.5
247.266	72.5
247.5	73.5
247.733	78.5
247.966	83.5
248.2	71.5
248.433	86.5
248.666	93.5
248.899	78.5
249.133	83.5
249.366	70.5
249.599	82.5
249.832	86.5
250.066	88.5
250.299	75.5
250.532	73.5
250.765	72.5
250.998	86.5
251.231	88.5
251.465	79.5
251.698	76.5
251.931	93.5
252.164	82.5
252.397	67.5
252.63	75.5
252.863	77.5
253.096	58.5
253.329	76.5
253.562	80.5
253.795	81.5
254.028	86.5
254.261	75.5
254.494	74.5
254.727	80.5
254.96	78.5
255.193	88.5
255.426	80.5
255.659	84.5
255.892	80.5
256.124	82.5
256.357	73.5
256.59	90.5
256.823	70.5
257.056	88.5
257.289	75.5
257.521	88.5
257.754	79.5
257.987	82.5
258.22	79.5
258.452	86.5
258.685	76.5
258.918	76.5
259.151	77.5
259.383	71.5
259.616	81.5
259.849	88.5
260.081	87.5
260.314	75.5
260.547	73.5
260.779	78.5
261.012	80.5
261.244	81.5
261.477	85.5
261.71	78.5
261.942	70.5
262.175	82.5
262.407	82.5
262.64	70.5
262.872	67.5
263.105	83.5
263.337	76.5
263.57	71.5
263.802	76.5
264.035	70.5
264.267	76.5
264.499	92.5
264.732	95.5
264.964	88.5
265.197	98.5
265.429	76.5
265.661	76.5
265.894	87.5
266.126	68.5
266.358	74.5
266.591	88.5
266.823	70.5
267.055	84.5
267.287	95.5
267.52	75.5
267.752	84.5
267.984	80.5
268.216	72.5
268.448	90.5
268.681	82.5
268.913	77.5
269.145	74.5
269.377	94.5
269.609	74.5
269.841	91.5
270.073	84.5
270.306	79.5
270.538	96.5
270.77	75.5
271.002	89.5
271.234	80.5
271.466	78.5
271.698	71.5
271.93	78.5
272.162	76.5
272.394	84.5
272.626	71.5
272.858	86.5
273.09	100.5
273.322	81.5
273.553	81.5
273.785	79.5
274.017	86.5
274.249	85.5
274.481	73.5
274.713	87.5
274.945	80.5
275.176	78.5
275.408	93.5
275.64	76.5
275.872	85.5
276.104	87.5
276.335	71.5
276.567	64.5
276.799	69.5
277.031	85.5
277.262	89.5
277.494	76.5
277.726	86.5
277.957	78.5
278.189	76.5
278.421	97.5
278.652	82.5
278.884	87.5
279.115	77.5
279.347	82.5
279.579	82.5
279.81	67.5
280.042	92.5
280.273	82.5
280.505	81.5
280.736	80.5
280.968	80.5
281.199	93.5
281.431	86.5
281.662	86.5
281.894	75.5
282.125	70.5
282.356	67.5
282.588	85.5
282.819	80.5
283.051	84.5
283.282	87.5
283.513	74.5
283.745	70.5
283.976	87.5
284.207	84.5
284.439	76.5
284.67	84.5
284.901	65.5
285.132	66.5
285.364	62.5
285.595	70.5
285.826	84.5
286.057	73.5
286.288	73.5
286.52	76.5
286.751	102.5
286.982	77.5
287.213	80.5
287.444	80.5
287.675	83.5
287.906	94.5
288.138	94.5
288.369	74.5
288.6	95.5
288.831	66.5
289.062	90.5
289.293	75.5
289.524	87.5
289.755	79.5
289.986	79.5
290.217	76.5
290.448	79.5
290.679	81.5
290.91	74.5
291.141	67.5
291.371	82.5
291.602	84.5
291.833	90.5
292.064	90.5
292.295	84.5
292.526	91.5
292.757	73.5
292.987	87.5
293.218	78.5
293.449	82.5
293.68	85.5
293.91	82.5
294.141	86.5
294.372	73.5
294.603	73.5
294.833	72.5
295.064	88.5
295.295	99.5
295.525	86.5
295.756	84.5
295.987	91.5
296.217	82.5
296.448	67.5
296.679	90.5
296.909	82.5
297.14	92.5
297.37	83.5
297.601	62.5
297.831	85.5
298.062	85.5
298.292	74.5
298.523	82.5
298.753	71.5
298.984	86.5
299.214	78.5
299.445	96.5
299.675	77.5
299.905	82.5
300.136	84.5
300.366	85.5
300.597	78.5
300.827	80.5
301.057	98.5
301.288	77.5
301.518	83.5
301.748	89.5
301.979	112.5
302.209	86.5
302.439	88.5
302.669	80.5
302.9	89.5
303.13	74.5
303.36	77.5
303.59	80.5
303.82	73.5
304.051	84.5
304.281	90.5
304.511	82.5
304.741	95.5
304.971	72.5
305.201	76.5
305.431	82.5
305.661	80.5
305.891	86.5
306.121	81.5
306.352	84.5
306.582	86.5
306.812	88.5
307.042	71.5
307.272	82.5
307.502	96.5
307.731	98.5
307.961	88.5
308.191	94.5
308.421	99.5
308.651	77.5
308.881	84.5
309.111	68.5
309.341	82.5
309.571	87.5
309.8	86.5
310.03	70.5
310.26	85.5
310.49	72.5
310.72	74.5
310.949	87.5
311.179	78.5
311.409	83.5
311.639	86.5
311.868	91.5
312.098	90.5
312.328	82.5
312.557	96.5
312.787	81.5
313.017	80.5
313.246	91.5
313.476	74.5
313.706	82.5
313.935	96.5
314.165	83.5
314.394	80.5
314.624	87.5
314.853	77.5
315.083	76.5
315.312	92.5
315.542	87.5
315.771	91.5
316.001	81.5
316.23	87.5
316.46	83.5
316.689	94.5
316.919	95.5
317.148	91.5
317.377	90.5
317.607	91.5
317.836	89.5
318.065	88.5
318.295	86.5
318.524	95.5
318.753	91.5
318.983	83.5
319.212	89.5
319.441	86.5
319.67	93.5
319.9	79.5
320.129	89.5
320.358	80.5
320.587	83.5
320.816	86.5
321.046	87.5
321.275	89.5
321.504	75.5
321.733	84.5
321.962	95.5
322.191	80.5
322.42	84.5
322.649	83.5
322.878	84.5
323.108	76.5
323.337	66.5
323.566	88.5
323.795	86.5
324.024	75.5
324.253	82.5
324.482	87.5
324.71	70.5
324.939	88.5
325.168	78.5
325.397	103.5
325.626	90.5
325.855	70.5
326.084	78.5
326.313	86.5
326.542	73.5
326.77	80.5
326.999	77.5
327.228	65.5
327.457	77.5
327.686	90.5
327.914	70.5
328.143	88.5
328.372	96.5
328.6	82.5
328.829	84.5
329.058	87.5
329.287	76.5
329.515	75.5
329.744	73.5
329.972	75.5
330.201	88.5
330.43	77.5
330.658	85.5
330.887	93.5
331.115	88.5
331.344	76.5
331.572	76.5
331.801	85.5
332.03	81.5
332.258	92.5
332.486	72.5
332.715	80.5
332.943	80.5
333.172	89.5
333.4	88.5
333.629	96.5
333.857	84.5
334.085	84.5
334.314	98.5
334.542	82.5
334.771	87.5
334.999	74.5
335.227	84.5
335.455	88.5
335.684	87.5
335.912	99.5
336.14	91.5
336.369	93.5
336.597	88.5
336.825	69.5
337.053	94.5
337.281	75.5
337.51	89.5
337.738	76.5
337.966	85.5
338.194	82.5
338.422	76.5
338.65	84.5
338.878	96.5
339.106	81.5
339.334	74.5
339.562	90.5
339.79	80.5
340.018	85.5
340.246	86.5
340.474	71.5
340.702	66.5
340.93	74.5
341.158	84.5
341.386	83.5
341.614	79.5
341.842	76.5
342.07	66.5
342.298	78.5
342.526	85.5
342.754	90.5
342.981	92.5
343.209	79.5
343.437	91.5
343.665	76.5
343.893	94.5
344.12	97.5
344.348	83.5
344.576	88.5
344.804	75.5
345.031	74.5
345.259	93.5
345.487	88.5
345.714	81.5
345.942	91.5
346.17	93.5
346.397	74.5
346.625	77.5
346.853	75.5
347.08	81.5
347.308	72.5
347.535	88.5
347.763	90.5
347.99	70.5
348.218	77.5
348.445	70.5
348.673	79.5
348.9	70.5
349.128	90.5
349.355	79.5
349.583	70.5
349.81	89.5
350.037	85.5
350.265	79.5
350.492	85.5
350.72	79.5
350.947	79.5
351.174	86.5
351.402	96.5
351.629	86.5
351.856	87.5
352.083	80.5
352.311	81.5
352.538	69.5
352.765	76.5
352.992	86.5
353.22	62.5
353.447	90.5
353.674	92.5
353.901	69.5
354.128	83.5
354.355	72.5
354.583	84.5
354.81	84.5
355.037	80.5
355.264	75.5
355.491	74.5
355.718	79.5
355.945	84.5
356.172	73.5
356.399	78.5
356.626	86.5
356.853	94.5
357.08	104.5
357.307	89.5
357.534	86.5
357.761	90.5
357.988	87.5
358.215	95.5
358.441	67.5
358.668	69.5
358.895	82.5
359.122	80.5
359.349	89.5
359.576	71.5
359.802	71.5
360.029	83.5
360.256	80.5
360.483	80.5
360.709	75.5
360.936	94.5
361.163	82.5
361.39	109.5
361.616	84.5
361.843	82.5
362.07	98.5
362.296	77.5
362.523	81.5
362.749	88.5
362.976	96.5
363.203	105.5
363.429	91.5
363.656	84.5
363.882	84.5
364.109	91.5
364.335	102.5
364.562	89.5
364.788	90.5
365.015	91.5
365.241	86.5
365.468	76.5
365.694	86.5
365.92	83.5
366.147	87.5
366.373	82.5
366.599	78.5
366.826	84.5
367.052	63.5
367.278	70.5
367.505	74.5
367.731	98.5
367.957	75.5
368.184	83.5
368.41	87.5
368.636	84.5
368.862	80.5
369.089	79.5
369.315	73.5
369.541	79.5
369.767	76.5
369.993	76.5
370.219	85.5
370.445	83.5
370.672	77.5
370.898	88.5
371.124	71.5
371.35	71.5
371.576	80.5
371.802	81.5
372.028	76.5
372.254	93.5
372.48	89.5
372.706	81.5
372.932	94.5
373.158	83.5
373.384	94.5
373.61	102.5
373.835	87.5
374.061	98.5
374.287	74.5
374.513	77.5
374.739	77.5
374.965	98.5
375.191	64.5
375.416	70.5
375.642	76.5
375.868	96.5
376.094	96.5
376.319	98.5
376.545	82.5
376.771	84.5
376.997	81.5
377.222	75.5
377.448	86.5
377.674	84.5
377.899	86.5
378.125	82.5
378.35	97.5
378.576	74.5
378.802	89.5
379.027	88.5
379.253	88.5
379.478	76.5
379.704	84.5
379.929	90.5
380.155	84.5
380.38	87.5
380.606	79.5
380.831	75.5
381.057	83.5
381.282	60.5
381.507	73.5
381.733	82.5
381.958	86.5
382.184	76.5
382.409	91.5
382.634	82.5
382.86	89.5
383.085	81.5
383.31	88.5
383.535	86.5
383.761	99.5
383.986	78.5
384.211	72.5
384.436	91.5
384.662	84.5
384.887	76.5
385.112	80.5
385.337	77.5
385.562	82.5
385.787	82.5
386.013	89.5
386.238	75.5
386.463	75.5
386.688	80.5
386.913	92.5
387.138	95.5
387.363	84.5
387.588	90.5
387.813	92.5
388.038	78.5
388.263	87.5
388.488	84.5
388.713	79.5
388.938	80.5
389.163	87.5
389.387	94.5
389.612	78.5
389.837	70.5
390.062	75.5
390.287	84.5
390.512	97.5
390.736	86.5
390.961	92.5
391.186	75.5
391.411	90.5
391.636	74.5
391.86	89.5
392.085	93.5
392.31	86.5
392.534	100.5
392.759	90.5
392.984	96.5
393.208	124.5
393.433	165.5
393.658	137.5
393.882	79.5
394.107	90.5
394.331	94.5
394.556	103.5
394.78	84.5
395.005	98.5
395.229	82.5
395.454	76.5
395.678	100.5
395.903	85.5
396.127	87.5
396.352	100.5
396.576	107.5
396.801	137.5
397.025	145.5
397.249	112.5
397.474	101.5
397.698	91.5
397.922	78.5
398.147	82.5
398.371	96.5
398.595	81.5
398.82	83.5
399.044	80.5
399.268	79.5
399.492	79.5
399.717	82.5
399.941	90.5
400.165	99.5
400.389	94.5
400.613	80.5
400.837	81.5
401.062	74.5
401.286	84.5
401.51	85.5
401.734	94.5
401.958	83.5
402.182	79.5
402.406	74.5
402.63	93.5
402.854	81.5
403.078	75.5
403.302	89.5
403.526	82.5
403.75	78.5
403.974	83.5
404.198	86.5
404.422	100.5
404.645	93.5
404.869	97.5
405.093	103.5
405.317	92.5
405.541	72.5
405.765	82.5
405.988	76.5
406.212	89.5
406.436	66.5
406.66	74.5
406.883	78.5
407.107	87.5
407.331	90.5
407.555	71.5
407.778	101.5
408.002	78.5
408.226	78.5
408.449	82.5
408.673	72.5
408.896	100.5
409.12	80.5
409.344	83.5
409.567	87.5
409.791	82.5
410.014	86.5
410.238	89.5
410.461	75.5
410.685	79.5
410.908	86.5
411.132	82.5
411.355	80.5
411.578	80.5
411.802	74.5
412.025	84.5
412.249	91.5
412.472	86.5
412.695	80.5
412.919	97.5
413.142	80.5
413.365	74.5
413.589	80.5
413.812	82.5
414.035	88.5
414.258	78.5
414.482	83.5
414.705	91.5
414.928	90.5
415.151	68.5
415.374	81.5
415.597	84.5
415.821	93.5
416.044	74.5
416.267	89.5
416.49	88.5
416.713	82.5
416.936	74.5
417.159	82.5
417.382	78.5
417.605	80.5
417.828	83.5
418.051	95.5
418.274	98.5
418.497	88.5
418.72	69.5
418.943	85.5
419.166	95.5
419.389	86.5
419.611	82.5
419.834	86.5
420.057	87.5
420.28	77.5
420.503	79.5
420.726	81.5
420.948	81.5
421.171	74.5
421.394	87.5
421.617	96.5
421.839	92.5
422.062	97.5
422.285	113.5
422.507	178.5
422.73	239.5
422.953	241.5
423.175	149.5
423.398	84.5
423.621	83.5
423.843	98.5
424.066	79.5
424.288	91.5
424.511	88.5
424.733	75.5
424.956	81.5
425.178	94.5
425.401	76.5
425.623	68.5
425.846	86.5
426.068	80.5
426.291	81.5
426.513	82.5
426.735	92.5
426.958	83.5
427.18	86.5
427.402	87.5
427.625	94.5
427.847	92.5
428.069	74.5
428.292	99.5
428.514	104.5
428.736	94.5
428.958	78.5
429.181	110.5
429.403	99.5
429.625	92.5
429.847	103.5
430.069	124.5
430.292	121.5
430.514	121.5
430.736	100.5
430.958	100.5
431.18	89.5
431.402	89.5
431.624	92.5
431.846	110.5
432.068	98.5
432.29	74.5
432.512	84.5
432.734	75.5
432.956	80.5
433.178	84.5
433.4	99.5
433.622	85.5
433.844	89.5
434.066	83.5
434.287	74.5
434.509	78.5
434.731	94.5
434.953	85.5
435.175	89.5
435.397	82.5
435.618	80.5
435.84	85.5
436.062	86.5
436.284	70.5
436.505	104.5
436.727	88.5
436.949	94.5
437.17	87.5
437.392	70.5
437.614	72.5
437.835	101.5
438.057	78.5
438.278	74.5
438.5	76.5
438.721	98.5
438.943	71.5
439.165	83.5
439.386	85.5
439.608	78.5
439.829	87.5
440.05	75.5
440.272	81.5
440.493	78.5
440.715	83.5
440.936	87.5
441.158	74.5
441.379	68.5
441.6	86.5
441.822	94.5
442.043	85.5
442.264	92.5
442.486	88.5
442.707	118.5
442.928	96.5
443.149	96.5
443.371	114.5
443.592	166.5
443.813	140.5
444.034	90.5
444.255	99.5
444.476	78.5
444.698	73.5
444.919	80.5
445.14	166.5
445.361	149.5
445.582	188.5
445.803	146.5
446.024	93.5
446.245	85.5
446.466	97.5
446.687	87.5
446.908	91.5
447.129	80.5
447.35	84.5
447.571	96.5
447.792	87.5
448.013	86.5
448.234	86.5
448.455	83.5
448.675	86.5
448.896	76.5
449.117	73.5
449.338	80.5
449.559	100.5
449.779	92.5
450	82.5
450.221	76.5
450.442	80.5
450.662	73.5
450.883	80.5
451.104	82.5
451.324	70.5
451.545	83.5
451.766	82.5
451.986	72.5
452.207	86.5
452.428	96.5
452.648	94.5
452.869	86.5
453.089	89.5
453.31	78.5
453.53	96.5
453.751	76.5
453.971	78.5
454.192	80.5
454.412	72.5
454.633	78.5
454.853	82.5
455.073	81.5
455.294	87.5
455.514	82.5
455.734	71.5
455.955	89.5
456.175	81.5
456.395	79.5
456.616	88.5
456.836	59.5
457.056	73.5
457.276	94.5
457.497	90.5
457.717	84.5
457.937	98.5
458.157	95.5
458.377	93.5
458.598	99.5
458.818	112.5
459.038	85.5
459.258	84.5
459.478	73.5
459.698	88.5
459.918	89.5
460.138	74.5
460.358	76.5
460.578	94.5
460.798	107.5
461.018	97.5
461.238	95.5
461.458	81.5
461.678	86.5
461.898	86.5
462.118	97.5
462.338	76.5
462.558	80.5
462.777	80.5
462.997	106.5
463.217	90.5
463.437	86.5
463.657	98.5
463.876	75.5
464.096	86.5
464.316	76.5
464.536	86.5
464.755	80.5
464.975	90.5
465.195	80.5
465.414	76.5
465.634	84.5
465.854	76.5
466.073	82.5
466.293	86.5
466.512	97.5
466.732	96.5
466.951	82.5
467.171	81.5
467.391	84.5
467.61	73.5
467.829	94.5
468.049	78.5
468.268	79.5
468.488	79.5
468.707	59.5
468.927	77.5
469.146	73.5
469.365	85.5
469.585	87.5
469.804	100.5
470.023	86.5
470.243	72.5
470.462	79.5
470.681	87.5
470.901	103.5
471.12	90.5
471.339	81.5
471.558	82.5
471.777	92.5
471.997	96.5
472.216	95.5
472.435	87.5
472.654	70.5
472.873	85.5
473.092	83.5
473.311	85.5
473.53	86.5
473.749	87.5
473.968	99.5
474.187	76.5
474.406	77.5
474.625	81.5
474.844	86.5
475.063	80.5
475.282	80.5
475.501	77.5
475.72	81.5
475.939	82.5
476.158	87.5
476.377	83.5
476.596	81.5
476.814	72.5
477.033	78.5
477.252	89.5
477.471	87.5
477.69	79.5
477.908	82.5
478.127	89.5
478.346	84.5
478.564	100.5
478.783	87.5
479.002	86.5
479.22	85.5
479.439	92.5
479.658	77.5
479.876	82.5
480.095	82.5
480.313	87.5
480.532	86.5
480.751	92.5
480.969	87.5
481.188	76.5
481.406	93.5
481.624	92.5
481.843	82.5
482.061	84.5
482.28	82.5
482.498	83.5
482.717	67.5
482.935	83.5
483.153	75.5
483.372	87.5
483.59	78.5
483.808	80.5
484.027	85.5
484.245	86.5
484.463	72.5
484.681	90.5
484.9	76.5
485.118	93.5
485.336	93.5
485.554	87.5
485.772	79.5
485.99	84.5
486.209	77.5
486.427	81.5
486.645	72.5
486.863	75.5
487.081	83.5
487.299	94.5
487.517	87.5
487.735	103.5
487.953	117.5
488.171	116.5
488.389	75.5
488.607	85.5
488.825	81.5
489.043	76.5
489.261	91.5
489.479	87.5
489.696	73.5
489.914	76.5
490.132	87.5
490.35	86.5
490.568	85.5
490.786	79.5
491.003	84.5
491.221	80.5
491.439	83.5
491.657	57.5
491.874	83.5
492.092	76.5
492.31	86.5
492.527	86.5
492.745	95.5
492.963	93.5
493.18	93.5
493.398	83.5
493.615	89.5
493.833	85.5
494.05	84.5
494.268	88.5
494.485	91.5
494.703	66.5
494.92	91.5
495.138	88.5
495.355	87.5
495.573	92.5
495.79	84.5
496.008	87.5
496.225	72.5
496.442	93.5
496.66	86.5
496.877	83.5
497.094	91.5
497.312	91.5
497.529	86.5
497.746	103.5
497.963	95.5
498.181	100.5
498.398	85.5
498.615	66.5
498.832	82.5
499.049	77.5
499.267	90.5
499.484	86.5
499.701	84.5
499.918	90.5
500.135	88.5
500.352	97.5
500.569	78.5
500.786	82.5
501.003	83.5
501.22	94.5
501.437	78.5
501.654	80.5
501.871	90.5
502.088	74.5
502.305	79.5
502.522	88.5
502.739	99.5
502.956	86.5
503.172	93.5
503.389	87.5
503.606	75.5
503.823	82.5
504.04	99.5
504.256	110.5
504.473	96.5
504.69	86.5
504.907	87.5
505.123	85.5
505.34	83.5
505.557	96.5
505.773	81.5
505.99	73.5
506.207	68.5
506.423	81.5
506.64	84.5
506.856	74.5
507.073	68.5
507.289	94.5
507.506	83.5
507.722	87.5
507.939	95.5
508.155	86.5
508.372	82.5
508.588	68.5
508.805	82.5
509.021	89.5
509.238	75.5
509.454	91.5
509.67	85.5
509.887	86.5
510.103	91.5
510.319	93.5
510.536	69.5
510.752	86.5
510.968	88.5
511.184	79.5
511.401	75.5
511.617	83.5
511.833	86.5
512.049	97.5
512.265	79.5
512.481	82.5
512.698	69.5
512.914	82.5
513.13	90.5
513.346	86.5
513.562	89.5
513.778	92.5
513.994	86.5
514.21	78.5
514.426	80.5
514.642	94.5
514.858	82.5
515.074	88.5
515.29	81.5
515.506	89.5
515.721	94.5
515.937	86.5
516.153	77.5
516.369	80.5
516.585	77.5
516.801	80.5
517.016	85.5
517.232	77.5
517.448	87.5
517.664	84.5
517.879	85.5
518.095	82.5
518.311	93.5
518.527	85.5
518.742	91.5
518.958	117.5
519.173	124.5
519.389	92.5
519.605	97.5
519.82	82.5
520.036	82.5
520.251	83.5
520.467	82.5
520.682	74.5
520.898	88.5
521.113	76.5
521.329	90.5
521.544	79.5
521.76	88.5
521.975	86.5
522.19	81.5
522.406	90.5
522.621	92.5
522.836	86.5
523.052	91.5
523.267	80.5
523.482	89.5
523.698	80.5
523.913	89.5
524.128	87.5
524.343	77.5
524.559	88.5
524.774	91.5
524.989	83.5
525.204	94.5
525.419	99.5
525.634	94.5
525.849	101.5
526.064	106.5
526.28	137.5
526.495	164.5
526.71	186.5
526.925	124.5
527.14	166.5
527.355	150.5
527.57	113.5
527.785	93.5
527.999	94.5
528.214	98.5
528.429	87.5
528.644	84.5
528.859	86.5
529.074	88.5
529.289	78.5
529.503	87.5
529.718	92.5
529.933	93.5
530.148	90.5
530.363	87.5
530.577	91.5
530.792	81.5
531.007	102.5
531.221	83.5
531.436	88.5
531.651	90.5
531.865	85.5
532.08	89.5
532.295	92.5
532.509	104.5
532.724	91.5
532.938	86.5
533.153	92.5
533.367	78.5
533.582	98.5
533.796	84.5
534.011	101.5
534.225	104.5
534.44	98.5
534.654	102.5
534.868	85.5
535.083	126.5
535.297	107.5
535.511	110.5
535.726	86.5
535.94	97.5
536.154	86.5
536.369	87.5
536.583	89.5
536.797	94.5
537.011	86.5
537.225	97.5
537.44	99.5
537.654	94.5
537.868	92.5
538.082	91.5
538.296	74.5
538.51	94.5
538.724	84.5
538.938	96.5
539.153	91.5
539.367	95.5
539.581	94.5
