Data from 2145_2_HRD10591_00004.txt Node
Date: Mon Jan 19 14:22:04 EST 2026
User: Yrep
Spectrometer: HR+D1059
Trigger mode: 1
Integration Time (sec): 1.000000E-1
Scans to average: 1
Electric dark correction enabled: true
Nonlinearity correction enabled: false
Boxcar width: 0
XAxis mode: Wavelengths
Number of Pixels in Spectrum: 2048
>>>>>Begin Spectral Data<<<<<
223.165	-11.81
223.4	-11.81
223.635	-11.81
223.869	-23.81
224.104	-26.81
224.338	-9.81
224.573	-25.81
224.808	-5.81
225.042	-8.81
225.277	-14.81
225.511	-3.81
225.746	5.19
225.98	25.19
226.215	-4.81
226.449	7.19
226.683	35.19
226.918	27.19
227.152	36.19
227.387	36.19
227.621	36.19
227.856	40.19
228.09	42.19
228.324	56.19
228.559	55.19
228.793	67.19
229.027	82.19
229.262	70.19
229.496	60.19
229.73	75.19
229.964	71.19
230.199	82.19
230.433	67.19
230.667	76.19
230.901	74.19
231.136	85.19
231.37	78.19
231.604	77.19
231.838	87.19
232.072	70.19
232.306	85.19
232.541	69.19
232.775	79.19
233.009	77.19
233.243	82.19
233.477	79.19
233.711	82.19
233.945	57.19
234.179	78.19
234.413	82.19
234.647	86.19
234.881	87.19
235.115	72.19
235.349	83.19
235.583	84.19
235.817	64.19
236.051	86.19
236.285	83.19
236.519	68.19
236.753	80.19
236.987	71.19
237.221	72.19
237.455	77.19
237.689	77.19
237.922	68.19
238.156	69.19
238.39	72.19
238.624	75.19
238.858	75.19
239.091	71.19
239.325	74.19
239.559	72.19
239.793	85.19
240.027	76.19
240.26	71.19
240.494	73.19
240.728	63.19
240.961	76.19
241.195	90.19
241.429	75.19
241.662	76.19
241.896	77.19
242.13	74.19
242.363	80.19
242.597	84.19
242.83	90.19
243.064	74.19
243.298	83.19
243.531	71.19
243.765	79.19
243.998	72.19
244.232	87.19
244.465	72.19
244.699	70.19
244.932	80.19
245.166	69.19
245.399	83.19
245.633	74.19
245.866	58.19
246.099	85.19
246.333	75.19
246.566	72.19
246.8	68.19
247.033	76.19
247.266	73.19
247.5	90.19
247.733	63.19
247.966	76.19
248.2	85.19
248.433	84.19
248.666	83.19
248.899	72.19
249.133	84.19
249.366	67.19
249.599	74.19
249.832	85.19
250.066	88.19
250.299	87.19
250.532	86.19
250.765	84.19
250.998	78.19
251.231	77.19
251.465	81.19
251.698	86.19
251.931	85.19
252.164	86.19
252.397	63.19
252.63	56.19
252.863	81.19
253.096	78.19
253.329	65.19
253.562	81.19
253.795	86.19
254.028	89.19
254.261	80.19
254.494	81.19
254.727	77.19
254.96	88.19
255.193	71.19
255.426	59.19
255.659	73.19
255.892	67.19
256.124	71.19
256.357	75.19
256.59	75.19
256.823	92.19
257.056	89.19
257.289	77.19
257.521	60.19
257.754	64.19
257.987	70.19
258.22	88.19
258.452	88.19
258.685	81.19
258.918	90.19
259.151	75.19
259.383	76.19
259.616	81.19
259.849	62.19
260.081	63.19
260.314	91.19
260.547	84.19
260.779	83.19
261.012	73.19
261.244	79.19
261.477	78.19
261.71	92.19
261.942	83.19
262.175	87.19
262.407	87.19
262.64	72.19
262.872	82.19
263.105	77.19
263.337	89.19
263.57	76.19
263.802	83.19
264.035	84.19
264.267	88.19
264.499	74.19
264.732	82.19
264.964	81.19
265.197	79.19
265.429	72.19
265.661	77.19
265.894	65.19
266.126	91.19
266.358	81.19
266.591	71.19
266.823	82.19
267.055	89.19
267.287	76.19
267.52	82.19
267.752	87.19
267.984	73.19
268.216	84.19
268.448	83.19
268.681	85.19
268.913	96.19
269.145	75.19
269.377	94.19
269.609	68.19
269.841	81.19
270.073	80.19
270.306	89.19
270.538	81.19
270.77	75.19
271.002	84.19
271.234	77.19
271.466	76.19
271.698	81.19
271.93	70.19
272.162	85.19
272.394	95.19
272.626	76.19
272.858	69.19
273.09	77.19
273.322	74.19
273.553	66.19
273.785	78.19
274.017	92.19
274.249	89.19
274.481	84.19
274.713	90.19
274.945	85.19
275.176	79.19
275.408	67.19
275.64	82.19
275.872	89.19
276.104	90.19
276.335	86.19
276.567	76.19
276.799	75.19
277.031	87.19
277.262	69.19
277.494	86.19
277.726	86.19
277.957	85.19
278.189	84.19
278.421	83.19
278.652	84.19
278.884	85.19
279.115	85.19
279.347	89.19
279.579	90.19
279.81	74.19
280.042	92.19
280.273	88.19
280.505	80.19
280.736	77.19
280.968	86.19
281.199	88.19
281.431	75.19
281.662	87.19
281.894	101.19
282.125	88.19
282.356	76.19
282.588	81.19
282.819	95.19
283.051	72.19
283.282	81.19
283.513	85.19
283.745	77.19
283.976	92.19
284.207	76.19
284.439	81.19
284.67	85.19
284.901	80.19
285.132	89.19
285.364	92.19
285.595	84.19
285.826	88.19
286.057	85.19
286.288	88.19
286.52	79.19
286.751	85.19
286.982	81.19
287.213	88.19
287.444	92.19
287.675	81.19
287.906	89.19
288.138	87.19
288.369	77.19
288.6	69.19
288.831	78.19
289.062	83.19
289.293	85.19
289.524	84.19
289.755	86.19
289.986	81.19
290.217	83.19
290.448	83.19
290.679	85.19
290.91	88.19
291.141	87.19
291.371	88.19
291.602	98.19
291.833	100.19
292.064	90.19
292.295	76.19
292.526	88.19
292.757	86.19
292.987	78.19
293.218	80.19
293.449	70.19
293.68	83.19
293.91	83.19
294.141	77.19
294.372	97.19
294.603	78.19
294.833	79.19
295.064	83.19
295.295	71.19
295.525	87.19
295.756	97.19
295.987	90.19
296.217	93.19
296.448	72.19
296.679	90.19
296.909	85.19
297.14	85.19
297.37	95.19
297.601	93.19
297.831	85.19
298.062	92.19
298.292	87.19
298.523	90.19
298.753	77.19
298.984	75.19
299.214	78.19
299.445	85.19
299.675	84.19
299.905	82.19
300.136	90.19
300.366	100.19
300.597	72.19
300.827	91.19
301.057	104.19
301.288	92.19
301.518	90.19
301.748	95.19
301.979	103.19
302.209	77.19
302.439	78.19
302.669	76.19
302.9	85.19
303.13	76.19
303.36	85.19
303.59	85.19
303.82	74.19
304.051	105.19
304.281	83.19
304.511	84.19
304.741	92.19
304.971	91.19
305.201	97.19
305.431	93.19
305.661	87.19
305.891	80.19
306.121	91.19
306.352	90.19
306.582	76.19
306.812	85.19
307.042	71.19
307.272	77.19
307.502	86.19
307.731	87.19
307.961	74.19
308.191	83.19
308.421	80.19
308.651	85.19
308.881	89.19
309.111	84.19
309.341	85.19
309.571	103.19
309.8	87.19
310.03	80.19
310.26	81.19
310.49	86.19
310.72	85.19
310.949	90.19
311.179	99.19
311.409	84.19
311.639	88.19
311.868	92.19
312.098	89.19
312.328	96.19
312.557	76.19
312.787	86.19
313.017	89.19
313.246	84.19
313.476	100.19
313.706	76.19
313.935	77.19
314.165	80.19
314.394	90.19
314.624	85.19
314.853	101.19
315.083	86.19
315.312	91.19
315.542	83.19
315.771	102.19
316.001	89.19
316.23	97.19
316.46	97.19
316.689	82.19
316.919	92.19
317.148	86.19
317.377	88.19
317.607	101.19
317.836	79.19
318.065	92.19
318.295	84.19
318.524	83.19
318.753	92.19
318.983	89.19
319.212	85.19
319.441	85.19
319.67	93.19
319.9	83.19
320.129	84.19
320.358	94.19
320.587	81.19
320.816	83.19
321.046	87.19
321.275	90.19
321.504	96.19
321.733	84.19
321.962	91.19
322.191	93.19
322.42	83.19
322.649	93.19
322.878	87.19
323.108	75.19
323.337	84.19
323.566	83.19
323.795	70.19
324.024	72.19
324.253	90.19
324.482	84.19
324.71	89.19
324.939	83.19
325.168	90.19
325.397	82.19
325.626	77.19
325.855	77.19
326.084	84.19
326.313	86.19
326.542	75.19
326.77	81.19
326.999	90.19
327.228	87.19
327.457	101.19
327.686	87.19
327.914	97.19
328.143	84.19
328.372	75.19
328.6	76.19
328.829	91.19
329.058	91.19
329.287	86.19
329.515	78.19
329.744	87.19
329.972	84.19
330.201	92.19
330.43	98.19
330.658	86.19
330.887	87.19
331.115	75.19
331.344	85.19
331.572	72.19
331.801	84.19
332.03	97.19
332.258	87.19
332.486	80.19
332.715	93.19
332.943	89.19
333.172	80.19
333.4	88.19
333.629	93.19
333.857	84.19
334.085	82.19
334.314	82.19
334.542	90.19
334.771	86.19
334.999	92.19
335.227	99.19
335.455	96.19
335.684	86.19
335.912	86.19
336.14	98.19
336.369	89.19
336.597	81.19
336.825	91.19
337.053	79.19
337.281	89.19
337.51	98.19
337.738	87.19
337.966	78.19
338.194	83.19
338.422	85.19
338.65	107.19
338.878	84.19
339.106	91.19
339.334	93.19
339.562	97.19
339.79	81.19
340.018	75.19
340.246	84.19
340.474	88.19
340.702	88.19
340.93	96.19
341.158	78.19
341.386	75.19
341.614	87.19
341.842	86.19
342.07	79.19
342.298	83.19
342.526	85.19
342.754	86.19
342.981	83.19
343.209	90.19
343.437	102.19
343.665	77.19
343.893	86.19
344.12	92.19
344.348	93.19
344.576	92.19
344.804	101.19
345.031	85.19
345.259	94.19
345.487	79.19
345.714	75.19
345.942	90.19
346.17	98.19
346.397	78.19
346.625	83.19
346.853	94.19
347.08	84.19
347.308	83.19
347.535	89.19
347.763	76.19
347.99	83.19
348.218	92.19
348.445	77.19
348.673	93.19
348.9	91.19
349.128	92.19
349.355	62.19
349.583	77.19
349.81	82.19
350.037	77.19
350.265	97.19
350.492	70.19
350.72	85.19
350.947	84.19
351.174	98.19
351.402	76.19
351.629	74.19
351.856	81.19
352.083	83.19
352.311	84.19
352.538	98.19
352.765	94.19
352.992	99.19
353.22	87.19
353.447	70.19
353.674	90.19
353.901	86.19
354.128	80.19
354.355	96.19
354.583	89.19
354.81	86.19
355.037	84.19
355.264	77.19
355.491	83.19
355.718	92.19
355.945	83.19
356.172	77.19
356.399	89.19
356.626	80.19
356.853	104.19
357.08	86.19
357.307	93.19
357.534	85.19
357.761	91.19
357.988	83.19
358.215	100.19
358.441	96.19
358.668	84.19
358.895	80.19
359.122	89.19
359.349	88.19
359.576	81.19
359.802	67.19
360.029	92.19
360.256	85.19
360.483	81.19
360.709	84.19
360.936	101.19
361.163	86.19
361.39	81.19
361.616	101.19
361.843	72.19
362.07	95.19
362.296	101.19
362.523	98.19
362.749	115.19
362.976	128.19
363.203	131.19
363.429	114.19
363.656	102.19
363.882	99.19
364.109	117.19
364.335	144.19
364.562	139.19
364.788	116.19
365.015	99.19
365.241	90.19
365.468	83.19
365.694	87.19
365.92	84.19
366.147	85.19
366.373	85.19
366.599	109.19
366.826	97.19
367.052	86.19
367.278	81.19
367.505	80.19
367.731	100.19
367.957	93.19
368.184	89.19
368.41	98.19
368.636	85.19
368.862	89.19
369.089	91.19
369.315	92.19
369.541	73.19
369.767	78.19
369.993	92.19
370.219	84.19
370.445	100.19
370.672	71.19
370.898	78.19
371.124	81.19
371.35	91.19
371.576	84.19
371.802	96.19
372.028	71.19
372.254	90.19
372.48	90.19
372.706	96.19
372.932	86.19
373.158	99.19
373.384	99.19
373.61	88.19
373.835	99.19
374.061	84.19
374.287	80.19
374.513	103.19
374.739	99.19
374.965	89.19
375.191	106.19
375.416	89.19
375.642	82.19
375.868	91.19
376.094	78.19
376.319	91.19
376.545	88.19
376.771	86.19
376.997	100.19
377.222	93.19
377.448	84.19
377.674	87.19
377.899	87.19
378.125	94.19
378.35	84.19
378.576	80.19
378.802	91.19
379.027	85.19
379.253	89.19
379.478	93.19
379.704	87.19
379.929	88.19
380.155	90.19
380.38	79.19
380.606	76.19
380.831	95.19
381.057	106.19
381.282	99.19
381.507	85.19
381.733	72.19
381.958	81.19
382.184	79.19
382.409	86.19
382.634	89.19
382.86	96.19
383.085	109.19
383.31	94.19
383.535	95.19
383.761	96.19
383.986	104.19
384.211	100.19
384.436	96.19
384.662	80.19
384.887	92.19
385.112	78.19
385.337	89.19
385.562	91.19
385.787	85.19
386.013	98.19
386.238	94.19
386.463	104.19
386.688	108.19
386.913	88.19
387.138	87.19
387.363	92.19
387.588	116.19
387.813	106.19
388.038	101.19
388.263	95.19
388.488	89.19
388.713	89.19
388.938	95.19
389.163	94.19
389.387	79.19
389.612	77.19
389.837	104.19
390.062	89.19
390.287	88.19
390.512	91.19
390.736	85.19
390.961	83.19
391.186	95.19
391.411	91.19
391.636	95.19
391.86	97.19
392.085	92.19
392.31	96.19
392.534	109.19
392.759	111.19
392.984	154.19
393.208	240.19
393.433	304.19
393.658	251.19
393.882	139.19
394.107	111.19
394.331	114.19
394.556	118.19
394.78	121.19
395.005	98.19
395.229	99.19
395.454	98.19
395.678	95.19
395.903	121.19
396.127	131.19
396.352	136.19
396.576	170.19
396.801	243.19
397.025	246.19
397.249	185.19
397.474	138.19
397.698	117.19
397.922	94.19
398.147	89.19
398.371	76.19
398.595	95.19
398.82	100.19
399.044	86.19
399.268	91.19
399.492	92.19
399.717	82.19
399.941	82.19
400.165	91.19
400.389	74.19
400.613	92.19
400.837	96.19
401.062	89.19
401.286	88.19
401.51	77.19
401.734	87.19
401.958	84.19
402.182	92.19
402.406	75.19
402.63	82.19
402.854	85.19
403.078	68.19
403.302	99.19
403.526	100.19
403.75	97.19
403.974	89.19
404.198	90.19
404.422	115.19
404.645	131.19
404.869	112.19
405.093	97.19
405.317	93.19
405.541	96.19
405.765	83.19
405.988	98.19
406.212	93.19
406.436	85.19
406.66	89.19
406.883	89.19
407.107	83.19
407.331	80.19
407.555	100.19
407.778	128.19
408.002	100.19
408.226	74.19
408.449	87.19
408.673	80.19
408.896	85.19
409.12	83.19
409.344	92.19
409.567	103.19
409.791	109.19
410.014	103.19
410.238	92.19
410.461	99.19
410.685	97.19
410.908	82.19
411.132	81.19
411.355	83.19
411.578	86.19
411.802	88.19
412.025	95.19
412.249	79.19
412.472	86.19
412.695	84.19
412.919	90.19
413.142	91.19
413.365	88.19
413.589	85.19
413.812	87.19
414.035	80.19
414.258	84.19
414.482	84.19
414.705	81.19
414.928	80.19
415.151	89.19
415.374	71.19
415.597	80.19
415.821	87.19
416.044	73.19
416.267	83.19
416.49	86.19
416.713	79.19
416.936	71.19
417.159	84.19
417.382	96.19
417.605	78.19
417.828	78.19
418.051	96.19
418.274	93.19
418.497	87.19
418.72	86.19
418.943	80.19
419.166	82.19
419.389	96.19
419.611	90.19
419.834	85.19
420.057	100.19
420.28	89.19
420.503	87.19
420.726	90.19
420.948	84.19
421.171	99.19
421.394	100.19
421.617	120.19
421.839	121.19
422.062	150.19
422.285	207.19
422.507	293.19
422.73	342.19
422.953	329.19
423.175	226.19
423.398	156.19
423.621	117.19
423.843	120.19
424.066	107.19
424.288	119.19
424.511	98.19
424.733	97.19
424.956	93.19
425.178	92.19
425.401	88.19
425.623	73.19
425.846	88.19
426.068	74.19
426.291	95.19
426.513	97.19
426.735	89.19
426.958	83.19
427.18	83.19
427.402	103.19
427.625	92.19
427.847	93.19
428.069	102.19
428.292	128.19
428.514	161.19
428.736	131.19
428.958	147.19
429.181	137.19
429.403	121.19
429.625	113.19
429.847	141.19
430.069	168.19
430.292	202.19
430.514	183.19
430.736	143.19
430.958	136.19
431.18	110.19
431.402	103.19
431.624	106.19
431.846	136.19
432.068	146.19
432.29	103.19
432.512	91.19
432.734	88.19
432.956	86.19
433.178	88.19
433.4	71.19
433.622	72.19
433.844	84.19
434.066	98.19
434.287	82.19
434.509	86.19
434.731	93.19
434.953	87.19
435.175	94.19
435.397	114.19
435.618	91.19
435.84	89.19
436.062	85.19
436.284	96.19
436.505	76.19
436.727	81.19
436.949	86.19
437.17	84.19
437.392	80.19
437.614	78.19
437.835	94.19
438.057	89.19
438.278	80.19
438.5	84.19
438.721	98.19
438.943	73.19
439.165	91.19
439.386	90.19
439.608	92.19
439.829	89.19
440.05	94.19
440.272	98.19
440.493	83.19
440.715	93.19
440.936	93.19
441.158	79.19
441.379	108.19
441.6	85.19
441.822	93.19
442.043	96.19
442.264	117.19
442.486	168.19
442.707	211.19
442.928	141.19
443.149	131.19
443.371	167.19
443.592	295.19
443.813	247.19
444.034	127.19
444.255	99.19
444.476	105.19
444.698	111.19
444.919	100.19
445.14	223.19
445.361	236.19
445.582	358.19
445.803	307.19
446.024	149.19
446.245	111.19
446.466	89.19
446.687	75.19
446.908	94.19
447.129	85.19
447.35	81.19
447.571	84.19
447.792	84.19
448.013	83.19
448.234	96.19
448.455	92.19
448.675	88.19
448.896	84.19
449.117	89.19
449.338	68.19
449.559	84.19
449.779	82.19
450	83.19
450.221	84.19
450.442	85.19
450.662	83.19
450.883	84.19
451.104	75.19
451.324	85.19
451.545	85.19
451.766	80.19
451.986	79.19
452.207	93.19
452.428	88.19
452.648	85.19
452.869	106.19
453.089	109.19
453.31	79.19
453.53	89.19
453.751	92.19
453.971	86.19
454.192	89.19
454.412	91.19
454.633	75.19
454.853	87.19
455.073	89.19
455.294	72.19
455.514	94.19
455.734	77.19
455.955	81.19
456.175	89.19
456.395	81.19
456.616	90.19
456.836	96.19
457.056	66.19
457.276	84.19
457.497	90.19
457.717	103.19
457.937	127.19
458.157	132.19
458.377	154.19
458.598	151.19
458.818	148.19
459.038	107.19
459.258	100.19
459.478	98.19
459.698	96.19
459.918	90.19
460.138	93.19
460.358	92.19
460.578	91.19
460.798	130.19
461.018	107.19
461.238	97.19
461.458	91.19
461.678	78.19
461.898	92.19
462.118	81.19
462.338	89.19
462.558	69.19
462.777	85.19
462.997	69.19
463.217	77.19
463.437	92.19
463.657	85.19
463.876	91.19
464.096	81.19
464.316	79.19
464.536	76.19
464.755	98.19
464.975	78.19
465.195	86.19
465.414	87.19
465.634	77.19
465.854	87.19
466.073	87.19
466.293	86.19
466.512	87.19
466.732	89.19
466.951	76.19
467.171	73.19
467.391	76.19
467.61	81.19
467.829	81.19
468.049	83.19
468.268	74.19
468.488	85.19
468.707	73.19
468.927	86.19
469.146	84.19
469.365	89.19
469.585	99.19
469.804	84.19
470.023	73.19
470.243	77.19
470.462	85.19
470.681	96.19
470.901	87.19
471.12	96.19
471.339	99.19
471.558	84.19
471.777	82.19
471.997	88.19
472.216	83.19
472.435	76.19
472.654	77.19
472.873	80.19
473.092	105.19
473.311	85.19
473.53	85.19
473.749	88.19
473.968	84.19
474.187	99.19
474.406	89.19
474.625	78.19
474.844	85.19
475.063	98.19
475.282	76.19
475.501	89.19
475.72	75.19
475.939	75.19
476.158	97.19
476.377	76.19
476.596	91.19
476.814	91.19
477.033	76.19
477.252	85.19
477.471	94.19
477.69	77.19
477.908	80.19
478.127	99.19
478.346	84.19
478.564	99.19
478.783	98.19
479.002	94.19
479.22	77.19
479.439	75.19
479.658	91.19
479.876	97.19
480.095	101.19
480.313	93.19
480.532	89.19
480.751	90.19
480.969	82.19
481.188	102.19
481.406	96.19
481.624	73.19
481.843	103.19
482.061	95.19
482.28	93.19
482.498	81.19
482.717	82.19
482.935	89.19
483.153	96.19
483.372	86.19
483.59	99.19
483.808	91.19
484.027	90.19
484.245	96.19
484.463	81.19
484.681	100.19
484.9	97.19
485.118	101.19
485.336	92.19
485.554	70.19
485.772	83.19
485.99	88.19
486.209	91.19
486.427	91.19
486.645	103.19
486.863	87.19
487.081	85.19
487.299	93.19
487.517	102.19
487.735	124.19
487.953	194.19
488.171	178.19
488.389	97.19
488.607	95.19
488.825	91.19
489.043	87.19
489.261	93.19
489.479	84.19
489.696	84.19
489.914	83.19
490.132	83.19
490.35	74.19
490.568	77.19
490.786	106.19
491.003	86.19
491.221	76.19
491.439	88.19
491.657	95.19
491.874	100.19
492.092	88.19
492.31	101.19
492.527	77.19
492.745	91.19
492.963	80.19
493.18	84.19
493.398	86.19
493.615	87.19
493.833	86.19
494.05	96.19
494.268	84.19
494.485	82.19
494.703	73.19
494.92	72.19
495.138	77.19
495.355	95.19
495.573	76.19
495.79	92.19
496.008	92.19
496.225	97.19
496.442	107.19
496.66	93.19
496.877	88.19
497.094	82.19
497.312	92.19
497.529	94.19
497.746	91.19
497.963	95.19
498.181	98.19
498.398	99.19
498.615	104.19
498.832	88.19
499.049	84.19
499.267	92.19
499.484	88.19
499.701	74.19
499.918	95.19
500.135	89.19
500.352	100.19
500.569	82.19
500.786	96.19
501.003	87.19
501.22	88.19
501.437	89.19
501.654	84.19
501.871	98.19
502.088	93.19
502.305	108.19
502.522	92.19
502.739	98.19
502.956	91.19
503.172	91.19
503.389	88.19
503.606	101.19
503.823	87.19
504.04	109.19
504.256	135.19
504.473	155.19
504.69	109.19
504.907	92.19
505.123	81.19
505.34	84.19
505.557	95.19
505.773	100.19
505.99	85.19
506.207	88.19
506.423	84.19
506.64	86.19
506.856	92.19
507.073	88.19
507.289	92.19
507.506	84.19
507.722	90.19
507.939	95.19
508.155	91.19
508.372	87.19
508.588	88.19
508.805	101.19
509.021	98.19
509.238	74.19
509.454	82.19
509.67	71.19
509.887	91.19
510.103	95.19
510.319	88.19
510.536	94.19
510.752	86.19
510.968	97.19
511.184	91.19
511.401	93.19
511.617	92.19
511.833	90.19
512.049	97.19
512.265	97.19
512.481	95.19
512.698	67.19
512.914	87.19
513.13	83.19
513.346	99.19
513.562	91.19
513.778	87.19
513.994	97.19
514.21	87.19
514.426	84.19
514.642	84.19
514.858	98.19
515.074	95.19
515.29	84.19
515.506	91.19
515.721	90.19
515.937	84.19
516.153	83.19
516.369	89.19
516.585	102.19
516.801	81.19
517.016	85.19
517.232	98.19
517.448	96.19
517.664	105.19
517.879	84.19
