Data from 2145_2_HRD10591_00044.txt Node
Date: Mon Jan 19 14:22:24 EST 2026
User: Yrep
Spectrometer: HR+D1059
Trigger mode: 1
Integration Time (sec): 1.000000E-1
Scans to average: 1
Electric dark correction enabled: true
Nonlinearity correction enabled: false
Boxcar width: 0
XAxis mode: Wavelengths
Number of Pixels in Spectrum: 2048
>>>>>Begin Spectral Data<<<<<
223.165	-14.38
223.4	-14.38
223.635	-14.38
223.869	-16.38
224.104	-19.38
224.338	2.62
224.573	-12.38
224.808	-9.38
225.042	-7.38
225.277	-16.38
225.511	-9.38
225.746	-2.38
225.98	1.62
226.215	14.62
226.449	3.62
226.683	22.62
226.918	30.62
227.152	31.62
227.387	30.62
227.621	36.62
227.856	41.62
228.09	42.62
228.324	61.62
228.559	50.62
228.793	63.62
229.027	54.62
229.262	76.62
229.496	70.62
229.73	63.62
229.964	69.62
230.199	66.62
230.433	73.62
230.667	77.62
230.901	65.62
231.136	82.62
231.37	69.62
231.604	67.62
231.838	82.62
232.072	65.62
232.306	81.62
232.541	79.62
232.775	77.62
233.009	78.62
233.243	83.62
233.477	89.62
233.711	86.62
233.945	88.62
234.179	81.62
234.413	71.62
234.647	74.62
234.881	67.62
235.115	86.62
235.349	72.62
235.583	93.62
235.817	72.62
236.051	76.62
236.285	76.62
236.519	71.62
236.753	73.62
236.987	76.62
237.221	70.62
237.455	65.62
237.689	76.62
237.922	89.62
238.156	75.62
238.39	64.62
238.624	78.62
238.858	69.62
239.091	70.62
239.325	73.62
239.559	79.62
239.793	69.62
240.027	71.62
240.26	80.62
240.494	66.62
240.728	64.62
240.961	76.62
241.195	65.62
241.429	69.62
241.662	80.62
241.896	81.62
242.13	69.62
242.363	70.62
242.597	76.62
242.83	75.62
243.064	66.62
243.298	76.62
243.531	85.62
243.765	79.62
243.998	75.62
244.232	89.62
244.465	68.62
244.699	63.62
244.932	63.62
245.166	76.62
245.399	87.62
245.633	90.62
245.866	73.62
246.099	59.62
246.333	83.62
246.566	67.62
246.8	73.62
247.033	80.62
247.266	69.62
247.5	69.62
247.733	74.62
247.966	81.62
248.2	73.62
248.433	81.62
248.666	76.62
248.899	77.62
249.133	88.62
249.366	79.62
249.599	73.62
249.832	72.62
250.066	87.62
250.299	85.62
250.532	78.62
250.765	83.62
250.998	82.62
251.231	82.62
251.465	59.62
251.698	76.62
251.931	70.62
252.164	79.62
252.397	79.62
252.63	67.62
252.863	67.62
253.096	82.62
253.329	71.62
253.562	80.62
253.795	73.62
254.028	72.62
254.261	75.62
254.494	91.62
254.727	89.62
254.96	83.62
255.193	93.62
255.426	83.62
255.659	88.62
255.892	78.62
256.124	70.62
256.357	70.62
256.59	90.62
256.823	79.62
257.056	71.62
257.289	78.62
257.521	87.62
257.754	67.62
257.987	73.62
258.22	74.62
258.452	84.62
258.685	85.62
258.918	71.62
259.151	85.62
259.383	82.62
259.616	80.62
259.849	80.62
260.081	63.62
260.314	71.62
260.547	89.62
260.779	82.62
261.012	79.62
261.244	94.62
261.477	87.62
261.71	71.62
261.942	90.62
262.175	97.62
262.407	79.62
262.64	89.62
262.872	80.62
263.105	80.62
263.337	75.62
263.57	77.62
263.802	80.62
264.035	82.62
264.267	72.62
264.499	79.62
264.732	77.62
264.964	74.62
265.197	67.62
265.429	82.62
265.661	87.62
265.894	72.62
266.126	74.62
266.358	73.62
266.591	69.62
266.823	82.62
267.055	77.62
267.287	70.62
267.52	75.62
267.752	82.62
267.984	93.62
268.216	80.62
268.448	82.62
268.681	86.62
268.913	85.62
269.145	88.62
269.377	68.62
269.609	74.62
269.841	84.62
270.073	85.62
270.306	83.62
270.538	74.62
270.77	90.62
271.002	93.62
271.234	77.62
271.466	88.62
271.698	82.62
271.93	82.62
272.162	88.62
272.394	83.62
272.626	79.62
272.858	87.62
273.09	76.62
273.322	94.62
273.553	85.62
273.785	85.62
274.017	82.62
274.249	100.62
274.481	87.62
274.713	103.62
274.945	102.62
275.176	90.62
275.408	77.62
275.64	77.62
275.872	73.62
276.104	71.62
276.335	89.62
276.567	75.62
276.799	83.62
277.031	83.62
277.262	93.62
277.494	81.62
277.726	76.62
277.957	74.62
278.189	77.62
278.421	77.62
278.652	81.62
278.884	71.62
279.115	76.62
279.347	91.62
279.579	85.62
279.81	72.62
280.042	71.62
280.273	71.62
280.505	73.62
280.736	85.62
280.968	80.62
281.199	79.62
281.431	86.62
281.662	76.62
281.894	70.62
282.125	89.62
282.356	83.62
282.588	90.62
282.819	92.62
283.051	89.62
283.282	82.62
283.513	85.62
283.745	84.62
283.976	85.62
284.207	76.62
284.439	96.62
284.67	81.62
284.901	73.62
285.132	85.62
285.364	88.62
285.595	88.62
285.826	70.62
286.057	73.62
286.288	76.62
286.52	74.62
286.751	79.62
286.982	90.62
287.213	88.62
287.444	79.62
287.675	74.62
287.906	87.62
288.138	72.62
288.369	83.62
288.6	86.62
288.831	89.62
289.062	83.62
289.293	89.62
289.524	81.62
289.755	87.62
289.986	79.62
290.217	93.62
290.448	85.62
290.679	82.62
290.91	97.62
291.141	69.62
291.371	87.62
291.602	95.62
291.833	86.62
292.064	83.62
292.295	79.62
292.526	81.62
292.757	72.62
292.987	79.62
293.218	69.62
293.449	71.62
293.68	81.62
293.91	85.62
294.141	79.62
294.372	87.62
294.603	96.62
294.833	77.62
295.064	89.62
295.295	95.62
295.525	81.62
295.756	76.62
295.987	89.62
296.217	80.62
296.448	74.62
296.679	78.62
296.909	72.62
297.14	88.62
297.37	85.62
297.601	82.62
297.831	84.62
298.062	82.62
298.292	85.62
298.523	93.62
298.753	87.62
298.984	98.62
299.214	92.62
299.445	81.62
299.675	88.62
299.905	93.62
300.136	99.62
300.366	79.62
300.597	89.62
300.827	93.62
301.057	83.62
301.288	89.62
301.518	75.62
301.748	81.62
301.979	93.62
302.209	71.62
302.439	78.62
302.669	79.62
302.9	77.62
303.13	91.62
303.36	92.62
303.59	89.62
303.82	77.62
304.051	79.62
304.281	79.62
304.511	87.62
304.741	90.62
304.971	95.62
305.201	92.62
305.431	85.62
305.661	89.62
305.891	93.62
306.121	76.62
306.352	81.62
306.582	89.62
306.812	81.62
307.042	83.62
307.272	76.62
307.502	76.62
307.731	95.62
307.961	92.62
308.191	89.62
308.421	83.62
308.651	80.62
308.881	95.62
309.111	77.62
309.341	89.62
309.571	94.62
309.8	91.62
310.03	99.62
310.26	81.62
310.49	81.62
310.72	95.62
310.949	76.62
311.179	81.62
311.409	94.62
311.639	89.62
311.868	81.62
312.098	82.62
312.328	89.62
312.557	88.62
312.787	82.62
313.017	81.62
313.246	83.62
313.476	91.62
313.706	86.62
313.935	82.62
314.165	95.62
314.394	99.62
314.624	85.62
314.853	85.62
315.083	76.62
315.312	90.62
315.542	93.62
315.771	77.62
316.001	71.62
316.23	81.62
316.46	85.62
316.689	84.62
316.919	87.62
317.148	81.62
317.377	65.62
317.607	63.62
317.836	101.62
318.065	87.62
318.295	91.62
318.524	88.62
318.753	89.62
318.983	81.62
319.212	77.62
319.441	87.62
319.67	82.62
319.9	95.62
320.129	84.62
320.358	91.62
320.587	78.62
320.816	88.62
321.046	99.62
321.275	72.62
321.504	73.62
321.733	71.62
321.962	97.62
322.191	93.62
322.42	93.62
322.649	76.62
322.878	89.62
323.108	101.62
323.337	86.62
323.566	90.62
323.795	82.62
324.024	73.62
324.253	77.62
324.482	89.62
324.71	85.62
324.939	82.62
325.168	90.62
325.397	78.62
325.626	75.62
325.855	88.62
326.084	77.62
326.313	92.62
326.542	95.62
326.77	92.62
326.999	99.62
327.228	79.62
327.457	79.62
327.686	89.62
327.914	87.62
328.143	94.62
328.372	75.62
328.6	92.62
328.829	79.62
329.058	81.62
329.287	85.62
329.515	85.62
329.744	75.62
329.972	70.62
330.201	97.62
330.43	89.62
330.658	95.62
330.887	79.62
331.115	95.62
331.344	83.62
331.572	79.62
331.801	75.62
332.03	85.62
332.258	82.62
332.486	85.62
332.715	79.62
332.943	74.62
333.172	89.62
333.4	88.62
333.629	83.62
333.857	88.62
334.085	87.62
334.314	98.62
334.542	95.62
334.771	84.62
334.999	97.62
335.227	91.62
335.455	100.62
335.684	97.62
335.912	89.62
336.14	96.62
336.369	77.62
336.597	83.62
336.825	86.62
337.053	73.62
337.281	81.62
337.51	86.62
337.738	87.62
337.966	81.62
338.194	79.62
338.422	89.62
338.65	87.62
338.878	92.62
339.106	80.62
339.334	114.62
339.562	100.62
339.79	83.62
340.018	68.62
340.246	72.62
340.474	87.62
340.702	96.62
340.93	81.62
341.158	87.62
341.386	89.62
341.614	87.62
341.842	89.62
342.07	86.62
342.298	86.62
342.526	73.62
342.754	79.62
342.981	92.62
343.209	95.62
343.437	103.62
343.665	88.62
343.893	85.62
344.12	86.62
344.348	98.62
344.576	92.62
344.804	94.62
345.031	99.62
345.259	84.62
345.487	80.62
345.714	79.62
345.942	80.62
346.17	84.62
346.397	77.62
346.625	91.62
346.853	88.62
347.08	90.62
347.308	84.62
347.535	77.62
347.763	83.62
347.99	81.62
348.218	85.62
348.445	82.62
348.673	94.62
348.9	93.62
349.128	87.62
349.355	87.62
349.583	86.62
349.81	78.62
350.037	84.62
350.265	95.62
350.492	89.62
350.72	85.62
350.947	83.62
351.174	81.62
351.402	94.62
351.629	77.62
351.856	83.62
352.083	91.62
352.311	90.62
352.538	96.62
352.765	82.62
352.992	94.62
353.22	84.62
353.447	84.62
353.674	80.62
353.901	86.62
354.128	85.62
354.355	81.62
354.583	96.62
354.81	84.62
355.037	98.62
355.264	81.62
355.491	78.62
355.718	89.62
355.945	103.62
356.172	89.62
356.399	86.62
356.626	70.62
356.853	81.62
357.08	83.62
357.307	90.62
357.534	81.62
357.761	79.62
357.988	97.62
358.215	85.62
358.441	90.62
358.668	97.62
358.895	87.62
359.122	93.62
359.349	93.62
359.576	88.62
359.802	90.62
360.029	75.62
360.256	80.62
360.483	88.62
360.709	76.62
360.936	82.62
361.163	85.62
361.39	87.62
361.616	85.62
361.843	71.62
362.07	82.62
362.296	108.62
362.523	90.62
362.749	98.62
362.976	93.62
363.203	116.62
363.429	100.62
363.656	85.62
363.882	91.62
364.109	98.62
364.335	106.62
364.562	107.62
364.788	98.62
365.015	81.62
365.241	88.62
365.468	87.62
365.694	94.62
365.92	74.62
366.147	77.62
366.373	75.62
366.599	82.62
366.826	82.62
367.052	89.62
367.278	84.62
367.505	87.62
367.731	109.62
367.957	77.62
368.184	76.62
368.41	83.62
368.636	81.62
368.862	91.62
369.089	90.62
369.315	78.62
369.541	86.62
369.767	85.62
369.993	93.62
370.219	85.62
370.445	103.62
370.672	93.62
370.898	69.62
371.124	84.62
371.35	94.62
371.576	79.62
371.802	79.62
372.028	91.62
372.254	80.62
372.48	79.62
372.706	69.62
372.932	74.62
373.158	81.62
373.384	83.62
373.61	87.62
373.835	93.62
374.061	87.62
374.287	98.62
374.513	102.62
374.739	96.62
374.965	91.62
375.191	86.62
375.416	81.62
375.642	86.62
375.868	86.62
376.094	97.62
376.319	91.62
376.545	93.62
376.771	84.62
376.997	94.62
377.222	83.62
377.448	91.62
377.674	74.62
377.899	78.62
378.125	94.62
378.35	82.62
378.576	83.62
378.802	85.62
379.027	79.62
379.253	87.62
379.478	86.62
379.704	87.62
379.929	89.62
380.155	96.62
380.38	72.62
380.606	82.62
380.831	81.62
381.057	97.62
381.282	82.62
381.507	90.62
381.733	76.62
381.958	86.62
382.184	88.62
382.409	87.62
382.634	97.62
382.86	81.62
383.085	87.62
383.31	85.62
383.535	81.62
383.761	83.62
383.986	77.62
384.211	89.62
384.436	89.62
384.662	74.62
384.887	86.62
385.112	87.62
385.337	82.62
385.562	78.62
385.787	87.62
386.013	86.62
386.238	87.62
386.463	87.62
386.688	96.62
386.913	74.62
387.138	87.62
387.363	85.62
387.588	67.62
387.813	103.62
388.038	90.62
388.263	87.62
388.488	101.62
388.713	81.62
388.938	78.62
389.163	100.62
389.387	91.62
389.612	85.62
389.837	76.62
390.062	91.62
390.287	78.62
390.512	87.62
390.736	83.62
390.961	85.62
391.186	82.62
391.411	84.62
391.636	77.62
391.86	83.62
392.085	86.62
392.31	84.62
392.534	90.62
392.759	110.62
392.984	125.62
393.208	200.62
393.433	253.62
393.658	202.62
393.882	126.62
394.107	109.62
394.331	91.62
394.556	109.62
394.78	107.62
395.005	109.62
395.229	84.62
395.454	82.62
395.678	109.62
395.903	114.62
396.127	122.62
396.352	132.62
396.576	133.62
396.801	201.62
397.025	211.62
397.249	142.62
397.474	123.62
397.698	110.62
397.922	93.62
398.147	79.62
398.371	79.62
398.595	79.62
398.82	81.62
399.044	98.62
399.268	93.62
399.492	87.62
399.717	78.62
399.941	75.62
400.165	78.62
400.389	82.62
400.613	89.62
400.837	78.62
401.062	82.62
401.286	81.62
401.51	79.62
401.734	93.62
401.958	86.62
402.182	93.62
402.406	81.62
402.63	75.62
402.854	93.62
403.078	83.62
403.302	91.62
403.526	92.62
403.75	90.62
403.974	90.62
404.198	112.62
404.422	151.62
404.645	159.62
404.869	145.62
405.093	113.62
405.317	93.62
405.541	83.62
405.765	84.62
405.988	83.62
406.212	90.62
406.436	75.62
406.66	83.62
406.883	77.62
407.107	97.62
407.331	88.62
407.555	77.62
407.778	96.62
408.002	80.62
408.226	99.62
408.449	89.62
408.673	84.62
408.896	92.62
409.12	75.62
409.344	99.62
409.567	85.62
409.791	74.62
410.014	101.62
410.238	98.62
410.461	92.62
410.685	85.62
410.908	85.62
411.132	96.62
411.355	83.62
411.578	82.62
411.802	84.62
412.025	88.62
412.249	96.62
412.472	80.62
412.695	90.62
412.919	85.62
413.142	74.62
413.365	81.62
413.589	85.62
413.812	79.62
414.035	95.62
414.258	77.62
414.482	84.62
414.705	87.62
414.928	89.62
415.151	90.62
415.374	105.62
415.597	79.62
415.821	84.62
416.044	86.62
416.267	88.62
416.49	95.62
416.713	76.62
416.936	86.62
417.159	81.62
417.382	87.62
417.605	90.62
417.828	79.62
418.051	75.62
418.274	81.62
418.497	85.62
418.72	71.62
418.943	76.62
419.166	96.62
419.389	81.62
419.611	84.62
419.834	95.62
420.057	86.62
420.28	91.62
420.503	84.62
420.726	79.62
420.948	81.62
421.171	86.62
421.394	102.62
421.617	113.62
421.839	103.62
422.062	138.62
422.285	175.62
422.507	301.62
422.73	426.62
422.953	387.62
423.175	232.62
423.398	143.62
423.621	121.62
423.843	110.62
424.066	88.62
424.288	100.62
424.511	87.62
424.733	100.62
424.956	81.62
425.178	110.62
425.401	81.62
425.623	89.62
425.846	87.62
426.068	83.62
426.291	91.62
426.513	99.62
426.735	85.62
426.958	79.62
427.18	90.62
427.402	90.62
427.625	85.62
427.847	89.62
428.069	108.62
428.292	131.62
428.514	145.62
428.736	104.62
428.958	127.62
429.181	145.62
429.403	96.62
429.625	113.62
429.847	130.62
430.069	163.62
430.292	197.62
430.514	162.62
430.736	132.62
430.958	145.62
431.18	95.62
431.402	79.62
431.624	92.62
431.846	131.62
432.068	139.62
432.29	94.62
432.512	96.62
432.734	70.62
432.956	89.62
433.178	97.62
433.4	73.62
433.622	71.62
433.844	87.62
434.066	75.62
434.287	86.62
434.509	76.62
434.731	83.62
434.953	84.62
435.175	87.62
435.397	94.62
435.618	89.62
435.84	82.62
436.062	85.62
436.284	91.62
436.505	81.62
436.727	82.62
436.949	80.62
437.17	79.62
437.392	97.62
437.614	95.62
437.835	93.62
438.057	71.62
438.278	65.62
438.5	83.62
438.721	95.62
438.943	81.62
439.165	88.62
439.386	81.62
439.608	79.62
439.829	89.62
440.05	79.62
440.272	79.62
440.493	87.62
440.715	81.62
440.936	99.62
441.158	96.62
441.379	91.62
441.6	93.62
441.822	79.62
442.043	95.62
442.264	105.62
442.486	130.62
442.707	177.62
442.928	132.62
443.149	119.62
443.371	178.62
443.592	287.62
443.813	250.62
444.034	107.62
444.255	98.62
444.476	98.62
444.698	92.62
444.919	107.62
445.14	200.62
445.361	224.62
445.582	329.62
445.803	275.62
446.024	145.62
446.245	92.62
446.466	89.62
446.687	88.62
446.908	88.62
447.129	91.62
447.35	79.62
447.571	65.62
447.792	87.62
448.013	71.62
448.234	82.62
448.455	78.62
448.675	83.62
448.896	82.62
449.117	72.62
449.338	75.62
449.559	71.62
449.779	97.62
450	69.62
450.221	73.62
450.442	77.62
450.662	75.62
450.883	82.62
451.104	93.62
451.324	90.62
451.545	67.62
451.766	76.62
451.986	81.62
452.207	85.62
452.428	80.62
452.648	62.62
452.869	93.62
453.089	98.62
453.31	73.62
453.53	81.62
453.751	87.62
453.971	85.62
454.192	89.62
454.412	75.62
454.633	71.62
454.853	88.62
455.073	83.62
455.294	75.62
455.514	102.62
455.734	90.62
455.955	95.62
456.175	87.62
456.395	91.62
456.616	80.62
456.836	77.62
457.056	89.62
457.276	77.62
457.497	87.62
457.717	83.62
457.937	90.62
458.157	125.62
458.377	129.62
458.598	117.62
458.818	118.62
459.038	87.62
459.258	79.62
459.478	73.62
459.698	87.62
459.918	77.62
460.138	80.62
460.358	90.62
460.578	94.62
460.798	131.62
461.018	108.62
461.238	93.62
461.458	88.62
461.678	77.62
461.898	74.62
462.118	69.62
462.338	77.62
462.558	79.62
462.777	68.62
462.997	82.62
463.217	80.62
463.437	82.62
463.657	75.62
463.876	93.62
464.096	75.62
464.316	86.62
464.536	76.62
464.755	85.62
464.975	81.62
465.195	91.62
465.414	93.62
465.634	75.62
465.854	90.62
466.073	83.62
466.293	90.62
466.512	95.62
466.732	71.62
466.951	90.62
467.171	89.62
467.391	80.62
467.61	102.62
467.829	97.62
468.049	83.62
468.268	94.62
468.488	81.62
468.707	77.62
468.927	79.62
469.146	83.62
469.365	84.62
469.585	99.62
469.804	79.62
470.023	81.62
470.243	78.62
470.462	79.62
470.681	73.62
470.901	86.62
471.12	73.62
471.339	85.62
471.558	80.62
471.777	100.62
471.997	89.62
472.216	71.62
472.435	93.62
472.654	82.62
472.873	82.62
473.092	68.62
473.311	81.62
473.53	88.62
473.749	80.62
473.968	85.62
474.187	88.62
474.406	82.62
474.625	70.62
474.844	70.62
475.063	77.62
475.282	80.62
475.501	87.62
475.72	90.62
475.939	74.62
476.158	67.62
476.377	96.62
476.596	93.62
476.814	83.62
477.033	78.62
477.252	80.62
477.471	81.62
477.69	79.62
477.908	94.62
478.127	85.62
478.346	71.62
478.564	94.62
478.783	85.62
479.002	75.62
479.22	90.62
479.439	90.62
479.658	95.62
479.876	76.62
480.095	86.62
480.313	89.62
480.532	82.62
480.751	100.62
480.969	87.62
481.188	84.62
481.406	86.62
481.624	88.62
481.843	86.62
482.061	91.62
482.28	81.62
482.498	78.62
482.717	71.62
482.935	94.62
483.153	84.62
483.372	93.62
483.59	94.62
483.808	81.62
484.027	85.62
484.245	100.62
484.463	93.62
484.681	93.62
484.9	85.62
485.118	83.62
485.336	80.62
485.554	90.62
485.772	75.62
485.99	85.62
486.209	90.62
486.427	89.62
486.645	88.62
486.863	80.62
487.081	93.62
487.299	95.62
487.517	92.62
487.735	120.62
487.953	143.62
488.171	129.62
488.389	101.62
488.607	81.62
488.825	86.62
489.043	71.62
489.261	87.62
489.479	86.62
489.696	85.62
489.914	97.62
490.132	83.62
490.35	83.62
490.568	88.62
490.786	86.62
491.003	88.62
491.221	83.62
491.439	96.62
491.657	90.62
491.874	79.62
492.092	95.62
492.31	86.62
492.527	86.62
492.745	81.62
492.963	82.62
493.18	91.62
493.398	74.62
493.615	87.62
493.833	85.62
494.05	85.62
494.268	83.62
494.485	82.62
494.703	88.62
494.92	84.62
495.138	83.62
495.355	86.62
495.573	82.62
495.79	90.62
496.008	94.62
496.225	94.62
496.442	97.62
496.66	97.62
496.877	97.62
497.094	96.62
497.312	87.62
497.529	75.62
497.746	84.62
497.963	106.62
498.181	113.62
498.398	90.62
498.615	103.62
498.832	89.62
499.049	88.62
499.267	89.62
499.484	86.62
499.701	81.62
499.918	82.62
500.135	90.62
500.352	86.62
500.569	98.62
500.786	88.62
501.003	91.62
501.22	93.62
501.437	81.62
501.654	112.62
501.871	73.62
502.088	83.62
502.305	79.62
502.522	84.62
502.739	83.62
502.956	97.62
503.172	91.62
503.389	91.62
503.606	97.62
503.823	100.62
504.04	103.62
504.256	119.62
504.473	125.62
504.69	94.62
504.907	100.62
505.123	96.62
505.34	88.62
505.557	86.62
505.773	98.62
505.99	92.62
506.207	94.62
506.423	91.62
506.64	81.62
506.856	86.62
507.073	75.62
507.289	81.62
507.506	75.62
507.722	90.62
507.939	79.62
508.155	85.62
508.372	95.62
508.588	69.62
508.805	95.62
509.021	81.62
509.238	75.62
509.454	91.62
509.67	85.62
509.887	86.62
510.103	80.62
510.319	82.62
510.536	91.62
510.752	90.62
510.968	84.62
511.184	69.62
511.401	88.62
511.617	101.62
511.833	103.62
512.049	88.62
512.265	88.62
512.481	102.62
512.698	79.62
512.914	80.62
513.13	81.62
513.346	81.62
513.562	80.62
513.778	74.62
513.994	91.62
514.21	89.62
514.426	79.62
514.642	81.62
514.858	90.62
515.074	81.62
515.29	85.62
515.506	80.62
515.721	71.62
515.937	84.62
516.153	88.62
516.369	77.62
516.585	74.62
516.801	82.62
517.016	85.62
517.232	91.62
517.448	86.62
517.664	83.62
517.879	90.62
518.095	85.62
518.311	79.62
518.527	94.62
