Data from 2145_2_HRD10591_00008.txt Node
Date: Mon Jan 19 14:22:06 EST 2026
User: Yrep
Spectrometer: HR+D1059
Trigger mode: 1
Integration Time (sec): 1.000000E-1
Scans to average: 1
Electric dark correction enabled: true
Nonlinearity correction enabled: false
Boxcar width: 0
XAxis mode: Wavelengths
Number of Pixels in Spectrum: 2048
>>>>>Begin Spectral Data<<<<<
223.165	-14.56
223.4	-14.56
223.635	-14.56
223.869	-26.56
224.104	-20.56
224.338	-11.56
224.573	-8.56
224.808	-13.56
225.042	-18.56
225.277	-5.56
225.511	-2.56
225.746	5.44
225.98	9.44
226.215	17.44
226.449	11.44
226.683	23.44
226.918	35.44
227.152	19.44
227.387	36.44
227.621	39.44
227.856	29.44
228.09	49.44
228.324	37.44
228.559	54.44
228.793	51.44
229.027	64.44
229.262	75.44
229.496	68.44
229.73	67.44
229.964	77.44
230.199	60.44
230.433	62.44
230.667	85.44
230.901	77.44
231.136	79.44
231.37	72.44
231.604	87.44
231.838	71.44
232.072	83.44
232.306	88.44
232.541	78.44
232.775	77.44
233.009	90.44
233.243	90.44
233.477	79.44
233.711	91.44
233.945	87.44
234.179	75.44
234.413	80.44
234.647	69.44
234.881	79.44
235.115	97.44
235.349	80.44
235.583	79.44
235.817	85.44
236.051	87.44
236.285	66.44
236.519	79.44
236.753	82.44
236.987	73.44
237.221	75.44
237.455	68.44
237.689	69.44
237.922	79.44
238.156	79.44
238.39	78.44
238.624	67.44
238.858	75.44
239.091	63.44
239.325	79.44
239.559	82.44
239.793	76.44
240.027	77.44
240.26	84.44
240.494	69.44
240.728	67.44
240.961	77.44
241.195	86.44
241.429	70.44
241.662	77.44
241.896	82.44
242.13	62.44
242.363	82.44
242.597	91.44
242.83	70.44
243.064	84.44
243.298	73.44
243.531	66.44
243.765	81.44
243.998	81.44
244.232	68.44
244.465	79.44
244.699	58.44
244.932	74.44
245.166	86.44
245.399	86.44
245.633	81.44
245.866	84.44
246.099	77.44
246.333	78.44
246.566	82.44
246.8	94.44
247.033	97.44
247.266	78.44
247.5	82.44
247.733	73.44
247.966	79.44
248.2	79.44
248.433	81.44
248.666	77.44
248.899	71.44
249.133	68.44
249.366	77.44
249.599	83.44
249.832	79.44
250.066	85.44
250.299	87.44
250.532	106.44
250.765	85.44
250.998	77.44
251.231	80.44
251.465	61.44
251.698	75.44
251.931	79.44
252.164	78.44
252.397	80.44
252.63	88.44
252.863	92.44
253.096	86.44
253.329	89.44
253.562	89.44
253.795	72.44
254.028	81.44
254.261	85.44
254.494	86.44
254.727	80.44
254.96	85.44
255.193	89.44
255.426	88.44
255.659	89.44
255.892	87.44
256.124	84.44
256.357	73.44
256.59	75.44
256.823	85.44
257.056	85.44
257.289	90.44
257.521	74.44
257.754	75.44
257.987	80.44
258.22	89.44
258.452	73.44
258.685	63.44
258.918	75.44
259.151	87.44
259.383	98.44
259.616	87.44
259.849	74.44
260.081	82.44
260.314	85.44
260.547	72.44
260.779	83.44
261.012	77.44
261.244	71.44
261.477	85.44
261.71	72.44
261.942	85.44
262.175	77.44
262.407	85.44
262.64	89.44
262.872	78.44
263.105	77.44
263.337	85.44
263.57	93.44
263.802	83.44
264.035	98.44
264.267	79.44
264.499	70.44
264.732	83.44
264.964	65.44
265.197	78.44
265.429	70.44
265.661	81.44
265.894	85.44
266.126	77.44
266.358	89.44
266.591	78.44
266.823	87.44
267.055	82.44
267.287	85.44
267.52	78.44
267.752	95.44
267.984	92.44
268.216	91.44
268.448	79.44
268.681	90.44
268.913	73.44
269.145	89.44
269.377	84.44
269.609	85.44
269.841	91.44
270.073	91.44
270.306	92.44
270.538	89.44
270.77	85.44
271.002	85.44
271.234	86.44
271.466	87.44
271.698	95.44
271.93	98.44
272.162	90.44
272.394	89.44
272.626	94.44
272.858	73.44
273.09	80.44
273.322	89.44
273.553	86.44
273.785	93.44
274.017	84.44
274.249	94.44
274.481	92.44
274.713	99.44
274.945	82.44
275.176	77.44
275.408	87.44
275.64	89.44
275.872	84.44
276.104	96.44
276.335	87.44
276.567	86.44
276.799	89.44
277.031	86.44
277.262	70.44
277.494	86.44
277.726	80.44
277.957	76.44
278.189	77.44
278.421	84.44
278.652	75.44
278.884	87.44
279.115	100.44
279.347	63.44
279.579	73.44
279.81	89.44
280.042	90.44
280.273	74.44
280.505	73.44
280.736	90.44
280.968	107.44
281.199	81.44
281.431	80.44
281.662	77.44
281.894	102.44
282.125	83.44
282.356	81.44
282.588	86.44
282.819	84.44
283.051	69.44
283.282	85.44
283.513	75.44
283.745	88.44
283.976	85.44
284.207	79.44
284.439	75.44
284.67	81.44
284.901	87.44
285.132	100.44
285.364	99.44
285.595	93.44
285.826	89.44
286.057	82.44
286.288	87.44
286.52	100.44
286.751	83.44
286.982	85.44
287.213	92.44
287.444	85.44
287.675	88.44
287.906	93.44
288.138	96.44
288.369	77.44
288.6	98.44
288.831	74.44
289.062	75.44
289.293	99.44
289.524	89.44
289.755	92.44
289.986	81.44
290.217	86.44
290.448	83.44
290.679	98.44
290.91	88.44
291.141	80.44
291.371	100.44
291.602	85.44
291.833	85.44
292.064	83.44
292.295	89.44
292.526	91.44
292.757	93.44
292.987	88.44
293.218	85.44
293.449	99.44
293.68	80.44
293.91	75.44
294.141	106.44
294.372	85.44
294.603	89.44
294.833	87.44
295.064	82.44
295.295	87.44
295.525	76.44
295.756	77.44
295.987	87.44
296.217	80.44
296.448	95.44
296.679	83.44
296.909	86.44
297.14	89.44
297.37	87.44
297.601	101.44
297.831	77.44
298.062	95.44
298.292	99.44
298.523	98.44
298.753	74.44
298.984	87.44
299.214	95.44
299.445	102.44
299.675	95.44
299.905	103.44
300.136	84.44
300.366	86.44
300.597	90.44
300.827	75.44
301.057	93.44
301.288	79.44
301.518	67.44
301.748	86.44
301.979	101.44
302.209	92.44
302.439	77.44
302.669	73.44
302.9	90.44
303.13	83.44
303.36	86.44
303.59	99.44
303.82	101.44
304.051	76.44
304.281	84.44
304.511	95.44
304.741	78.44
304.971	69.44
305.201	93.44
305.431	101.44
305.661	90.44
305.891	85.44
306.121	83.44
306.352	90.44
306.582	86.44
306.812	88.44
307.042	92.44
307.272	81.44
307.502	84.44
307.731	103.44
307.961	88.44
308.191	89.44
308.421	98.44
308.651	84.44
308.881	99.44
309.111	98.44
309.341	78.44
309.571	93.44
309.8	98.44
310.03	78.44
310.26	93.44
310.49	76.44
310.72	84.44
310.949	76.44
311.179	76.44
311.409	85.44
311.639	83.44
311.868	93.44
312.098	90.44
312.328	75.44
312.557	89.44
312.787	93.44
313.017	99.44
313.246	86.44
313.476	94.44
313.706	93.44
313.935	102.44
314.165	97.44
314.394	98.44
314.624	90.44
314.853	83.44
315.083	86.44
315.312	78.44
315.542	93.44
315.771	80.44
316.001	101.44
316.23	95.44
316.46	87.44
316.689	101.44
316.919	93.44
317.148	86.44
317.377	82.44
317.607	97.44
317.836	89.44
318.065	107.44
318.295	98.44
318.524	95.44
318.753	79.44
318.983	81.44
319.212	83.44
319.441	78.44
319.67	87.44
319.9	87.44
320.129	87.44
320.358	88.44
320.587	84.44
320.816	89.44
321.046	94.44
321.275	99.44
321.504	90.44
321.733	86.44
321.962	87.44
322.191	90.44
322.42	90.44
322.649	98.44
322.878	111.44
323.108	90.44
323.337	91.44
323.566	93.44
323.795	77.44
324.024	98.44
324.253	95.44
324.482	91.44
324.71	93.44
324.939	83.44
325.168	87.44
325.397	89.44
325.626	99.44
325.855	80.44
326.084	80.44
326.313	84.44
326.542	98.44
326.77	106.44
326.999	90.44
327.228	82.44
327.457	90.44
327.686	94.44
327.914	89.44
328.143	92.44
328.372	88.44
328.6	84.44
328.829	84.44
329.058	89.44
329.287	91.44
329.515	96.44
329.744	95.44
329.972	75.44
330.201	74.44
330.43	86.44
330.658	85.44
330.887	102.44
331.115	85.44
331.344	85.44
331.572	79.44
331.801	85.44
332.03	76.44
332.258	90.44
332.486	87.44
332.715	86.44
332.943	99.44
333.172	99.44
333.4	91.44
333.629	80.44
333.857	105.44
334.085	91.44
334.314	99.44
334.542	89.44
334.771	99.44
334.999	107.44
335.227	105.44
335.455	93.44
335.684	107.44
335.912	102.44
336.14	100.44
336.369	118.44
336.597	80.44
336.825	91.44
337.053	84.44
337.281	99.44
337.51	100.44
337.738	90.44
337.966	93.44
338.194	86.44
338.422	88.44
338.65	97.44
338.878	87.44
339.106	102.44
339.334	105.44
339.562	97.44
339.79	91.44
340.018	71.44
340.246	87.44
340.474	90.44
340.702	92.44
340.93	83.44
341.158	98.44
341.386	106.44
341.614	93.44
341.842	88.44
342.07	91.44
342.298	79.44
342.526	80.44
342.754	100.44
342.981	94.44
343.209	98.44
343.437	101.44
343.665	94.44
343.893	91.44
344.12	75.44
344.348	98.44
344.576	100.44
344.804	72.44
345.031	67.44
345.259	98.44
345.487	99.44
345.714	89.44
345.942	90.44
346.17	85.44
346.397	88.44
346.625	92.44
346.853	92.44
347.08	90.44
347.308	87.44
347.535	75.44
347.763	91.44
347.99	92.44
348.218	90.44
348.445	95.44
348.673	103.44
348.9	95.44
349.128	88.44
349.355	91.44
349.583	89.44
349.81	87.44
350.037	94.44
350.265	91.44
350.492	95.44
350.72	90.44
350.947	85.44
351.174	85.44
351.402	92.44
351.629	98.44
351.856	79.44
352.083	79.44
352.311	95.44
352.538	88.44
352.765	87.44
352.992	96.44
353.22	79.44
353.447	77.44
353.674	86.44
353.901	85.44
354.128	95.44
354.355	93.44
354.583	90.44
354.81	86.44
355.037	99.44
355.264	99.44
355.491	90.44
355.718	91.44
355.945	86.44
356.172	102.44
356.399	89.44
356.626	103.44
356.853	90.44
357.08	100.44
357.307	101.44
357.534	82.44
357.761	93.44
357.988	106.44
358.215	86.44
358.441	83.44
358.668	98.44
358.895	83.44
359.122	83.44
359.349	87.44
359.576	95.44
359.802	98.44
360.029	80.44
360.256	90.44
360.483	89.44
360.709	86.44
360.936	93.44
361.163	86.44
361.39	98.44
361.616	85.44
361.843	109.44
362.07	103.44
362.296	106.44
362.523	130.44
362.749	117.44
362.976	134.44
363.203	146.44
363.429	113.44
363.656	117.44
363.882	110.44
364.109	122.44
364.335	172.44
364.562	159.44
364.788	125.44
365.015	107.44
365.241	99.44
365.468	99.44
365.694	80.44
365.92	98.44
366.147	90.44
366.373	69.44
366.599	89.44
366.826	90.44
367.052	95.44
367.278	91.44
367.505	89.44
367.731	93.44
367.957	90.44
368.184	94.44
368.41	94.44
368.636	94.44
368.862	77.44
369.089	73.44
369.315	78.44
369.541	99.44
369.767	87.44
369.993	91.44
370.219	82.44
370.445	85.44
370.672	90.44
370.898	70.44
371.124	91.44
371.35	84.44
371.576	89.44
371.802	88.44
372.028	96.44
372.254	91.44
372.48	81.44
372.706	92.44
372.932	99.44
373.158	94.44
373.384	104.44
373.61	110.44
373.835	118.44
374.061	99.44
374.287	90.44
374.513	91.44
374.739	101.44
374.965	93.44
375.191	94.44
375.416	84.44
375.642	97.44
375.868	91.44
376.094	90.44
376.319	83.44
376.545	84.44
376.771	91.44
376.997	92.44
377.222	88.44
377.448	79.44
377.674	101.44
377.899	87.44
378.125	78.44
378.35	93.44
378.576	83.44
378.802	73.44
379.027	99.44
379.253	91.44
379.478	82.44
379.704	89.44
379.929	83.44
380.155	79.44
380.38	78.44
380.606	87.44
380.831	80.44
381.057	94.44
381.282	98.44
381.507	86.44
381.733	101.44
381.958	86.44
382.184	83.44
382.409	108.44
382.634	93.44
382.86	100.44
383.085	97.44
383.31	102.44
383.535	92.44
383.761	113.44
383.986	104.44
384.211	99.44
384.436	85.44
384.662	90.44
384.887	97.44
385.112	102.44
385.337	99.44
385.562	99.44
385.787	100.44
386.013	98.44
386.238	92.44
386.463	115.44
386.688	107.44
386.913	93.44
387.138	105.44
387.363	93.44
387.588	110.44
387.813	109.44
388.038	101.44
388.263	101.44
388.488	99.44
388.713	99.44
388.938	89.44
389.163	85.44
389.387	93.44
389.612	62.44
389.837	84.44
390.062	108.44
390.287	88.44
390.512	100.44
390.736	91.44
390.961	101.44
391.186	97.44
391.411	94.44
391.636	90.44
391.86	96.44
392.085	107.44
392.31	101.44
392.534	122.44
392.759	126.44
392.984	186.44
393.208	276.44
393.433	323.44
393.658	259.44
393.882	164.44
394.107	121.44
394.331	117.44
394.556	124.44
394.78	109.44
395.005	116.44
395.229	108.44
395.454	110.44
395.678	99.44
395.903	130.44
396.127	132.44
396.352	147.44
396.576	171.44
396.801	261.44
397.025	302.44
397.249	194.44
397.474	147.44
397.698	126.44
397.922	107.44
398.147	96.44
398.371	83.44
398.595	90.44
398.82	81.44
399.044	81.44
399.268	80.44
399.492	96.44
399.717	97.44
399.941	91.44
400.165	80.44
400.389	92.44
400.613	75.44
400.837	91.44
401.062	94.44
401.286	87.44
401.51	85.44
401.734	89.44
401.958	78.44
402.182	85.44
402.406	74.44
402.63	88.44
402.854	87.44
403.078	89.44
403.302	77.44
403.526	103.44
403.75	90.44
403.974	96.44
404.198	89.44
404.422	118.44
404.645	133.44
404.869	112.44
405.093	100.44
405.317	93.44
405.541	86.44
405.765	84.44
405.988	95.44
406.212	101.44
406.436	73.44
406.66	94.44
406.883	91.44
407.107	93.44
407.331	95.44
407.555	108.44
407.778	101.44
408.002	108.44
408.226	86.44
408.449	90.44
408.673	94.44
408.896	93.44
409.12	100.44
409.344	101.44
409.567	111.44
409.791	122.44
410.014	126.44
410.238	122.44
410.461	111.44
410.685	94.44
410.908	85.44
411.132	106.44
411.355	101.44
411.578	83.44
411.802	97.44
412.025	70.44
412.249	79.44
412.472	100.44
412.695	87.44
412.919	87.44
413.142	89.44
413.365	86.44
413.589	87.44
413.812	98.44
414.035	84.44
414.258	88.44
414.482	97.44
414.705	84.44
414.928	94.44
415.151	82.44
415.374	89.44
415.597	79.44
415.821	85.44
416.044	99.44
416.267	95.44
416.49	94.44
416.713	97.44
416.936	87.44
417.159	86.44
417.382	82.44
417.605	101.44
417.828	97.44
418.051	104.44
418.274	91.44
418.497	101.44
418.72	67.44
418.943	94.44
419.166	92.44
419.389	88.44
419.611	93.44
419.834	85.44
420.057	89.44
420.28	97.44
420.503	89.44
420.726	90.44
420.948	90.44
421.171	104.44
421.394	111.44
421.617	120.44
421.839	139.44
422.062	154.44
422.285	221.44
422.507	284.44
422.73	345.44
422.953	345.44
423.175	261.44
423.398	185.44
423.621	142.44
423.843	129.44
424.066	125.44
424.288	120.44
424.511	101.44
424.733	105.44
424.956	97.44
425.178	101.44
425.401	90.44
425.623	92.44
425.846	93.44
426.068	89.44
426.291	91.44
426.513	89.44
426.735	88.44
426.958	102.44
427.18	89.44
427.402	95.44
427.625	99.44
427.847	113.44
428.069	111.44
428.292	150.44
428.514	167.44
428.736	120.44
428.958	146.44
429.181	149.44
429.403	116.44
429.625	99.44
429.847	136.44
430.069	189.44
430.292	233.44
430.514	186.44
430.736	152.44
430.958	159.44
431.18	115.44
431.402	85.44
431.624	106.44
431.846	141.44
432.068	157.44
432.29	117.44
432.512	94.44
432.734	94.44
432.956	97.44
433.178	83.44
433.4	91.44
433.622	80.44
433.844	83.44
434.066	91.44
434.287	98.44
434.509	94.44
434.731	96.44
434.953	90.44
435.175	92.44
435.397	95.44
435.618	92.44
435.84	92.44
436.062	95.44
436.284	89.44
436.505	99.44
436.727	84.44
436.949	88.44
437.17	113.44
437.392	85.44
437.614	84.44
437.835	83.44
438.057	92.44
438.278	97.44
438.5	85.44
438.721	76.44
438.943	91.44
439.165	83.44
439.386	87.44
439.608	75.44
439.829	83.44
440.05	89.44
440.272	94.44
440.493	102.44
440.715	119.44
440.936	94.44
441.158	94.44
441.379	79.44
441.6	97.44
441.822	96.44
442.043	115.44
442.264	107.44
442.486	170.44
442.707	221.44
442.928	159.44
443.149	125.44
443.371	198.44
443.592	325.44
443.813	286.44
444.034	147.44
444.255	123.44
444.476	105.44
444.698	102.44
444.919	113.44
445.14	241.44
445.361	283.44
445.582	342.44
445.803	342.44
446.024	166.44
446.245	117.44
446.466	86.44
446.687	90.44
446.908	91.44
447.129	90.44
447.35	86.44
447.571	86.44
447.792	81.44
448.013	71.44
448.234	93.44
448.455	97.44
448.675	90.44
448.896	85.44
449.117	84.44
449.338	81.44
449.559	89.44
449.779	90.44
450	93.44
450.221	80.44
450.442	63.44
450.662	83.44
450.883	92.44
451.104	98.44
451.324	101.44
451.545	94.44
451.766	100.44
451.986	83.44
452.207	99.44
452.428	98.44
452.648	111.44
452.869	113.44
453.089	100.44
453.31	83.44
453.53	83.44
453.751	88.44
453.971	101.44
454.192	85.44
454.412	88.44
454.633	86.44
454.853	102.44
455.073	86.44
455.294	91.44
455.514	89.44
455.734	72.44
455.955	86.44
456.175	75.44
456.395	70.44
456.616	83.44
456.836	97.44
457.056	78.44
457.276	78.44
457.497	94.44
457.717	124.44
457.937	134.44
458.157	147.44
458.377	164.44
458.598	169.44
458.818	186.44
459.038	126.44
459.258	82.44
459.478	96.44
459.698	95.44
459.918	94.44
460.138	100.44
460.358	95.44
460.578	101.44
460.798	107.44
461.018	102.44
461.238	85.44
461.458	87.44
461.678	101.44
461.898	96.44
462.118	94.44
462.338	94.44
462.558	84.44
462.777	81.44
462.997	83.44
463.217	101.44
463.437	80.44
463.657	89.44
463.876	83.44
464.096	81.44
464.316	81.44
464.536	89.44
464.755	81.44
464.975	72.44
465.195	88.44
465.414	74.44
465.634	81.44
465.854	77.44
466.073	92.44
466.293	90.44
466.512	87.44
466.732	87.44
466.951	78.44
467.171	83.44
467.391	91.44
467.61	93.44
467.829	88.44
468.049	87.44
468.268	96.44
468.488	99.44
468.707	87.44
468.927	84.44
469.146	74.44
469.365	78.44
469.585	75.44
469.804	90.44
470.023	80.44
470.243	80.44
470.462	84.44
470.681	72.44
470.901	75.44
471.12	82.44
471.339	85.44
471.558	87.44
471.777	95.44
471.997	70.44
472.216	88.44
472.435	83.44
472.654	85.44
472.873	105.44
473.092	83.44
473.311	69.44
473.53	85.44
473.749	82.44
473.968	97.44
474.187	76.44
474.406	73.44
474.625	86.44
474.844	94.44
475.063	90.44
475.282	89.44
475.501	92.44
475.72	98.44
475.939	85.44
476.158	89.44
476.377	84.44
476.596	81.44
476.814	79.44
477.033	92.44
477.252	84.44
477.471	95.44
477.69	77.44
477.908	72.44
478.127	83.44
478.346	90.44
478.564	90.44
478.783	88.44
479.002	88.44
479.22	80.44
479.439	91.44
479.658	100.44
479.876	83.44
480.095	72.44
480.313	94.44
480.532	98.44
480.751	76.44
480.969	87.44
481.188	87.44
481.406	97.44
481.624	92.44
481.843	77.44
482.061	84.44
482.28	96.44
482.498	97.44
482.717	92.44
482.935	79.44
483.153	95.44
483.372	101.44
483.59	86.44
483.808	89.44
484.027	97.44
484.245	86.44
484.463	87.44
484.681	92.44
484.9	97.44
485.118	92.44
485.336	95.44
485.554	86.44
485.772	61.44
485.99	100.44
486.209	86.44
486.427	76.44
486.645	94.44
486.863	89.44
487.081	76.44
487.299	107.44
487.517	125.44
487.735	140.44
487.953	268.44
488.171	223.44
488.389	127.44
488.607	106.44
488.825	87.44
489.043	95.44
489.261	92.44
489.479	92.44
489.696	84.44
489.914	83.44
490.132	89.44
490.35	99.44
490.568	90.44
490.786	97.44
491.003	87.44
491.221	79.44
491.439	97.44
491.657	93.44
491.874	83.44
492.092	78.44
492.31	77.44
492.527	91.44
492.745	86.44
492.963	89.44
493.18	101.44
493.398	82.44
493.615	78.44
493.833	85.44
494.05	86.44
494.268	91.44
494.485	89.44
494.703	94.44
494.92	93.44
495.138	96.44
495.355	82.44
495.573	77.44
495.79	77.44
496.008	96.44
496.225	113.44
496.442	97.44
496.66	110.44
496.877	85.44
497.094	98.44
497.312	107.44
497.529	91.44
497.746	84.44
497.963	86.44
498.181	84.44
498.398	97.44
498.615	88.44
498.832	80.44
499.049	81.44
499.267	91.44
499.484	80.44
499.701	99.44
499.918	95.44
500.135	89.44
500.352	94.44
500.569	89.44
500.786	85.44
501.003	94.44
501.22	82.44
501.437	93.44
501.654	90.44
501.871	84.44
502.088	86.44
502.305	93.44
502.522	88.44
502.739	87.44
502.956	89.44
503.172	88.44
503.389	93.44
503.606	75.44
503.823	91.44
504.04	103.44
504.256	181.44
504.473	167.44
504.69	113.44
504.907	108.44
505.123	81.44
505.34	78.44
505.557	97.44
505.773	87.44
505.99	94.44
506.207	74.44
506.423	87.44
506.64	85.44
506.856	96.44
507.073	79.44
507.289	101.44
507.506	89.44
507.722	91.44
507.939	80.44
508.155	90.44
508.372	93.44
508.588	86.44
508.805	99.44
509.021	73.44
509.238	98.44
509.454	89.44
509.67	87.44
509.887	85.44
510.103	94.44
510.319	93.44
510.536	85.44
510.752	91.44
510.968	85.44
511.184	88.44
511.401	93.44
511.617	92.44
511.833	97.44
512.049	98.44
512.265	94.44
512.481	99.44
512.698	92.44
512.914	69.44
513.13	77.44
513.346	90.44
513.562	92.44
513.778	96.44
513.994	83.44
514.21	92.44
514.426	92.44
514.642	88.44
514.858	76.44
515.074	74.44
515.29	94.44
515.506	77.44
515.721	81.44
515.937	101.44
516.153	90.44
516.369	91.44
516.585	75.44
516.801	84.44
517.016	89.44
