Data from 2145_2_HRD10591_00017.txt Node
Date: Mon Jan 19 14:22:10 EST 2026
User: Yrep
Spectrometer: HR+D1059
Trigger mode: 1
Integration Time (sec): 1.000000E-1
Scans to average: 1
Electric dark correction enabled: true
Nonlinearity correction enabled: false
Boxcar width: 0
XAxis mode: Wavelengths
Number of Pixels in Spectrum: 2048
>>>>>Begin Spectral Data<<<<<
223.165	-23.38
223.4	-23.38
223.635	-23.38
223.869	-11.38
224.104	-20.38
224.338	-15.38
224.573	-5.38
224.808	-17.38
225.042	-5.38
225.277	-7.38
225.511	-3.38
225.746	0.62
225.98	12.62
226.215	10.62
226.449	7.62
226.683	24.62
226.918	30.62
227.152	22.62
227.387	44.62
227.621	28.62
227.856	39.62
228.09	50.62
228.324	60.62
228.559	58.62
228.793	48.62
229.027	66.62
229.262	61.62
229.496	63.62
229.73	66.62
229.964	68.62
230.199	60.62
230.433	68.62
230.667	83.62
230.901	80.62
231.136	69.62
231.37	82.62
231.604	78.62
231.838	91.62
232.072	89.62
232.306	79.62
232.541	83.62
232.775	80.62
233.009	74.62
233.243	78.62
233.477	64.62
233.711	71.62
233.945	82.62
234.179	99.62
234.413	83.62
234.647	75.62
234.881	71.62
235.115	77.62
235.349	82.62
235.583	81.62
235.817	82.62
236.051	80.62
236.285	82.62
236.519	68.62
236.753	73.62
236.987	86.62
237.221	68.62
237.455	82.62
237.689	76.62
237.922	75.62
238.156	72.62
238.39	82.62
238.624	66.62
238.858	86.62
239.091	77.62
239.325	72.62
239.559	62.62
239.793	69.62
240.027	69.62
240.26	73.62
240.494	75.62
240.728	74.62
240.961	94.62
241.195	86.62
241.429	66.62
241.662	72.62
241.896	71.62
242.13	90.62
242.363	72.62
242.597	72.62
242.83	80.62
243.064	82.62
243.298	79.62
243.531	79.62
243.765	82.62
243.998	87.62
244.232	64.62
244.465	70.62
244.699	79.62
244.932	80.62
245.166	82.62
245.399	77.62
245.633	60.62
245.866	76.62
246.099	80.62
246.333	66.62
246.566	77.62
246.8	85.62
247.033	78.62
247.266	69.62
247.5	77.62
247.733	71.62
247.966	80.62
248.2	71.62
248.433	68.62
248.666	74.62
248.899	68.62
249.133	84.62
249.366	77.62
249.599	77.62
249.832	77.62
250.066	66.62
250.299	104.62
250.532	90.62
250.765	84.62
250.998	72.62
251.231	83.62
251.465	82.62
251.698	79.62
251.931	84.62
252.164	86.62
252.397	63.62
252.63	84.62
252.863	70.62
253.096	79.62
253.329	82.62
253.562	94.62
253.795	88.62
254.028	75.62
254.261	89.62
254.494	90.62
254.727	81.62
254.96	80.62
255.193	80.62
255.426	67.62
255.659	75.62
255.892	93.62
256.124	77.62
256.357	88.62
256.59	91.62
256.823	80.62
257.056	56.62
257.289	82.62
257.521	77.62
257.754	72.62
257.987	70.62
258.22	80.62
258.452	89.62
258.685	84.62
258.918	88.62
259.151	70.62
259.383	84.62
259.616	84.62
259.849	97.62
260.081	74.62
260.314	75.62
260.547	75.62
260.779	82.62
261.012	83.62
261.244	74.62
261.477	78.62
261.71	75.62
261.942	73.62
262.175	76.62
262.407	81.62
262.64	73.62
262.872	95.62
263.105	82.62
263.337	83.62
263.57	74.62
263.802	85.62
264.035	82.62
264.267	73.62
264.499	80.62
264.732	86.62
264.964	77.62
265.197	80.62
265.429	81.62
265.661	79.62
265.894	92.62
266.126	84.62
266.358	87.62
266.591	87.62
266.823	69.62
267.055	74.62
267.287	77.62
267.52	76.62
267.752	96.62
267.984	75.62
268.216	74.62
268.448	97.62
268.681	95.62
268.913	85.62
269.145	78.62
269.377	78.62
269.609	66.62
269.841	90.62
270.073	75.62
270.306	76.62
270.538	89.62
270.77	85.62
271.002	60.62
271.234	83.62
271.466	80.62
271.698	89.62
271.93	89.62
272.162	86.62
272.394	88.62
272.626	82.62
272.858	89.62
273.09	93.62
273.322	76.62
273.553	76.62
273.785	88.62
274.017	81.62
274.249	90.62
274.481	72.62
274.713	85.62
274.945	90.62
275.176	80.62
275.408	70.62
275.64	92.62
275.872	68.62
276.104	88.62
276.335	91.62
276.567	85.62
276.799	68.62
277.031	86.62
277.262	79.62
277.494	82.62
277.726	97.62
277.957	100.62
278.189	85.62
278.421	86.62
278.652	71.62
278.884	83.62
279.115	75.62
279.347	73.62
279.579	69.62
279.81	85.62
280.042	91.62
280.273	95.62
280.505	84.62
280.736	99.62
280.968	88.62
281.199	84.62
281.431	84.62
281.662	74.62
281.894	68.62
282.125	80.62
282.356	71.62
282.588	76.62
282.819	80.62
283.051	81.62
283.282	70.62
283.513	82.62
283.745	80.62
283.976	88.62
284.207	91.62
284.439	78.62
284.67	76.62
284.901	83.62
285.132	91.62
285.364	77.62
285.595	80.62
285.826	88.62
286.057	90.62
286.288	86.62
286.52	78.62
286.751	63.62
286.982	80.62
287.213	83.62
287.444	85.62
287.675	87.62
287.906	86.62
288.138	99.62
288.369	75.62
288.6	86.62
288.831	80.62
289.062	78.62
289.293	89.62
289.524	77.62
289.755	97.62
289.986	87.62
290.217	74.62
290.448	92.62
290.679	87.62
290.91	86.62
291.141	82.62
291.371	83.62
291.602	74.62
291.833	78.62
292.064	84.62
292.295	91.62
292.526	83.62
292.757	91.62
292.987	77.62
293.218	80.62
293.449	81.62
293.68	80.62
293.91	72.62
294.141	86.62
294.372	93.62
294.603	85.62
294.833	79.62
295.064	83.62
295.295	83.62
295.525	84.62
295.756	91.62
295.987	99.62
296.217	82.62
296.448	79.62
296.679	87.62
296.909	82.62
297.14	84.62
297.37	82.62
297.601	80.62
297.831	96.62
298.062	90.62
298.292	87.62
298.523	81.62
298.753	86.62
298.984	81.62
299.214	96.62
299.445	66.62
299.675	75.62
299.905	96.62
300.136	101.62
300.366	93.62
300.597	91.62
300.827	70.62
301.057	92.62
301.288	74.62
301.518	71.62
301.748	86.62
301.979	98.62
302.209	77.62
302.439	97.62
302.669	78.62
302.9	86.62
303.13	101.62
303.36	85.62
303.59	79.62
303.82	83.62
304.051	79.62
304.281	87.62
304.511	94.62
304.741	82.62
304.971	79.62
305.201	83.62
305.431	79.62
305.661	80.62
305.891	90.62
306.121	85.62
306.352	80.62
306.582	92.62
306.812	82.62
307.042	85.62
307.272	90.62
307.502	91.62
307.731	85.62
307.961	87.62
308.191	93.62
308.421	84.62
308.651	96.62
308.881	97.62
309.111	85.62
309.341	84.62
309.571	87.62
309.8	82.62
310.03	70.62
310.26	83.62
310.49	87.62
310.72	82.62
310.949	86.62
311.179	81.62
311.409	74.62
311.639	98.62
311.868	86.62
312.098	94.62
312.328	90.62
312.557	73.62
312.787	89.62
313.017	94.62
313.246	82.62
313.476	95.62
313.706	81.62
313.935	88.62
314.165	84.62
314.394	78.62
314.624	103.62
314.853	95.62
315.083	96.62
315.312	90.62
315.542	83.62
315.771	89.62
316.001	75.62
316.23	89.62
316.46	97.62
316.689	88.62
316.919	74.62
317.148	83.62
317.377	82.62
317.607	91.62
317.836	88.62
318.065	82.62
318.295	86.62
318.524	81.62
318.753	92.62
318.983	88.62
319.212	76.62
319.441	84.62
319.67	77.62
319.9	88.62
320.129	87.62
320.358	83.62
320.587	88.62
320.816	94.62
321.046	84.62
321.275	104.62
321.504	79.62
321.733	77.62
321.962	88.62
322.191	87.62
322.42	98.62
322.649	97.62
322.878	87.62
323.108	86.62
323.337	90.62
323.566	75.62
323.795	97.62
324.024	85.62
324.253	90.62
324.482	90.62
324.71	80.62
324.939	88.62
325.168	76.62
325.397	80.62
325.626	66.62
325.855	80.62
326.084	80.62
326.313	75.62
326.542	77.62
326.77	71.62
326.999	89.62
327.228	96.62
327.457	91.62
327.686	84.62
327.914	90.62
328.143	88.62
328.372	94.62
328.6	79.62
328.829	78.62
329.058	84.62
329.287	75.62
329.515	79.62
329.744	75.62
329.972	86.62
330.201	86.62
330.43	81.62
330.658	84.62
330.887	74.62
331.115	98.62
331.344	66.62
331.572	94.62
331.801	85.62
332.03	90.62
332.258	72.62
332.486	87.62
332.715	82.62
332.943	80.62
333.172	88.62
333.4	83.62
333.629	75.62
333.857	86.62
334.085	89.62
334.314	95.62
334.542	88.62
334.771	95.62
334.999	90.62
335.227	92.62
335.455	100.62
335.684	97.62
335.912	92.62
336.14	91.62
336.369	89.62
336.597	87.62
336.825	91.62
337.053	98.62
337.281	86.62
337.51	91.62
337.738	86.62
337.966	76.62
338.194	83.62
338.422	93.62
338.65	91.62
338.878	100.62
339.106	71.62
339.334	79.62
339.562	92.62
339.79	96.62
340.018	91.62
340.246	68.62
340.474	92.62
340.702	84.62
340.93	88.62
341.158	77.62
341.386	82.62
341.614	88.62
341.842	80.62
342.07	80.62
342.298	97.62
342.526	94.62
342.754	88.62
342.981	73.62
343.209	90.62
343.437	90.62
343.665	95.62
343.893	84.62
344.12	99.62
344.348	94.62
344.576	91.62
344.804	89.62
345.031	96.62
345.259	80.62
345.487	82.62
345.714	87.62
345.942	94.62
346.17	93.62
346.397	87.62
346.625	76.62
346.853	90.62
347.08	74.62
347.308	89.62
347.535	87.62
347.763	70.62
347.99	85.62
348.218	91.62
348.445	102.62
348.673	90.62
348.9	96.62
349.128	83.62
349.355	77.62
349.583	95.62
349.81	81.62
350.037	70.62
350.265	68.62
350.492	84.62
350.72	78.62
350.947	83.62
351.174	76.62
351.402	76.62
351.629	97.62
351.856	86.62
352.083	73.62
352.311	78.62
352.538	82.62
352.765	85.62
352.992	91.62
353.22	91.62
353.447	95.62
353.674	86.62
353.901	78.62
354.128	93.62
354.355	93.62
354.583	85.62
354.81	81.62
355.037	84.62
355.264	86.62
355.491	89.62
355.718	73.62
355.945	84.62
356.172	86.62
356.399	92.62
356.626	92.62
356.853	89.62
357.08	76.62
357.307	93.62
357.534	92.62
357.761	84.62
357.988	76.62
358.215	86.62
358.441	73.62
358.668	87.62
358.895	89.62
359.122	92.62
359.349	90.62
359.576	83.62
359.802	79.62
360.029	89.62
360.256	91.62
360.483	82.62
360.709	83.62
360.936	98.62
361.163	87.62
361.39	84.62
361.616	94.62
361.843	98.62
362.07	81.62
362.296	118.62
362.523	89.62
362.749	96.62
362.976	100.62
363.203	102.62
363.429	83.62
363.656	74.62
363.882	86.62
364.109	102.62
364.335	128.62
364.562	121.62
364.788	89.62
365.015	96.62
365.241	92.62
365.468	87.62
365.694	80.62
365.92	84.62
366.147	85.62
366.373	80.62
366.599	86.62
366.826	93.62
367.052	88.62
367.278	107.62
367.505	89.62
367.731	85.62
367.957	77.62
368.184	76.62
368.41	72.62
368.636	86.62
368.862	87.62
369.089	79.62
369.315	81.62
369.541	99.62
369.767	92.62
369.993	80.62
370.219	87.62
370.445	84.62
370.672	97.62
370.898	87.62
371.124	85.62
371.35	84.62
371.576	86.62
371.802	85.62
372.028	81.62
372.254	81.62
372.48	86.62
372.706	88.62
372.932	79.62
373.158	87.62
373.384	91.62
373.61	82.62
373.835	85.62
374.061	88.62
374.287	100.62
374.513	102.62
374.739	80.62
374.965	89.62
375.191	87.62
375.416	86.62
375.642	82.62
375.868	99.62
376.094	92.62
376.319	87.62
376.545	84.62
376.771	82.62
376.997	77.62
377.222	100.62
377.448	96.62
377.674	83.62
377.899	89.62
378.125	76.62
378.35	87.62
378.576	77.62
378.802	84.62
379.027	91.62
379.253	92.62
379.478	87.62
379.704	101.62
379.929	91.62
380.155	86.62
380.38	84.62
380.606	93.62
380.831	87.62
381.057	92.62
381.282	84.62
381.507	82.62
381.733	85.62
381.958	96.62
382.184	94.62
382.409	81.62
382.634	98.62
382.86	71.62
383.085	82.62
383.31	90.62
383.535	94.62
383.761	91.62
383.986	79.62
384.211	66.62
384.436	85.62
384.662	82.62
384.887	71.62
385.112	96.62
385.337	90.62
385.562	79.62
385.787	103.62
386.013	98.62
386.238	90.62
386.463	84.62
386.688	99.62
386.913	73.62
387.138	78.62
387.363	103.62
387.588	94.62
387.813	100.62
388.038	98.62
388.263	88.62
388.488	91.62
388.713	97.62
388.938	88.62
389.163	83.62
389.387	82.62
389.612	70.62
389.837	94.62
390.062	100.62
390.287	82.62
390.512	82.62
390.736	72.62
390.961	77.62
391.186	92.62
391.411	88.62
391.636	95.62
391.86	90.62
392.085	87.62
392.31	96.62
392.534	90.62
392.759	94.62
392.984	116.62
393.208	153.62
393.433	186.62
393.658	173.62
393.882	118.62
394.107	99.62
394.331	114.62
394.556	94.62
394.78	98.62
395.005	99.62
395.229	77.62
395.454	92.62
395.678	95.62
395.903	103.62
396.127	116.62
396.352	117.62
396.576	131.62
396.801	158.62
397.025	158.62
397.249	134.62
397.474	108.62
397.698	84.62
397.922	89.62
398.147	84.62
398.371	87.62
398.595	78.62
398.82	90.62
399.044	75.62
399.268	70.62
399.492	82.62
399.717	86.62
399.941	90.62
400.165	88.62
400.389	84.62
400.613	90.62
400.837	98.62
401.062	84.62
401.286	75.62
401.51	91.62
401.734	82.62
401.958	94.62
402.182	76.62
402.406	76.62
402.63	86.62
402.854	87.62
403.078	89.62
403.302	91.62
403.526	97.62
403.75	79.62
403.974	86.62
404.198	99.62
404.422	118.62
404.645	131.62
404.869	112.62
405.093	106.62
405.317	78.62
405.541	85.62
405.765	70.62
405.988	77.62
406.212	85.62
406.436	91.62
406.66	86.62
406.883	94.62
407.107	86.62
407.331	88.62
407.555	95.62
407.778	97.62
408.002	89.62
408.226	76.62
408.449	98.62
408.673	99.62
408.896	96.62
409.12	90.62
409.344	87.62
409.567	85.62
409.791	94.62
410.014	91.62
410.238	92.62
410.461	89.62
410.685	103.62
410.908	102.62
411.132	73.62
411.355	80.62
411.578	65.62
411.802	73.62
412.025	90.62
412.249	67.62
412.472	84.62
412.695	86.62
412.919	80.62
413.142	95.62
413.365	91.62
413.589	76.62
413.812	75.62
414.035	87.62
414.258	78.62
414.482	86.62
414.705	82.62
414.928	73.62
415.151	86.62
415.374	82.62
415.597	84.62
415.821	87.62
416.044	88.62
416.267	93.62
416.49	84.62
416.713	95.62
416.936	86.62
417.159	86.62
417.382	72.62
417.605	89.62
417.828	86.62
418.051	90.62
418.274	83.62
418.497	86.62
418.72	86.62
418.943	99.62
419.166	90.62
419.389	87.62
419.611	87.62
419.834	85.62
420.057	68.62
420.28	94.62
420.503	85.62
420.726	88.62
420.948	90.62
421.171	100.62
421.394	96.62
421.617	107.62
421.839	102.62
422.062	125.62
422.285	156.62
422.507	229.62
422.73	262.62
422.953	254.62
423.175	184.62
423.398	116.62
423.621	123.62
423.843	99.62
424.066	80.62
424.288	94.62
424.511	82.62
424.733	89.62
424.956	90.62
425.178	91.62
425.401	83.62
425.623	88.62
425.846	87.62
426.068	86.62
426.291	82.62
426.513	89.62
426.735	79.62
426.958	86.62
427.18	91.62
427.402	90.62
427.625	74.62
427.847	87.62
428.069	98.62
428.292	118.62
428.514	131.62
428.736	100.62
428.958	116.62
429.181	128.62
429.403	105.62
429.625	97.62
429.847	115.62
430.069	155.62
430.292	162.62
430.514	147.62
430.736	138.62
430.958	132.62
431.18	99.62
431.402	90.62
431.624	84.62
431.846	105.62
432.068	120.62
432.29	77.62
432.512	88.62
432.734	74.62
432.956	86.62
433.178	94.62
433.4	97.62
433.622	93.62
433.844	84.62
434.066	93.62
434.287	68.62
434.509	84.62
434.731	80.62
434.953	99.62
435.175	94.62
435.397	88.62
435.618	72.62
435.84	82.62
436.062	66.62
436.284	94.62
436.505	96.62
436.727	91.62
436.949	66.62
437.17	78.62
437.392	90.62
437.614	78.62
437.835	80.62
438.057	71.62
438.278	90.62
438.5	82.62
438.721	86.62
438.943	90.62
439.165	79.62
439.386	79.62
439.608	99.62
439.829	78.62
440.05	88.62
440.272	92.62
440.493	92.62
440.715	73.62
440.936	89.62
441.158	79.62
441.379	94.62
441.6	80.62
441.822	94.62
442.043	86.62
442.264	107.62
442.486	123.62
442.707	143.62
442.928	112.62
443.149	117.62
443.371	148.62
443.592	211.62
443.813	180.62
444.034	113.62
444.255	86.62
444.476	95.62
444.698	99.62
444.919	96.62
445.14	189.62
445.361	185.62
445.582	236.62
445.803	210.62
446.024	123.62
446.245	110.62
446.466	87.62
446.687	86.62
446.908	80.62
447.129	93.62
447.35	84.62
447.571	88.62
447.792	92.62
448.013	85.62
448.234	96.62
448.455	88.62
448.675	84.62
448.896	94.62
449.117	97.62
449.338	83.62
449.559	70.62
449.779	60.62
450	92.62
450.221	73.62
450.442	71.62
450.662	85.62
450.883	94.62
451.104	73.62
451.324	87.62
451.545	90.62
451.766	86.62
451.986	72.62
452.207	107.62
452.428	70.62
452.648	91.62
452.869	91.62
453.089	91.62
453.31	90.62
453.53	100.62
453.751	96.62
453.971	75.62
454.192	94.62
454.412	84.62
454.633	78.62
454.853	76.62
455.073	80.62
455.294	88.62
455.514	91.62
455.734	81.62
455.955	90.62
456.175	97.62
456.395	91.62
456.616	94.62
456.836	83.62
457.056	102.62
457.276	95.62
457.497	104.62
457.717	86.62
457.937	92.62
458.157	127.62
458.377	112.62
458.598	99.62
458.818	122.62
459.038	95.62
459.258	86.62
459.478	83.62
459.698	76.62
459.918	87.62
460.138	90.62
460.358	84.62
460.578	92.62
460.798	113.62
461.018	112.62
461.238	98.62
461.458	80.62
461.678	73.62
461.898	84.62
462.118	77.62
462.338	85.62
462.558	76.62
462.777	76.62
462.997	80.62
463.217	91.62
463.437	83.62
463.657	82.62
463.876	87.62
464.096	89.62
464.316	77.62
464.536	88.62
464.755	90.62
464.975	88.62
465.195	76.62
465.414	90.62
465.634	83.62
465.854	90.62
466.073	70.62
466.293	84.62
466.512	94.62
466.732	84.62
466.951	71.62
467.171	88.62
467.391	89.62
467.61	82.62
467.829	95.62
468.049	90.62
468.268	89.62
468.488	105.62
468.707	103.62
468.927	82.62
469.146	96.62
469.365	81.62
469.585	86.62
469.804	90.62
470.023	84.62
470.243	92.62
470.462	90.62
470.681	86.62
470.901	81.62
471.12	87.62
471.339	86.62
471.558	99.62
471.777	88.62
471.997	81.62
472.216	87.62
472.435	74.62
472.654	67.62
472.873	87.62
473.092	93.62
473.311	89.62
473.53	101.62
473.749	93.62
473.968	86.62
474.187	87.62
474.406	90.62
474.625	88.62
474.844	103.62
475.063	90.62
475.282	77.62
475.501	94.62
475.72	88.62
475.939	89.62
476.158	83.62
476.377	76.62
476.596	77.62
476.814	88.62
477.033	69.62
477.252	90.62
477.471	85.62
477.69	84.62
477.908	84.62
478.127	91.62
478.346	72.62
478.564	80.62
478.783	86.62
479.002	92.62
479.22	105.62
479.439	97.62
479.658	75.62
479.876	83.62
480.095	76.62
480.313	90.62
480.532	84.62
480.751	97.62
480.969	88.62
481.188	83.62
481.406	102.62
481.624	90.62
481.843	83.62
482.061	89.62
482.28	87.62
482.498	94.62
482.717	90.62
482.935	93.62
483.153	88.62
483.372	77.62
483.59	98.62
483.808	77.62
484.027	79.62
484.245	89.62
484.463	86.62
484.681	90.62
484.9	81.62
485.118	82.62
485.336	86.62
485.554	94.62
485.772	82.62
485.99	85.62
486.209	92.62
486.427	76.62
486.645	89.62
486.863	72.62
487.081	100.62
487.299	90.62
487.517	98.62
487.735	102.62
487.953	157.62
488.171	137.62
488.389	88.62
488.607	95.62
488.825	76.62
489.043	96.62
489.261	93.62
489.479	88.62
489.696	86.62
489.914	86.62
490.132	92.62
490.35	84.62
490.568	103.62
490.786	92.62
491.003	84.62
491.221	81.62
491.439	103.62
491.657	76.62
491.874	77.62
492.092	82.62
492.31	84.62
492.527	86.62
492.745	90.62
492.963	83.62
493.18	90.62
493.398	89.62
493.615	98.62
493.833	85.62
494.05	83.62
494.268	82.62
494.485	87.62
494.703	76.62
494.92	80.62
495.138	90.62
495.355	86.62
495.573	76.62
495.79	99.62
496.008	89.62
496.225	83.62
496.442	78.62
496.66	102.62
496.877	88.62
497.094	91.62
497.312	97.62
497.529	78.62
497.746	95.62
497.963	86.62
498.181	94.62
498.398	121.62
498.615	96.62
498.832	85.62
499.049	95.62
499.267	106.62
499.484	92.62
499.701	79.62
499.918	94.62
500.135	103.62
500.352	96.62
500.569	99.62
500.786	92.62
501.003	97.62
501.22	88.62
501.437	102.62
501.654	102.62
501.871	89.62
502.088	92.62
502.305	98.62
502.522	93.62
502.739	104.62
502.956	86.62
503.172	87.62
503.389	92.62
503.606	88.62
503.823	113.62
504.04	100.62
504.256	128.62
504.473	123.62
504.69	89.62
504.907	100.62
505.123	100.62
505.34	95.62
505.557	101.62
505.773	84.62
505.99	77.62
506.207	83.62
506.423	98.62
506.64	90.62
506.856	85.62
507.073	98.62
507.289	75.62
507.506	84.62
507.722	82.62
507.939	87.62
508.155	86.62
508.372	83.62
508.588	95.62
508.805	97.62
509.021	91.62
509.238	85.62
509.454	94.62
509.67	90.62
509.887	102.62
510.103	96.62
510.319	87.62
510.536	85.62
510.752	85.62
510.968	93.62
511.184	84.62
511.401	89.62
511.617	70.62
511.833	78.62
512.049	92.62
512.265	83.62
512.481	85.62
512.698	81.62
512.914	84.62
513.13	109.62
513.346	91.62
513.562	87.62
513.778	100.62
513.994	96.62
514.21	87.62
514.426	88.62
514.642	98.62
514.858	73.62
515.074	84.62
515.29	108.62
515.506	91.62
515.721	80.62
515.937	98.62
516.153	90.62
516.369	84.62
516.585	99.62
516.801	81.62
517.016	94.62
517.232	96.62
517.448	92.62
517.664	99.62
517.879	80.62
518.095	79.62
518.311	94.62
518.527	97.62
