Data from 2145_2_HRD10591_00001.txt Node
Date: Mon Jan 19 14:22:02 EST 2026
User: Yrep
Spectrometer: HR+D1059
Trigger mode: 1
Integration Time (sec): 1.000000E-1
Scans to average: 1
Electric dark correction enabled: true
Nonlinearity correction enabled: false
Boxcar width: 0
XAxis mode: Wavelengths
Number of Pixels in Spectrum: 2048
>>>>>Begin Spectral Data<<<<<
223.165	-22
223.4	-22
223.635	-22
223.869	-12
224.104	-14
224.338	-9
224.573	-17
224.808	-9
225.042	-20
225.277	-9
225.511	3
225.746	6
225.98	-1
226.215	7
226.449	23
226.683	17
226.918	34
227.152	23
227.387	45
227.621	42
227.856	30
228.09	47
228.324	45
228.559	72
228.793	50
229.027	52
229.262	67
229.496	76
229.73	64
229.964	61
230.199	74
230.433	79
230.667	79
230.901	82
231.136	67
231.37	86
231.604	60
231.838	80
232.072	66
232.306	75
232.541	75
232.775	72
233.009	67
233.243	70
233.477	72
233.711	94
233.945	86
234.179	72
234.413	79
234.647	76
234.881	81
235.115	70
235.349	71
235.583	64
235.817	65
236.051	87
236.285	80
236.519	75
236.753	63
236.987	74
237.221	71
237.455	73
237.689	65
237.922	76
238.156	83
238.39	58
238.624	74
238.858	80
239.091	63
239.325	69
239.559	69
239.793	63
240.027	82
240.26	84
240.494	82
240.728	73
240.961	73
241.195	82
241.429	74
241.662	82
241.896	84
242.13	77
242.363	65
242.597	82
242.83	71
243.064	62
243.298	76
243.531	82
243.765	76
243.998	76
244.232	86
244.465	72
244.699	86
244.932	65
245.166	82
245.399	79
245.633	86
245.866	88
246.099	71
246.333	94
246.566	72
246.8	81
247.033	64
247.266	82
247.5	74
247.733	76
247.966	70
248.2	71
248.433	66
248.666	65
248.899	70
249.133	75
249.366	85
249.599	74
249.832	90
250.066	92
250.299	83
250.532	75
250.765	54
250.998	80
251.231	74
251.465	70
251.698	66
251.931	66
252.164	81
252.397	70
252.63	74
252.863	70
253.096	82
253.329	91
253.562	76
253.795	69
254.028	78
254.261	96
254.494	80
254.727	84
254.96	57
255.193	78
255.426	79
255.659	66
255.892	80
256.124	58
256.357	82
256.59	76
256.823	79
257.056	81
257.289	80
257.521	88
257.754	83
257.987	84
258.22	75
258.452	94
258.685	71
258.918	69
259.151	66
259.383	71
259.616	87
259.849	89
260.081	91
260.314	70
260.547	74
260.779	79
261.012	101
261.244	72
261.477	82
261.71	86
261.942	83
262.175	93
262.407	77
262.64	85
262.872	95
263.105	86
263.337	76
263.57	79
263.802	76
264.035	76
264.267	94
264.499	88
264.732	89
264.964	88
265.197	76
265.429	79
265.661	73
265.894	84
266.126	86
266.358	92
266.591	82
266.823	76
267.055	82
267.287	78
267.52	65
267.752	74
267.984	75
268.216	66
268.448	72
268.681	77
268.913	88
269.145	90
269.377	84
269.609	86
269.841	74
270.073	85
270.306	70
270.538	91
270.77	89
271.002	85
271.234	69
271.466	75
271.698	68
271.93	75
272.162	82
272.394	83
272.626	93
272.858	80
273.09	69
273.322	86
273.553	86
273.785	97
274.017	87
274.249	80
274.481	97
274.713	70
274.945	68
275.176	77
275.408	72
275.64	90
275.872	76
276.104	87
276.335	89
276.567	84
276.799	82
277.031	71
277.262	86
277.494	86
277.726	97
277.957	84
278.189	89
278.421	59
278.652	75
278.884	72
279.115	94
279.347	78
279.579	82
279.81	81
280.042	87
280.273	81
280.505	82
280.736	86
280.968	103
281.199	91
281.431	81
281.662	84
281.894	84
282.125	71
282.356	69
282.588	72
282.819	83
283.051	78
283.282	79
283.513	96
283.745	78
283.976	76
284.207	72
284.439	97
284.67	86
284.901	89
285.132	91
285.364	95
285.595	86
285.826	72
286.057	89
286.288	84
286.52	100
286.751	100
286.982	86
287.213	85
287.444	99
287.675	83
287.906	83
288.138	88
288.369	78
288.6	70
288.831	82
289.062	70
289.293	85
289.524	89
289.755	90
289.986	92
290.217	94
290.448	74
290.679	96
290.91	86
291.141	81
291.371	73
291.602	80
291.833	92
292.064	88
292.295	92
292.526	86
292.757	76
292.987	75
293.218	87
293.449	81
293.68	89
293.91	83
294.141	98
294.372	95
294.603	96
294.833	84
295.064	68
295.295	95
295.525	75
295.756	99
295.987	82
296.217	92
296.448	89
296.679	89
296.909	76
297.14	74
297.37	84
297.601	94
297.831	76
298.062	83
298.292	82
298.523	87
298.753	94
298.984	79
299.214	90
299.445	96
299.675	82
299.905	95
300.136	98
300.366	71
300.597	78
300.827	80
301.057	103
301.288	84
301.518	87
301.748	96
301.979	106
302.209	86
302.439	84
302.669	90
302.9	88
303.13	75
303.36	89
303.59	91
303.82	76
304.051	77
304.281	84
304.511	87
304.741	82
304.971	90
305.201	92
305.431	82
305.661	82
305.891	91
306.121	68
306.352	94
306.582	85
306.812	81
307.042	84
307.272	75
307.502	81
307.731	91
307.961	87
308.191	83
308.421	99
308.651	90
308.881	85
309.111	94
309.341	108
309.571	85
309.8	86
310.03	75
310.26	84
310.49	83
310.72	81
310.949	82
311.179	84
311.409	82
311.639	86
311.868	81
312.098	78
312.328	90
312.557	82
312.787	76
313.017	89
313.246	98
313.476	80
313.706	82
313.935	82
314.165	82
314.394	72
314.624	62
314.853	90
315.083	78
315.312	88
315.542	91
315.771	90
316.001	75
316.23	84
316.46	86
316.689	86
316.919	97
317.148	82
317.377	87
317.607	96
317.836	91
318.065	104
318.295	72
318.524	91
318.753	82
318.983	86
319.212	105
319.441	86
319.67	80
319.9	82
320.129	66
320.358	86
320.587	103
320.816	87
321.046	96
321.275	97
321.504	84
321.733	90
321.962	84
322.191	84
322.42	95
322.649	100
322.878	94
323.108	84
323.337	80
323.566	92
323.795	88
324.024	80
324.253	87
324.482	92
324.71	89
324.939	90
325.168	81
325.397	83
325.626	77
325.855	82
326.084	92
326.313	76
326.542	95
326.77	79
326.999	88
327.228	90
327.457	88
327.686	104
327.914	92
328.143	78
328.372	74
328.6	87
328.829	109
329.058	83
329.287	80
329.515	87
329.744	88
329.972	82
330.201	87
330.43	97
330.658	85
330.887	85
331.115	79
331.344	74
331.572	94
331.801	74
332.03	80
332.258	92
332.486	85
332.715	95
332.943	74
333.172	90
333.4	73
333.629	88
333.857	90
334.085	91
334.314	99
334.542	99
334.771	90
334.999	93
335.227	96
335.455	103
335.684	101
335.912	102
336.14	98
336.369	108
336.597	83
336.825	81
337.053	89
337.281	82
337.51	97
337.738	92
337.966	99
338.194	97
338.422	83
338.65	77
338.878	91
339.106	95
339.334	82
339.562	86
339.79	83
340.018	82
340.246	83
340.474	77
340.702	91
340.93	74
341.158	81
341.386	77
341.614	88
341.842	75
342.07	94
342.298	88
342.526	72
342.754	86
342.981	73
343.209	101
343.437	92
343.665	86
343.893	91
344.12	88
344.348	87
344.576	95
344.804	90
345.031	103
345.259	106
345.487	89
345.714	78
345.942	80
346.17	86
346.397	92
346.625	89
346.853	94
347.08	82
347.308	95
347.535	96
347.763	100
347.99	81
348.218	86
348.445	90
348.673	80
348.9	105
349.128	87
349.355	82
349.583	78
349.81	92
350.037	87
350.265	94
350.492	82
350.72	81
350.947	87
351.174	88
351.402	70
351.629	93
351.856	89
352.083	85
352.311	82
352.538	88
352.765	90
352.992	87
353.22	98
353.447	86
353.674	82
353.901	98
354.128	84
354.355	86
354.583	89
354.81	101
355.037	85
355.264	88
355.491	93
355.718	80
355.945	82
356.172	78
356.399	83
356.626	92
356.853	93
357.08	96
357.307	98
357.534	91
357.761	93
357.988	106
358.215	93
358.441	78
358.668	87
358.895	91
359.122	94
359.349	82
359.576	74
359.802	84
360.029	88
360.256	94
360.483	79
360.709	77
360.936	103
361.163	95
361.39	82
361.616	83
361.843	91
362.07	92
362.296	101
362.523	121
362.749	120
362.976	121
363.203	127
363.429	116
363.656	100
363.882	110
364.109	127
364.335	140
364.562	142
364.788	116
365.015	98
365.241	96
365.468	101
365.694	86
365.92	86
366.147	95
366.373	89
366.599	87
366.826	93
367.052	92
367.278	98
367.505	86
367.731	91
367.957	98
368.184	99
368.41	86
368.636	89
368.862	102
369.089	99
369.315	90
369.541	91
369.767	98
369.993	91
370.219	95
370.445	88
370.672	86
370.898	97
371.124	90
371.35	85
371.576	100
371.802	94
372.028	90
372.254	100
372.48	88
372.706	80
372.932	92
373.158	93
373.384	102
373.61	106
373.835	99
374.061	98
374.287	102
374.513	103
374.739	81
374.965	106
375.191	89
375.416	104
375.642	88
375.868	92
376.094	95
376.319	79
376.545	75
376.771	96
376.997	89
377.222	93
377.448	88
377.674	92
377.899	87
378.125	96
378.35	84
378.576	98
378.802	93
379.027	92
379.253	97
379.478	94
379.704	85
379.929	87
380.155	90
380.38	98
380.606	84
380.831	94
381.057	92
381.282	96
381.507	83
381.733	87
381.958	93
382.184	98
382.409	103
382.634	102
382.86	93
383.085	103
383.31	95
383.535	96
383.761	95
383.986	101
384.211	92
384.436	104
384.662	105
384.887	94
385.112	82
385.337	106
385.562	85
385.787	90
386.013	96
386.238	110
386.463	84
386.688	90
386.913	107
387.138	98
387.363	88
387.588	99
387.813	100
388.038	118
388.263	102
388.488	94
388.713	82
388.938	91
389.163	87
389.387	95
389.612	98
389.837	94
390.062	93
390.287	102
390.512	96
390.736	90
390.961	111
391.186	82
391.411	94
391.636	89
391.86	92
392.085	91
392.31	106
392.534	110
392.759	122
392.984	170
393.208	268
393.433	356
393.658	290
393.882	158
394.107	129
394.331	128
394.556	124
394.78	113
395.005	102
395.229	94
395.454	98
395.678	92
395.903	138
396.127	151
396.352	165
396.576	186
396.801	267
397.025	302
397.249	186
397.474	150
397.698	123
397.922	102
398.147	92
398.371	91
398.595	90
398.82	84
399.044	105
399.268	94
399.492	82
399.717	83
399.941	90
400.165	94
400.389	95
400.613	67
400.837	86
401.062	86
401.286	92
401.51	88
401.734	99
401.958	93
402.182	105
402.406	87
402.63	97
402.854	97
403.078	90
403.302	78
403.526	80
403.75	94
403.974	74
404.198	108
404.422	144
404.645	135
404.869	118
405.093	91
405.317	93
405.541	112
405.765	89
405.988	89
406.212	84
406.436	96
406.66	94
406.883	84
407.107	92
407.331	93
407.555	110
407.778	108
408.002	110
408.226	96
408.449	105
408.673	86
408.896	95
409.12	96
409.344	83
409.567	110
409.791	100
410.014	109
410.238	118
410.461	100
410.685	90
410.908	92
411.132	103
411.355	78
411.578	88
411.802	94
412.025	96
412.249	88
412.472	96
412.695	87
412.919	107
413.142	103
413.365	96
413.589	90
413.812	91
414.035	102
414.258	90
414.482	83
414.705	88
414.928	82
415.151	82
415.374	88
415.597	87
415.821	75
416.044	94
416.267	83
416.49	76
416.713	90
416.936	85
417.159	77
417.382	86
417.605	90
417.828	94
418.051	86
418.274	92
418.497	91
418.72	99
418.943	98
419.166	101
419.389	83
419.611	90
419.834	86
420.057	97
420.28	92
420.503	91
420.726	76
420.948	88
421.171	101
421.394	111
421.617	147
421.839	144
422.062	159
422.285	212
422.507	318
422.73	408
422.953	367
423.175	283
423.398	189
423.621	146
423.843	127
424.066	119
424.288	104
424.511	105
424.733	111
424.956	98
425.178	98
425.401	85
425.623	91
425.846	94
426.068	86
426.291	95
426.513	106
426.735	99
426.958	109
427.18	95
427.402	92
427.625	99
427.847	79
428.069	123
428.292	155
428.514	162
428.736	128
428.958	151
429.181	145
429.403	116
429.625	116
429.847	137
430.069	190
430.292	235
430.514	224
430.736	165
430.958	165
431.18	113
431.402	107
431.624	114
431.846	137
432.068	164
432.29	112
432.512	74
432.734	72
432.956	74
433.178	94
433.4	88
433.622	90
433.844	69
434.066	92
434.287	102
434.509	83
434.731	94
434.953	81
435.175	91
435.397	94
435.618	87
435.84	99
436.062	94
436.284	80
436.505	97
436.727	79
436.949	82
437.17	76
437.392	71
437.614	75
437.835	63
438.057	98
438.278	80
438.5	102
438.721	87
438.943	78
439.165	72
439.386	93
439.608	96
439.829	74
440.05	98
440.272	82
440.493	79
440.715	93
440.936	74
441.158	94
441.379	92
441.6	94
441.822	100
442.043	102
442.264	113
442.486	152
442.707	229
442.928	162
443.149	122
443.371	212
443.592	336
443.813	274
444.034	141
444.255	106
444.476	97
444.698	80
444.919	119
445.14	229
445.361	277
445.582	394
445.803	318
446.024	158
446.245	106
446.466	101
446.687	83
446.908	97
447.129	92
447.35	83
447.571	91
447.792	89
448.013	85
448.234	66
448.455	85
448.675	95
448.896	77
449.117	85
449.338	88
449.559	82
449.779	86
450	92
450.221	82
450.442	85
450.662	91
450.883	90
451.104	85
451.324	86
451.545	102
451.766	96
451.986	88
452.207	79
452.428	94
452.648	103
452.869	113
453.089	105
453.31	77
453.53	88
453.751	84
453.971	92
454.192	95
454.412	74
454.633	72
454.853	97
455.073	78
455.294	82
455.514	93
455.734	92
455.955	94
456.175	86
456.395	84
456.616	87
456.836	89
457.056	98
457.276	92
457.497	92
457.717	89
457.937	132
458.157	169
458.377	172
458.598	160
458.818	177
459.038	105
459.258	100
459.478	99
459.698	70
459.918	90
460.138	78
460.358	91
460.578	92
460.798	125
461.018	122
461.238	100
461.458	73
461.678	81
461.898	100
462.118	95
462.338	83
462.558	98
462.777	91
462.997	86
463.217	88
463.437	74
463.657	103
463.876	97
464.096	74
464.316	74
464.536	92
464.755	90
464.975	97
465.195	106
465.414	96
465.634	87
465.854	92
466.073	80
466.293	71
466.512	94
466.732	83
466.951	78
467.171	89
467.391	77
467.61	78
467.829	85
468.049	85
468.268	79
468.488	85
468.707	83
468.927	85
469.146	98
469.365	79
469.585	87
469.804	70
470.023	82
470.243	86
470.462	90
470.681	90
470.901	95
471.12	102
471.339	82
471.558	82
471.777	88
471.997	88
472.216	84
472.435	84
472.654	83
472.873	91
473.092	81
473.311	95
473.53	100
473.749	83
473.968	100
474.187	84
474.406	83
474.625	86
474.844	91
475.063	99
475.282	99
475.501	76
475.72	89
475.939	81
476.158	98
476.377	91
476.596	96
476.814	85
477.033	88
477.252	85
477.471	90
477.69	88
477.908	91
478.127	88
478.346	94
478.564	82
478.783	90
479.002	100
479.22	100
479.439	90
479.658	90
479.876	87
480.095	84
480.313	95
480.532	92
480.751	90
480.969	91
481.188	83
481.406	95
481.624	87
481.843	98
482.061	93
482.28	95
482.498	85
482.717	91
482.935	103
483.153	95
483.372	83
483.59	97
483.808	93
484.027	95
484.245	101
484.463	90
484.681	95
484.9	100
485.118	79
485.336	87
485.554	96
485.772	84
485.99	86
486.209	91
486.427	90
486.645	66
486.863	99
487.081	102
487.299	95
487.517	104
487.735	130
487.953	225
488.171	215
488.389	121
488.607	95
488.825	98
489.043	88
489.261	98
489.479	94
489.696	94
489.914	99
490.132	91
490.35	99
490.568	86
490.786	88
491.003	92
491.221	99
491.439	87
491.657	92
491.874	106
492.092	84
492.31	98
492.527	88
492.745	102
492.963	90
493.18	99
493.398	90
493.615	95
493.833	101
494.05	77
494.268	95
494.485	86
494.703	90
494.92	93
495.138	89
495.355	112
495.573	100
495.79	88
496.008	95
496.225	96
496.442	96
496.66	96
496.877	96
497.094	99
497.312	90
497.529	90
497.746	97
497.963	74
498.181	88
498.398	97
498.615	98
498.832	96
499.049	84
499.267	95
499.484	110
499.701	100
499.918	92
500.135	98
500.352	95
500.569	91
500.786	106
501.003	84
501.22	81
501.437	102
501.654	90
501.871	86
502.088	87
502.305	100
502.522	89
502.739	102
502.956	94
503.172	80
503.389	89
503.606	90
503.823	86
504.04	116
504.256	172
504.473	183
504.69	137
504.907	100
505.123	100
505.34	97
505.557	78
505.773	86
505.99	91
506.207	92
506.423	88
506.64	91
506.856	90
507.073	86
507.289	91
507.506	78
507.722	96
507.939	93
508.155	85
508.372	93
508.588	102
508.805	88
509.021	90
509.238	97
509.454	83
509.67	80
509.887	88
510.103	102
510.319	91
510.536	98
510.752	91
510.968	96
511.184	86
511.401	93
511.617	83
511.833	86
512.049	86
512.265	74
512.481	92
512.698	93
512.914	92
513.13	74
513.346	89
513.562	82
513.778	80
513.994	72
514.21	86
514.426	96
514.642	104
514.858	89
515.074	94
515.29	99
515.506	82
515.721	84
515.937	90
516.153	83
516.369	88
516.585	89
516.801	87
517.016	103
517.232	107
517.448	107
517.664	94
517.879	75
518.095	100
518.311	98
518.527	124
518.742	144
518.958	211
519.173	232
519.389	131
519.605	106
519.82	89
520.036	89
520.251	94
520.467	114
520.682	91
520.898	95
521.113	83
521.329	100
521.544	80
521.76	98
521.975	87
522.19	97
522.406	94
522.621	90
522.836	86
523.052	93
523.267	100
523.482	106
523.698	88
523.913	106
524.128	96
524.343	98
524.559	100
524.774	95
524.989	109
525.204	97
525.419	90
525.634	93
525.849	125
526.064	146
526.28	338
526.495	474
526.71	517
526.925	345
527.14	403
527.355	358
527.57	131
527.785	97
527.999	104
528.214	104
528.429	94
528.644	106
528.859	95
529.074	87
529.289	91
529.503	98
529.718	101
529.933	100
530.148	87
530.363	103
530.577	110
530.792	88
531.007	107
531.221	96
531.436	105
531.651	98
531.865	94
532.08	85
532.295	99
532.509	101
532.724	108
532.938	98
533.153	93
533.367	88
533.582	96
533.796	100
534.011	98
534.225	107
534.44	104
534.654	109
534.868	135
535.083	217
535.297	203
535.511	124
535.726	97
535.94	105
536.154	116
536.369	104
536.583	105
536.797	114
537.011	103
537.225	105
537.44	102
537.654	104
537.868	88
538.082	102
538.296	84
538.51	99
538.724	101
538.938	99
539.153	87
539.367	106
539.581	96
539.795	98
540.009	95
540.222	96
540.436	87
540.65	92
540.864	85
541.078	99
541.292	98
541.506	102
541.72	106
541.934	110
542.147	90
542.361	85
542.575	98
542.789	93
543.002	90
543.216	102
543.43	97
543.644	111
543.857	92
544.071	99
544.285	106
544.498	114
544.712	100
544.925	103
545.139	111
545.352	105
545.566	114
545.779	121
545.993	98
546.206	98
546.42	100
546.633	110
546.847	119
547.06	128
547.274	135
547.487	150
547.7	160
547.914	167
548.127	174
548.34	184
548.554	149
548.767	167
548.98	174
549.193	190
549.407	167
549.62	196
549.833	190
550.046	209
550.259	212
550.473	229
550.686	231
550.899	257
551.112	263
551.325	298
551.538	322
551.751	272
551.964	234
552.177	255
552.39	242
552.603	254
552.816	235
553.029	229
553.242	240
553.455	254
553.667	268
553.88	267
554.093	272
554.306	255
554.519	270
554.732	271
554.944	271
555.157	259
555.37	242
555.583	236
555.795	225
556.008	221
556.221	199
556.433	209
556.646	194
556.859	184
557.071	172
557.284	166
557.496	177
557.709	181
557.921	152
558.134	190
558.346	260
558.559	242
558.771	211
558.984	408
559.196	538
559.409	302
559.621	422
559.833	325
560.046	372
560.258	334
560.47	322
560.683	187
560.895	140
561.107	117
561.32	99
561.532	116
561.744	110
561.956	103
562.168	114
562.381	104
562.593	103
562.805	129
563.017	98
563.229	120
563.441	114
563.653	110
563.865	100
564.077	111
564.289	103
564.501	102
564.713	95
564.925	90
565.137	96
565.349	104
565.561	100
565.773	114
565.985	106
566.197	94
566.408	101
566.62	106
566.832	88
567.044	105
567.255	114
567.467	92
567.679	111
567.891	94
568.102	82
568.314	74
568.526	107
568.737	105
568.949	100
569.161	118
569.372	102
569.584	95
569.795	100
570.007	107
570.218	96
570.43	105
570.641	111
570.853	90
571.064	88
571.276	110
571.487	97
571.698	104
571.91	104
572.121	102
572.333	96
572.544	94
572.755	118
572.966	108
573.178	86
573.389	95
573.6	96
573.811	98
574.023	97
574.234	97
574.445	90
574.656	91
574.867	89
575.078	84
575.289	107
575.501	92
575.712	102
575.923	102
576.134	88
576.345	83
576.556	97
576.767	107
576.978	98
577.188	102
577.399	96
577.61	97
577.821	102
578.032	95
578.243	97
578.454	95
578.665	107
578.875	99
579.086	100
579.297	89
579.508	96
579.718	96
579.929	92
580.14	105
580.35	103
580.561	113
580.772	103
580.982	107
581.193	91
581.403	92
581.614	103
581.825	99
582.035	90
582.246	105
582.456	85
582.667	97
582.877	102
583.087	111
583.298	99
583.508	112
583.719	101
583.929	88
