Data from 2145_2_HRD10591_00002.txt Node
Date: Mon Jan 19 14:22:03 EST 2026
User: Yrep
Spectrometer: HR+D1059
Trigger mode: 1
Integration Time (sec): 1.000000E-1
Scans to average: 1
Electric dark correction enabled: true
Nonlinearity correction enabled: false
Boxcar width: 0
XAxis mode: Wavelengths
Number of Pixels in Spectrum: 2048
>>>>>Begin Spectral Data<<<<<
223.165	-16.31
223.4	-16.31
223.635	-16.31
223.869	-20.31
224.104	-23.31
224.338	-11.31
224.573	-11.31
224.808	-15.31
225.042	1.69
225.277	-6.31
225.511	-11.31
225.746	0.69
225.98	-1.31
226.215	3.69
226.449	19.69
226.683	21.69
226.918	29.69
227.152	39.69
227.387	23.69
227.621	51.69
227.856	29.69
228.09	36.69
228.324	55.69
228.559	74.69
228.793	61.69
229.027	54.69
229.262	59.69
229.496	82.69
229.73	64.69
229.964	70.69
230.199	83.69
230.433	82.69
230.667	72.69
230.901	84.69
231.136	86.69
231.37	80.69
231.604	76.69
231.838	82.69
232.072	76.69
232.306	90.69
232.541	74.69
232.775	74.69
233.009	86.69
233.243	86.69
233.477	79.69
233.711	77.69
233.945	87.69
234.179	87.69
234.413	81.69
234.647	77.69
234.881	76.69
235.115	92.69
235.349	72.69
235.583	83.69
235.817	75.69
236.051	62.69
236.285	76.69
236.519	72.69
236.753	51.69
236.987	75.69
237.221	76.69
237.455	81.69
237.689	88.69
237.922	76.69
238.156	79.69
238.39	70.69
238.624	76.69
238.858	92.69
239.091	67.69
239.325	68.69
239.559	67.69
239.793	64.69
240.027	87.69
240.26	74.69
240.494	66.69
240.728	72.69
240.961	60.69
241.195	86.69
241.429	77.69
241.662	75.69
241.896	80.69
242.13	67.69
242.363	74.69
242.597	70.69
242.83	63.69
243.064	68.69
243.298	64.69
243.531	70.69
243.765	71.69
243.998	98.69
244.232	88.69
244.465	72.69
244.699	102.69
244.932	83.69
245.166	68.69
245.399	79.69
245.633	84.69
245.866	82.69
246.099	81.69
246.333	80.69
246.566	77.69
246.8	77.69
247.033	69.69
247.266	79.69
247.5	82.69
247.733	72.69
247.966	82.69
248.2	84.69
248.433	80.69
248.666	70.69
248.899	75.69
249.133	75.69
249.366	81.69
249.599	80.69
249.832	85.69
250.066	68.69
250.299	71.69
250.532	69.69
250.765	86.69
250.998	91.69
251.231	76.69
251.465	80.69
251.698	68.69
251.931	64.69
252.164	91.69
252.397	81.69
252.63	76.69
252.863	76.69
253.096	88.69
253.329	86.69
253.562	59.69
253.795	75.69
254.028	90.69
254.261	78.69
254.494	72.69
254.727	72.69
254.96	87.69
255.193	83.69
255.426	76.69
255.659	85.69
255.892	71.69
256.124	97.69
256.357	76.69
256.59	88.69
256.823	78.69
257.056	81.69
257.289	84.69
257.521	70.69
257.754	76.69
257.987	86.69
258.22	70.69
258.452	79.69
258.685	75.69
258.918	67.69
259.151	75.69
259.383	79.69
259.616	78.69
259.849	75.69
260.081	90.69
260.314	86.69
260.547	72.69
260.779	85.69
261.012	61.69
261.244	73.69
261.477	95.69
261.71	86.69
261.942	76.69
262.175	75.69
262.407	89.69
262.64	87.69
262.872	75.69
263.105	81.69
263.337	82.69
263.57	82.69
263.802	75.69
264.035	73.69
264.267	82.69
264.499	81.69
264.732	89.69
264.964	75.69
265.197	71.69
265.429	80.69
265.661	77.69
265.894	69.69
266.126	83.69
266.358	90.69
266.591	77.69
266.823	80.69
267.055	67.69
267.287	74.69
267.52	71.69
267.752	83.69
267.984	70.69
268.216	80.69
268.448	70.69
268.681	77.69
268.913	73.69
269.145	81.69
269.377	79.69
269.609	78.69
269.841	86.69
270.073	73.69
270.306	69.69
270.538	83.69
270.77	76.69
271.002	79.69
271.234	74.69
271.466	82.69
271.698	80.69
271.93	82.69
272.162	80.69
272.394	82.69
272.626	79.69
272.858	78.69
273.09	81.69
273.322	72.69
273.553	98.69
273.785	86.69
274.017	94.69
274.249	76.69
274.481	85.69
274.713	86.69
274.945	92.69
275.176	94.69
275.408	77.69
275.64	84.69
275.872	86.69
276.104	88.69
276.335	89.69
276.567	76.69
276.799	78.69
277.031	75.69
277.262	84.69
277.494	71.69
277.726	86.69
277.957	80.69
278.189	74.69
278.421	76.69
278.652	85.69
278.884	83.69
279.115	78.69
279.347	98.69
279.579	77.69
279.81	77.69
280.042	94.69
280.273	74.69
280.505	76.69
280.736	79.69
280.968	76.69
281.199	74.69
281.431	89.69
281.662	79.69
281.894	91.69
282.125	91.69
282.356	87.69
282.588	85.69
282.819	77.69
283.051	86.69
283.282	74.69
283.513	88.69
283.745	74.69
283.976	75.69
284.207	74.69
284.439	92.69
284.67	77.69
284.901	94.69
285.132	83.69
285.364	77.69
285.595	69.69
285.826	79.69
286.057	83.69
286.288	80.69
286.52	84.69
286.751	85.69
286.982	96.69
287.213	85.69
287.444	97.69
287.675	98.69
287.906	80.69
288.138	82.69
288.369	93.69
288.6	68.69
288.831	81.69
289.062	86.69
289.293	54.69
289.524	68.69
289.755	91.69
289.986	91.69
290.217	83.69
290.448	84.69
290.679	85.69
290.91	76.69
291.141	83.69
291.371	86.69
291.602	97.69
291.833	89.69
292.064	87.69
292.295	94.69
292.526	92.69
292.757	74.69
292.987	79.69
293.218	90.69
293.449	96.69
293.68	76.69
293.91	73.69
294.141	82.69
294.372	82.69
294.603	91.69
294.833	85.69
295.064	77.69
295.295	90.69
295.525	86.69
295.756	94.69
295.987	84.69
296.217	80.69
296.448	73.69
296.679	80.69
296.909	80.69
297.14	90.69
297.37	62.69
297.601	78.69
297.831	87.69
298.062	87.69
298.292	81.69
298.523	93.69
298.753	79.69
298.984	80.69
299.214	85.69
299.445	86.69
299.675	97.69
299.905	82.69
300.136	86.69
300.366	71.69
300.597	91.69
300.827	79.69
301.057	89.69
301.288	64.69
301.518	94.69
301.748	78.69
301.979	104.69
302.209	80.69
302.439	80.69
302.669	77.69
302.9	88.69
303.13	88.69
303.36	94.69
303.59	85.69
303.82	74.69
304.051	91.69
304.281	81.69
304.511	68.69
304.741	85.69
304.971	80.69
305.201	87.69
305.431	83.69
305.661	100.69
305.891	74.69
306.121	77.69
306.352	84.69
306.582	78.69
306.812	82.69
307.042	86.69
307.272	83.69
307.502	96.69
307.731	95.69
307.961	79.69
308.191	84.69
308.421	82.69
308.651	91.69
308.881	100.69
309.111	90.69
309.341	90.69
309.571	77.69
309.8	94.69
310.03	79.69
310.26	83.69
310.49	94.69
310.72	97.69
310.949	83.69
311.179	78.69
311.409	78.69
311.639	83.69
311.868	64.69
312.098	89.69
312.328	98.69
312.557	84.69
312.787	74.69
313.017	90.69
313.246	88.69
313.476	83.69
313.706	79.69
313.935	83.69
314.165	75.69
314.394	86.69
314.624	84.69
314.853	81.69
315.083	87.69
315.312	97.69
315.542	94.69
315.771	86.69
316.001	82.69
316.23	86.69
316.46	93.69
316.689	88.69
316.919	94.69
317.148	80.69
317.377	77.69
317.607	83.69
317.836	88.69
318.065	95.69
318.295	94.69
318.524	77.69
318.753	90.69
318.983	91.69
319.212	97.69
319.441	70.69
319.67	77.69
319.9	88.69
320.129	85.69
320.358	83.69
320.587	98.69
320.816	83.69
321.046	84.69
321.275	89.69
321.504	84.69
321.733	77.69
321.962	86.69
322.191	85.69
322.42	82.69
322.649	92.69
322.878	90.69
323.108	94.69
323.337	77.69
323.566	88.69
323.795	87.69
324.024	78.69
324.253	76.69
324.482	85.69
324.71	89.69
324.939	83.69
325.168	88.69
325.397	73.69
325.626	86.69
325.855	77.69
326.084	87.69
326.313	75.69
326.542	97.69
326.77	90.69
326.999	66.69
327.228	88.69
327.457	72.69
327.686	70.69
327.914	82.69
328.143	74.69
328.372	84.69
328.6	65.69
328.829	79.69
329.058	76.69
329.287	92.69
329.515	83.69
329.744	94.69
329.972	86.69
330.201	75.69
330.43	83.69
330.658	84.69
330.887	82.69
331.115	86.69
331.344	70.69
331.572	69.69
331.801	73.69
332.03	83.69
332.258	90.69
332.486	97.69
332.715	92.69
332.943	89.69
333.172	75.69
333.4	76.69
333.629	94.69
333.857	89.69
334.085	81.69
334.314	71.69
334.542	89.69
334.771	90.69
334.999	92.69
335.227	84.69
335.455	85.69
335.684	95.69
335.912	82.69
336.14	93.69
336.369	92.69
336.597	98.69
336.825	101.69
337.053	91.69
337.281	94.69
337.51	98.69
337.738	83.69
337.966	84.69
338.194	86.69
338.422	82.69
338.65	81.69
338.878	95.69
339.106	79.69
339.334	91.69
339.562	85.69
339.79	84.69
340.018	90.69
340.246	87.69
340.474	74.69
340.702	89.69
340.93	97.69
341.158	94.69
341.386	76.69
341.614	94.69
341.842	86.69
342.07	79.69
342.298	75.69
342.526	89.69
342.754	80.69
342.981	73.69
343.209	86.69
343.437	105.69
343.665	89.69
343.893	96.69
344.12	78.69
344.348	88.69
344.576	86.69
344.804	88.69
345.031	87.69
345.259	98.69
345.487	88.69
345.714	76.69
345.942	88.69
346.17	84.69
346.397	85.69
346.625	84.69
346.853	99.69
347.08	94.69
347.308	83.69
347.535	86.69
347.763	87.69
347.99	85.69
348.218	95.69
348.445	94.69
348.673	85.69
348.9	88.69
349.128	98.69
349.355	87.69
349.583	64.69
349.81	83.69
350.037	90.69
350.265	98.69
350.492	74.69
350.72	85.69
350.947	87.69
351.174	77.69
351.402	86.69
351.629	91.69
351.856	91.69
352.083	79.69
352.311	82.69
352.538	79.69
352.765	86.69
352.992	96.69
353.22	79.69
353.447	86.69
353.674	76.69
353.901	85.69
354.128	60.69
354.355	82.69
354.583	90.69
354.81	73.69
355.037	67.69
355.264	83.69
355.491	94.69
355.718	83.69
355.945	88.69
356.172	79.69
356.399	84.69
356.626	81.69
356.853	81.69
357.08	99.69
357.307	64.69
357.534	96.69
357.761	88.69
357.988	74.69
358.215	98.69
358.441	91.69
358.668	82.69
358.895	79.69
359.122	78.69
359.349	88.69
359.576	106.69
359.802	80.69
360.029	99.69
360.256	93.69
360.483	80.69
360.709	84.69
360.936	99.69
361.163	83.69
361.39	85.69
361.616	97.69
361.843	98.69
362.07	82.69
362.296	99.69
362.523	105.69
362.749	103.69
362.976	122.69
363.203	136.69
363.429	119.69
363.656	107.69
363.882	103.69
364.109	121.69
364.335	133.69
364.562	151.69
364.788	110.69
365.015	103.69
365.241	89.69
365.468	90.69
365.694	89.69
365.92	101.69
366.147	88.69
366.373	88.69
366.599	75.69
366.826	93.69
367.052	70.69
367.278	89.69
367.505	87.69
367.731	78.69
367.957	85.69
368.184	87.69
368.41	85.69
368.636	76.69
368.862	84.69
369.089	82.69
369.315	89.69
369.541	83.69
369.767	95.69
369.993	88.69
370.219	94.69
370.445	91.69
370.672	105.69
370.898	86.69
371.124	75.69
371.35	91.69
371.576	80.69
371.802	93.69
372.028	98.69
372.254	96.69
372.48	93.69
372.706	87.69
372.932	85.69
373.158	83.69
373.384	102.69
373.61	99.69
373.835	98.69
374.061	92.69
374.287	84.69
374.513	95.69
374.739	84.69
374.965	89.69
375.191	78.69
375.416	75.69
375.642	94.69
375.868	102.69
376.094	90.69
376.319	96.69
376.545	87.69
376.771	80.69
376.997	92.69
377.222	94.69
377.448	80.69
377.674	76.69
377.899	96.69
378.125	96.69
378.35	83.69
378.576	94.69
378.802	86.69
379.027	90.69
379.253	81.69
379.478	77.69
379.704	87.69
379.929	90.69
380.155	83.69
380.38	76.69
380.606	85.69
380.831	88.69
381.057	101.69
381.282	82.69
381.507	104.69
381.733	94.69
381.958	81.69
382.184	104.69
382.409	90.69
382.634	92.69
382.86	91.69
383.085	92.69
383.31	83.69
383.535	107.69
383.761	105.69
383.986	92.69
384.211	87.69
384.436	79.69
384.662	84.69
384.887	95.69
385.112	94.69
385.337	92.69
385.562	93.69
385.787	94.69
386.013	90.69
386.238	94.69
386.463	91.69
386.688	99.69
386.913	90.69
387.138	82.69
387.363	85.69
387.588	91.69
387.813	99.69
388.038	107.69
388.263	104.69
388.488	89.69
388.713	94.69
388.938	92.69
389.163	105.69
389.387	85.69
389.612	93.69
389.837	72.69
390.062	92.69
390.287	80.69
390.512	90.69
390.736	96.69
390.961	95.69
391.186	102.69
391.411	95.69
391.636	93.69
391.86	96.69
392.085	110.69
392.31	95.69
392.534	105.69
392.759	126.69
392.984	170.69
393.208	241.69
393.433	324.69
393.658	270.69
393.882	136.69
394.107	116.69
394.331	111.69
394.556	121.69
394.78	112.69
395.005	95.69
395.229	104.69
395.454	105.69
395.678	107.69
395.903	126.69
396.127	148.69
396.352	154.69
396.576	175.69
396.801	274.69
397.025	282.69
397.249	158.69
397.474	130.69
397.698	99.69
397.922	89.69
398.147	88.69
398.371	113.69
398.595	104.69
398.82	103.69
399.044	100.69
399.268	89.69
399.492	91.69
399.717	105.69
399.941	95.69
400.165	91.69
400.389	86.69
400.613	82.69
400.837	97.69
401.062	94.69
401.286	95.69
401.51	99.69
401.734	95.69
401.958	82.69
402.182	69.69
402.406	92.69
402.63	83.69
402.854	81.69
403.078	97.69
403.302	89.69
403.526	86.69
403.75	86.69
403.974	84.69
404.198	110.69
404.422	120.69
404.645	147.69
404.869	123.69
405.093	85.69
405.317	101.69
405.541	93.69
405.765	103.69
405.988	98.69
406.212	95.69
406.436	85.69
406.66	93.69
406.883	92.69
407.107	97.69
407.331	105.69
407.555	92.69
407.778	111.69
408.002	106.69
408.226	87.69
408.449	72.69
408.673	91.69
408.896	84.69
409.12	86.69
409.344	102.69
409.567	109.69
409.791	107.69
410.014	91.69
410.238	99.69
410.461	98.69
410.685	95.69
410.908	99.69
411.132	99.69
411.355	88.69
411.578	93.69
411.802	96.69
412.025	80.69
412.249	99.69
412.472	91.69
412.695	90.69
412.919	77.69
413.142	89.69
413.365	102.69
413.589	80.69
413.812	80.69
414.035	88.69
414.258	86.69
414.482	91.69
414.705	72.69
414.928	91.69
415.151	89.69
415.374	80.69
415.597	75.69
415.821	88.69
416.044	86.69
416.267	77.69
416.49	72.69
416.713	80.69
416.936	90.69
417.159	74.69
417.382	97.69
417.605	84.69
417.828	82.69
418.051	82.69
418.274	81.69
418.497	72.69
418.72	88.69
418.943	103.69
419.166	83.69
419.389	81.69
419.611	98.69
419.834	98.69
420.057	100.69
420.28	97.69
420.503	91.69
420.726	83.69
420.948	97.69
421.171	95.69
421.394	103.69
421.617	126.69
421.839	131.69
422.062	152.69
422.285	203.69
422.507	318.69
422.73	391.69
422.953	370.69
423.175	256.69
423.398	170.69
423.621	138.69
423.843	120.69
424.066	118.69
424.288	110.69
424.511	83.69
424.733	109.69
424.956	91.69
425.178	104.69
425.401	101.69
425.623	86.69
425.846	97.69
426.068	87.69
426.291	83.69
426.513	95.69
426.735	83.69
426.958	83.69
427.18	92.69
427.402	97.69
427.625	95.69
427.847	101.69
428.069	100.69
428.292	124.69
428.514	149.69
428.736	120.69
428.958	130.69
429.181	140.69
429.403	122.69
429.625	108.69
429.847	136.69
430.069	186.69
430.292	208.69
430.514	195.69
430.736	154.69
430.958	156.69
431.18	103.69
431.402	91.69
431.624	100.69
431.846	143.69
432.068	150.69
432.29	96.69
432.512	78.69
432.734	90.69
432.956	85.69
433.178	82.69
433.4	76.69
433.622	91.69
433.844	94.69
434.066	90.69
434.287	95.69
434.509	87.69
434.731	78.69
434.953	82.69
435.175	99.69
435.397	88.69
435.618	88.69
435.84	98.69
436.062	84.69
436.284	76.69
436.505	90.69
436.727	84.69
436.949	98.69
437.17	95.69
437.392	96.69
437.614	89.69
437.835	90.69
438.057	91.69
438.278	82.69
438.5	72.69
438.721	82.69
438.943	83.69
439.165	98.69
439.386	83.69
439.608	94.69
439.829	83.69
440.05	114.69
440.272	98.69
440.493	90.69
440.715	95.69
440.936	98.69
441.158	100.69
441.379	92.69
441.6	97.69
441.822	89.69
442.043	120.69
442.264	129.69
442.486	166.69
442.707	205.69
442.928	149.69
443.149	132.69
443.371	187.69
443.592	315.69
443.813	268.69
444.034	142.69
444.255	89.69
444.476	114.69
444.698	105.69
444.919	104.69
445.14	204.69
445.361	250.69
445.582	356.69
445.803	322.69
446.024	162.69
446.245	116.69
446.466	86.69
446.687	93.69
446.908	72.69
447.129	90.69
447.35	90.69
447.571	68.69
447.792	80.69
448.013	91.69
448.234	84.69
448.455	76.69
448.675	89.69
448.896	85.69
449.117	75.69
449.338	79.69
449.559	80.69
449.779	101.69
450	82.69
450.221	75.69
450.442	83.69
450.662	95.69
450.883	66.69
451.104	85.69
451.324	84.69
451.545	82.69
451.766	82.69
451.986	81.69
452.207	74.69
452.428	103.69
452.648	74.69
452.869	95.69
453.089	93.69
453.31	89.69
453.53	92.69
453.751	81.69
453.971	80.69
454.192	76.69
454.412	88.69
454.633	74.69
454.853	84.69
455.073	74.69
455.294	75.69
455.514	89.69
455.734	79.69
455.955	85.69
456.175	85.69
456.395	85.69
456.616	80.69
456.836	74.69
457.056	81.69
457.276	90.69
457.497	77.69
457.717	96.69
457.937	123.69
458.157	149.69
458.377	151.69
458.598	150.69
458.818	166.69
459.038	122.69
459.258	88.69
459.478	91.69
459.698	85.69
459.918	84.69
460.138	77.69
460.358	102.69
460.578	91.69
460.798	118.69
461.018	117.69
461.238	93.69
461.458	92.69
461.678	96.69
461.898	82.69
462.118	81.69
462.338	86.69
462.558	75.69
462.777	80.69
462.997	90.69
463.217	81.69
463.437	65.69
463.657	83.69
463.876	86.69
464.096	92.69
464.316	84.69
464.536	86.69
464.755	92.69
464.975	78.69
465.195	76.69
465.414	71.69
465.634	88.69
465.854	76.69
466.073	88.69
466.293	92.69
466.512	75.69
466.732	75.69
466.951	76.69
467.171	71.69
467.391	84.69
467.61	84.69
467.829	86.69
468.049	93.69
468.268	80.69
468.488	84.69
468.707	92.69
468.927	88.69
469.146	81.69
469.365	94.69
469.585	101.69
469.804	88.69
470.023	68.69
470.243	80.69
470.462	81.69
470.681	83.69
470.901	77.69
471.12	88.69
471.339	94.69
471.558	84.69
471.777	92.69
471.997	89.69
472.216	94.69
472.435	88.69
472.654	78.69
472.873	93.69
473.092	90.69
473.311	88.69
473.53	83.69
473.749	99.69
473.968	77.69
474.187	82.69
474.406	75.69
474.625	80.69
474.844	92.69
475.063	98.69
475.282	90.69
475.501	76.69
475.72	87.69
475.939	76.69
476.158	87.69
476.377	75.69
476.596	87.69
476.814	94.69
477.033	74.69
477.252	81.69
477.471	82.69
477.69	82.69
477.908	91.69
478.127	87.69
478.346	86.69
478.564	95.69
478.783	88.69
479.002	81.69
479.22	75.69
479.439	83.69
479.658	83.69
479.876	83.69
480.095	91.69
480.313	83.69
480.532	82.69
480.751	96.69
480.969	70.69
481.188	92.69
481.406	82.69
481.624	77.69
481.843	102.69
482.061	94.69
482.28	83.69
482.498	92.69
482.717	76.69
482.935	65.69
483.153	87.69
483.372	98.69
483.59	92.69
483.808	85.69
484.027	83.69
484.245	100.69
484.463	89.69
484.681	98.69
484.9	76.69
485.118	91.69
485.336	91.69
485.554	76.69
485.772	83.69
485.99	91.69
486.209	94.69
486.427	89.69
486.645	90.69
486.863	76.69
487.081	97.69
487.299	81.69
487.517	86.69
487.735	133.69
487.953	230.69
488.171	212.69
488.389	103.69
488.607	91.69
488.825	88.69
489.043	82.69
489.261	89.69
489.479	82.69
489.696	86.69
489.914	92.69
490.132	89.69
490.35	94.69
490.568	98.69
490.786	102.69
491.003	100.69
491.221	82.69
491.439	76.69
491.657	81.69
491.874	86.69
492.092	84.69
492.31	101.69
492.527	88.69
492.745	87.69
492.963	88.69
493.18	87.69
493.398	80.69
493.615	90.69
493.833	94.69
494.05	92.69
494.268	103.69
494.485	95.69
494.703	91.69
494.92	91.69
495.138	87.69
495.355	83.69
495.573	86.69
495.79	86.69
496.008	87.69
496.225	86.69
496.442	82.69
496.66	77.69
496.877	93.69
497.094	91.69
497.312	92.69
497.529	88.69
497.746	88.69
497.963	95.69
498.181	89.69
498.398	92.69
498.615	96.69
498.832	92.69
499.049	73.69
499.267	94.69
499.484	80.69
499.701	92.69
499.918	79.69
500.135	104.69
500.352	72.69
500.569	90.69
500.786	100.69
501.003	91.69
501.22	104.69
501.437	100.69
501.654	88.69
501.871	84.69
502.088	91.69
502.305	94.69
502.522	94.69
502.739	96.69
502.956	95.69
503.172	97.69
503.389	87.69
503.606	90.69
503.823	97.69
504.04	117.69
504.256	154.69
504.473	168.69
504.69	117.69
504.907	102.69
505.123	97.69
505.34	88.69
505.557	106.69
505.773	87.69
505.99	84.69
506.207	81.69
506.423	102.69
506.64	83.69
506.856	88.69
507.073	91.69
507.289	100.69
507.506	78.69
507.722	87.69
507.939	85.69
508.155	86.69
508.372	92.69
508.588	101.69
508.805	88.69
509.021	76.69
509.238	86.69
509.454	102.69
509.67	87.69
509.887	89.69
510.103	101.69
510.319	83.69
510.536	86.69
510.752	90.69
510.968	86.69
511.184	82.69
511.401	103.69
511.617	97.69
511.833	82.69
512.049	71.69
512.265	92.69
512.481	71.69
512.698	81.69
512.914	103.69
513.13	80.69
513.346	89.69
513.562	99.69
513.778	87.69
513.994	86.69
514.21	90.69
514.426	88.69
514.642	88.69
514.858	84.69
515.074	87.69
515.29	98.69
515.506	100.69
515.721	82.69
515.937	88.69
516.153	88.69
516.369	80.69
516.585	76.69
516.801	95.69
517.016	113.69
517.232	100.69
517.448	102.69
517.664	97.69
517.879	94.69
