Data from 2145_2_HRD10591_00031.txt Node
Date: Mon Jan 19 14:22:17 EST 2026
User: Yrep
Spectrometer: HR+D1059
Trigger mode: 1
Integration Time (sec): 1.000000E-1
Scans to average: 1
Electric dark correction enabled: true
Nonlinearity correction enabled: false
Boxcar width: 0
XAxis mode: Wavelengths
Number of Pixels in Spectrum: 2048
>>>>>Begin Spectral Data<<<<<
223.165	-20.06
223.4	-20.06
223.635	-20.06
223.869	-18.06
224.104	-18.06
224.338	-21.06
224.573	-9.06
224.808	-9.06
225.042	7.94
225.277	-2.06
225.511	-6.06
225.746	-3.06
225.98	-1.06
226.215	6.94
226.449	12.94
226.683	22.94
226.918	20.94
227.152	35.94
227.387	28.94
227.621	39.94
227.856	44.94
228.09	48.94
228.324	52.94
228.559	49.94
228.793	59.94
229.027	65.94
229.262	73.94
229.496	57.94
229.73	64.94
229.964	74.94
230.199	69.94
230.433	90.94
230.667	82.94
230.901	79.94
231.136	91.94
231.37	88.94
231.604	88.94
231.838	81.94
232.072	93.94
232.306	77.94
232.541	85.94
232.775	87.94
233.009	78.94
233.243	84.94
233.477	97.94
233.711	86.94
233.945	78.94
234.179	75.94
234.413	82.94
234.647	82.94
234.881	98.94
235.115	84.94
235.349	70.94
235.583	67.94
235.817	78.94
236.051	82.94
236.285	83.94
236.519	74.94
236.753	84.94
236.987	77.94
237.221	76.94
237.455	76.94
237.689	76.94
237.922	68.94
238.156	83.94
238.39	71.94
238.624	74.94
238.858	76.94
239.091	78.94
239.325	77.94
239.559	84.94
239.793	84.94
240.027	64.94
240.26	88.94
240.494	79.94
240.728	75.94
240.961	73.94
241.195	77.94
241.429	68.94
241.662	84.94
241.896	68.94
242.13	72.94
242.363	76.94
242.597	88.94
242.83	76.94
243.064	74.94
243.298	68.94
243.531	65.94
243.765	69.94
243.998	88.94
244.232	58.94
244.465	84.94
244.699	64.94
244.932	64.94
245.166	79.94
245.399	79.94
245.633	79.94
245.866	84.94
246.099	96.94
246.333	74.94
246.566	78.94
246.8	79.94
247.033	76.94
247.266	88.94
247.5	83.94
247.733	89.94
247.966	84.94
248.2	87.94
248.433	91.94
248.666	70.94
248.899	65.94
249.133	94.94
249.366	94.94
249.599	84.94
249.832	77.94
250.066	82.94
250.299	80.94
250.532	73.94
250.765	75.94
250.998	63.94
251.231	77.94
251.465	81.94
251.698	77.94
251.931	79.94
252.164	78.94
252.397	73.94
252.63	91.94
252.863	83.94
253.096	89.94
253.329	82.94
253.562	79.94
253.795	77.94
254.028	67.94
254.261	68.94
254.494	76.94
254.727	92.94
254.96	89.94
255.193	71.94
255.426	78.94
255.659	79.94
255.892	86.94
256.124	68.94
256.357	91.94
256.59	69.94
256.823	67.94
257.056	86.94
257.289	79.94
257.521	81.94
257.754	84.94
257.987	68.94
258.22	94.94
258.452	78.94
258.685	78.94
258.918	96.94
259.151	86.94
259.383	87.94
259.616	76.94
259.849	79.94
260.081	73.94
260.314	88.94
260.547	86.94
260.779	84.94
261.012	82.94
261.244	80.94
261.477	80.94
261.71	82.94
261.942	87.94
262.175	88.94
262.407	77.94
262.64	79.94
262.872	74.94
263.105	72.94
263.337	83.94
263.57	65.94
263.802	82.94
264.035	82.94
264.267	88.94
264.499	88.94
264.732	80.94
264.964	87.94
265.197	85.94
265.429	73.94
265.661	74.94
265.894	77.94
266.126	87.94
266.358	84.94
266.591	82.94
266.823	93.94
267.055	79.94
267.287	86.94
267.52	86.94
267.752	71.94
267.984	86.94
268.216	67.94
268.448	87.94
268.681	90.94
268.913	77.94
269.145	90.94
269.377	96.94
269.609	88.94
269.841	85.94
270.073	90.94
270.306	89.94
270.538	87.94
270.77	70.94
271.002	85.94
271.234	90.94
271.466	77.94
271.698	79.94
271.93	79.94
272.162	79.94
272.394	89.94
272.626	74.94
272.858	83.94
273.09	86.94
273.322	93.94
273.553	86.94
273.785	88.94
274.017	92.94
274.249	91.94
274.481	77.94
274.713	74.94
274.945	73.94
275.176	88.94
275.408	81.94
275.64	81.94
275.872	91.94
276.104	79.94
276.335	85.94
276.567	66.94
276.799	73.94
277.031	75.94
277.262	101.94
277.494	82.94
277.726	92.94
277.957	71.94
278.189	86.94
278.421	84.94
278.652	85.94
278.884	85.94
279.115	74.94
279.347	68.94
279.579	84.94
279.81	86.94
280.042	86.94
280.273	81.94
280.505	88.94
280.736	74.94
280.968	83.94
281.199	84.94
281.431	77.94
281.662	65.94
281.894	98.94
282.125	69.94
282.356	71.94
282.588	86.94
282.819	78.94
283.051	77.94
283.282	73.94
283.513	78.94
283.745	87.94
283.976	70.94
284.207	74.94
284.439	94.94
284.67	95.94
284.901	82.94
285.132	74.94
285.364	96.94
285.595	65.94
285.826	86.94
286.057	98.94
286.288	83.94
286.52	104.94
286.751	82.94
286.982	85.94
287.213	85.94
287.444	73.94
287.675	86.94
287.906	82.94
288.138	77.94
288.369	84.94
288.6	88.94
288.831	92.94
289.062	86.94
289.293	79.94
289.524	72.94
289.755	69.94
289.986	84.94
290.217	84.94
290.448	84.94
290.679	98.94
290.91	86.94
291.141	76.94
291.371	97.94
291.602	95.94
291.833	78.94
292.064	84.94
292.295	77.94
292.526	102.94
292.757	85.94
292.987	84.94
293.218	87.94
293.449	79.94
293.68	69.94
293.91	73.94
294.141	105.94
294.372	80.94
294.603	80.94
294.833	86.94
295.064	86.94
295.295	77.94
295.525	72.94
295.756	89.94
295.987	86.94
296.217	79.94
296.448	91.94
296.679	90.94
296.909	104.94
297.14	78.94
297.37	90.94
297.601	96.94
297.831	92.94
298.062	81.94
298.292	93.94
298.523	74.94
298.753	82.94
298.984	98.94
299.214	84.94
299.445	76.94
299.675	93.94
299.905	88.94
300.136	64.94
300.366	91.94
300.597	88.94
300.827	84.94
301.057	81.94
301.288	96.94
301.518	101.94
301.748	95.94
301.979	98.94
302.209	78.94
302.439	76.94
302.669	79.94
302.9	86.94
303.13	95.94
303.36	76.94
303.59	80.94
303.82	83.94
304.051	89.94
304.281	98.94
304.511	104.94
304.741	84.94
304.971	82.94
305.201	91.94
305.431	82.94
305.661	85.94
305.891	98.94
306.121	87.94
306.352	84.94
306.582	91.94
306.812	89.94
307.042	95.94
307.272	92.94
307.502	84.94
307.731	104.94
307.961	82.94
308.191	92.94
308.421	92.94
308.651	84.94
308.881	91.94
309.111	87.94
309.341	100.94
309.571	90.94
309.8	72.94
310.03	90.94
310.26	88.94
310.49	85.94
310.72	88.94
310.949	102.94
311.179	82.94
311.409	75.94
311.639	75.94
311.868	85.94
312.098	86.94
312.328	89.94
312.557	84.94
312.787	80.94
313.017	84.94
313.246	87.94
313.476	66.94
313.706	86.94
313.935	82.94
314.165	69.94
314.394	87.94
314.624	91.94
314.853	87.94
315.083	81.94
315.312	78.94
315.542	79.94
315.771	77.94
316.001	87.94
316.23	98.94
316.46	83.94
316.689	79.94
316.919	93.94
317.148	71.94
317.377	85.94
317.607	94.94
317.836	82.94
318.065	81.94
318.295	72.94
318.524	75.94
318.753	81.94
318.983	90.94
319.212	93.94
319.441	79.94
319.67	84.94
319.9	94.94
320.129	97.94
320.358	92.94
320.587	84.94
320.816	91.94
321.046	92.94
321.275	81.94
321.504	104.94
321.733	82.94
321.962	93.94
322.191	99.94
322.42	90.94
322.649	90.94
322.878	101.94
323.108	96.94
323.337	92.94
323.566	92.94
323.795	84.94
324.024	94.94
324.253	91.94
324.482	89.94
324.71	98.94
324.939	91.94
325.168	88.94
325.397	84.94
325.626	75.94
325.855	76.94
326.084	88.94
326.313	99.94
326.542	84.94
326.77	77.94
326.999	91.94
327.228	90.94
327.457	87.94
327.686	88.94
327.914	71.94
328.143	82.94
328.372	80.94
328.6	86.94
328.829	81.94
329.058	96.94
329.287	88.94
329.515	97.94
329.744	75.94
329.972	87.94
330.201	96.94
330.43	90.94
330.658	100.94
330.887	85.94
331.115	100.94
331.344	96.94
331.572	94.94
331.801	74.94
332.03	76.94
332.258	88.94
332.486	91.94
332.715	84.94
332.943	100.94
333.172	87.94
333.4	83.94
333.629	85.94
333.857	80.94
334.085	94.94
334.314	91.94
334.542	86.94
334.771	75.94
334.999	80.94
335.227	89.94
335.455	84.94
335.684	80.94
335.912	93.94
336.14	101.94
336.369	88.94
336.597	90.94
336.825	88.94
337.053	83.94
337.281	80.94
337.51	93.94
337.738	84.94
337.966	86.94
338.194	99.94
338.422	79.94
338.65	90.94
338.878	84.94
339.106	78.94
339.334	92.94
339.562	77.94
339.79	90.94
340.018	81.94
340.246	71.94
340.474	85.94
340.702	98.94
340.93	75.94
341.158	75.94
341.386	66.94
341.614	65.94
341.842	86.94
342.07	84.94
342.298	85.94
342.526	82.94
342.754	102.94
342.981	90.94
343.209	93.94
343.437	99.94
343.665	81.94
343.893	99.94
344.12	97.94
344.348	97.94
344.576	75.94
344.804	88.94
345.031	76.94
345.259	100.94
345.487	94.94
345.714	86.94
345.942	86.94
346.17	82.94
346.397	85.94
346.625	76.94
346.853	90.94
347.08	88.94
347.308	92.94
347.535	92.94
347.763	93.94
347.99	88.94
348.218	68.94
348.445	84.94
348.673	79.94
348.9	84.94
349.128	101.94
349.355	88.94
349.583	71.94
349.81	74.94
350.037	91.94
350.265	100.94
350.492	94.94
350.72	95.94
350.947	78.94
351.174	89.94
351.402	83.94
351.629	82.94
351.856	95.94
352.083	82.94
352.311	65.94
352.538	74.94
352.765	91.94
352.992	77.94
353.22	85.94
353.447	95.94
353.674	86.94
353.901	77.94
354.128	82.94
354.355	97.94
354.583	77.94
354.81	99.94
355.037	84.94
355.264	99.94
355.491	99.94
355.718	76.94
355.945	72.94
356.172	80.94
356.399	74.94
356.626	75.94
356.853	89.94
357.08	83.94
357.307	81.94
357.534	82.94
357.761	78.94
357.988	76.94
358.215	89.94
358.441	86.94
358.668	96.94
358.895	86.94
359.122	70.94
359.349	94.94
359.576	92.94
359.802	88.94
360.029	86.94
360.256	94.94
360.483	79.94
360.709	89.94
360.936	77.94
361.163	102.94
361.39	92.94
361.616	90.94
361.843	97.94
362.07	99.94
362.296	102.94
362.523	89.94
362.749	89.94
362.976	109.94
363.203	91.94
363.429	100.94
363.656	102.94
363.882	96.94
364.109	91.94
364.335	125.94
364.562	112.94
364.788	107.94
365.015	96.94
365.241	87.94
365.468	78.94
365.694	95.94
365.92	66.94
366.147	98.94
366.373	90.94
366.599	90.94
366.826	81.94
367.052	87.94
367.278	85.94
367.505	79.94
367.731	83.94
367.957	82.94
368.184	101.94
368.41	80.94
368.636	89.94
368.862	108.94
369.089	98.94
369.315	89.94
369.541	99.94
369.767	72.94
369.993	79.94
370.219	83.94
370.445	92.94
370.672	86.94
370.898	94.94
371.124	78.94
371.35	81.94
371.576	90.94
371.802	92.94
372.028	91.94
372.254	87.94
372.48	88.94
372.706	72.94
372.932	76.94
373.158	74.94
373.384	81.94
373.61	104.94
373.835	96.94
374.061	87.94
374.287	85.94
374.513	85.94
374.739	91.94
374.965	93.94
375.191	90.94
375.416	85.94
375.642	94.94
375.868	87.94
376.094	81.94
376.319	93.94
376.545	68.94
376.771	60.94
376.997	77.94
377.222	89.94
377.448	93.94
377.674	91.94
377.899	85.94
378.125	92.94
378.35	86.94
378.576	78.94
378.802	90.94
379.027	77.94
379.253	90.94
379.478	75.94
379.704	95.94
379.929	83.94
380.155	82.94
380.38	68.94
380.606	83.94
380.831	89.94
381.057	88.94
381.282	82.94
381.507	85.94
381.733	95.94
381.958	88.94
382.184	87.94
382.409	89.94
382.634	91.94
382.86	95.94
383.085	88.94
383.31	78.94
383.535	90.94
383.761	99.94
383.986	88.94
384.211	86.94
384.436	88.94
384.662	74.94
384.887	102.94
385.112	88.94
385.337	93.94
385.562	94.94
385.787	95.94
386.013	80.94
386.238	77.94
386.463	94.94
386.688	97.94
386.913	88.94
387.138	72.94
387.363	80.94
387.588	79.94
387.813	94.94
388.038	94.94
388.263	89.94
388.488	113.94
388.713	76.94
388.938	88.94
389.163	100.94
389.387	89.94
389.612	98.94
389.837	81.94
390.062	79.94
390.287	89.94
390.512	86.94
390.736	82.94
390.961	83.94
391.186	97.94
391.411	104.94
391.636	86.94
391.86	110.94
392.085	92.94
392.31	79.94
392.534	78.94
392.759	86.94
392.984	110.94
393.208	155.94
393.433	193.94
393.658	161.94
393.882	110.94
394.107	97.94
394.331	110.94
394.556	115.94
394.78	103.94
395.005	98.94
395.229	76.94
395.454	91.94
395.678	102.94
395.903	112.94
396.127	142.94
396.352	104.94
396.576	120.94
396.801	136.94
397.025	163.94
397.249	122.94
397.474	106.94
397.698	100.94
397.922	107.94
398.147	85.94
398.371	91.94
398.595	90.94
398.82	90.94
399.044	89.94
399.268	78.94
399.492	78.94
399.717	77.94
399.941	88.94
400.165	86.94
400.389	94.94
400.613	96.94
400.837	90.94
401.062	93.94
401.286	85.94
401.51	77.94
401.734	77.94
401.958	67.94
402.182	92.94
402.406	88.94
402.63	84.94
402.854	90.94
403.078	80.94
403.302	94.94
403.526	82.94
403.75	88.94
403.974	73.94
404.198	98.94
404.422	98.94
404.645	107.94
404.869	105.94
405.093	91.94
405.317	83.94
405.541	88.94
405.765	84.94
405.988	68.94
406.212	81.94
406.436	94.94
406.66	91.94
406.883	79.94
407.107	88.94
407.331	90.94
407.555	68.94
407.778	98.94
408.002	95.94
408.226	72.94
408.449	94.94
408.673	76.94
408.896	82.94
409.12	90.94
409.344	88.94
409.567	86.94
409.791	101.94
410.014	98.94
410.238	82.94
410.461	92.94
410.685	94.94
410.908	90.94
411.132	89.94
411.355	64.94
411.578	85.94
411.802	88.94
412.025	74.94
412.249	88.94
412.472	107.94
412.695	82.94
412.919	87.94
413.142	91.94
413.365	82.94
413.589	79.94
413.812	84.94
414.035	86.94
414.258	90.94
414.482	82.94
414.705	88.94
414.928	78.94
415.151	94.94
415.374	79.94
415.597	85.94
415.821	77.94
416.044	86.94
416.267	91.94
416.49	74.94
416.713	64.94
416.936	81.94
417.159	89.94
417.382	84.94
417.605	72.94
417.828	100.94
418.051	93.94
418.274	80.94
418.497	79.94
418.72	79.94
418.943	79.94
419.166	74.94
419.389	84.94
419.611	82.94
419.834	86.94
420.057	97.94
420.28	93.94
420.503	82.94
420.726	99.94
420.948	83.94
421.171	87.94
421.394	100.94
421.617	111.94
421.839	115.94
422.062	97.94
422.285	165.94
422.507	220.94
422.73	277.94
422.953	254.94
423.175	196.94
423.398	133.94
423.621	102.94
423.843	94.94
424.066	104.94
424.288	94.94
424.511	78.94
424.733	83.94
424.956	92.94
425.178	91.94
425.401	90.94
425.623	87.94
425.846	79.94
426.068	89.94
426.291	74.94
426.513	80.94
426.735	88.94
426.958	80.94
427.18	82.94
427.402	83.94
427.625	92.94
427.847	89.94
428.069	78.94
428.292	106.94
428.514	120.94
428.736	112.94
428.958	109.94
429.181	119.94
429.403	100.94
429.625	90.94
429.847	106.94
430.069	120.94
430.292	149.94
430.514	137.94
430.736	108.94
430.958	128.94
431.18	85.94
431.402	78.94
431.624	86.94
431.846	121.94
432.068	118.94
432.29	96.94
432.512	88.94
432.734	76.94
432.956	98.94
433.178	93.94
433.4	96.94
433.622	100.94
433.844	88.94
434.066	76.94
434.287	92.94
434.509	84.94
434.731	90.94
434.953	88.94
435.175	75.94
435.397	84.94
435.618	82.94
435.84	78.94
436.062	84.94
436.284	92.94
436.505	87.94
436.727	77.94
436.949	85.94
437.17	84.94
437.392	103.94
437.614	87.94
437.835	81.94
438.057	90.94
438.278	90.94
438.5	89.94
438.721	89.94
438.943	97.94
439.165	90.94
439.386	76.94
439.608	82.94
439.829	89.94
440.05	83.94
440.272	67.94
440.493	87.94
440.715	81.94
440.936	79.94
441.158	79.94
441.379	81.94
441.6	88.94
441.822	87.94
442.043	92.94
442.264	100.94
442.486	127.94
442.707	142.94
442.928	114.94
443.149	101.94
443.371	148.94
443.592	196.94
443.813	174.94
444.034	94.94
444.255	91.94
444.476	98.94
444.698	97.94
444.919	97.94
445.14	192.94
445.361	175.94
445.582	224.94
445.803	206.94
446.024	127.94
446.245	88.94
446.466	84.94
446.687	77.94
446.908	79.94
447.129	86.94
447.35	83.94
447.571	87.94
447.792	84.94
448.013	76.94
448.234	78.94
448.455	90.94
448.675	90.94
448.896	85.94
449.117	79.94
449.338	96.94
449.559	85.94
449.779	80.94
450	78.94
450.221	88.94
450.442	87.94
450.662	84.94
450.883	90.94
451.104	70.94
451.324	70.94
451.545	85.94
451.766	80.94
451.986	82.94
452.207	70.94
452.428	83.94
452.648	88.94
452.869	98.94
453.089	102.94
453.31	89.94
453.53	81.94
453.751	86.94
453.971	90.94
454.192	74.94
454.412	99.94
454.633	97.94
454.853	70.94
455.073	81.94
455.294	70.94
455.514	77.94
455.734	89.94
455.955	102.94
456.175	79.94
456.395	75.94
456.616	86.94
456.836	78.94
457.056	85.94
457.276	85.94
457.497	85.94
457.717	79.94
457.937	109.94
458.157	118.94
458.377	120.94
458.598	111.94
458.818	121.94
459.038	95.94
459.258	99.94
459.478	91.94
459.698	88.94
459.918	89.94
460.138	84.94
460.358	88.94
460.578	88.94
460.798	114.94
461.018	125.94
461.238	77.94
461.458	89.94
461.678	91.94
461.898	69.94
462.118	82.94
462.338	82.94
462.558	88.94
462.777	97.94
462.997	86.94
463.217	87.94
463.437	90.94
463.657	90.94
463.876	81.94
464.096	87.94
464.316	96.94
464.536	79.94
464.755	71.94
464.975	98.94
465.195	86.94
465.414	78.94
465.634	86.94
465.854	81.94
466.073	94.94
466.293	91.94
466.512	89.94
466.732	85.94
466.951	84.94
467.171	85.94
467.391	84.94
467.61	79.94
467.829	82.94
468.049	74.94
468.268	92.94
468.488	79.94
468.707	92.94
468.927	86.94
469.146	96.94
469.365	86.94
469.585	84.94
469.804	104.94
470.023	84.94
470.243	86.94
470.462	89.94
470.681	92.94
470.901	72.94
471.12	74.94
471.339	67.94
471.558	100.94
471.777	82.94
471.997	92.94
472.216	69.94
472.435	94.94
472.654	73.94
472.873	86.94
473.092	86.94
473.311	89.94
473.53	90.94
473.749	96.94
473.968	94.94
474.187	86.94
474.406	84.94
474.625	93.94
474.844	82.94
475.063	99.94
475.282	106.94
475.501	78.94
475.72	87.94
475.939	76.94
476.158	91.94
476.377	78.94
476.596	77.94
476.814	87.94
477.033	78.94
477.252	80.94
477.471	83.94
477.69	90.94
477.908	96.94
478.127	83.94
478.346	76.94
478.564	84.94
478.783	86.94
479.002	89.94
479.22	85.94
479.439	101.94
479.658	88.94
479.876	72.94
480.095	83.94
480.313	89.94
480.532	85.94
480.751	80.94
480.969	93.94
481.188	90.94
481.406	86.94
481.624	88.94
481.843	89.94
482.061	83.94
482.28	73.94
482.498	79.94
482.717	90.94
482.935	96.94
483.153	83.94
483.372	102.94
483.59	82.94
483.808	99.94
484.027	86.94
484.245	88.94
484.463	84.94
484.681	81.94
484.9	88.94
485.118	81.94
485.336	79.94
485.554	82.94
485.772	99.94
485.99	98.94
486.209	94.94
486.427	67.94
486.645	96.94
486.863	89.94
487.081	88.94
487.299	87.94
487.517	99.94
487.735	94.94
487.953	167.94
488.171	151.94
488.389	106.94
488.607	79.94
488.825	81.94
489.043	89.94
489.261	101.94
489.479	108.94
489.696	86.94
489.914	89.94
490.132	90.94
490.35	86.94
490.568	79.94
490.786	88.94
491.003	97.94
491.221	99.94
491.439	92.94
491.657	82.94
491.874	87.94
492.092	90.94
492.31	89.94
492.527	75.94
492.745	87.94
492.963	92.94
493.18	96.94
493.398	85.94
493.615	85.94
493.833	86.94
494.05	92.94
494.268	97.94
494.485	96.94
494.703	98.94
494.92	99.94
495.138	100.94
495.355	85.94
495.573	82.94
495.79	89.94
496.008	92.94
496.225	98.94
496.442	102.94
496.66	98.94
496.877	83.94
497.094	94.94
497.312	92.94
497.529	98.94
497.746	98.94
497.963	92.94
498.181	84.94
498.398	96.94
498.615	96.94
498.832	101.94
499.049	91.94
499.267	103.94
499.484	80.94
499.701	109.94
499.918	101.94
500.135	87.94
500.352	83.94
500.569	82.94
500.786	102.94
501.003	113.94
501.22	91.94
501.437	84.94
501.654	91.94
501.871	107.94
502.088	81.94
502.305	93.94
502.522	76.94
502.739	96.94
502.956	96.94
503.172	78.94
503.389	83.94
503.606	85.94
503.823	95.94
504.04	96.94
504.256	127.94
504.473	109.94
504.69	94.94
504.907	79.94
505.123	98.94
505.34	84.94
505.557	78.94
505.773	98.94
505.99	91.94
506.207	88.94
506.423	83.94
506.64	79.94
506.856	94.94
507.073	82.94
507.289	78.94
507.506	87.94
507.722	100.94
507.939	84.94
508.155	98.94
508.372	88.94
508.588	74.94
508.805	85.94
509.021	102.94
509.238	105.94
509.454	90.94
509.67	74.94
509.887	86.94
510.103	93.94
510.319	84.94
510.536	80.94
510.752	90.94
510.968	82.94
511.184	96.94
511.401	91.94
511.617	84.94
511.833	87.94
512.049	84.94
512.265	81.94
512.481	92.94
512.698	82.94
512.914	77.94
513.13	90.94
513.346	87.94
513.562	86.94
513.778	93.94
513.994	84.94
514.21	87.94
514.426	91.94
514.642	69.94
514.858	82.94
515.074	89.94
515.29	94.94
515.506	98.94
515.721	82.94
515.937	97.94
516.153	83.94
516.369	77.94
516.585	84.94
516.801	84.94
517.016	95.94
517.232	106.94
517.448	96.94
517.664	92.94
517.879	79.94
518.095	94.94
518.311	101.94
